,AF3,AF4,Fp1,Fp2,AF7,AF8
0,-0.0783811137080193,-0.00502193253487349,-0.000787194061558694,-0.00699126627296209,-0.0422805584967136,0.0152004072442651
1,-0.0600470677018166,0.00296720513142645,0.020936906337738,0.0158132445067167,-0.0310760401189327,0.03064807318151
2,-0.0385819151997566,-0.00861746445298195,0.0151960896328092,0.0129271280020475,-0.0263714473694563,0.0269093159586191
3,-0.0289607364684343,-0.0339123234152794,-0.00950215756893158,-0.00947717111557722,-0.0262202508747578,0.013975827023387
4,-0.0400031618773937,-0.0643857941031456,-0.0470564886927605,-0.0448286049067974,-0.0320992134511471,-0.00997865851968527
5,-0.0643925368785858,-0.0992542207241058,-0.0961460471153259,-0.0887692868709564,-0.0502800978720188,-0.0576995015144348
6,-0.0813396126031876,-0.139354437589645,-0.14811646938324,-0.129937738180161,-0.0827587023377419,-0.119417369365692
7,-0.0811843052506447,-0.172165751457214,-0.177963718771935,-0.148185521364212,-0.115839540958405,-0.159687593579292
8,-0.0730244368314743,-0.176375925540924,-0.166268840432167,-0.13485860824585,-0.128474175930023,-0.15571753680706
9,-0.0697732716798782,-0.149203076958656,-0.129790261387825,-0.107158698141575,-0.119842432439327,-0.118296839296818
10,-0.0684380531311035,-0.108146637678146,-0.0985355600714684,-0.0840678066015244,-0.10538025945425,-0.0704023614525795
11,-0.0579283386468887,-0.0676684230566025,-0.0798835083842278,-0.065649226307869,-0.0940463617444038,-0.0294309034943581
12,-0.0408733524382114,-0.0374819152057171,-0.0670188292860985,-0.0485013015568256,-0.0870067030191422,-0.00752569595351815
13,-0.0282051246613264,-0.0257941074669361,-0.0533358864486218,-0.0357983782887459,-0.0812364667654037,-0.00285189202986658
14,-0.0302148964256048,-0.0348823331296444,-0.0390813872218132,-0.0320404693484306,-0.0764283835887909,-0.00596592715010047
15,-0.0432209819555283,-0.0496335104107857,-0.0210070833563805,-0.0264205820858479,-0.0676001980900764,-0.00507376994937658
16,-0.0492928363382816,-0.0488839671015739,0.00838606990873814,-0.00207254220731556,-0.0466050766408443,0.0122507503256202
17,-0.0419720709323883,-0.0316609777510166,0.041427843272686,0.0345463342964649,-0.0199384093284607,0.0434834845364094
18,-0.0263625495135784,-0.00691095599904656,0.0660891309380531,0.0675344541668892,0.00446594227105379,0.0777366757392883
19,-0.0104345846921206,0.0151745546609163,0.074324294924736,0.0861052200198174,0.023850554600358,0.104939796030521
20,-0.00212872610427439,0.0202417373657227,0.0574736073613167,0.0805327892303467,0.0338734872639179,0.11183974891901
21,0.00340023939497769,0.00538398092612624,0.0182288531213999,0.0533417798578739,0.0370886512100697,0.0912372022867203
22,0.0182413794100285,-0.0143882669508457,-0.0267366841435432,0.0197428464889526,0.0418383553624153,0.0524617061018944
23,0.0451495088636875,-0.0230119396001101,-0.0558188036084175,-0.00514666642993689,0.0516681931912899,0.0182671919465065
24,0.068705253303051,-0.0244788862764835,-0.0612171553075314,-0.020036805421114,0.0552242808043957,0.00083938630996272
25,0.0673378631472588,-0.0328411124646664,-0.0574584044516087,-0.0350356884300709,0.0336040407419205,-0.0100726438686252
26,0.0437040142714977,-0.0418693087995052,-0.0504144392907619,-0.0442292243242264,-0.00900845695286989,-0.0164507254958153
27,0.0143730891868472,-0.0364710502326488,-0.0325421243906021,-0.0339827537536621,-0.0470486059784889,-0.00827979296445847
28,-0.014595284126699,-0.0203486997634172,-0.0117228096351027,-0.0125685948878527,-0.0675792321562767,0.00921305920928717
29,-0.037131242454052,-0.0102262524887919,-0.00498360441997647,-7.19927193131298E-05,-0.0795253440737724,0.0208411403000355
30,-0.0452693775296211,-0.010695792734623,-0.0191587954759598,-0.00931903347373009,-0.0939906090497971,0.021228838711977
31,-0.0409401543438435,-0.00721192313358188,-0.0494842454791069,-0.0398928634822369,-0.107698857784271,0.0155853619799018
32,-0.0404187142848969,0.00126563070807606,-0.0871801599860191,-0.0810356512665749,-0.11411439627409,0.00327605381608009
33,-0.0557750724256039,-0.00367819820530713,-0.119053199887276,-0.115313448011875,-0.108903490006924,-0.0187778994441032
34,-0.0708383545279503,-0.0252034310251474,-0.127042457461357,-0.122154146432877,-0.0829939544200897,-0.0392628833651543
35,-0.0685877278447151,-0.0479889586567879,-0.103984422981739,-0.0955720469355583,-0.0356432721018791,-0.045123752206564
36,-0.0592667981982231,-0.0576450824737549,-0.0586872510612011,-0.0495684780180454,0.0165351331233978,-0.0349820628762245
37,-0.0532665885984898,-0.0507228896021843,-0.00674640852957964,-0.00107287080027163,0.0502927713096142,-0.00855443719774485
38,-0.0426266491413116,-0.0288188494741917,0.0413650535047054,0.0452025346457958,0.0617511682212353,0.0383790507912636
39,-0.0194200053811073,0.00382404285483062,0.0809522643685341,0.0892906039953232,0.0700707733631134,0.0941616892814636
40,0.00897970702499151,0.0293580815196037,0.100680388510227,0.116369269788265,0.0812100544571877,0.126555323600769
41,0.0277544520795345,0.0305490754544735,0.0912408456206322,0.108678124845028,0.0793106034398079,0.118130594491959
42,0.0373189859092236,0.017401460558176,0.0615695901215076,0.0741362795233727,0.0585945248603821,0.0837381780147552
43,0.0454918928444386,0.0113500319421291,0.0260884016752243,0.0341158844530582,0.0274694561958313,0.0453197471797466
44,0.0444698929786682,0.0154799418523908,-0.00773559231311083,-0.000901295454241335,-0.00810199230909348,0.0169231984764338
45,0.0367767587304115,0.026652779430151,-0.0283963922411203,-0.0210370179265738,-0.033946692943573,0.0103347515687346
46,0.0390375070273876,0.0425553992390633,-0.0283486321568489,-0.0185567680746317,-0.0363154225051403,0.0250875968486071
47,0.0433720201253891,0.0523152127861977,-0.0185279063880444,-0.00404343195259571,-0.0275581572204828,0.0443314090371132
48,0.030196426436305,0.048981036990881,-0.0109467580914497,0.00473671779036522,-0.0261195208877325,0.0518898479640484
49,8.27854091767222E-05,0.0314909145236015,-0.00751573499292135,-0.00149001530371606,-0.0303671471774578,0.0411040671169758
50,-0.0302781667560339,0.00439863791689277,-0.0074876556172967,-0.0198857430368662,-0.0284572280943394,0.0183462183922529
51,-0.0398982167243958,-0.0109199676662683,-0.00430352799594402,-0.0333319306373596,-0.0129692945629358,0.00454027066007257
52,-0.0215522795915604,-0.000206508892006241,0.0114250546321273,-0.0242862291634083,0.0147096896544099,0.0150078497827053
53,0.00295351352542639,0.0188253745436668,0.0334045588970184,0.00121836271136999,0.0408178642392159,0.0391689874231815
54,0.0112435165792704,0.0277026761323214,0.0462457612156868,0.0239031631499529,0.0500035919249058,0.0582143254578114
55,0.00557978637516499,0.0266324523836374,0.0433071590960026,0.0321958139538765,0.0384564436972141,0.0627292916178703
56,-0.00713462755084038,0.0145823564380407,0.025306785479188,0.0218546837568283,0.0126765752211213,0.0481701791286469
57,-0.0187099650502205,-0.00445771031081676,0.0026490231975913,0.00233133719302714,-0.00804738886654377,0.0240029376000166
58,-0.0132467215880752,-0.0146458027884364,-0.0119672287255526,-0.00943262502551079,-0.00879081338644028,0.00946361664682627
59,0.0085909441113472,-0.013241401873529,-0.018210070207715,-0.0115580810233951,-0.0021380577236414,0.00798089895397425
60,0.0273162145167589,-0.0122327739372849,-0.0204155016690493,-0.011183931492269,-0.00338423415087163,0.00985014531761408
61,0.0367838516831398,-0.014860044233501,-0.0226394776254892,-0.0102212270721793,-0.00543422484770417,0.00851662456989288
62,0.047615822404623,-0.0178248323500156,-0.034606795758009,-0.0143692689016461,-0.00204225652851164,0.000520933826919645
63,0.0598081424832344,-0.020808843895793,-0.0589993298053741,-0.0312756448984146,-0.00368638336658478,-0.013576814904809
64,0.0617630779743195,-0.0195868518203497,-0.0751418098807335,-0.0499987192451954,-0.0126119256019592,-0.0223246682435274
65,0.0461758002638817,-0.0110872918739915,-0.0615567117929459,-0.0505379028618336,-0.0171887390315533,-0.0136919533833861
66,0.0101887108758092,0.000387831998523325,-0.0271427612751722,-0.0336633026599884,-0.0165165644139051,0.00685881916433573
67,-0.0355483219027519,0.0148068573325872,0.00618550227954984,-0.0140748741105199,-0.0179148744791746,0.0277305338531733
68,-0.0633123591542244,0.0364774875342846,0.0341054238379002,0.00599821144714952,-0.0193519946187735,0.0521524026989937
69,-0.0656419694423676,0.0540496446192265,0.0533162504434586,0.0241610612720251,-0.0218197759240866,0.0810584500432014
70,-0.0654614567756653,0.0474854335188866,0.049379613250494,0.0257255490869284,-0.033395666629076,0.0962547287344933
71,-0.0731526166200638,0.0170452687889338,0.0233375895768404,0.00798612367361784,-0.0475594364106655,0.0846457928419113
72,-0.0814251825213432,-0.0219386331737041,-0.0143826706334949,-0.0222133044153452,-0.057591438293457,0.0482987351715565
73,-0.0844795927405357,-0.0513058267533779,-0.0567433834075928,-0.0591803826391697,-0.0700488686561584,-0.00159663788508624
74,-0.0741563215851784,-0.0553802140057087,-0.0851962938904762,-0.0857044458389282,-0.0807019025087357,-0.0404290333390236
75,-0.0469535663723946,-0.0400268547236919,-0.0851976126432419,-0.0848458036780357,-0.077893391251564,-0.0487913303077221
76,-0.00975610595196486,-0.0276943389326334,-0.0676033794879913,-0.0618981346487999,-0.0596068203449249,-0.0335803292691708
77,0.0297490395605564,-0.0302652716636658,-0.054469883441925,-0.0398751497268677,-0.0298047754913569,-0.0165362227708101
78,0.0604541748762131,-0.0422187745571136,-0.056983195245266,-0.0386555008590221,-0.00100591673981398,-0.0141669772565365
79,0.0716996118426323,-0.050365075469017,-0.0617238059639931,-0.0501276254653931,0.01642956584692,-0.0222417842596769
80,0.0663794130086899,-0.0464433133602142,-0.0465819500386715,-0.0464652255177498,0.0279473885893822,-0.0211351662874222
81,0.0536477454006672,-0.0352889560163021,-0.0133668920025229,-0.0194242186844349,0.0361647121608257,-0.00267326808534563
82,0.0367275923490524,-0.0260204058140516,0.0184473469853401,0.014343922957778,0.0342216491699219,0.0257156807929277
83,0.0184860769659281,-0.0156331975013018,0.0437446273863316,0.042948592454195,0.0280729923397303,0.0593222938477993
84,0.00245053344406188,0.00361160445027053,0.070788599550724,0.0673894211649895,0.034450888633728,0.0960696041584015
85,-0.0137990927323699,0.0279244091361761,0.0977565422654152,0.0863872542977333,0.0515615195035934,0.126060515642166
86,-0.0259028300642967,0.0518263094127178,0.120180130004883,0.100179992616177,0.062840424478054,0.143848329782486
87,-0.0277183800935745,0.0722808465361595,0.134617671370506,0.10880421847105,0.0594463013112545,0.152665287256241
88,-0.0303589291870594,0.0769763514399529,0.124304622411728,0.0978090912103653,0.0390378050506115,0.143546983599663
89,-0.0374044068157673,0.0566236525774002,0.0819331780076027,0.060982920229435,0.00841380842030048,0.106930993497372
90,-0.0332190468907356,0.0190424919128418,0.0250426903367043,0.0148814171552658,-0.0171891786158085,0.0588995181024075
91,-0.0171408746391535,-0.0216667465865612,-0.0289185531437397,-0.026834400370717,-0.0336232259869576,0.0209044180810452
92,-0.0019227855373174,-0.053119745105505,-0.0697629749774933,-0.0585683099925518,-0.0429676733911037,-0.00306935771368444
93,0.00355597957968712,-0.0707574412226677,-0.0945718362927437,-0.0785979107022285,-0.0456280037760735,-0.0199031867086887
94,-0.00675541069358587,-0.0754221826791763,-0.106788791716099,-0.0882165431976318,-0.0444320812821388,-0.0331288725137711
95,-0.0199743080884218,-0.0633153691887856,-0.0991804897785187,-0.0789719074964523,-0.0344784297049046,-0.0337898470461369
96,-0.019800029695034,-0.0450171120464802,-0.0739176049828529,-0.0536599569022655,-0.0171661209315062,-0.0193346478044987
97,-0.0178730245679617,-0.0433611497282982,-0.0570002570748329,-0.0390950292348862,-0.0133073190227151,-0.006423260550946
98,-0.0272894948720932,-0.054413128644228,-0.0556214116513729,-0.0424421057105064,-0.0284609496593475,-0.00332485465332866
99,-0.0399422273039818,-0.0574104934930801,-0.0520544983446598,-0.0447257459163666,-0.0425969734787941,-0.000162458411068656
100,-0.0439635366201401,-0.0444966815412045,-0.034363716840744,-0.0339351184666157,-0.0411414466798306,0.0140650281682611
101,-0.0366718508303165,-0.0218905489891768,-0.00135446689091623,-0.00930176302790642,-0.0260705724358559,0.0423388294875622
102,-0.0224028043448925,-0.00187975890003145,0.0406242087483406,0.0240770727396011,-0.00615556538105011,0.0760076195001602
103,-0.00279757613316178,0.00792349129915237,0.0791580528020859,0.0559919402003288,0.0144034754484892,0.100537769496441
104,0.0176817048341036,0.00542113231495023,0.0964305624365807,0.0714029893279076,0.0319335386157036,0.10453612357378
105,0.0300572067499161,-0.00559872994199395,0.0844764485955238,0.0640134438872337,0.0391583144664764,0.0889220908284187
106,0.0367159359157085,-0.0186766143888235,0.0571826994419098,0.0471257045865059,0.0383720919489861,0.0678962469100952
107,0.0455534048378468,-0.0342419072985649,0.0255908314138651,0.0300641339272261,0.0399020835757256,0.0501208603382111
108,0.0596345365047455,-0.0530159808695316,-0.0113927759230137,0.00815542880445719,0.0463711507618427,0.0340147279202938
109,0.0790009573101997,-0.0654007866978645,-0.046425323933363,-0.0164916627109051,0.0474387370049953,0.02128741517663
110,0.0983776152133942,-0.0548112466931343,-0.0671345144510269,-0.0324171483516693,0.0334764793515205,0.0195405390113592
111,0.104326389729977,-0.0153737301006913,-0.0742265731096268,-0.038432490080595,0.00707219680771232,0.0308244321495295
112,0.0837246254086494,0.0335413925349712,-0.0748002380132675,-0.0468751825392246,-0.0234720669686794,0.0424052216112614
113,0.0385595597326756,0.0625434368848801,-0.0674375966191292,-0.0607594773173332,-0.0466296784579754,0.0398025773465633
114,-0.00697698257863522,0.0654049217700958,-0.043174859136343,-0.0610847473144531,-0.0467020720243454,0.033253975212574
115,-0.0276997722685337,0.0569908209145069,-0.000141531694680452,-0.0318648219108582,-0.0232397429645061,0.0484789982438087
116,-0.0253022946417332,0.0464898683130741,0.0489574000239372,0.0171435698866844,0.00606816820800304,0.0868508964776993
117,-0.0114010572433472,0.0353557132184505,0.0903600379824638,0.0672524273395538,0.0327840149402618,0.12441772967577
118,0.0140562877058983,0.0263136848807335,0.118611454963684,0.108670771121979,0.0596555024385452,0.145535975694656
119,0.0451071485877037,0.0214967112988234,0.13142192363739,0.133122324943542,0.0863824412226677,0.150670230388641
120,0.0639011189341545,0.00793852470815182,0.120989449322224,0.126017093658447,0.103532820940018,0.134908199310303
121,0.0687305331230164,-0.0288772359490395,0.0831608846783638,0.0837590545415878,0.0990655869245529,0.093549519777298
122,0.0747251063585281,-0.0696134269237518,0.0373858064413071,0.0322011187672615,0.0767482742667198,0.0497596338391304
123,0.0843877643346787,-0.0770898535847664,0.0132242785766721,0.00590729713439941,0.0544406212866306,0.0387527756392956
124,0.0839870423078537,-0.0461368374526501,0.0147263035178185,0.00726459547877312,0.0397067554295063,0.0601469613611698
125,0.0645114034414291,-0.00674024503678083,0.0197118930518627,0.00821177009493113,0.0227182246744633,0.0790334939956665
126,0.0306439213454723,0.0192733202129602,0.0112246703356504,-0.00732669699937105,-0.00582601316273212,0.0723975002765656
127,-0.00246919738128781,0.0378645621240139,-0.0068588238209486,-0.0275606736540794,-0.0409831553697586,0.0466866008937359
128,-0.0179311595857143,0.0600485429167748,-0.0166693683713675,-0.0314521826803684,-0.0651282519102097,0.0244495589286089
129,-0.0121882800012827,0.0811136811971664,-0.00730638019740582,-0.0122115481644869,-0.0626266002655029,0.0236724615097046
130,0.00639191223308444,0.0897867381572723,0.0112332310527563,0.0148431016132236,-0.0360517203807831,0.0393390320241451
131,0.0262791775166988,0.0813785269856453,0.0229057017713785,0.0296196453273296,-0.00545077212154865,0.0516786575317383
132,0.040053702890873,0.0636748299002647,0.0247080344706774,0.0291083641350269,0.0156895462423563,0.0525859408080578
133,0.0495945885777473,0.0494948588311672,0.0224738884717226,0.024682704359293,0.0314414948225021,0.0469050370156765
134,0.0564356781542301,0.0402505919337273,0.0208407342433929,0.0241793692111969,0.0464668981730938,0.039579700678587
135,0.0538380742073059,0.0275079812854528,0.0203958116471767,0.02457544952631,0.05241484567523,0.030107919126749
136,0.034056194126606,0.00364806549623609,0.0151141984388232,0.0173598863184452,0.030897244811058,0.0115323374047875
137,0.00259927054867148,-0.0232132039964199,0.00537172239273787,0.00350728211924434,-0.015502130612731,-0.0114927412942052
138,-0.0206351149827242,-0.0336975604295731,0.00243323179893196,-0.00574357248842716,-0.0522962585091591,-0.0225000698119402
139,-0.0211078487336636,-0.0249020829796791,0.00637765927240252,-0.00815134588629007,-0.0576040111482143,-0.0189751777797937
140,-0.00551662826910615,-0.0119064012542367,0.00232728640548885,-0.0140969967469573,-0.0452033989131451,-0.0140492711216211
141,0.011816555634141,-0.00541351456195116,-0.0147710898891091,-0.0264517981559038,-0.0331311300396919,-0.0141559420153499
142,0.0223983600735664,-0.00395405339077115,-0.0324894897639751,-0.0371950417757034,-0.025735741481185,-0.0122917452827096
143,0.0241725388914347,0.00308039481751621,-0.0385157503187656,-0.0413359068334103,-0.0231752507388592,-0.00107354391366243
144,0.0203437469899654,0.0270048398524523,-0.0300599224865437,-0.0373523123562336,-0.024664793163538,0.020839823409915
145,0.014888140372932,0.0649316534399986,-0.00617373082786798,-0.0214979089796543,-0.0252325646579266,0.0524403303861618
146,0.0136191947385669,0.10072386264801,0.0291250627487898,0.00559901492670178,-0.0188529957085848,0.0886599645018578
147,0.0180986654013395,0.118592128157616,0.0526010915637016,0.0278326459228992,-0.0110022630542517,0.109769493341446
148,0.0170936603099108,0.109884709119797,0.0402499362826347,0.0262794196605682,-0.0149188106879592,0.0942125618457794
149,0.00275503448210657,0.0786312520503998,0.00130775710567832,0.0039671640843153,-0.0302327796816826,0.0490711741149426
150,-0.0178322326391935,0.0363848842680454,-0.0370336845517159,-0.0218133721500635,-0.0450655966997147,-0.00274745002388954
151,-0.0351397842168808,-0.0122536541894078,-0.0677556693553925,-0.0451118387281895,-0.0540758445858955,-0.051614087074995
152,-0.038313414901495,-0.0553993470966816,-0.088331513106823,-0.0606879778206348,-0.0510887540876865,-0.0850923135876656
153,-0.0258692167699337,-0.0708127170801163,-0.0874496847391129,-0.0600854679942131,-0.0336715877056122,-0.0897504165768623
154,-0.010290757752955,-0.0608208887279034,-0.0691668018698692,-0.0509015135467052,-0.0143577670678496,-0.0789648741483688
155,0.00561117194592953,-0.0468235425651073,-0.0438249111175537,-0.0396345742046833,-0.000639707257505506,-0.0681544318795204
156,0.0259778127074242,-0.0338881127536297,-0.0137914549559355,-0.0192024894058704,0.00865763332694769,-0.0493262596428394
157,0.0414605066180229,-0.0177116468548775,0.014745082706213,0.00786164123564959,0.0108535615727305,-0.021745877340436
158,0.0359254367649555,-0.00317202997393906,0.030853820964694,0.0235367380082607,0.00143528112675995,-0.00739198364317417
159,0.0107777696102858,0.00439162645488977,0.0294732805341482,0.0164047963917255,-0.0176782850176096,-0.0173203162848949
160,-0.0183412805199623,0.00342376274056733,0.0127336317673326,-0.00820730999112129,-0.0406755618751049,-0.0385032705962658
161,-0.0403588376939297,-0.00254685338586569,-0.011146392673254,-0.0335924401879311,-0.06086365878582,-0.0521715022623539
162,-0.0512211918830872,-0.000187800731509924,-0.0276269055902958,-0.0427679978311062,-0.067855142056942,-0.0465353764593601
163,-0.0548492558300495,0.0114753404632211,-0.0338604785501957,-0.0399206764996052,-0.0610685460269451,-0.0284664556384087
164,-0.0545467808842659,0.0139775611460209,-0.0477577447891235,-0.0460930392146111,-0.0544195026159287,-0.0153374951332808
165,-0.0494251288473606,-0.00296257855370641,-0.0844370275735855,-0.0714220777153969,-0.0609997250139713,-0.0184619035571814
166,-0.0437257066369057,-0.0250140372663736,-0.128021866083145,-0.101381994783878,-0.0769964307546616,-0.0387786999344826
167,-0.043178353458643,-0.0338939912617207,-0.147050455212593,-0.113890841603279,-0.0875445976853371,-0.0659007579088211
168,-0.0497013814747334,-0.0376963838934898,-0.134619370102882,-0.104954823851585,-0.087044969201088,-0.0871461555361748
169,-0.0592135488986969,-0.0490945540368557,-0.0992870330810547,-0.0762539803981781,-0.0716348588466644,-0.0910363420844078
170,-0.0601034425199032,-0.0577948465943336,-0.0437381789088249,-0.0248329602181911,-0.0322115384042263,-0.0704965367913246
171,-0.0407634787261486,-0.0568134337663651,0.0173213295638561,0.0354461967945099,0.0251470785588026,-0.0359302200376987
172,-0.00860268343240023,-0.0611201077699661,0.0525387115776539,0.073834165930748,0.0736933276057243,-0.00986762531101704
173,0.0134220002219081,-0.0789280831813812,0.0481052659451962,0.0734332203865051,0.0911520570516586,-0.00368806580081582
174,0.0151453614234924,-0.0932650715112686,0.0189347341656685,0.0437746495008469,0.0756119340658188,-0.0143393157050014
175,0.00292589305900037,-0.0873115584254265,-0.0117085119709373,0.0078293913975358,0.0424853041768074,-0.0330482758581638
176,-0.0156544353812933,-0.0680596977472305,-0.0279578249901533,-0.0183442644774914,0.0129405073821545,-0.0511622875928879
177,-0.0365968160331249,-0.0501721575856209,-0.0297519937157631,-0.0344799347221851,-0.00479921838268638,-0.0646281540393829
178,-0.0542628020048141,-0.0344359688460827,-0.0264235287904739,-0.0425518117845058,-0.0174855049699545,-0.0676869079470634
179,-0.0640502497553825,-0.0192825142294168,-0.0282174982130528,-0.0443624444305897,-0.0321155413985252,-0.0568397343158722
180,-0.0663954690098763,-0.0102800447493792,-0.0413484312593937,-0.0468736663460732,-0.0485762059688568,-0.0405900105834007
181,-0.0597720667719841,-0.0100277159363031,-0.0641145259141922,-0.0552014485001564,-0.0615533031523228,-0.0334714502096176
182,-0.0350763760507107,-0.0125554455444217,-0.089083343744278,-0.0680793225765228,-0.0626204907894135,-0.0401851199567318
183,0.00487565714865923,-0.0146840298548341,-0.11324205249548,-0.0862359032034874,-0.0563565753400326,-0.0547639615833759
184,0.0283239129930735,-0.0250772647559643,-0.140926465392113,-0.113374099135399,-0.0657342076301575,-0.0659479051828384
185,0.0201547648757696,-0.0393629148602486,-0.15435579419136,-0.131314262747765,-0.0862302631139755,-0.0512774363160133
186,0.00400362629443407,-0.0409078001976013,-0.129222854971886,-0.116232365369797,-0.0837766379117966,-0.00970118306577206
187,-0.00949626509100199,-0.0407747142016888,-0.0869017615914345,-0.0842513591051102,-0.0576255545020103,0.0150362830609083
188,-0.026939382776618,-0.0549497716128826,-0.0554949007928371,-0.0582942143082619,-0.0310540217906237,-0.00143279088661075
189,-0.0406052730977535,-0.0689288377761841,-0.0264037474989891,-0.0318285226821899,-0.0070922439917922,-0.030669953674078
190,-0.0418401584029198,-0.063740186393261,0.0115224756300449,0.00204780721105635,0.0188107136636972,-0.0397787913680077
191,-0.0328779146075249,-0.0385358296334744,0.0532079078257084,0.0385681428015232,0.043407466262579,-0.0182435773313046
192,-0.0238019376993179,-0.0132515300065279,0.079056479036808,0.0620619729161263,0.0538267977535725,0.014895242638886
193,-0.0249209553003311,-0.00810098927468061,0.0703409686684608,0.057963065803051,0.0425208620727062,0.0278628841042519
194,-0.0291257966309786,-0.0155244786292315,0.0408476963639259,0.0404643751680851,0.027603505179286,0.0227039624005556
195,-0.0216189175844193,-0.0167025607079268,0.0209976751357317,0.0322804041206837,0.0237511489540339,0.0248595084995031
196,-0.00350915640592575,-0.00696599762886763,0.0165653303265572,0.0321431197226048,0.0174874626100063,0.0363978669047356
197,0.0158072970807552,0.00714284600690007,0.0121791530400515,0.028356084600091,-0.00288722105324268,0.0399224422872067
198,0.0360597595572472,0.0207196772098541,0.00558003829792142,0.0236417595297098,-0.0221676547080278,0.0357921682298183
199,0.0624817460775375,0.0354858040809631,0.0084192156791687,0.0272177085280418,-0.0196140091866255,0.0406993627548218
200,0.0937252715229988,0.0496278740465641,0.0162805765867233,0.0313658900558949,0.00340397586114705,0.0525814145803452
201,0.119086198508739,0.0575543940067291,0.0101274400949478,0.0192394368350506,0.0298515353351831,0.0552823431789875
202,0.12543873488903,0.0588287264108658,-0.0176669303327799,-0.0119479559361935,0.0398300364613533,0.0483826398849487
203,0.105487577617168,0.0523999519646168,-0.0528750717639923,-0.0463940836489201,0.0216543283313513,0.0414839237928391
204,0.0653441250324249,0.038647685199976,-0.0694062262773514,-0.0596384592354298,-0.0101071000099182,0.0415207520127296
205,0.0213146805763245,0.024328513070941,-0.0513063482940197,-0.036732092499733,-0.028315419331193,0.054910134524107
206,-0.00670893955975771,0.0177671816200018,0.00236102845519781,0.0205810684710741,-0.0165256131440401,0.0829068347811699
207,-0.00348086026497185,0.0244456026703119,0.0814659893512726,0.0967527851462364,0.0289885960519314,0.116703025996685
208,0.0251226145774126,0.040448997169733,0.162129163742065,0.167137548327446,0.0916441082954407,0.142947942018509
209,0.0546100400388241,0.0522359237074852,0.213089376688004,0.207982391119003,0.135284721851349,0.147833868861198
210,0.0639234855771065,0.0467779450118542,0.211968719959259,0.20477794110775,0.133263498544693,0.122359946370125
211,0.0542125590145588,0.0218989867717028,0.162391379475594,0.16132627427578,0.0941606163978577,0.0732556656002998
212,0.0442031621932983,-0.0125745851546526,0.0892937034368515,0.098039835691452,0.0477299652993679,0.0203404128551483
213,0.0479135252535343,-0.036958172917366,0.0202788729220629,0.039722315967083,0.0175956264138222,-0.0131633449345827
214,0.0639117062091827,-0.0361393354833126,-0.029610576108098,-0.00171532947570086,0.00768909929320216,-0.016577884554863
215,0.0768788233399391,-0.0153678962960839,-0.0622488483786583,-0.0353296250104904,0.00353455706499517,-0.00254719145596027
216,0.0755720287561417,0.015530114993453,-0.0763798877596855,-0.0621000528335571,-0.000659306475427002,0.0173200629651546
217,0.0641980171203613,0.0449699498713017,-0.0676176771521568,-0.0689909160137177,0.00422811973839998,0.0382827296853065
218,0.0505137667059898,0.0561186261475086,-0.0465553551912308,-0.0584982186555862,0.0182592589408159,0.0480934605002403
219,0.0373676829040051,0.04787727445364,-0.0265020970255136,-0.0442344322800636,0.028893830254674,0.0406083837151527
220,0.01927768625319,0.0295929443091154,-0.0126599417999387,-0.0341993868350983,0.0224509127438068,0.0223938710987568
221,-0.000551802979316562,0.0121129546314478,0.00103606365155429,-0.0209441892802715,0.00405999785289168,0.0106616774573922
222,-0.00775979086756706,0.00205472786910832,0.0237339343875647,0.00821532215923071,-0.00767594110220671,0.0210457108914852
223,-0.00239871046505868,-0.0059416308067739,0.050932489335537,0.0479494780302048,-0.0102637009695172,0.0493696741759777
224,0.00729010719805956,-0.0106395231559873,0.0738459229469299,0.0840835645794868,-0.00929870922118425,0.0804186537861824
225,0.0158889535814524,-0.0131629528477788,0.0819689035415649,0.0995233952999115,-0.00916550680994987,0.0923308953642845
226,0.0211543682962656,-0.0229876358062029,0.0660738572478294,0.0825752690434456,-0.0146899493411183,0.0721587538719177
227,0.0266686044633389,-0.0340743958950043,0.0367577560245991,0.0492719076573849,-0.0185401067137718,0.0411104448139668
228,0.0343670882284641,-0.0348159037530422,0.0187469106167555,0.0299245044589043,-0.00796541478484869,0.02923583984375
229,0.0418538004159927,-0.0229547694325447,0.0236622020602226,0.0356036275625229,0.015315136872232,0.0412174724042416
230,0.0501428246498108,-0.0044733420945704,0.037959448993206,0.0497466325759888,0.0396205112338066,0.0589136146008968
231,0.0654179602861404,0.00763584626838565,0.0432047843933105,0.05319968983531,0.0611148551106453,0.0624547526240349
232,0.0845511555671692,0.0070457230322063,0.0358110256493092,0.0454640090465546,0.0796603411436081,0.0522087328135967
233,0.0927350521087646,0.00250255200080574,0.0217687245458364,0.0365745835006237,0.0866407677531242,0.0469036847352982
234,0.0807099863886833,0.00491850124672055,0.00730606960132718,0.0290306136012077,0.0730017200112343,0.0532601699233055
235,0.052863672375679,0.0164733212441206,-0.000793402316048741,0.0180504471063614,0.043623149394989,0.0573245510458946
236,0.0260629635304213,0.035343810915947,0.00360112637281418,0.00697220675647259,0.0131747387349606,0.0531115382909775
237,0.0117206471040845,0.056743998080492,0.0132952537387609,-0.00053949118591845,-0.011467145755887,0.0467854551970959
238,0.00688923615962267,0.0732805728912354,0.0136758768931031,-0.00799665041267872,-0.0305783562362194,0.043741699308157
239,0.00926027726382017,0.0794545114040375,0.00602279603481293,-0.0136255323886871,-0.0424013435840607,0.0457690954208374
240,0.0135348932817578,0.0673721432685852,-0.000816026818938553,-0.0144681418314576,-0.0489569120109081,0.0429242700338364
241,0.0107244169339538,0.0337597765028477,-0.0055360421538353,-0.0125794699415565,-0.0537791736423969,0.0257257260382175
242,0.000543901172932237,-0.00763185694813728,-0.0066258036531508,-0.00880885776132345,-0.0520026497542858,0.00157931551802903
243,-0.00359760317951441,-0.0290259644389153,0.00737526966258883,0.00711773289367557,-0.0294140297919512,-0.00874659046530724
244,0.00868241209536791,-0.0215203352272511,0.0374032184481621,0.0390734188258648,0.0131666604429483,0.00394885521382093
245,0.0265675988048315,-0.00864799506962299,0.0600252002477646,0.0662650316953659,0.0496146008372307,0.0224292539060116
246,0.0372212119400501,-0.000218603498069569,0.065925769507885,0.0762978866696358,0.0666775926947594,0.0371718145906925
247,0.0401133447885513,0.0175672899931669,0.0708645656704903,0.0794038325548172,0.0756614580750465,0.0587423332035542
248,0.0369920432567596,0.0446944683790207,0.0795788690447807,0.0822466760873795,0.080742321908474,0.0856717079877853
249,0.029857637360692,0.0702582225203514,0.0847271680831909,0.0858363062143326,0.0751732960343361,0.105556100606918
250,0.0259617585688829,0.0925005748867989,0.0885215550661087,0.093123696744442,0.062210775911808,0.113661862909794
251,0.0305598843842745,0.110285766422749,0.0944460034370422,0.100581392645836,0.049745112657547,0.110194534063339
252,0.0386273749172688,0.11454114317894,0.0934036150574684,0.0988624468445778,0.0369693152606487,0.0967961922287941
253,0.0374025292694569,0.0937209650874138,0.0712302997708321,0.0780593454837799,0.0143679548054934,0.0703965574502945
254,0.0205189287662506,0.0549187883734703,0.0313640646636486,0.0397700518369675,-0.019095791503787,0.0341397412121296
255,-0.00389579334296286,0.0235414877533913,-0.00933860242366791,-0.00278144795447588,-0.0479735694825649,0.00521802250295877
256,-0.0249106660485268,0.010555456392467,-0.0478788204491138,-0.043671227991581,-0.0632022321224213,-0.0131266340613365
257,-0.0373243987560272,0.00678814062848687,-0.0903285369277,-0.0823687613010406,-0.0744615942239761,-0.0403741374611855
258,-0.0414729528129101,-0.00196058652363718,-0.132920756936073,-0.116211712360382,-0.0954944714903831,-0.0890953466296196
259,-0.0343426652252674,-0.016529580578208,-0.155180647969246,-0.133158624172211,-0.114913292229176,-0.137619629502296
260,-0.0160189773887396,-0.0285219866782427,-0.143562808632851,-0.124628446996212,-0.105961441993713,-0.156880244612694
261,-0.00153121771290898,-0.040412213653326,-0.113526917994022,-0.104831106960773,-0.0689337626099586,-0.15171717107296
262,-0.00369321089237928,-0.0562333203852177,-0.0862216576933861,-0.090507298707962,-0.0308012738823891,-0.145031467080116
263,-0.0231001358479261,-0.072300560772419,-0.0689771845936775,-0.0824927017092705,-0.0137598402798176,-0.146196097135544
264,-0.0462525375187397,-0.0768103748559952,-0.051911648362875,-0.0664793327450752,-0.0132018299773335,-0.139561682939529
265,-0.0547726862132549,-0.0617395043373108,-0.0243465416133404,-0.0347365252673626,-0.014147668145597,-0.108016654849052
266,-0.0494387820363045,-0.0380956158041954,0.00401475513353944,-0.00112160947173834,-0.0153174791485071,-0.0592092871665955
267,-0.0457487665116787,-0.0231010392308235,0.0187891777604818,0.0202377270907164,-0.0194333679974079,-0.0119910072535276
268,-0.0512848794460297,-0.0232246145606041,0.0199034754186869,0.0277889464050531,-0.0234688241034746,0.0182483997195959
269,-0.0578352622687817,-0.0308204367756844,0.0208475105464458,0.0299319550395012,-0.0211361534893513,0.0264508910477161
270,-0.0513626113533974,-0.0273310672491789,0.0349710620939732,0.0391579121351242,-0.00722055416554213,0.0250579230487347
271,-0.0290276128798723,-0.00316339381970465,0.0596103481948376,0.0568539649248123,0.0142523292452097,0.0300105754286051
272,-0.00615706667304039,0.0235541723668575,0.0742049440741539,0.0653140842914581,0.0262116137892008,0.036185447126627
273,0.00391103327274323,0.0358224213123322,0.0677163079380989,0.05655113235116,0.0222061071544886,0.0329239591956139
274,0.00650912337005138,0.0382509268820286,0.0540723204612732,0.0463702082633972,0.0197188630700111,0.0265333242714405
275,0.0100318687036633,0.0305936969816685,0.0341897159814835,0.0329950079321861,0.025662025436759,0.0163108259439468
276,0.0173844322562218,0.0100108534097672,-0.0040801321156323,0.00138255872298032,0.0273655839264393,-0.00817577447742224
277,0.0310190357267857,-0.00836256146430969,-0.0399844087660313,-0.031235583126545,0.0248353779315948,-0.0372798256576061
278,0.0460402742028236,-0.00830214377492666,-0.0436644516885281,-0.0380935780704021,0.0270960368216038,-0.0533368736505508
279,0.0483286418020725,0.0024286259431392,-0.0262517631053925,-0.0256745982915163,0.0263902712613344,-0.0600874200463295
280,0.0294762719422579,0.000457325106253847,-0.0261991005390882,-0.0240503884851933,0.00480094039812684,-0.0775402262806892
281,-0.00567320082336664,-0.0234005842357874,-0.06206214427948,-0.050661027431488,-0.0373255200684071,-0.115612171590328
282,-0.0478278584778309,-0.0609689578413963,-0.114713221788406,-0.0955111756920815,-0.080613799393177,-0.16488966345787
283,-0.0841059610247612,-0.0989237427711487,-0.152999982237816,-0.136748239398003,-0.113987371325493,-0.206160962581635
284,-0.100772224366665,-0.114208653569222,-0.152815535664558,-0.150114551186562,-0.131150364875793,-0.212071016430855
285,-0.0986960306763649,-0.0915416702628136,-0.107854634523392,-0.121545799076557,-0.122409291565418,-0.168295949697495
286,-0.0883779600262642,-0.0479602292180061,-0.0368077978491783,-0.0611886009573936,-0.0891933366656303,-0.0954315289855003
287,-0.0731229558587074,-0.012349103577435,0.0370657704770565,0.00901834666728973,-0.0392943024635315,-0.0239780638366938
288,-0.049385067075491,0.00663741584867239,0.101453326642513,0.0727224051952362,0.0189748406410217,0.0343047082424164
289,-0.0164491478353739,0.0196412447839975,0.144550427794456,0.117357976734638,0.0688101127743721,0.0807137563824654
290,0.0232691913843155,0.0356157533824444,0.150786936283112,0.130726233124733,0.0967346653342247,0.110362350940704
291,0.0578741058707237,0.0401481837034225,0.109161294996738,0.105204276740551,0.0975131317973137,0.104153603315353
292,0.0690981969237328,0.015264144167304,0.0285708624869585,0.0503386706113815,0.0688179135322571,0.0563811659812927
293,0.0565094798803329,-0.0263426601886749,-0.055628813803196,-0.00611040228977799,0.0207565575838089,-0.00682587875053287
294,0.0299376547336578,-0.0636926889419556,-0.109369188547134,-0.0457401759922504,-0.0285563543438911,-0.058565516024828
295,-0.00350946374237537,-0.0823715701699257,-0.119223602116108,-0.0642240568995476,-0.0603568740189075,-0.0863529667258263
296,-0.0281799249351025,-0.0708830654621124,-0.0859669595956802,-0.0567712374031544,-0.05807089433074,-0.0828336626291275
297,-0.0321248061954975,-0.037133514881134,-0.0272000469267368,-0.0265157110989094,-0.0273546203970909,-0.0513359047472477
298,-0.0297592077404261,-0.007010234054178,0.0246056206524372,0.00540675316005945,0.000296469923341647,-0.0170543268322945
299,-0.045646745711565,0.002112120622769,0.0475773923099041,0.0178302247077227,0.00161712081171572,-0.0102000162005425
300,-0.0800488442182541,-0.00416390784084797,0.0464054457843304,0.0131221162155271,-0.0168495569378138,-0.0336601547896862
301,-0.11070242524147,-0.0161483734846115,0.0319839231669903,0.00402449117973447,-0.0396489314734936,-0.0697244107723236
302,-0.122445672750473,-0.0320291444659233,0.00673454813659191,-0.00712157553061843,-0.0579132586717606,-0.101389683783054
303,-0.110889941453934,-0.046750120818615,-0.0217364300042391,-0.0195205565541983,-0.0600778497755528,-0.113739117980003
304,-0.077951118350029,-0.056813508272171,-0.0448020026087761,-0.0308652874082327,-0.0445200055837631,-0.104019314050674
305,-0.03447600081563,-0.0619138516485691,-0.0606377311050892,-0.0398461855947971,-0.0264652147889137,-0.0834375843405724
306,0.00334364478476346,-0.0612681955099106,-0.0693959817290306,-0.0460348352789879,-0.019885890185833,-0.0662108659744263
307,0.0187175627797842,-0.0598036199808121,-0.0741797164082527,-0.0528113730251789,-0.0296224001795053,-0.0614869743585587
308,0.00847265869379044,-0.0610161684453487,-0.0763545632362366,-0.0601765140891075,-0.0465728938579559,-0.0611420087516308
309,-0.0114178685471416,-0.0599701218307018,-0.0734458714723587,-0.0623738095164299,-0.0541098900139332,-0.0482690408825874
310,-0.0212510693818331,-0.0529573410749435,-0.0667527541518211,-0.0558794923126698,-0.0467338263988495,-0.0248915962874889
311,-0.0159769952297211,-0.0459595173597336,-0.0644863322377205,-0.0469863563776016,-0.0315463878214359,-0.0149657810106874
312,-0.0103102428838611,-0.047582246363163,-0.0726803317666054,-0.0470382384955883,-0.0214430633932352,-0.0357570014894009
313,-0.0156010314822197,-0.0526304394006729,-0.0783187597990036,-0.0510093159973621,-0.0224800761789083,-0.0701321512460709
314,-0.019452502951026,-0.04358821362257,-0.0560042224824429,-0.0365784801542759,-0.0206356961280108,-0.0785931646823883
315,-0.0139090167358518,-0.0184174925088882,-0.00952768791466951,-0.00280180783011019,-0.00816967990249395,-0.0537449158728123
316,-0.0135396933183074,0.00995036400854588,0.0296131242066622,0.023397421464324,0.00208146986551583,-0.0249456372112036
317,-0.0267681889235973,0.0341418050229549,0.0433333367109299,0.024045230820775,0.00212181080132723,-0.0110867246985435
318,-0.0443796664476395,0.0497468523681164,0.0327864326536655,0.00428504915907979,-0.00569623941555619,-0.0127798020839691
319,-0.0560644418001175,0.0527581349015236,0.00784631818532944,-0.020380649715662,-0.0175320915877819,-0.0264529846608639
320,-0.0545196905732155,0.0410053431987762,-0.0207990277558565,-0.0398958511650562,-0.0289077088236809,-0.0466237217187881
321,-0.0335480906069279,0.0116359172388911,-0.0502159893512726,-0.0539481863379478,-0.0368521623313427,-0.0660932213068008
322,-0.00578336464241147,-0.0378167405724525,-0.0837160050868988,-0.069302961230278,-0.0473528578877449,-0.0847574770450592
323,0.00464735738933086,-0.0911276713013649,-0.109636507928371,-0.0829454883933067,-0.0623066052794456,-0.102820292115211
324,-0.00277717388235033,-0.115190707147121,-0.101667009294033,-0.0738954693078995,-0.0655686631798744,-0.102968722581863
325,-0.0152097567915916,-0.10429435223341,-0.0572722479701042,-0.0367317609488964,-0.0469906963407993,-0.0753104239702225
326,-0.029213473200798,-0.0822098851203918,-0.003971959464252,0.00665553892031312,-0.0179946776479483,-0.0387314036488533
327,-0.0388208813965321,-0.0605995580554008,0.0366014279425144,0.0396529510617256,0.00795682519674301,-0.0100773638114333
328,-0.0356061905622482,-0.036331370472908,0.0612897872924805,0.0602626278996468,0.0263070613145828,0.0124154426157475
329,-0.0201301220804453,-0.00862704496830702,0.072126679122448,0.0695718601346016,0.0355962477624416,0.0337384045124054
330,-0.00240382039919496,0.0171244405210018,0.0696163922548294,0.0678537264466286,0.032402265816927,0.0493440218269825
331,0.00144965306390077,0.0286677703261375,0.0527040772140026,0.0521425679326057,0.0160858146846294,0.0442495495080948
332,-0.012727172113955,0.0181202981621027,0.0259198453277349,0.0230373404920101,-0.000626472232397646,0.00746163120493293
333,-0.0265260078012943,-0.005885174497962,-0.00427211262285709,-0.0104929795488715,-0.00696855969727039,-0.0516688302159309
334,-0.0227185748517513,-0.0276347510516644,-0.0371258370578289,-0.0403869226574898,-0.0139390798285604,-0.104198336601257
335,-0.00479990942403674,-0.0377520062029362,-0.0683207213878632,-0.0644540041685104,-0.0369321890175343,-0.126894265413284
336,0.0143521018326283,-0.0350583121180534,-0.0926714614033699,-0.0849171653389931,-0.0742794573307037,-0.125611007213593
337,0.0190179571509361,-0.0261911228299141,-0.114062175154686,-0.104231551289558,-0.111690789461136,-0.121999971568584
338,-0.00318369804881513,-0.025178175419569,-0.133468583226204,-0.117632582783699,-0.129412427544594,-0.123975478112698
339,-0.0439950227737427,-0.0396557934582233,-0.138029187917709,-0.116875618696213,-0.112709276378155,-0.121294416487217
340,-0.0834166631102562,-0.0578146167099476,-0.112813718616962,-0.097154788672924,-0.0699717849493027,-0.103041753172874
341,-0.106749579310417,-0.0633532404899597,-0.0566160976886749,-0.0554008036851883,-0.0232333205640316,-0.0683957785367966
342,-0.102506995201111,-0.0466660000383854,0.0193058252334595,0.00811460241675377,0.0179343968629837,-0.0203784573823214
343,-0.0721457004547119,-0.013310351409018,0.0912895351648331,0.0759612992405891,0.0495128631591797,0.0299960933625698
344,-0.0323624610900879,0.0123853767290711,0.13381090760231,0.122005105018616,0.0661247745156288,0.0651790797710419
345,0.00194013980217278,0.0112911267206073,0.137629300355911,0.131859481334686,0.0700465887784958,0.0744486153125763
346,0.0199119616299868,-0.0137901641428471,0.104188829660416,0.100208915770054,0.060203243046999,0.0502203851938248
347,0.0181197300553322,-0.0389472246170044,0.0478974245488644,0.0405846796929836,0.0329908207058907,0.000947700173128396
348,0.0073088207282126,-0.0395022705197334,0.000598161073867232,-0.0108301481232047,0.00419032201170921,-0.0399757884442806
349,0.00420421594753861,-0.0185057353228331,-0.0197024643421173,-0.0318190045654774,-0.00578753789886832,-0.0519970878958702
350,0.013122184202075,-0.000476371787954122,-0.0288076214492321,-0.0346699655056,-0.00455429637804627,-0.0478193424642086
351,0.0217141453176737,0.000195180167793296,-0.0446287356317043,-0.0393157415091991,-0.00733476132154465,-0.0453451164066792
352,0.0205828808248043,-0.0112628936767578,-0.0642204135656357,-0.0498089082539082,-0.0115033816546202,-0.0464593432843685
353,0.016165804117918,-0.0177302379161119,-0.0702225938439369,-0.0538243837654591,-0.00846941117197275,-0.0378391891717911
354,0.00694569479674101,-0.011362025514245,-0.0578804649412632,-0.0472498349845409,-0.00460828328505158,-0.0181664191186428
355,-0.019939873367548,0.0003864738100674,-0.0451062917709351,-0.043156910687685,-0.0154945533722639,-0.00283071235753596
356,-0.0533991232514381,0.0159552376717329,-0.0381299704313278,-0.0419996231794357,-0.0344944968819618,0.0101096406579018
357,-0.0707576498389244,0.0328887291252613,-0.028544457629323,-0.0349705703556538,-0.0424417816102505,0.0268172360956669
358,-0.0655393749475479,0.0424735844135284,-0.00891259498894215,-0.0179470796138048,-0.0294226072728634,0.0425974503159523
359,-0.0455133356153965,0.0397070497274399,0.024990800768137,0.0115867964923382,0.00487690744921565,0.0566954016685486
360,-0.0222036205232143,0.0281377471983433,0.0685195252299309,0.0510333478450775,0.0489677377045155,0.0724241510033607
361,-0.00061218865448609,0.0173231847584248,0.106921844184399,0.0892646759748459,0.0855814889073372,0.0873146280646324
362,0.0202788654714823,0.0125157004222274,0.121681734919548,0.109027825295925,0.103339970111847,0.0869928374886513
363,0.0450485795736313,0.0133211482316256,0.107180044054985,0.100715927779675,0.102380529046059,0.0623012706637383
364,0.0716623589396477,0.0139341000467539,0.0729674026370049,0.0691308528184891,0.0876090079545975,0.0234005227684975
365,0.0839352607727051,0.00934950169175863,0.0321275964379311,0.0275767389684916,0.0607249028980732,-0.0125570241361856
366,0.0689190104603767,0.00512542296200991,-0.000563159061130136,-0.00788301881402731,0.0247613880783319,-0.0331297367811203
367,0.033182118088007,0.0127524854615331,-0.0116178086027503,-0.0230471976101398,-0.00777005776762962,-0.029527734965086
368,-0.00621430715546012,0.0300275143235922,-0.00415666773915291,-0.0206799153238535,-0.0259248036891222,-0.00588170345872641
369,-0.0337788835167885,0.0406929664313793,0.00219478644430637,-0.0208475030958653,-0.0310065932571888,0.0198854207992554
370,-0.0415528267621994,0.0396991074085236,-0.00438140705227852,-0.0318920873105526,-0.0259863175451756,0.0381917729973793
371,-0.0360114276409149,0.0349769964814186,-0.023309426382184,-0.0464595854282379,-0.0164322331547737,0.0473456382751465
372,-0.026255602017045,0.0341587588191032,-0.0557040572166443,-0.0602558627724648,-0.0107602654024959,0.0453621372580528
373,-0.0121683059260249,0.0339153558015823,-0.0952771678566933,-0.0719467625021935,-0.0105372564867139,0.0333063900470734
374,0.00284947594627738,0.0194087214767933,-0.117708414793015,-0.0758495628833771,-0.0164272207766771,0.0134738087654114
375,0.0119372550398111,-0.00830358825623989,-0.102907948195934,-0.0630315467715263,-0.023074597120285,-0.00575497979298234
376,0.0143054239451885,-0.0281135346740484,-0.057191863656044,-0.0315712243318558,-0.0186253674328327,-0.0120830610394478
377,0.00639013294130564,-0.0365684628486633,-0.00870289094746113,0.00113919458817691,-0.0112242931500077,-0.0096104945987463
378,-0.00912833958864212,-0.0465834885835648,0.0222452152520418,0.0189301520586014,-0.012438484467566,-0.0111378477886319
379,-0.0130925960838795,-0.0514937117695808,0.0447317324578762,0.03342030569911,-0.0080850962549448,-0.00933747459203005
380,-0.0010133566102013,-0.0382569395005703,0.0701553672552109,0.0558553002774715,0.011580690741539,0.00726495869457722
381,0.0139749869704247,-0.00682402774691582,0.0953719094395638,0.0782380253076553,0.0392892993986607,0.0357499904930592
382,0.0231136251240969,0.034940168261528,0.115151531994343,0.0911177098751068,0.0666382908821106,0.0693051517009735
383,0.0180381145328283,0.0679242759943008,0.119717553257942,0.0874722748994827,0.0823682844638824,0.0952935591340065
384,0.0051736724562943,0.0821968764066696,0.106225661933422,0.0729828774929047,0.0849891975522041,0.107758715748787
385,0.00308266584761441,0.083559975028038,0.081908755004406,0.0584736876189709,0.0818582102656364,0.109962448477745
386,0.0095098102465272,0.0701123848557472,0.0435016602277756,0.0366522707045078,0.0699416920542717,0.0957021713256836
387,0.0110888639464974,0.0393601171672344,-0.0141424210742116,-0.0019557261839509,0.0457957349717617,0.0593217015266418
388,0.00308634270913899,-0.000535208615474403,-0.0813944190740585,-0.0543562434613705,0.0138605134561658,0.00470671756193042
389,-0.0105502670630813,-0.0348128192126751,-0.137990832328796,-0.10771943628788,-0.0202985722571611,-0.0510356761515141
390,-0.0192773528397083,-0.0467001758515835,-0.161879613995552,-0.139087706804276,-0.0468191578984261,-0.0754663795232773
391,-0.023123674094677,-0.0345324762165546,-0.143255174160004,-0.129414826631546,-0.0572787374258041,-0.0501282960176468
392,-0.0351364016532898,-0.0169104915112257,-0.0902935490012169,-0.0804339423775673,-0.0541996508836746,0.00764676788821816
393,-0.0544798336923122,-0.0060612577944994,-0.0176243893802166,-0.0104539711028337,-0.0400198325514793,0.0711391121149063
394,-0.0662806257605553,0.00403862912207842,0.054002221673727,0.0571624524891377,-0.0163865759968758,0.125378414988518
395,-0.0668958202004433,0.0159348454326391,0.101511158049107,0.103650525212288,0.00701801897957921,0.159886389970779
396,-0.0583542883396149,0.0265398677438498,0.120678186416626,0.126411288976669,0.0259002093225718,0.178063169121742
397,-0.0393583700060844,0.038726057857275,0.124699763953686,0.132886990904808,0.046020645648241,0.19215053319931
398,-0.0164084490388632,0.0479679070413113,0.121848657727242,0.124663360416889,0.0674885287880898,0.196125790476799
399,0.00170207605697215,0.0421981923282146,0.109498471021652,0.101071886718273,0.0824641957879066,0.177455797791481
400,0.0137313082814217,0.0226167198270559,0.0830377265810966,0.0659618675708771,0.0854768753051758,0.142051458358765
401,0.0218527894467115,0.00313487090170383,0.0414926894009113,0.0228304453194141,0.0766774490475655,0.103771828114986
402,0.0258794464170933,-0.0105929914861918,-0.00964270904660225,-0.0251218918710947,0.0578279308974743,0.069023996591568
403,0.0267745405435562,-0.0263693947345018,-0.0607302002608776,-0.0707568302750587,0.0339655317366123,0.0432637706398964
404,0.0289926435798407,-0.0459896326065063,-0.10357915610075,-0.106432311236858,0.0135090854018927,0.0283176396042109
405,0.029406176880002,-0.0634723007678986,-0.131366163492203,-0.129243969917297,-0.000899049802683294,0.0114235645160079
406,0.0219102222472429,-0.0785117968916893,-0.139065772294998,-0.13737428188324,-0.0115449037402868,-0.0141112077981234
407,0.00878238864243031,-0.0885417610406876,-0.125133097171783,-0.125590473413467,-0.0224193688482046,-0.02886195294559
408,-0.00534583302214742,-0.0801555886864662,-0.0856535732746124,-0.0868584215641022,-0.033548928797245,-0.00485408212989569
409,-0.0155034977942705,-0.0460002273321152,-0.0209014378488064,-0.0239376779645681,-0.0348347239196301,0.063177615404129
410,-0.0164706688374281,-0.00294658052735031,0.0476353280246258,0.0397129878401756,-0.0199393313378096,0.145001947879791
411,-0.00680934078991413,0.0301599390804768,0.0948430523276329,0.0821231678128242,0.00776139507070184,0.20322972536087
412,0.00769195053726435,0.0557275004684925,0.120691411197186,0.105358734726906,0.040685597807169,0.225138276815414
413,0.0112648755311966,0.0710000619292259,0.135198533535004,0.117162019014359,0.0640976503491402,0.215008974075317
414,-0.0030280239880085,0.0656605437397957,0.138893738389015,0.11925783008337,0.0694845169782639,0.186482235789299
415,-0.0166408997029066,0.05397904291749,0.132260113954544,0.115716934204102,0.0700610056519508,0.162454605102539
416,-0.01075320225209,0.0532017275691032,0.114821188151836,0.104031376540661,0.0779130309820175,0.152633935213089
417,0.0123665221035481,0.0540228933095932,0.080870732665062,0.0746160969138145,0.0860215425491333,0.145807057619095
418,0.0370539017021656,0.0409000590443611,0.0279586408287287,0.0269903354346752,0.0807762369513512,0.127120852470398
419,0.0446247905492783,0.0112970126792789,-0.0354556776583195,-0.0280600637197495,0.0533428154885769,0.0929721221327782
420,0.0279853828251362,-0.0238697752356529,-0.0873590335249901,-0.0728414356708527,0.00840410310775042,0.0574889779090881
421,-0.000873142562340945,-0.0449674837291241,-0.106078431010246,-0.0913699194788933,-0.0361773744225502,0.0389650091528893
422,-0.0257293302565813,-0.0406191200017929,-0.0885193347930908,-0.0819376781582832,-0.0658753290772438,0.0441461354494095
423,-0.0388121493160725,-0.0195764768868685,-0.0492147207260132,-0.0553862489759922,-0.0776589438319206,0.0721479207277298
424,-0.0420674160122871,0.0030696582980454,-0.00973136629909277,-0.0269348621368408,-0.073077879846096,0.112317971885204
425,-0.0414549224078655,0.0181176066398621,0.0124338753521442,-0.00723499851301312,-0.055538821965456,0.143556118011475
426,-0.0421330817043781,0.0188299734145403,0.0121999690309167,0.00261823693290353,-0.0361744947731495,0.150339558720589
427,-0.0472936853766441,0.0075029693543911,-0.00288898288272321,0.00213955203071237,-0.0299329031258821,0.133840024471283
428,-0.0499466173350811,-0.000742100062780082,-0.0205148998647928,-0.0079484861344099,-0.0378995127975941,0.110116392374039
429,-0.0410654135048389,-0.000152362597873434,-0.033709991723299,-0.0177320297807455,-0.0447311550378799,0.0920537635684013
430,-0.0275780018419027,-0.00474864058196545,-0.0391016788780689,-0.0202889014035463,-0.035819124430418,0.0750802159309387
431,-0.0193408243358135,-0.0248598754405975,-0.0344021692872047,-0.0218105018138886,-0.011434500105679,0.0495872758328915
432,-0.0111425472423434,-0.0525000542402267,-0.0228035636246204,-0.0252437051385641,0.0151093993335962,0.0225408524274826
433,0.00391946779564023,-0.072110541164875,-0.0111043639481068,-0.0231832191348076,0.033243328332901,0.0138277066871524
434,0.0199074596166611,-0.0741158723831177,-0.00434435112401843,-0.0133915869519114,0.0430611111223698,0.0295660253614187
435,0.0252564735710621,-0.0654771775007248,-0.0048462194390595,-0.00495888665318489,0.0450540482997894,0.0524909943342209
436,0.0145037528127432,-0.0622446164488792,-0.00982992723584175,-0.00650241691619158,0.0366553403437138,0.062101561576128
437,-0.00169382081367075,-0.0613504014909267,-0.00483164470642805,-0.00729432702064514,0.0256061628460884,0.063309408724308
438,-0.00611234223470092,-0.0443111658096313,0.0232091955840588,0.0123314559459686,0.0234055612236261,0.079597994685173
439,-0.00146006536670029,-0.0128690972924232,0.0632470324635506,0.047085203230381,0.0266272965818644,0.116246215999126
440,0.000172608444700018,0.0151579985395074,0.0919952541589737,0.0729564651846886,0.0301750041544437,0.156446427106857
441,0.00115407421253622,0.0345725193619728,0.0987091585993767,0.0765357539057732,0.0394570715725422,0.181147173047066
442,0.00960944779217243,0.0493007227778435,0.0861937925219536,0.0602247007191181,0.0567359030246735,0.179511979222298
443,0.0262251868844032,0.0571152791380882,0.0623578354716301,0.0349308960139751,0.0735955461859703,0.155935898423195
444,0.037458959966898,0.0537770427763462,0.0322274900972843,0.00922688655555248,0.0715319514274597,0.123570635914803
445,0.0260494854301214,0.0449474081397057,0.000358397053787485,-0.0146880699321628,0.0382296927273273,0.0919416844844818
446,-0.00449828431010246,0.0374126955866814,-0.0223746821284294,-0.0340636409819126,-0.00899535417556763,0.0651665255427361
447,-0.034312903881073,0.0200276374816895,-0.0325582064688206,-0.0474263802170753,-0.0399079024791718,0.0392280109226704
448,-0.0529213771224022,-0.0214000828564167,-0.0396701395511627,-0.0572253316640854,-0.0481109470129013,0.00891352724283934
449,-0.0616724118590355,-0.0746713578701019,-0.0473259128630161,-0.0622473247349262,-0.048037588596344,-0.0174807906150818
450,-0.0591171644628048,-0.113440349698067,-0.0505605675280094,-0.0597455464303494,-0.0471670739352703,-0.0267193596810102
451,-0.0443121455609798,-0.126346975564957,-0.0494348220527172,-0.0540886595845222,-0.0414600111544132,-0.0179646480828524
452,-0.0251917261630297,-0.119351208209991,-0.0491757243871689,-0.0498357303440571,-0.0307025201618671,0.0012158309109509
453,-0.00833436194807291,-0.100483082234859,-0.04918397590518,-0.0423021726310253,-0.0181951764971018,0.0305805038660765
454,0.00744103314355016,-0.0717592611908913,-0.0388342812657356,-0.0233629979193211,-0.0011923557613045,0.0782471373677254
455,0.0194130782037973,-0.0315486639738083,-0.00801801402121782,0.00666732620447874,0.0206349901854992,0.14262755215168
456,0.0167762599885464,0.0190725773572922,0.0344704650342464,0.0358606837689877,0.0393171049654484,0.201831310987473
457,0.00205465266481042,0.0683304369449615,0.06796845048666,0.0535798892378807,0.0509644038975239,0.235589474439621
458,-0.00706885801628232,0.0930409282445908,0.0740952715277672,0.0514381676912308,0.0554337203502655,0.237147629261017
459,-0.00232776906341314,0.0811187848448753,0.0471424981951714,0.0249157063663006,0.0527390092611313,0.213233381509781
460,0.0121531533077359,0.0545676685869694,0.0118771567940712,-0.00678398367017508,0.0512629225850105,0.195146352052689
461,0.0216388460248709,0.0338991321623325,-0.00832568574696779,-0.023179966956377,0.051669854670763,0.197818011045456
462,0.0138944881036878,0.00827516056597233,-0.0191961191594601,-0.0273030269891024,0.0397711880505085,0.192951649427414
463,-0.00700682494789362,-0.0261930376291275,-0.0253322180360556,-0.0231958366930485,0.0135803520679474,0.164345875382423
464,-0.030224459245801,-0.0511865355074406,-0.018407279625535,-0.00732386112213135,-0.00858514849096537,0.135612413287163
465,-0.0412218384444714,-0.0522133409976959,0.00496844295412302,0.0177893359214067,-0.0133204255253077,0.135084569454193
466,-0.0312304925173521,-0.0296279024332762,0.0360643044114113,0.0439410246908665,-0.00658223545178771,0.166178196668625
467,-0.0106602078303695,0.000275400758255273,0.0579378306865692,0.0603526793420315,-0.000652737217023969,0.207344189286232
468,0.0076594827696681,0.0200584214180708,0.0581652745604515,0.0563438273966312,0.00131406274158508,0.235852420330048
469,0.0224977694451809,0.0298314355313778,0.0406358130276203,0.0340597853064537,0.00439524836838245,0.253028035163879
470,0.0322644338011742,0.0373083092272282,0.0179904773831367,0.00730478204786778,0.0113393561914563,0.273362815380096
471,0.0304811671376228,0.0409622266888618,0.000891473900992423,-0.0118925459682941,0.0233809370547533,0.301983445882797
472,0.0152340121567249,0.0320568159222603,-0.00584169197827578,-0.0185159258544445,0.039240475744009,0.336638629436493
473,-0.00814448110759258,0.00672271382063627,-0.00786362402141094,-0.0181290004402399,0.044388934969902,0.368959695100784
474,-0.0268826577812433,-0.024212559685111,-0.00843608193099499,-0.0152231631800532,0.0335314832627773,0.393704682588577
475,-0.0308872107416391,-0.0462280996143818,-0.00617844145745039,-0.0104465410113335,0.0215815920382738,0.415503323078156
476,-0.0311341173946857,-0.0578051544725895,-0.0126789659261703,-0.0165355820208788,0.00682843197137117,0.433685332536697
477,-0.0396786145865917,-0.0580029152333736,-0.0319306664168835,-0.0338245220482349,-0.0193255320191383,0.444482862949371
478,-0.0518150217831135,-0.0459152832627296,-0.0461620911955833,-0.0406531617045403,-0.0442731715738773,0.447508752346039
479,-0.0621607042849064,-0.0317083038389683,-0.0438996814191341,-0.0292231384664774,-0.0525142475962639,0.444171041250229
480,-0.0662867799401283,-0.0219422187656164,-0.0308583881705999,-0.0100891487672925,-0.0431725867092609,0.439402490854263
481,-0.0636727660894394,-0.0184548255056143,-0.0219345465302467,0.00121722847688943,-0.031867191195488,0.436246037483215
482,-0.0634878054261208,-0.0260331258177757,-0.027565348893404,-0.00572089059278369,-0.0328140519559383,0.434688955545425
483,-0.0660947784781456,-0.0408671088516712,-0.0388504192233086,-0.0229033771902323,-0.0359706282615662,0.438664168119431
484,-0.0602083057165146,-0.0517960116267204,-0.0445353761315346,-0.0368598215281963,-0.0274071507155895,0.45177748799324
485,-0.0416942201554775,-0.0518809780478477,-0.0498879738152027,-0.0470709167420864,-0.0158907864242792,0.473659723997116
486,-0.012815922498703,-0.0363767184317112,-0.0580202676355839,-0.0535404942929745,-0.0113766910508275,0.5
487,0.0209042057394981,-0.00780793931335211,-0.0598392598330975,-0.0503900200128555,-0.00696805026382208,0.5
488,0.0456601642072201,0.0148969637230039,-0.0547734797000885,-0.0435991957783699,-0.00055705348495394,0.5
489,0.050398126244545,0.0159785691648722,-0.0520988591015339,-0.0451529137790203,-0.00270066130906343,0.5
490,0.0344694592058659,0.00109152914956212,-0.0567364506423473,-0.0554053671658039,-0.0204308349639177,0.5
491,0.00300263962708414,-0.0106383124366403,-0.0619912147521973,-0.0639770999550819,-0.0462285540997982,0.5
492,-0.0289786923676729,-0.00653839344158769,-0.048455324023962,-0.0552070774137974,-0.0587180107831955,0.5
493,-0.0406370460987091,0.0072683421894908,-0.00879367813467979,-0.0212324727326632,-0.0398904420435429,0.5
494,-0.0306285936385393,0.0162045322358608,0.0350777879357338,0.0243681184947491,0.00183295726310462,0.5
495,-0.0179311912506819,0.0126824909821153,0.0593948625028133,0.057862650603056,0.0383368991315365,0.5
496,-0.012644475325942,0.00261926860548556,0.059975054115057,0.0685033798217773,0.0538104884326458,0.5
497,-0.0124230990186334,-0.00624615186825395,0.0377981774508953,0.0559967420995235,0.0499014109373093,0.5
498,-0.0118400305509567,-0.0145789310336113,0.00101750099565834,0.0274202693253756,0.0346004627645016,0.5
499,-0.00353419361636043,-0.0209029447287321,-0.0236335881054401,0.00783033389598131,0.0184849593788385,0.49757194519043
500,0.00714856898412108,-0.0223472882062197,-0.0215475521981716,0.0134794916957617,0.00218885252252221,0.457490175962448
501,0.00769371818751097,-0.0237831585109234,-0.00817479100078344,0.0270951259881258,-0.0189180988818407,0.435496479272842
502,0.00420447997748852,-0.0262718256562948,0.00170310284011066,0.0307470560073853,-0.0358716063201427,0.419460117816925
503,0.00952261406928301,-0.0245337467640638,0.00477116508409381,0.0249262247234583,-0.0409206785261631,0.402382433414459
504,0.0209835264831781,-0.014391703531146,-0.00302184233441949,0.010079775005579,-0.0437841899693012,0.377497136592865
505,0.0263328868895769,0.00638042995706201,-0.0193082839250565,-0.0121405683457851,-0.0537506453692913,0.350904732942581
506,0.0169551726430655,0.0315753184258938,-0.0308280345052481,-0.0291353035718203,-0.0643945336341858,0.340183466672897
507,-0.0048861843533814,0.0532801598310471,-0.0281925573945045,-0.0291940625756979,-0.0641356855630875,0.348055720329285
508,-0.0274661723524332,0.0705479681491852,-0.0137174651026726,-0.0134417600929737,-0.0478013344109058,0.35765814781189
509,-0.0416293069720268,0.083426371216774,0.00339353992603719,0.00575742032378912,-0.0177558586001396,0.352833926677704
510,-0.0460447669029236,0.0851601287722588,0.0163791161030531,0.0160236340016127,0.0191918425261974,0.330909937620163
511,-0.0415537282824516,0.0620855987071991,0.0217049662023783,0.0132069764658809,0.0541965775191784,0.297257632017136
512,-0.0319263078272343,0.0165358800441027,0.0160055123269558,0.00143728649709374,0.072624683380127,0.259692698717117
513,-0.0229760874062777,-0.0250887963920832,0.00186413561459631,-0.0109431482851505,0.0619066208600998,0.229704067111015
514,-0.0122818266972899,-0.0430054217576981,-0.014128414914012,-0.0180432740598917,0.032302413135767,0.214651733636856
515,0.0091109573841095,-0.0399928241968155,-0.0242774542421103,-0.0155112026259303,0.0105275353416801,0.210828870534897
516,0.038600817322731,-0.0281593967229128,-0.02720014937222,-0.00368435098789632,0.00250619417056441,0.210185363888741
517,0.0602986589074135,-0.016807958483696,-0.0329363085329533,0.00813290290534496,-0.00996735040098429,0.21011383831501
518,0.0647230595350266,-0.00524917989969254,-0.0390376970171928,0.0152855319902301,-0.0294725056737661,0.211829572916031
519,0.052639052271843,0.0131841534748673,-0.0277071464806795,0.0231200028210878,-0.0372071117162704,0.211532488465309
520,0.0303222350776196,0.0407806858420372,0.00498085236176848,0.0358837321400642,-0.0233065634965897,0.209178432822227
521,0.013957042247057,0.0799173563718796,0.049668550491333,0.0555749088525772,0.00846784748136997,0.21630322933197
522,0.0121670542284846,0.126234024763107,0.0902779698371887,0.0746388509869576,0.0442397408187389,0.230705738067627
523,0.0147393103688955,0.156189545989037,0.102696642279625,0.0733838900923729,0.0608290210366249,0.232417166233063
524,0.0163087192922831,0.155220255255699,0.0801915973424912,0.0473778918385506,0.0507167018949986,0.214360177516937
525,0.0207591876387596,0.14442241191864,0.0477572791278362,0.018679715692997,0.0356412455439568,0.185140490531921
526,0.024819441139698,0.144523575901985,0.0304068755358458,0.00628545554354787,0.0370325222611427,0.152906343340874
527,0.0248611941933632,0.141229569911957,0.0243252795189619,0.00592336105182767,0.0482757277786732,0.120729029178619
528,0.0267446916550398,0.11497213691473,0.0171404778957367,0.0087205870077014,0.0498016178607941,0.0900560468435287
529,0.0339948795735836,0.071078397333622,0.0107079269364476,0.0153301479294896,0.0364883169531822,0.0637018457055092
530,0.0396316386759281,0.0257982276380062,0.00889284536242485,0.0268159583210945,0.0180499646812677,0.0446805022656918
531,0.0392870344221592,-0.00701014883816242,0.0128446780145168,0.0441021434962749,0.00604035332798958,0.0390899963676929
532,0.0447562634944916,-0.0167471021413803,0.0283584930002689,0.0719362646341324,0.0107790315523744,0.0530167631804943
533,0.0663406848907471,-0.00309882080182433,0.0513876676559448,0.104251883924007,0.0316456146538258,0.073930099606514
534,0.0911640748381615,0.0235140509903431,0.0660099908709526,0.119603715837002,0.0515142641961575,0.0751955807209015
535,0.102418340742588,0.053688857704401,0.0725513994693756,0.110587932169437,0.0587609484791756,0.0514099076390266
536,0.0980196669697762,0.0837875232100487,0.0821069702506065,0.0916625410318375,0.0565375499427319,0.0229419004172087
537,0.0853702425956726,0.114922314882278,0.0959471017122269,0.0777823403477669,0.0534313917160034,0.012720706872642
538,0.0794083774089813,0.150252968072891,0.112900666892529,0.0771444886922836,0.0610933937132359,0.0306922793388367
539,0.0848058089613914,0.178583785891533,0.12209690362215,0.0802037343382835,0.0760360956192017,0.0585716553032398
540,0.0832625925540924,0.17744517326355,0.102163374423981,0.0637858733534813,0.0742506682872772,0.0645928531885147
541,0.0591415055096149,0.141068041324615,0.0517032258212566,0.0224485788494349,0.0458100400865078,0.0410267375409603
542,0.0173209812492132,0.0819908007979393,-0.00512570282444358,-0.0262504369020462,0.00821967422962189,0.00544539419934154
543,-0.0243729222565889,0.0176232438534498,-0.0436142534017563,-0.0624921470880508,-0.0173733271658421,-0.0237854234874249
544,-0.0496761500835419,-0.0290166735649109,-0.0583682879805565,-0.0816494151949883,-0.0295612886548042,-0.0374663695693016
545,-0.0533177480101585,-0.0390052460134029,-0.0606775656342506,-0.0903615579009056,-0.0425099655985832,-0.0319049619138241
546,-0.0376993380486965,-0.0197183173149824,-0.0584521628916264,-0.0884124264121056,-0.0599990673363209,-0.0116643309593201
547,-0.0072118635289371,0.00649035349488258,-0.046209529042244,-0.0666341483592987,-0.0648812875151634,0.0150605272501707
548,0.0288872625678778,0.0272950660437346,-0.0227217245846987,-0.0264265537261963,-0.0464487001299858,0.0408966280519962
549,0.054417472332716,0.0335923284292221,-0.00656215054914355,0.00943721272051334,-0.0234690811485052,0.0519130118191242
550,0.0644761696457863,0.0251623559743166,-0.0115367062389851,0.023282453417778,-0.0141890766099095,0.0437347516417503
551,0.0680027976632118,0.0189074743539095,-0.0259378999471664,0.0208272654563189,-0.0126957874745131,0.0291611719876528
552,0.0656768903136253,0.0268628355115652,-0.0310675743967295,0.0159967187792063,-0.00632456596940756,0.0226109977811575
553,0.0542723387479782,0.0512848570942879,-0.0215851757675409,0.0170197933912277,0.00963889248669147,0.0385830253362656
554,0.0340252891182899,0.0854802578687668,-0.0126269096508622,0.013684774748981,0.0250728167593479,0.0713293328881264
555,0.00863229855895042,0.107706643640995,-0.0203821565955877,-0.00976062472909689,0.0247503668069839,0.08772312104702
556,-0.00582037819549441,0.0998345240950584,-0.0322546847164631,-0.0404137186706066,0.0118908444419503,0.0757653936743736
557,-0.00555533729493618,0.0645573660731316,-0.0344975776970387,-0.0597664006054401,-0.00583371659740806,0.0535199269652367
558,-0.0120023284107447,0.025872103869915,-0.0382015705108643,-0.0732264146208763,-0.0328262001276016,0.0337347127497196
559,-0.0306863691657782,0.00970474351197481,-0.0417338721454144,-0.0771050602197647,-0.0591318011283875,0.0258946046233177
560,-0.0452428795397282,0.0122612062841654,-0.0297199487686157,-0.0560241006314754,-0.0660787224769592,0.0385901629924774
561,-0.0470987632870674,0.0115232383832335,-0.00435343105345964,-0.0160493329167366,-0.0550509467720985,0.0645550265908241
562,-0.0329160615801811,0.00451812800019979,0.0276856571435928,0.0295674372464418,-0.0317503586411476,0.0942765697836876
563,-0.000860425876453519,0.00242021889425814,0.0617518238723278,0.0748221352696419,0.0029905226547271,0.126014888286591
564,0.0367630235850811,0.00486953509971499,0.0860371589660645,0.108215920627117,0.0398023463785648,0.154902383685112
565,0.0608278289437294,0.00824576057493687,0.0905881077051163,0.11850319057703,0.0645784437656403,0.175095185637474
566,0.0676861777901649,0.0215141586959362,0.0774569660425186,0.108181871473789,0.0722737535834312,0.188286602497101
567,0.064519576728344,0.0445922948420048,0.0551566518843174,0.0843695625662804,0.0655337125062943,0.19401815533638
568,0.0509371757507324,0.0554058998823166,0.026779118925333,0.0480072349309921,0.0453975610435009,0.183223128318787
569,0.0300475750118494,0.0448676012456417,-0.00192842003889382,0.00789825152605772,0.0193729307502508,0.159452497959137
570,0.019981924444437,0.033374760299921,-0.0156725496053696,-0.0145719265565276,0.00576263340190053,0.146236166357994
571,0.0330580919981003,0.0389556884765625,-0.00907946284860373,-0.00986787490546703,0.0159386303275824,0.157481998205185
572,0.0538688562810421,0.0519664995372295,-0.00154543633107096,0.00312196090817451,0.0358480289578438,0.176945939660072
573,0.0626219362020493,0.0583642646670341,-0.0113612525165081,0.00224423641338944,0.0434177592396736,0.185996785759926
574,0.0645921602845192,0.0644831880927086,-0.0325577147305012,-0.0141803240403533,0.0343752838671207,0.186133831739426
575,0.0653506815433502,0.0702186599373817,-0.0601504370570183,-0.0480433478951454,0.00582949817180634,0.173557192087173
576,0.0500761196017265,0.0623003989458084,-0.0958384871482849,-0.100044868886471,-0.0454661585390568,0.139842838048935
577,0.0122649604454637,0.0461612269282341,-0.122111365199089,-0.142596587538719,-0.0979037210345268,0.102375403046608
578,-0.0282249841839075,0.0392619296908379,-0.114145927131176,-0.142489835619926,-0.119287565350533,0.0912488475441933
579,-0.0457789041101933,0.0426229685544968,-0.0720770433545113,-0.0986871421337128,-0.101549312472343,0.115813203155994
580,-0.0284518972039223,0.047109629958868,-0.0138228805735707,-0.0283857882022858,-0.0559407249093056,0.163767352700233
581,0.0161494668573141,0.0539434514939785,0.0505954697728157,0.0544860176742077,0.00787403434514999,0.219015195965767
582,0.0593593530356884,0.0609136000275612,0.104227937757969,0.122292771935463,0.0689396783709526,0.258206844329834
583,0.0757518336176872,0.0526501797139645,0.120042532682419,0.145060732960701,0.0996764153242111,0.256286948919296
584,0.0721282213926315,0.0317152477800846,0.102287463843822,0.130070358514786,0.102798745036125,0.223047628998756
585,0.0672999024391174,0.0206793248653412,0.0801022797822952,0.10482070595026,0.102724477648735,0.191698521375656
586,0.0627007707953453,0.0242237076163292,0.0642711594700813,0.0782595574855804,0.106414370238781,0.170047670602798
587,0.0538778714835644,0.0269307438284159,0.0520391315221787,0.0498463474214077,0.103510685265064,0.149505063891411
588,0.0419368892908096,0.0263274386525154,0.0465624108910561,0.0286506004631519,0.0905913338065147,0.137969508767128
589,0.026154413819313,0.0335869751870632,0.0458738170564175,0.0190871767699718,0.070464052259922,0.143374264240265
590,0.0105055952444673,0.0498808994889259,0.0416070595383644,0.0141364391893148,0.0455200001597404,0.157586097717285
591,0.0125409560278058,0.0721963569521904,0.0359705425798893,0.0133255124092102,0.0269860904663801,0.179545357823372
592,0.0405918471515179,0.100188665091991,0.0321045890450478,0.0170085243880749,0.0253078415989876,0.207421243190765
593,0.0722163021564484,0.120092906057835,0.0207621287554502,0.0133936749771237,0.0292992144823074,0.213659390807152
594,0.0756624862551689,0.110424444079399,-0.00233441311866045,-0.00517987553030252,0.0192037001252174,0.176863089203835
595,0.047053374350071,0.0715837329626083,-0.0233806800097227,-0.0276964046061039,-0.00378317665308714,0.116101875901222
596,0.00641568144783378,0.0237524975091219,-0.0281019397079945,-0.0394930206239223,-0.0236077941954136,0.0641953274607658
597,-0.0292430501431227,-0.0129052167758346,-0.0162295047193766,-0.0372543297708035,-0.0292066633701324,0.0388040244579315
598,-0.0476831570267677,-0.0226396284997463,0.00710642617195845,-0.0211616232991219,-0.0151586607098579,0.047519363462925
599,-0.0456169471144676,-0.00847351551055908,0.0309937316924334,0.00252852728590369,0.0120273027569056,0.084766648709774
600,-0.031055836006999,0.00986756291240454,0.0394916124641895,0.0164883583784103,0.0369080193340778,0.125515252351761
601,-0.0102575737982988,0.0204959027469158,0.0258013550192118,0.00941897369921207,0.051629364490509,0.141815379261971
602,0.0150818834081292,0.0236348398029804,-0.0035189944319427,-0.0114322677254677,0.0549501590430737,0.127216920256615
603,0.0398813374340534,0.0177988149225712,-0.0412416346371174,-0.0363601632416248,0.0436131022870541,0.0932209119200706
604,0.0533233396708965,-0.00154340954031795,-0.0780073031783104,-0.0595553815364838,0.0199331510812044,0.0574175491929054
605,0.0450284630060196,-0.0299068335443735,-0.0923191085457802,-0.0694700255990028,-0.0059022237546742,0.0392462275922298
606,0.013082574121654,-0.0563973188400269,-0.0728214681148529,-0.0600311458110809,-0.0287129338830709,0.0409792028367519
607,-0.0230857878923416,-0.0672807842493057,-0.0304897148162127,-0.0320856012403965,-0.0413729399442673,0.0557424649596214
608,-0.0362586751580238,-0.0524778962135315,0.018043203279376,0.00993612036108971,-0.0340637117624283,0.0855779722332954
609,-0.0279880836606026,-0.0192416273057461,0.056851252913475,0.0475412644445896,-0.0130578465759754,0.123668298125267
610,-0.0252969078719616,0.0155247254297137,0.0722777247428894,0.0581699721515179,0.0023624817840755,0.148656845092773
611,-0.0409429185092449,0.0405064709484577,0.0602188743650913,0.0388493910431862,0.000326854205923155,0.14880059659481
612,-0.063173696398735,0.0468197949230671,0.0246338751167059,0.00316112604923546,-0.017719617113471,0.131074294447899
613,-0.0755418613553047,0.0291314627975225,-0.0217239186167717,-0.0354700163006783,-0.0398879162967205,0.104226917028427
614,-0.0657002702355385,0.00253405887633562,-0.052550133317709,-0.059341698884964,-0.0442772284150124,0.0754611417651176
615,-0.0368475802242756,-0.0173123646527529,-0.0551810674369335,-0.0573857128620148,-0.0254740118980408,0.0504234135150909
616,-0.00721446238458157,-0.0340914390981197,-0.0442873574793339,-0.0420221351087093,-0.00416107615455985,0.0295067392289639
617,0.0147050619125366,-0.0427315682172775,-0.0311801414936781,-0.0260340124368668,0.00989552494138479,0.0196839869022369
618,0.0331747233867645,-0.0325930565595627,-0.0172710511833429,-0.0105509720742702,0.0242583248764277,0.0258216839283705
619,0.0469105616211891,-0.0141622107475996,-0.00765289412811399,0.00106020318344235,0.0383526720106602,0.0395148508250713
620,0.047831367701292,-0.00640764785930514,-0.00872582104057074,0.00253630103543401,0.0397037006914616,0.0508815124630928
621,0.0330066196620464,-0.0168122965842485,-0.0225515216588974,-0.0079416474327445,0.0206789691001177,0.0523371770977974
622,0.0141567587852478,-0.0265717636793852,-0.0339920967817307,-0.0166679117828608,-0.00405081175267696,0.0550449192523956
623,0.00855768751353025,-0.00367833254858851,-0.018463896587491,-0.00295029953122139,-0.0113148838281631,0.0853069648146629
624,0.0134351700544357,0.0395566858351231,0.0183500740677118,0.0278416387736797,-0.00221656379289925,0.134202256798744
625,0.0147052463144064,0.059892401099205,0.0506573729217052,0.0536267496645451,0.0101173371076584,0.170649603009224
626,0.0115955611690879,0.0501458682119846,0.0680905058979988,0.0658981874585152,0.0196354929357767,0.18631599843502
627,0.00618694210425019,0.026434138417244,0.069361686706543,0.0662159025669098,0.0166396759450436,0.181826338171959
628,-0.00382398115471005,-0.00483055412769318,0.0597984679043293,0.0610117614269257,0.000219554465729743,0.163107231259346
629,-0.0133349066600204,-0.0342786237597466,0.0537010468542576,0.0590668581426144,-0.00988437235355377,0.151534751057625
630,-0.0122352372854948,-0.0455902926623821,0.0593296885490417,0.0645934864878654,0.00468778470531106,0.165366426110268
631,0.00532221887260675,-0.0305733438581228,0.0715051516890526,0.076350249350071,0.0416954532265663,0.204484537243843
632,0.0371162369847298,0.00415107421576977,0.0782339423894882,0.088054321706295,0.0814786851406097,0.25056117773056
633,0.0733788013458252,0.040781669318676,0.0735756009817123,0.0926966741681099,0.105720862746239,0.277075678110123
634,0.102283999323845,0.0625750571489334,0.0652937740087509,0.0893182381987572,0.11491385102272,0.271750777959824
635,0.118309073150158,0.0661140307784081,0.0602470599114895,0.0821155980229378,0.118795432150364,0.244739353656769
636,0.121506504714489,0.0572679862380028,0.0524831973016262,0.0712327659130096,0.11374831199646,0.208595335483551
637,0.108863137662411,0.0401941016316414,0.0364797227084637,0.0511769279837608,0.0883290097117424,0.169112354516983
638,0.0736337602138519,0.0164160076528788,0.00877551920711994,0.0182829797267914,0.0369931757450104,0.130146160721779
639,0.0152298249304295,-0.00510352989658713,-0.031419713050127,-0.0237188097089529,-0.0356229431927204,0.0958659276366234
640,-0.0517875365912914,-0.00896487198770046,-0.0715560838580132,-0.0631304681301117,-0.108581840991974,0.0730729699134827
641,-0.105591617524624,0.00451968843117356,-0.0949830934405327,-0.0865013152360916,-0.154068440198898,0.0657045990228653
642,-0.128561213612556,0.0179234631359577,-0.0894310846924782,-0.0838960483670235,-0.157314017415047,0.0716320648789406
643,-0.118099242448807,0.0166510716080666,-0.0568164773285389,-0.0570913925766945,-0.128330588340759,0.0852847546339035
644,-0.0876793786883354,0.0017524198628962,-0.0183551758527756,-0.0206616297364235,-0.0902393460273743,0.106773301959038
645,-0.0525723397731781,-0.0137025825679302,0.00750573491677642,0.0109235113486648,-0.0573202408850193,0.138737067580223
646,-0.0247295498847961,-0.0229127518832684,0.0136431781575084,0.02637686021626,-0.0346337892115116,0.166654676198959
647,-0.00623228866606951,-0.0293667335063219,-0.000476752204122022,0.0223559327423573,-0.0205969978123903,0.171963378787041
648,0.00744236866012216,-0.0406229831278324,-0.030744569376111,0.00294362287968397,-0.0139489965513349,0.15237794816494
649,0.0175442788749933,-0.0577817223966122,-0.0707381144165993,-0.0294888764619827,-0.0198134947568178,0.11439398676157
650,0.0279198698699474,-0.0689488127827644,-0.106160372495651,-0.0662766695022583,-0.0360947698354721,0.0697377622127533
651,0.0346886366605759,-0.0670778676867485,-0.122110046446323,-0.0937829166650772,-0.0566725358366966,0.0328891612589359
652,0.0214493777602911,-0.0590672977268696,-0.120347432792187,-0.109946884214878,-0.0834073051810265,0.0111854197457433
653,-0.0113309873268008,-0.0480301640927792,-0.113973394036293,-0.12095046043396,-0.11404500156641,0.00589665398001671
654,-0.047076016664505,-0.0357202962040901,-0.115104258060455,-0.133674368262291,-0.141272336244583,0.0112358182668686
655,-0.0748067796230316,-0.0328252427279949,-0.12811242043972,-0.15172390639782,-0.15880323946476,0.0135175697505474
656,-0.0834547877311707,-0.0391477718949318,-0.147835567593575,-0.170997977256775,-0.158655494451523,0.00626308610662818
657,-0.0749819129705429,-0.0433944761753082,-0.175198435783386,-0.194806382060051,-0.151501655578613,-0.0104010738432407
658,-0.063915953040123,-0.0387831069529057,-0.201551035046577,-0.21816711127758,-0.153434693813324,-0.0297310184687376
659,-0.0480827428400517,-0.0269464962184429,-0.199198201298714,-0.212646439671516,-0.155526101589203,-0.0372743643820286
660,-0.0234737228602171,-0.0219845715910196,-0.166861221194267,-0.171670645475388,-0.148621112108231,-0.0301526095718145
661,-0.00196754792705178,-0.0327229537069798,-0.128825932741165,-0.122498147189617,-0.135181874036789,-0.0128218047320843
662,0.00940630957484245,-0.0394338816404343,-0.0926433056592941,-0.0841604471206665,-0.114117540419102,0.0134933730587363
663,0.020421689376235,-0.0170952752232552,-0.053558386862278,-0.055763203650713,-0.0844636261463165,0.039017491042614
664,0.0408610366284847,0.0261978097259998,-0.0223746132105589,-0.0428159795701504,-0.0528815723955631,0.0468772239983082
665,0.0613786242902279,0.0593178905546665,-0.0265072211623192,-0.0640476942062378,-0.0356808714568615,0.0253281947225332
666,0.0621487945318222,0.0593500472605228,-0.0775840505957603,-0.122163414955139,-0.0475901998579502,-0.0286056622862816
667,0.0396401919424534,0.0296450797468424,-0.148063644766808,-0.188623815774918,-0.0809752568602562,-0.100888706743717
668,0.00772617803886533,-0.00811310950666666,-0.204435929656029,-0.234900802373886,-0.116789050400257,-0.16719014942646
669,-0.0167446304112673,-0.0384190045297146,-0.234859600663185,-0.253684937953949,-0.144981160759926,-0.212927952408791
670,-0.0175292193889618,-0.0492580085992813,-0.229705274105072,-0.242212206125259,-0.157176330685616,-0.230190515518188
671,0.00918739289045334,-0.0309566501528025,-0.187643155455589,-0.204631581902504,-0.146288901567459,-0.219036996364594
672,0.0485388077795506,0.00832087825983763,-0.132696330547333,-0.161800682544708,-0.116901502013206,-0.197555974125862
673,0.0814031735062599,0.0509790256619453,-0.0913277268409729,-0.131091982126236,-0.0859958454966545,-0.185672089457512
674,0.0879487171769142,0.0786626189947128,-0.082200363278389,-0.124277919530869,-0.078647218644619,-0.194263279438019
675,0.0640879720449448,0.0832552239298821,-0.10456345230341,-0.139930084347725,-0.0970980525016785,-0.215513542294502
676,0.041103046387434,0.0788909867405891,-0.126799777150154,-0.149478197097778,-0.111137844622135,-0.219302535057068
677,0.0436499305069447,0.0759966671466827,-0.132942721247673,-0.143167749047279,-0.109558023512363,-0.202278986573219
678,0.0602181628346443,0.0756718516349792,-0.137274622917175,-0.141509518027306,-0.108206763863564,-0.195009469985962
679,0.07078617811203,0.0765368416905403,-0.150553479790688,-0.155707359313965,-0.117355242371559,-0.214404165744781
680,0.0678273215889931,0.0608319006860256,-0.174579292535782,-0.185221433639526,-0.136615663766861,-0.261503994464874
681,0.0595639124512672,0.0226403884589672,-0.197918429970741,-0.217372804880142,-0.152649983763695,-0.325838536024094
682,0.0523770898580551,-0.0129956929013133,-0.20035357773304,-0.2310451567173,-0.151914566755295,-0.382888376712799
683,0.0379345864057541,-0.0280822310596704,-0.180545300245285,-0.222730681300163,-0.140907526016235,-0.416571438312531
684,0.0192069225013256,-0.0249664932489395,-0.150675147771835,-0.200529471039772,-0.126328721642494,-0.424285352230072
685,0.0142453126609325,-0.00628278777003288,-0.121788993477821,-0.171180546283722,-0.104548878967762,-0.415301382541656
686,0.0250823404639959,0.023291265591979,-0.108965501189232,-0.147366166114807,-0.080412469804287,-0.412867605686188
687,0.038577675819397,0.0487263277173042,-0.116229154169559,-0.136976629495621,-0.0611680708825588,-0.430027693510056
688,0.0436901859939098,0.0555130019783974,-0.131977781653404,-0.138176247477531,-0.0527913682162762,-0.467938929796219
689,0.0297239385545254,0.0389937572181225,-0.149477571249008,-0.150149837136269,-0.0646147057414055,-0.5
690,-0.00303056347183883,0.00472303153946996,-0.16047403216362,-0.163591474294662,-0.0905254259705544,-0.5
691,-0.0346483923494816,-0.0355898998677731,-0.155019715428352,-0.164183363318443,-0.111727893352509,-0.5
692,-0.0447237864136696,-0.0660632699728012,-0.135559231042862,-0.150159105658531,-0.114956341683865,-0.5
693,-0.0296663399785757,-0.0685453489422798,-0.109708420932293,-0.1289471834898,-0.0966192185878754,-0.5
694,-0.00886610243469477,-0.0396781675517559,-0.0916709676384926,-0.116621673107147,-0.0752018392086029,-0.5
695,-0.00623777043074369,-0.00247188075445592,-0.0969158038496971,-0.12908673286438,-0.0756772384047508,-0.5
696,-0.018507668748498,0.0125060100108385,-0.124472305178642,-0.162075653672218,-0.0945861265063286,-0.5
697,-0.0259978212416172,-0.010780774988234,-0.166304111480713,-0.202920123934746,-0.116367876529694,-0.5
698,-0.0252316296100616,-0.0610865578055382,-0.211657345294952,-0.241309240460396,-0.135748118162155,-0.5
699,-0.025473790243268,-0.0992475673556328,-0.237728223204613,-0.258908212184906,-0.146231859922409,-0.5
700,-0.0338571108877659,-0.0965267941355705,-0.232431828975677,-0.250080645084381,-0.148853376507759,-0.5
701,-0.0494537763297558,-0.059377159923315,-0.205492720007896,-0.227814182639122,-0.151656150817871,-0.5
702,-0.060031533241272,-0.0142207648605108,-0.166387796401978,-0.194512188434601,-0.145600825548172,-0.5
703,-0.0527528487145901,0.0137278540059924,-0.119760937988758,-0.145816907286644,-0.115874268114567,-0.5
704,-0.0309942904859781,0.0196478888392448,-0.0764172971248627,-0.0936802700161934,-0.0716536790132523,-0.5
705,-0.0114204194396734,0.0175862312316895,-0.0467192642390728,-0.0566530749201775,-0.0370352044701576,-0.5
706,-0.000598063983488828,0.021040640771389,-0.0287719201296568,-0.0374283790588379,-0.01965949870646,-0.5
707,0.00982230436056852,0.028001431375742,-0.0196150932461023,-0.0295846648514271,-0.01387535687536,-0.5
708,0.0277699306607246,0.0246263518929482,-0.0216703359037638,-0.0280005689710379,-0.0122680459171534,-0.5
709,0.046052597463131,0.00399347068741918,-0.0381599403917789,-0.0349892415106297,-0.00957621727138758,-0.5
710,0.0435507223010063,-0.0243989806622267,-0.0708995312452316,-0.0618323162198067,-0.0127533376216888,-0.5
711,0.0137839503586292,-0.0472002699971199,-0.111203476786613,-0.105269528925419,-0.0287710707634687,-0.5
712,-0.0206856802105904,-0.0606265403330326,-0.136577174067497,-0.138657420873642,-0.0450096316635609,-0.5
713,-0.0374444425106049,-0.0667062103748322,-0.132080242037773,-0.142727851867676,-0.0428541451692581,-0.5
714,-0.0387972369790077,-0.0660728588700294,-0.109591193497181,-0.124421305954456,-0.0217488203197718,-0.5
715,-0.0436393879354,-0.0674526989459991,-0.0947385355830193,-0.106457650661469,-0.00287224212661386,-0.5
716,-0.0578923486173153,-0.0747120380401611,-0.0907641723752022,-0.0978289917111397,0.000132861445308663,-0.5
717,-0.0655367523431778,-0.0756930857896805,-0.0819120332598686,-0.0874182805418968,-0.0022491542622447,-0.5
718,-0.0580737963318825,-0.0735722929239273,-0.0721096098423004,-0.0761862695217133,-0.00308723514899611,-0.5
719,-0.0410858131945133,-0.076676994562149,-0.0719017684459686,-0.0726824700832367,-0.00354405073449016,-0.5
720,-0.0272038653492928,-0.076600193977356,-0.0799704566597939,-0.0753104016184807,-0.00638813339173794,-0.5
721,-0.0309266205877066,-0.0686124488711357,-0.0902858749032021,-0.0792923048138618,-0.0155742550268769,-0.5
722,-0.0476820133626461,-0.0570230074226856,-0.0912303552031517,-0.0782681405544281,-0.02290272526443,-0.5
723,-0.0620820410549641,-0.0447656586766243,-0.0765050128102303,-0.0662941336631775,-0.0172769166529179,-0.5
724,-0.0718838796019554,-0.0340322516858578,-0.0491781942546368,-0.0423102602362633,-0.000255556631600484,-0.5
725,-0.0795724540948868,-0.0263349898159504,-0.0141203617677093,-0.0113745778799057,0.0197393093258142,-0.5
726,-0.0804612636566162,-0.0188140776008368,0.0174150187522173,0.0141307218000293,0.0368338413536549,-0.5
727,-0.0656493902206421,-0.0101262461394072,0.0315852239727974,0.0248467903584242,0.0518742017447948,-0.5
728,-0.0337048247456551,-0.00652804411947727,0.0275086630135775,0.0242055505514145,0.0654443725943565,-0.5
729,0.000209296864341013,-0.0116183673962951,0.0172804389148951,0.0219690147787333,0.0740692466497421,-0.5
730,0.0192390121519566,-0.018970251083374,0.0126792872324586,0.026239737868309,0.0783972218632698,-0.5
731,0.0227852035313845,-0.0203374568372965,0.0218895245343447,0.0415646992623806,0.0858462676405907,-0.5
732,0.0197602417320013,-0.0140222450718284,0.0478135533630848,0.0675368085503578,0.10383465141058,-0.5
733,0.0141956033185124,-0.00888089649379253,0.0792948007583618,0.0961479693651199,0.129040792584419,-0.5
734,0.0102477055042982,-0.00442186929285526,0.104098454117775,0.121969163417816,0.154758021235466,-0.5
735,0.00871892925351858,0.0151962386444211,0.115501366555691,0.137720182538033,0.173174560070038,-0.5
736,0.00204867194406688,0.0471282228827477,0.110187754034996,0.132049262523651,0.173686698079109,-0.495454788208008
737,-0.00642264308407903,0.067845955491066,0.0984285995364189,0.11312248557806,0.164413303136826,-0.493237555027008
738,-0.00699187163263559,0.0567617230117321,0.0877322554588318,0.0956892445683479,0.163893297314644,-0.483145654201508
739,0.00158021529205143,0.0170419327914715,0.0746715888381004,0.0832437872886658,0.173937305808067,-0.466797977685928
740,0.0174559541046619,-0.0259389020502567,0.0595355033874512,0.0773987919092178,0.180843487381935,-0.454360991716385
741,0.0365704298019409,-0.0629283785820007,0.0423167794942856,0.0744617953896523,0.172242909669876,-0.453561753034592
742,0.0479390993714333,-0.10312782227993,0.0214679036289454,0.066845715045929,0.147402837872505,-0.465955257415771
743,0.043002225458622,-0.135897502303123,0.0118057345971465,0.0636555105447769,0.120214693248272,-0.476069420576096
744,0.0268961656838655,-0.137155994772911,0.0329056344926357,0.0831964015960693,0.110250934958458,-0.461516976356506
745,0.00718972226604819,-0.109537914395332,0.0745623856782913,0.120587073266506,0.119729451835155,-0.426493644714355
746,-0.0117828669026494,-0.0711579918861389,0.113359831273556,0.155984491109848,0.137253776192665,-0.388976007699966
747,-0.0245410278439522,-0.0280800070613623,0.144684106111526,0.180484414100647,0.156371429562569,-0.35126256942749
748,-0.0322056449949741,0.0107821626588702,0.1703991740942,0.192914426326752,0.173102110624313,-0.317837655544281
749,-0.0417183265089989,0.027108009904623,0.182432025671005,0.189947068691254,0.180914655327797,-0.301442533731461
750,-0.0508977621793747,0.0158985462039709,0.17333348095417,0.170980840921402,0.177650347352028,-0.301057755947113
751,-0.0490912012755871,-0.00497901393100619,0.151991844177246,0.149121910333633,0.170123338699341,-0.305749893188477
752,-0.0368653237819672,-0.0223969873040915,0.133603438735008,0.138546615839005,0.162688612937927,-0.313651323318481
753,-0.0253414437174797,-0.0385783538222313,0.124971784651279,0.140001714229584,0.157955676317215,-0.320820897817612
754,-0.0210058409720659,-0.0453860498964787,0.124801248311996,0.147619113326073,0.161657065153122,-0.31060591340065
755,-0.0215561650693417,-0.0306103304028511,0.123972542583942,0.153459489345551,0.172302514314651,-0.276116192340851
756,-0.0195924546569586,-0.00809870939701796,0.114379271864891,0.150903865695,0.179375484585762,-0.233173370361328
757,-0.0181495063006878,-0.00536864483729005,0.0968093723058701,0.136365309357643,0.168265372514725,-0.203199476003647
758,-0.0298157501965761,-0.0253977067768574,0.0778339058160782,0.113097213208675,0.135768130421638,-0.189429208636284
759,-0.0524116791784763,-0.0452051125466824,0.0704419761896133,0.0995567291975021,0.104105114936829,-0.179256275296211
760,-0.0679668709635735,-0.0471291281282902,0.0863921791315079,0.114801645278931,0.100052289664745,-0.16495318710804
761,-0.0616057962179184,-0.0344827063381672,0.117679581046104,0.150785401463509,0.125070959329605,-0.152577146887779
762,-0.031068567186594,-0.0211618058383465,0.14201395213604,0.179900735616684,0.158322796225548,-0.156107738614082
763,0.0033939192071557,-0.0273911524564028,0.138865187764168,0.178840190172195,0.171747595071793,-0.184901371598244
764,0.0184939075261354,-0.0573600977659225,0.113659285008907,0.15435703098774,0.159037232398987,-0.218780845403671
765,0.018401937559247,-0.0842550992965698,0.102494783699512,0.143590092658997,0.148688942193985,-0.223694369196892
766,0.0147876078262925,-0.0920204445719719,0.123454637825489,0.162840664386749,0.160356238484383,-0.203801020979881
767,0.00912848487496376,-0.0892111212015152,0.158142521977425,0.191374272108078,0.184285596013069,-0.184923186898232
768,-0.00181089295074344,-0.0833831876516342,0.180480122566223,0.204212099313736,0.202066779136658,-0.175777181982994
769,-0.0211570095270872,-0.0738764628767967,0.17927885055542,0.194436758756638,0.202633693814278,-0.170792371034622
770,-0.0463471934199333,-0.0595047920942307,0.15835028886795,0.169765114784241,0.185305744409561,-0.166257485747337
771,-0.0671824812889099,-0.0416561663150787,0.134074747562408,0.146298438310623,0.159584417939186,-0.160524785518646
772,-0.0773141458630562,-0.0274583827704191,0.12200041115284,0.135525435209274,0.134419322013855,-0.148282259702683
773,-0.0797522440552711,-0.0204038377851248,0.122454717755318,0.136444225907326,0.113927945494652,-0.125223025679588
774,-0.074427455663681,-0.015071147121489,0.13488595187664,0.1505978256464,0.107922971248627,-0.0945334136486053
775,-0.0624945051968098,-0.0162078272551298,0.160462975502014,0.17839278280735,0.124055363237858,-0.0728581324219704
776,-0.0507858581840992,-0.0309591293334961,0.189383491873741,0.207225754857063,0.153951123356819,-0.0764609724283218
777,-0.0419832728803158,-0.0508912093937397,0.208073630928993,0.223086431622505,0.177681609988213,-0.101549707353115
778,-0.0332437716424465,-0.0596353486180305,0.217216834425926,0.229570463299751,0.186821565032005,-0.125701412558556
779,-0.0264490526169539,-0.053006686270237,0.219607546925545,0.232678115367889,0.183470293879509,-0.132822141051292
780,-0.0225742030888796,-0.0361593253910542,0.211179807782173,0.226888611912727,0.170641630887985,-0.126889437437058
781,-0.0155049450695515,-0.0160568058490753,0.188667386770248,0.207095459103584,0.1529151648283,-0.126298233866692
782,-0.00139764451887459,-0.00461148889735341,0.152979642152786,0.176320523023605,0.134834036231041,-0.144554734230042
783,0.0174401681870222,-0.00759202567860484,0.115284234285355,0.146475657820702,0.1243586987257,-0.171460792422295
784,0.031437274068594,-0.0208112932741642,0.0881704017519951,0.126314759254456,0.123678542673588,-0.191565230488777
785,0.0346318259835243,-0.0298546329140663,0.0814678445458412,0.119576714932919,0.128498107194901,-0.19842104613781
786,0.0245162211358547,-0.0262148678302765,0.0938896536827087,0.122235782444477,0.133143082261086,-0.192856803536415
787,-0.00388730061240494,-0.0182547755539417,0.110230304300785,0.124281980097294,0.132502302527428,-0.183415144681931
788,-0.040840744972229,-0.00857533048838377,0.1252631098032,0.127510279417038,0.132793515920639,-0.178569942712784
789,-0.064286082983017,0.00590524077415466,0.138592734932899,0.132505550980568,0.13945247232914,-0.179866477847099
790,-0.0723779648542404,0.01570282317698,0.133355125784874,0.123030118644238,0.137100741267204,-0.186885550618172
791,-0.0782379955053329,0.00405731750652194,0.100028425455093,0.0933983847498894,0.117075249552727,-0.203880429267883
792,-0.0748215839266777,-0.0286375768482685,0.0648691281676292,0.0671010538935661,0.10181650519371,-0.226275116205215
793,-0.0487750358879566,-0.0571294091641903,0.0605427287518978,0.067533865571022,0.107716605067253,-0.235796868801117
794,-0.0152040598914027,-0.0615630410611629,0.0854310840368271,0.0905902311205864,0.119978442788124,-0.228254020214081
795,-0.00180341047234833,-0.0521249137818813,0.111203834414482,0.113634414970875,0.118463531136513,-0.221019059419632
796,-0.00934992637485266,-0.0475775487720966,0.12035608291626,0.124267995357513,0.103578858077526,-0.220027297735214
797,-0.0235399920493364,-0.0528637766838074,0.115130878984928,0.126535162329674,0.0850419253110886,-0.216577008366585
798,-0.0366128012537956,-0.0619329437613487,0.106720738112926,0.129509925842285,0.0704047754406929,-0.207732304930687
799,-0.0400832071900368,-0.065589465200901,0.109771385788918,0.140717402100563,0.0699396952986717,-0.19220007956028
800,-0.0360702201724052,-0.0647144988179207,0.122895300388336,0.153014346957207,0.0804272964596748,-0.175114050507545
801,-0.0343976691365242,-0.0662920027971268,0.133212625980377,0.154960915446281,0.0890297815203667,-0.168709740042686
802,-0.0311889443546534,-0.0707157328724861,0.135579958558083,0.147686049342155,0.0961037129163742,-0.175346806645393
803,-0.0174585562199354,-0.0710446834564209,0.13091091811657,0.137483566999435,0.108157724142075,-0.183361008763313
804,0.00468505593016744,-0.0596500709652901,0.127120077610016,0.131992325186729,0.124427668750286,-0.177676990628242
805,0.0236908420920372,-0.040838323533535,0.13157756626606,0.134113416075706,0.136861756443977,-0.159257739782333
806,0.0321731902658939,-0.0246195159852505,0.137853056192398,0.134317949414253,0.137580826878548,-0.144785016775131
807,0.0330293662846088,-0.0134756751358509,0.132331863045692,0.122839830815792,0.12282894551754,-0.142915591597557
808,0.0277078077197075,-0.00848790258169174,0.110368229448795,0.101534567773342,0.0953287780284882,-0.148210763931274
809,0.0126872481778264,-0.00632721977308393,0.0844286531209946,0.0808357447385788,0.0689617246389389,-0.151890501379967
810,-0.00884872395545244,0.0031440076418221,0.0744849145412445,0.0707796141505241,0.0612084567546844,-0.144561558961868
811,-0.0225993413478136,0.0169976670295,0.0874180495738983,0.0740149766206741,0.0758965834975243,-0.121749065816402
812,-0.0191532988101244,0.0229079090058804,0.108006052672863,0.08565354347229,0.0972834900021553,-0.0943781137466431
813,-0.0017282449407503,0.0240527484565973,0.122010581195354,0.101254604756832,0.11212370544672,-0.0713369399309158
814,0.0218238607048988,0.0289024747908115,0.132607758045197,0.121908828616142,0.123103901743889,-0.0484388284385204
815,0.0329458266496658,0.029340498149395,0.138582646846771,0.142948552966118,0.128113582730293,-0.0365268923342228
816,0.0194560885429382,0.0153783718124032,0.13316248357296,0.152375191450119,0.120879635214806,-0.0565634593367577
817,-0.000730156782083213,-0.00354724400676787,0.125060424208641,0.148799777030945,0.111340150237083,-0.0974384993314743
818,-0.00577443884685636,-0.0141132194548845,0.124349385499954,0.139901459217072,0.110456615686417,-0.124808691442013
819,0.00495820818468928,-0.023613628000021,0.11950608342886,0.124619334936142,0.106732949614525,-0.131410285830498
820,0.0185341127216816,-0.0407010018825531,0.0992610901594162,0.101738788187504,0.0872300565242767,-0.134045034646988
821,0.0233339052647352,-0.0510439425706863,0.0771081075072289,0.0826829075813293,0.062505342066288,-0.135543882846832
822,0.0167677085846663,-0.0431954748928547,0.0667631030082703,0.07357207685709,0.0457600690424442,-0.130929291248322
823,0.00454773707315326,-0.0274759940803051,0.0626206621527672,0.0683069601655006,0.03566575050354,-0.12421153485775
824,-0.00181342090945691,-0.0106417601928115,0.0647774413228035,0.0700472071766853,0.0362214669585228,-0.115256085991859
825,0.00201114779338241,0.0104875527322292,0.0828369706869125,0.0852584317326546,0.0558851808309555,-0.0997620895504951
826,0.00299546308815479,0.0295745972543955,0.10689752548933,0.100860141217709,0.0813209936022758,-0.0834964290261269
827,-0.00619775708764791,0.0395873598754406,0.115928083658218,0.0999589264392853,0.090627945959568,-0.07192612439394
828,-0.013961136341095,0.0465642362833023,0.0981485992670059,0.0791658982634544,0.0785605013370514,-0.0661450028419495
829,-0.0107070058584213,0.0560023486614227,0.0576375387609005,0.0460097938776016,0.0518883168697357,-0.0705731883645058
830,-0.0028936683665961,0.0577572472393513,0.0171209257096052,0.0146981244906783,0.0212535038590431,-0.0922697484493256
831,-0.00182368652895093,0.0377569198608398,-0.00193222053349018,-0.000981841003522277,0.00145978725049645,-0.131299436092377
832,-0.0094860065728426,-0.00209484901279211,-0.000130652653751895,0.00136721215676516,0.00172871677204967,-0.173437267541885
833,-0.0228158608078957,-0.0442464090883732,0.00899955816566944,0.0116456123068929,0.0160870403051376,-0.204630255699158
834,-0.0325123071670532,-0.0613095015287399,0.0293786209076643,0.0313468165695667,0.0409911498427391,-0.21222722530365
835,-0.0233279373496771,-0.0367412231862545,0.0742366909980774,0.0721336528658867,0.077837698161602,-0.187087446451187
836,0.00836907979100943,0.0143700195476413,0.131036952137947,0.125483587384224,0.118471100926399,-0.141656741499901
837,0.0473198033869267,0.0586691573262215,0.165595754981041,0.16069932281971,0.14805780351162,-0.105580568313599
838,0.0721084550023079,0.0738775283098221,0.158976823091507,0.15631428360939,0.151893779635429,-0.100730627775192
839,0.0731357857584953,0.070367157459259,0.131308048963547,0.127024680376053,0.128235936164856,-0.117472030222416
840,0.0557170175015926,0.0737927630543709,0.114404164254665,0.102878525853157,0.0928888022899628,-0.127730116248131
841,0.0247833076864481,0.0879017040133476,0.1134093105793,0.0923214480280876,0.0611694417893887,-0.122396282851696
842,-0.0138784181326628,0.0981731414794922,0.118541032075882,0.0896315202116966,0.0388338454067707,-0.111100517213345
843,-0.0405599139630795,0.0946992635726929,0.124695517122746,0.0944312363862991,0.0279225967824459,-0.100237801671028
844,-0.0385952331125736,0.0785395205020905,0.122790306806564,0.103105500340462,0.0259252302348614,-0.0944532155990601
845,-0.0164440330117941,0.059061337262392,0.109658993780613,0.107345417141914,0.0278787985444069,-0.0974237620830536
846,0.00407027080655098,0.0454609766602516,0.0986004918813705,0.106244325637817,0.0356163792312145,-0.103838466107845
847,0.0119510516524315,0.0424926951527596,0.0962177440524101,0.101408109068871,0.0520792901515961,-0.10945675522089
848,0.00909222010523081,0.0489093251526356,0.0934332981705666,0.0899396613240242,0.0674680545926094,-0.120274916291237
849,0.00148755451664329,0.0529541708528996,0.0826802179217339,0.0728331208229065,0.0689623281359673,-0.141952082514763
850,-0.000758824637159705,0.047248613089323,0.0715858042240143,0.0621808394789696,0.0630404055118561,-0.16595059633255
851,0.00590270012617111,0.0372770242393017,0.0713089555501938,0.0661955624818802,0.0606689527630806,-0.176402449607849
852,0.0113698542118073,0.0260140188038349,0.077667810022831,0.075863391160965,0.0560294426977634,-0.170428529381752
853,0.00935353245586157,0.0151953566819429,0.0778049305081367,0.0788176208734512,0.0451025068759918,-0.160646572709084
854,0.00623514037579298,0.013386745005846,0.0664584785699844,0.071122832596302,0.0358798652887344,-0.161590427160263
855,0.0125569514930248,0.0228956434875727,0.0477878004312515,0.0536755435168743,0.0330654121935368,-0.176134079694748
856,0.031576544046402,0.0331254005432129,0.0284641738981009,0.0307718086987734,0.0326355434954166,-0.189969003200531
857,0.0486564561724663,0.0347470976412296,0.0140057522803545,0.0114042414352298,0.0272163935005665,-0.191078826785088
858,0.0458688549697399,0.028778837993741,0.0101574379950762,0.00688863778486848,0.0148222018033266,-0.187890410423279
859,0.0264109820127487,0.0255150515586138,0.0210444908589125,0.0203430168330669,0.00326241319999099,-0.188070833683014
860,-0.000465374818304554,0.0307275373488665,0.0363739840686321,0.0353934541344643,-0.003041802207008,-0.189413547515869
861,-0.0295815039426088,0.0335179008543491,0.0429709665477276,0.0374466106295586,-0.0044858162291348,-0.191502153873444
862,-0.0511660799384117,0.0204780735075474,0.0420440286397934,0.0310530792921782,-0.00156760541722178,-0.19210059940815
863,-0.0618914887309074,-0.00554184475913644,0.0355970785021782,0.0208302307873964,-0.003154416102916,-0.18944288790226
864,-0.0588789097964764,-0.0275501608848572,0.026613412424922,0.0102128991857171,-0.011656504124403,-0.184498935937881
865,-0.0383622348308563,-0.0340619161725044,0.0186017174273729,0.00115533079952002,-0.020648293197155,-0.181478023529053
866,-0.0160278808325529,-0.0316766053438187,0.00605059880763292,-0.0119516449049115,-0.0339448340237141,-0.18895161151886
867,-0.00728000001981854,-0.0266352705657482,-0.00590738654136658,-0.0203338116407394,-0.0467841103672981,-0.201453670859337
868,-0.0140549996867776,-0.0241955183446407,-0.00910413917154074,-0.0152785070240498,-0.0515541657805443,-0.209552705287933
869,-0.02909304946661,-0.0297695621848106,-0.00324250920675695,-0.00193679798394442,-0.051101740449667,-0.212085649371147
870,-0.0337466187775135,-0.0329020284116268,0.0151802888140082,0.0199091490358114,-0.0397686362266541,-0.20305623114109
871,-0.0238378196954727,-0.0283374637365341,0.034863818436861,0.0418896041810513,-0.0191053338348866,-0.184250697493553
872,-0.0114246252924204,-0.0179000347852707,0.0428499020636082,0.0520793423056602,-0.00107566430233419,-0.163305774331093
873,0.00186767359264195,0.00612074136734009,0.053672231733799,0.059562586247921,0.014658784493804,-0.138778939843178
874,0.0196546912193298,0.0454471707344055,0.0803952217102051,0.0757628232240677,0.0326271504163742,-0.111774899065495
875,0.0351630635559559,0.0864308848977089,0.105830103158951,0.0900425463914871,0.0470510721206665,-0.0934203192591667
876,0.0414143614470959,0.112721800804138,0.111594848334789,0.0894798338413239,0.0523435734212399,-0.0850305631756783
877,0.0388215444982052,0.114100404083729,0.096220463514328,0.0752959251403809,0.0451340712606907,-0.0791472643613815
878,0.0301777049899101,0.0926424041390419,0.0634879693388939,0.052362073212862,0.0226719975471497,-0.0807878002524376
879,0.0150194214656949,0.0607602819800377,0.0206699203699827,0.0231015756726265,-0.00960519257932901,-0.100064814090729
880,-0.00694471038877964,0.0272929854691029,-0.0192016791552305,-0.00798964686691761,-0.0402831919491291,-0.132006153464317
881,-0.0238202940672636,0.00266728294081986,-0.036575049161911,-0.02699332870543,-0.0532644018530846,-0.15293362736702
882,-0.0242622997611761,0.00594257190823555,-0.0248224381357431,-0.0243734754621983,-0.0424026027321815,-0.141796797513962
883,-0.0146894697099924,0.0408839844167233,-0.00382596347481012,-0.0119953006505966,-0.0224726367741823,-0.10165610909462
884,-0.00713157327845693,0.0828525349497795,0.00587199488654733,-0.00804560910910368,-0.00961443036794662,-0.0572304874658585
885,-0.00292505789548159,0.103939533233643,0.00350767094641924,-0.014027863740921,-0.00785761419683695,-0.0373661927878857
886,0.00157382362522185,0.0939205661416054,-0.0006019352003932,-0.0173045005649328,-0.013938226737082,-0.0543541386723518
887,0.00691178860142827,0.0657393038272858,0.00554342241957784,-0.00491003505885601,-0.0170406196266413,-0.0927474722266197
888,0.0152359111234546,0.0511298067867756,0.030745031312108,0.0265259966254234,-0.00191905011888593,-0.121495842933655
889,0.0267424713820219,0.0665716603398323,0.0672736912965775,0.0631306022405624,0.0275107976049185,-0.122892081737518
890,0.0346412062644959,0.085351750254631,0.0882554575800896,0.0805245339870453,0.0445186644792557,-0.108156979084015
891,0.0368557572364807,0.0818251296877861,0.0790273249149323,0.069905623793602,0.0366361476480961,-0.0932292640209198
892,0.035674050450325,0.0675137937068939,0.0504795871675015,0.0424631647765636,0.0129625909030437,-0.0793476775288582
893,0.028151948004961,0.0533390566706657,0.0188454128801823,0.0119217513129115,-0.0164471454918385,-0.0679067745804787
894,0.0165923945605755,0.0385881476104259,0.0033088515046984,-0.00371048739179969,-0.0368350110948086,-0.0591445937752724
895,0.00695508811622858,0.0242027658969164,0.0128245800733566,0.0043152179569006,-0.039444986730814,-0.0461015291512012
896,-0.00346550508402288,0.00660114968195558,0.0305724591016769,0.0220322664827108,-0.0320128872990608,-0.0283463727682829
897,-0.0136718098074198,-0.0115751707926393,0.0423073060810566,0.0402111038565636,-0.0197918433696032,-0.013178788125515
898,-0.014782814309001,-0.0194126684218645,0.0492055416107178,0.0566747076809406,-0.00770706217736006,-0.00670923199504614
899,-0.00368862086907029,-0.0132588502019644,0.0485837459564209,0.0585556887090206,-0.00735767185688019,-0.0130661008879542
900,0.0127042308449745,0.00393876759335399,0.033257894217968,0.037630844861269,-0.0239479597657919,-0.0376234613358974
901,0.0205825939774513,0.023467943072319,0.00369374733418226,0.00205596955493093,-0.0509803704917431,-0.0797718614339828
902,0.00886072497814894,0.0263376422226429,-0.0311195757240057,-0.0365227647125721,-0.0765873566269875,-0.12714259326458
903,-0.0184392090886831,0.00517521938309073,-0.0560947321355343,-0.0666653215885162,-0.0901790931820869,-0.161780327558517
904,-0.0427488051354885,-0.0198962278664112,-0.0543828494846821,-0.0714829713106155,-0.0838569030165672,-0.167559638619423
905,-0.0502563342452049,-0.0323005020618439,-0.0227157305926085,-0.0444619655609131,-0.0559985376894474,-0.144188791513443
906,-0.0452073477208614,-0.0376838520169258,0.0209774486720562,-0.00220464705489576,-0.0176210571080446,-0.111461542546749
907,-0.0327324047684669,-0.0392822995781899,0.0566874817013741,0.0364374555647373,0.0185114163905382,-0.0853936597704887
908,-0.00789256859570742,-0.0282633602619171,0.0791098549962044,0.065349817276001,0.0500273704528809,-0.0626720041036606
909,0.025180647149682,0.000543235626537353,0.0848593935370445,0.0779654011130333,0.0716670006513596,-0.0396621413528919
910,0.0506794489920139,0.0420565456151962,0.0670580491423607,0.0664758309721947,0.0724427774548531,-0.0199761334806681
911,0.056610681116581,0.0768516361713409,0.0296493265777826,0.0351923927664757,0.0518605783581734,-0.00764015130698681
912,0.0406463667750359,0.079364649951458,-0.0115397339686751,-0.00177110766526312,0.0216750986874104,-0.0131249856203794
913,0.0179707836359739,0.0508149191737175,-0.0345728658139706,-0.0229472257196903,0.00277305603958666,-0.037776704877615
914,0.0164096299558878,0.0257561504840851,-0.0211571380496025,-0.00795163493603468,0.0172464195638895,-0.0568151213228703
915,0.040243823081255,0.0234531741589308,0.0124466605484486,0.0282107926905155,0.0558116585016251,-0.0574018582701683
916,0.0623789243400097,0.0250903274863958,0.0233290549367666,0.0425012670457363,0.0787901654839516,-0.0590714402496815
917,0.0652196481823921,0.0119081838056445,-0.0018468105699867,0.0213574059307575,0.0674382820725441,-0.0704072788357735
918,0.0547360219061375,-0.0175372939556837,-0.043400451540947,-0.0145940165966749,0.0355670303106308,-0.0844253748655319
919,0.0400833003222942,-0.0544837191700935,-0.0834761187434196,-0.04826345667243,0.000730748346541077,-0.108809269964695
920,0.0270235762000084,-0.0844492688775063,-0.112133614718914,-0.0741400197148323,-0.0253213718533516,-0.148530349135399
921,0.0229702331125736,-0.0978496596217155,-0.121489159762859,-0.0864429697394371,-0.0322255901992321,-0.182724446058273
922,0.0297248288989067,-0.0940569564700127,-0.111748903989792,-0.0823980420827866,-0.0174537636339664,-0.19183187186718
923,0.0361810140311718,-0.0807500779628754,-0.0943311378359795,-0.0714901387691498,0.00895050354301929,-0.182225123047829
924,0.0370240584015846,-0.0635019466280937,-0.0751045569777489,-0.0601885616779327,0.0370631366968155,-0.165106639266014
925,0.0428293943405151,-0.0460288897156715,-0.0538945309817791,-0.0443100295960903,0.0592774227261543,-0.146388113498688
926,0.0545667745172977,-0.0418951027095318,-0.0432443991303444,-0.0291861835867167,0.0629746913909912,-0.138822868466377
927,0.0607413090765476,-0.0586428195238113,-0.0590419322252274,-0.0311348307877779,0.0466606169939041,-0.151713028550148
928,0.0601711943745613,-0.0824359431862831,-0.0969527363777161,-0.0555869340896606,0.0232633501291275,-0.175052836537361
929,0.048821397125721,-0.0968215242028236,-0.134781777858734,-0.0921327844262123,-0.0046909786760807,-0.190933361649513
930,0.0140575394034386,-0.101195052266121,-0.15409991145134,-0.12661612033844,-0.0394819267094135,-0.194229260087013
931,-0.0338522493839264,-0.0985618159174919,-0.147874042391777,-0.141278684139252,-0.0670731663703918,-0.181446120142937
932,-0.0695565491914749,-0.0891193076968193,-0.120101004838943,-0.124793887138367,-0.0725016072392464,-0.144888937473297
933,-0.0859022587537766,-0.0790967643260956,-0.0859227702021599,-0.0896735861897469,-0.0603023059666157,-0.0987816229462624
934,-0.0835975781083107,-0.0681345015764236,-0.0503911711275578,-0.0484252125024796,-0.0395973771810532,-0.0635448694229126
935,-0.0622664913535118,-0.0479548573493958,-0.0095633827149868,-0.00353943044319749,-0.0148930717259645,-0.036677747964859
936,-0.0382411181926727,-0.0231184437870979,0.0222422685474157,0.0279602780938149,0.0026957665104419,-0.0138149112462997
937,-0.0262754932045937,0.00387722393497825,0.0329901091754436,0.0348517373204231,0.0105152642354369,-0.000609637179877609
938,-0.0158898644149303,0.0428409054875374,0.0365052483975887,0.0335147455334663,0.0228622835129499,0.00464757485315204
939,-0.000614367076195776,0.0800542011857033,0.0384870953857899,0.0313229709863663,0.0395348183810711,0.00328063289634883
940,0.0120530435815454,0.0883542150259018,0.0300221499055624,0.0221904646605253,0.0493161752820015,-0.00865499302744865
941,0.0262809544801712,0.0701126232743263,0.0155498227104545,0.0133961830288172,0.0549474768340588,-0.0247452799230814
942,0.0438499040901661,0.0389274656772614,-0.00258738757111132,0.00422583939507604,0.0549969896674156,-0.0406068228185177
943,0.058073103427887,0.00638613011687994,-0.027633111923933,-0.0142468335106969,0.0484808571636677,-0.0541894510388374
944,0.0680167824029922,-0.0107452245429158,-0.053468931466341,-0.0378416292369366,0.0462432950735092,-0.058786679059267
945,0.0694198161363602,-0.0136879878118634,-0.0724057555198669,-0.0574130900204182,0.0474108010530472,-0.0539055056869984
946,0.0602803751826286,-0.0174295548349619,-0.0784994512796402,-0.0635090917348862,0.0426992774009705,-0.0447942204773426
947,0.0424690842628479,-0.0271375216543674,-0.0768856406211853,-0.0589768104255199,0.0266512930393219,-0.0440683253109455
948,0.0142318326979876,-0.0349784754216671,-0.0824602395296097,-0.0611556693911552,-0.00213588937185705,-0.0546974502503872
949,-0.0192482080310583,-0.0280915573239326,-0.0973109006881714,-0.0769228264689446,-0.0351706631481647,-0.063679538667202
950,-0.0389275625348091,-0.00770312733948231,-0.10470886528492,-0.09043800085783,-0.0536548867821693,-0.063784196972847
951,-0.0317666381597519,0.00887727271765471,-0.0916034504771233,-0.0837797150015831,-0.0452186055481434,-0.057246420532465
952,-0.0149310389533639,0.00539471348747611,-0.0700585395097733,-0.0644569844007492,-0.021531218662858,-0.0569810420274735
953,-0.00634489301592112,-0.0130029190331697,-0.0491108596324921,-0.0418807975947857,0.00453840708360076,-0.0653338730335236
954,0.00345553061924875,-0.0234180521219969,-0.0177571829408407,-0.00690022530034184,0.0360015816986561,-0.0608579553663731
955,0.0213954485952854,-0.0207232180982828,0.0181301552802324,0.0337416268885136,0.0672135055065155,-0.0385254770517349
956,0.0345667712390423,-0.021841598674655,0.0298719685524702,0.0518672242760658,0.0764546468853951,-0.0214460734277964
957,0.0351228564977646,-0.0291707664728165,0.0120011884719133,0.0428252294659615,0.056549396365881,-0.0171956568956375
958,0.0326091237366199,-0.0214932784438133,-0.00497645558789372,0.0348494648933411,0.0343643538653851,-0.00293700606562197
959,0.0362803675234318,0.0111997919157147,0.00056538893841207,0.0435291416943073,0.0375759787857533,0.0335331112146378
960,0.0411200113594532,0.0518668666481972,0.019499184563756,0.051435325294733,0.0559728406369686,0.069730281829834
961,0.0350723601877689,0.0745780691504478,0.0316172130405903,0.0398296006023884,0.0603909939527512,0.0769552290439606
962,0.022500853985548,0.0709607675671577,0.0313019640743732,0.0196735989302397,0.0490394085645676,0.0575642511248589
963,0.0242735426872969,0.0555364042520523,0.0284138955175877,0.0134891578927636,0.0431321561336517,0.0383585505187511
964,0.0425096154212952,0.0366974696516991,0.0232122335582972,0.0190878082066774,0.0447035096585751,0.0326282978057861
965,0.050586000084877,0.01256690826267,0.00598923955112696,0.0161175616085529,0.0319400429725647,0.03511868044734
966,0.031220730394125,-0.00282844179309905,-0.0223668422549963,-0.00552257336676121,-0.00788468215614557,0.0404804944992065
967,-0.00180059962440282,0.00513993576169014,-0.0517920032143593,-0.0384371094405651,-0.0607314482331276,0.039081621915102
968,-0.0250083319842815,0.0205715391784906,-0.0738382339477539,-0.068388395011425,-0.0978549420833588,0.0224374290555716
969,-0.0262607019394636,0.0148389060050249,-0.0828414708375931,-0.0851796567440033,-0.100733108818531,-0.00349738611839712
970,-0.00725103355944157,-0.0148582914844155,-0.07623241096735,-0.0824391469359398,-0.0744892656803131,-0.0259139351546764
971,0.0160636007785797,-0.0456743165850639,-0.0584960915148258,-0.0616573467850685,-0.0414005890488625,-0.0346338972449303
972,0.0259847044944763,-0.0579455159604549,-0.0352988243103027,-0.0336797051131725,-0.0201854333281517,-0.0249413270503283
973,0.020755285397172,-0.0478033684194088,-0.00948504544794559,-0.00837668962776661,-0.0111639630049467,-9.95285954559222E-05
974,0.00939314719289541,-0.0224608313292265,0.015276619233191,0.0101004159078002,-0.00443456089124084,0.0308446120470762
975,0.00179446139372885,0.00529173202812672,0.037911806255579,0.0236654691398144,0.00761468568816781,0.0623556599020958
976,0.000955972180236131,0.0240527968853712,0.0552070029079914,0.0333488769829273,0.0216507893055677,0.0912871584296227
977,0.0022202730178833,0.036875169724226,0.0595354624092579,0.036221195012331,0.0264283549040556,0.114506974816322
978,-0.00322761153802276,0.0431705936789513,0.0398797020316124,0.0228695496916771,0.00920685194432735,0.120643809437752
979,-0.0150885758921504,0.0326229222118855,-0.00199381960555911,-0.00869473163038492,-0.027224600315094,0.0986403226852417
980,-0.018838157877326,0.0128847695887089,-0.0414994619786739,-0.0405913330614567,-0.0550323836505413,0.0610670186579227
981,-0.00955723971128464,-0.00286721298471093,-0.0644539296627045,-0.0628581196069717,-0.0571544542908669,0.0271625630557537
982,0.00545126106590033,-0.012448781169951,-0.0797850117087364,-0.0816844627261162,-0.0466998070478439,0.0047125848941505
983,0.0198973640799522,-0.015659810975194,-0.0956967696547508,-0.0982853621244431,-0.0395566821098328,-0.00364167848601937
984,0.0301121547818184,-0.0111712627112865,-0.103084526956081,-0.105288811028004,-0.0341961644589901,0.00428729318082333
985,0.0312825962901115,-0.00766212213784456,-0.0903244316577911,-0.0995201990008354,-0.0262419749051332,0.0258866064250469
986,0.0181788876652718,-0.0172597654163837,-0.0645848140120506,-0.0868800804018974,-0.0217049457132816,0.0483567789196968
987,-0.00262595014646649,-0.0291917156428099,-0.0388696864247322,-0.0727658271789551,-0.0232083667069674,0.0586100295186043
988,-0.0148214008659124,-0.02391885407269,-0.016512542963028,-0.0571737177670002,-0.0241506844758987,0.0582027621567249
989,-0.0130850272253156,-0.00264139985665679,0.0014471304602921,-0.0408521518111229,-0.0214179940521717,0.0576841719448566
990,-0.00774555467069149,0.017381364479661,0.00942923314869404,-0.0285520162433386,-0.0193301271647215,0.0585568323731422
991,-0.00647316221147776,0.0232692286372185,0.00347222271375358,-0.0242206119000912,-0.0223087519407272,0.0578259453177452
992,-0.00715376855805516,0.0226679258048534,-0.0154227260500193,-0.0310079958289862,-0.0333766713738441,0.0605405382812023
993,-0.00814113765954971,0.0313807129859924,-0.0453108847141266,-0.0538245663046837,-0.0552559494972229,0.0703325048089027
994,-0.0079174879938364,0.0440259613096714,-0.076248787343502,-0.0845433101058006,-0.0798220112919807,0.0839141309261322
995,-0.00524974521249533,0.0459148734807968,-0.0900466069579124,-0.100482769310474,-0.0894045531749725,0.0973635315895081
996,-0.00338548305444419,0.0432363785803318,-0.0781542435288429,-0.0921771749854088,-0.0766211375594139,0.104315802454948
997,-0.000580989522859454,0.0437860190868378,-0.0518714636564255,-0.0727315992116928,-0.0517460554838181,0.0962189361453056
998,0.00735902460291982,0.0350649505853653,-0.0292455200105906,-0.0566288493573666,-0.0292274970561266,0.0736694559454918
999,0.0160383637994528,0.00787820480763912,-0.0154562694951892,-0.0435981042683125,-0.0124032748863101,0.0482063554227352
1000,0.014548915438354,-0.0360649712383747,-0.0124373640865088,-0.0352283045649529,-0.0038013095036149,0.0255917608737946
1001,-0.00572659634053707,-0.0908205732703209,-0.0249673072248697,-0.0422364324331284,-0.012305123731494,0.00416064588353038
1002,-0.037916012108326,-0.136547282338142,-0.0440651103854179,-0.0612592808902264,-0.036042582243681,-0.0093685444444418
1003,-0.0599416121840477,-0.146154165267944,-0.0538257472217083,-0.0753497555851936,-0.0582297742366791,-0.00289170630276203
1004,-0.0571500062942505,-0.113026328384876,-0.0500193722546101,-0.0756477043032646,-0.0639432519674301,0.0259907953441143
1005,-0.0367442108690739,-0.0607369132339954,-0.0371101163327694,-0.0643101558089256,-0.0538982078433037,0.0688182935118675
