,AF3,AF4,Fp1,Fp2,AF7,AF8
0,-0.0687978491187096,-0.0391425378620625,0.181876718997955,0.179408729076386,0.152914568781853,0.12039453536272
1,-0.0335052311420441,-0.0224533565342426,0.243042096495628,0.235056966543198,0.224829971790314,0.17465540766716
2,0.00412181206047535,-0.00599424866959453,0.270377784967422,0.265325903892517,0.268119066953659,0.221483886241913
3,0.0326300859451294,0.013339095748961,0.256510347127914,0.259585231542587,0.269797474145889,0.247347518801689
4,0.0378669947385788,0.0245378781110048,0.204363241791725,0.213267877697945,0.230597957968712,0.240454703569412
5,0.0197326689958572,0.0162102431058884,0.133957028388977,0.142706647515297,0.168272167444229,0.20399871468544
6,0.000444341043476015,-0.00487677240744233,0.0811061784625053,0.0869156196713448,0.118367895483971,0.159059181809425
7,-0.0075317663140595,-0.0250318925827742,0.06607336550951,0.0722115561366081,0.0997061133384705,0.128051310777664
8,-0.00905442424118519,-0.0372080765664577,0.0830972343683243,0.0940552353858948,0.103297345340252,0.124578431248665
9,-0.00684141600504518,-0.0389971807599068,0.1163639575243,0.130470231175423,0.118428640067577,0.147393107414246
10,0.00126689905300736,-0.0275032632052898,0.149210646748543,0.159356936812401,0.139823108911514,0.181410789489746
11,0.0121530229225755,-0.00729834381490946,0.167259410023689,0.169200778007507,0.159654796123505,0.20644898712635
12,0.0197802875190973,0.00441540498286486,0.163044825196266,0.15866607427597,0.169488936662674,0.205350577831268
13,0.0221361704170704,-0.00438299914821982,0.139896914362907,0.134229198098183,0.168736696243286,0.181613653898239
14,0.014669131487608,-0.0298828594386578,0.106196090579033,0.104640252888203,0.159803062677383,0.151819363236427
15,-0.00368218775838614,-0.0553125888109207,0.0756008252501488,0.0798178017139435,0.145454376935959,0.123731374740601
16,-0.0221699867397547,-0.061255507171154,0.0665596053004265,0.0728838518261909,0.135106429457664,0.105201959609985
17,-0.0312370900064707,-0.0411075949668884,0.0888273045420647,0.0891856029629707,0.139395073056221,0.108622774481773
18,-0.0280688982456923,0.00230235047638416,0.138177067041397,0.12334867566824,0.161533385515213,0.139414191246033
19,-0.0158233530819416,0.0536720752716064,0.1927570104599,0.160552591085434,0.18943065404892,0.185111418366432
20,-0.00362177658826113,0.0834247097373009,0.219221144914627,0.176312848925591,0.19984832406044,0.219914466142654
21,-0.000414795096730813,0.0751138105988503,0.200967505574226,0.158157423138618,0.182876229286194,0.229675516486168
22,-0.00802132580429316,0.0360084250569344,0.154592931270599,0.124634586274624,0.15523624420166,0.219422951340675
23,-0.0225302502512932,-0.016238747164607,0.109758213162422,0.101331077516079,0.135794818401337,0.193571820855141
24,-0.0378527753055096,-0.0638579651713371,0.0786726623773575,0.0901866778731346,0.121685534715652,0.152055874466896
25,-0.0421368181705475,-0.0962928533554077,0.0550494566559792,0.0803914144635201,0.105265013873577,0.105888575315475
26,-0.0284016150981188,-0.109888240695,0.0370775945484638,0.0731784924864769,0.0900379717350006,0.0752507448196411
27,-0.00163583690300584,-0.103476896882057,0.0346507616341114,0.0789139345288277,0.0855011790990829,0.0707874968647957
28,0.0292354598641396,-0.0822047293186188,0.0458905957639217,0.0896847695112228,0.0958194509148598,0.0772938579320908
29,0.0495082698762417,-0.0595403164625168,0.0600530132651329,0.0878826156258583,0.114971019327641,0.0751363784074783
30,0.0424973294138908,-0.0479582957923412,0.0771341845393181,0.0778144747018814,0.130020335316658,0.0691990777850151
31,0.0100087365135551,-0.0425550565123558,0.101196080446243,0.0784338340163231,0.132039412856102,0.0795917361974716
32,-0.0288879703730345,-0.0258684456348419,0.131301686167717,0.0936234891414642,0.128026872873306,0.112833172082901
33,-0.061750877648592,-0.00109905621502548,0.156934142112732,0.105769902467728,0.123997189104557,0.144125297665596
34,-0.0839292779564857,0.00780914397910237,0.169106304645538,0.107382327318192,0.116387642920017,0.150125488638878
35,-0.0887969806790352,-0.0078718401491642,0.171761348843575,0.113263696432114,0.110403805971146,0.142591238021851
36,-0.0718907043337822,-0.0321202278137207,0.173070430755615,0.134619861841202,0.117474541068077,0.144937783479691
37,-0.0370654985308647,-0.0444869250059128,0.176926702260971,0.165846690535545,0.137450933456421,0.164503276348114
38,0.00255804974585772,-0.0407017879188061,0.178653553128242,0.190704479813576,0.15521627664566,0.191913962364197
39,0.0322598367929459,-0.0299162343144417,0.171472728252411,0.196244582533836,0.157801806926727,0.210658565163612
40,0.0433820299804211,-0.0209939256310463,0.15438574552536,0.180192351341248,0.145872741937637,0.207239955663681
41,0.0360401272773743,-0.0177413485944271,0.131640821695328,0.14950305223465,0.12765970826149,0.184872910380363
42,0.0212164167314768,-0.0121172210201621,0.112633436918259,0.119734235107899,0.112728670239449,0.166447982192039
43,0.0138589311391115,0.00806101318448782,0.103118538856506,0.104077108204365,0.104802027344704,0.16620846092701
44,0.0172418840229511,0.0346672758460045,0.0976763293147087,0.0991886034607887,0.09836495667696,0.169974610209465
45,0.0249945595860481,0.0509796589612961,0.0886015221476555,0.0924999117851257,0.0881460160017014,0.155866980552673
46,0.0346440486609936,0.052217423915863,0.0698132440447807,0.0743057876825333,0.0767515003681183,0.115560680627823
47,0.045438751578331,0.0336590558290482,0.0402195416390896,0.0435882247984409,0.0693875178694725,0.0606169030070305
48,0.0548960492014885,-0.00520822172984481,0.0166557244956493,0.0186286251991987,0.0678902417421341,0.0198606383055449
49,0.0586872771382332,-0.0496216602623463,0.0179081410169601,0.0195431709289551,0.0718971416354179,0.0131583828479052
50,0.0537810027599335,-0.0760173425078392,0.0441990233957767,0.0451111234724522,0.0832016170024872,0.036676574498415
51,0.0367331244051456,-0.0725750923156738,0.0780031383037567,0.075786717236042,0.0931075885891914,0.0676155313849449
52,0.00950757786631584,-0.0453980192542076,0.10158833861351,0.0942309275269508,0.0886563584208488,0.0855586528778076
53,-0.0122157614678144,-0.00548186572268605,0.116387471556664,0.10395348072052,0.0799455121159554,0.094997264444828
54,-0.0180328097194433,0.028880188241601,0.130093544721603,0.115255400538445,0.0846114680171013,0.108625926077366
55,-0.0105767315253615,0.0429766140878201,0.14360648393631,0.129978284239769,0.103251568973064,0.13259445130825
56,0.00383663503453135,0.0378283970057964,0.153047487139702,0.144116148352623,0.124272540211678,0.164454936981201
57,0.0176800396293402,0.0205631405115128,0.149280652403831,0.149705231189728,0.137182340025902,0.191969558596611
58,0.0226632375270128,-0.00401809252798557,0.122512742877007,0.13479046523571,0.133855372667313,0.199040085077286
59,0.0132562965154648,-0.0303443297743797,0.0765100717544556,0.0939995944499969,0.108589753508568,0.171251580119133
60,-0.00815342646092176,-0.0486856624484062,0.0308886468410492,0.0421353876590729,0.0695481970906258,0.110790215432644
61,-0.0286003835499287,-0.0533087365329266,0.00763872684910893,0.00593362422659993,0.0397075824439526,0.0463946983218193
62,-0.0351140461862087,-0.0487922355532646,0.0141226118430495,-0.00172732502687722,0.034357201308012,0.00785444863140583
63,-0.0253747496753931,-0.0411663725972176,0.0409347303211689,0.0148156750947237,0.0517343692481518,0.00175385281909257
64,-0.00253163510933518,-0.0307134296745062,0.0775253102183342,0.049848660826683,0.084639810025692,0.0189523659646511
65,0.0231902711093426,-0.0249092150479555,0.1112150400877,0.0905864387750626,0.115516163408756,0.0424508638679981
66,0.0360849089920521,-0.0371117740869522,0.124459728598595,0.114244543015957,0.120085626840591,0.0570262484252453
67,0.0275650508701801,-0.0672063156962395,0.108078852295876,0.106143571436405,0.0921836122870445,0.0581289529800415
68,0.00282556167803705,-0.0982902944087982,0.0729353055357933,0.0731569230556488,0.0538749769330025,0.0481078661978245
69,-0.0195342358201742,-0.111229456961155,0.0447344444692135,0.0391812399029732,0.036087553948164,0.0342165380716324
70,-0.0223623905330896,-0.102977611124516,0.0357457920908928,0.0223035775125027,0.0448084063827991,0.022861335426569
71,-0.00264311139471829,-0.08314199000597,0.0392074249684811,0.0249197445809841,0.0644768252968788,0.0176162645220757
72,0.0256994310766459,-0.060075905174017,0.0473410971462727,0.0395880080759525,0.0825474485754967,0.0224469322711229
73,0.040030088275671,-0.038248099386692,0.0521559230983257,0.0516952946782112,0.0917009487748146,0.0362585410475731
74,0.0348673649132252,-0.0190075747668743,0.0494828298687935,0.0521085113286972,0.0938092246651649,0.0516675487160683
75,0.0249036476016045,-0.00639394298195839,0.0430174730718136,0.043707612901926,0.094379298388958,0.0574431046843529
76,0.0169392973184586,-0.00821712333709002,0.036628182977438,0.0327008441090584,0.0859266296029091,0.0433488190174103
77,0.00427307607606053,-0.0253591798245907,0.0336162373423576,0.0255874786525965,0.0613213293254375,0.0127135757356882
78,-0.00832442194223404,-0.0438683889806271,0.0380245521664619,0.0282215047627687,0.0350231043994427,-0.0133311515673995
79,-0.00465076463297009,-0.0462920740246773,0.0508213527500629,0.039238203316927,0.0291068963706493,-0.0179882571101189
80,0.0149332033470273,-0.0320942886173725,0.0648809894919395,0.0486117079854012,0.0454973205924034,-0.00892779137939215
81,0.0323286652565002,-0.0195549912750721,0.0666417181491852,0.0462416633963585,0.0639976561069489,-0.00730963842943311
82,0.0375096946954727,-0.0284256469458342,0.0542216710746288,0.0349177867174149,0.0669235587120056,-0.0233040545135736
83,0.035665787756443,-0.0560544431209564,0.0446001030504704,0.0314944200217724,0.0581852793693542,-0.0392893403768539
84,0.032486941665411,-0.078011117875576,0.0461777374148369,0.0433147475123405,0.0521513484418392,-0.0313398316502571
85,0.0274405982345343,-0.0810975283384323,0.0482880845665932,0.0575694218277931,0.0538398809731007,-0.00445136707276106
86,0.0206120107322931,-0.0698472484946251,0.0506293885409832,0.0640807673335075,0.061437088996172,0.0214454066008329
87,0.0137193333357573,-0.0490313470363617,0.0584929697215557,0.0590533353388309,0.0704994946718216,0.0336766503751278
88,0.00785321649163961,-0.0252609811723232,0.0619256980717182,0.0414205826818943,0.0740832984447479,0.0278322994709015
89,0.00597184151411057,-0.00795742217451334,0.0550799816846848,0.0221631675958633,0.0714370384812355,0.014397612772882
90,0.00803491752594709,0.000154085733811371,0.0450268983840942,0.0133782178163528,0.0677433684468269,0.0102203069254756
91,0.0108930012211204,0.00342476717196405,0.0418994724750519,0.0181243475526571,0.0681242272257805,0.0180701706558466
92,0.0150231113657355,0.0007401526090689,0.0500933527946472,0.0314955823123455,0.0716047808527946,0.0294362977147102
93,0.0236011408269405,-0.008983856998384,0.0637064799666405,0.0458376035094261,0.0723642110824585,0.0408279299736023
94,0.0337158292531967,-0.020645884796977,0.0710761845111847,0.0534431226551533,0.0644277632236481,0.0471431650221348
95,0.0357707142829895,-0.0321667194366455,0.0625856816768646,0.0465381853282452,0.0438615716993809,0.0375627987086773
96,0.0295247007161379,-0.0356354862451553,0.0424750074744225,0.0297354459762573,0.0197846964001656,0.0138452164828777
97,0.0248103197664022,-0.0245718825608492,0.0275927484035492,0.020037705078721,0.0109470589086413,-0.00903401616960764
98,0.022685594856739,-0.0134805543348193,0.0280096754431725,0.0263025779277086,0.0211937874555588,-0.0209262873977423
99,0.0144033180549741,-0.018196826800704,0.0395473837852478,0.0417808219790459,0.0364981852471828,-0.0214761756360531
100,-0.000175344641320407,-0.0365963988006115,0.0539597645401955,0.0562271513044834,0.0475095063447952,-0.0104784946888685
101,-0.00970861501991749,-0.0593532882630825,0.0638856738805771,0.0630156770348549,0.0572117231786251,0.00970094744116068
102,-0.00556307192891836,-0.0762418657541275,0.0662650242447853,0.0608378797769547,0.0695690363645554,0.0296351164579391
103,0.0083266468718648,-0.0829630643129349,0.0612069740891457,0.0523165874183178,0.0789208859205246,0.0402593910694122
104,0.0184725914150476,-0.0807967558503151,0.0466974526643753,0.0373025573790073,0.0739181563258171,0.0390911176800728
105,0.0154693117365241,-0.0681026950478554,0.0253595225512981,0.0174131039530039,0.0514174327254295,0.0288821719586849
106,0.00497522996738553,-0.0483375824987888,0.00888222176581621,0.00361900287680328,0.0256266947835684,0.0144789926707745
107,0.00290933041833341,-0.0318477861583233,0.00597585691139102,0.00514114229008555,0.015680730342865,0.00125202746130526
108,0.0209492892026901,-0.0235924534499645,0.0165932793170214,0.021863492205739,0.0252913702279329,-0.00356241827830672
109,0.0491107329726219,-0.0241298414766788,0.0316763706505299,0.0424083843827248,0.0395673848688602,0.000573990226257592
110,0.055941965430975,-0.0382301136851311,0.0314274057745934,0.0441271960735321,0.0382270887494087,-0.00206980900838971
111,0.0295019820332527,-0.0559220500290394,0.0075291944667697,0.0180075541138649,0.0196650661528111,-0.0174746438860893
112,-0.00732685206457973,-0.053240779787302,-0.0227094329893589,-0.0204230565577745,-0.000433729233918712,-0.0306827239692211
113,-0.0318280048668385,-0.0343030951917171,-0.0373448766767979,-0.0480598323047161,-0.0113969659432769,-0.0311934351921082
114,-0.0404826030135155,-0.0285146106034517,-0.028806047514081,-0.0497631728649139,-0.0144873140379786,-0.0197538621723652
115,-0.0371086038649082,-0.041089478880167,0.0026646675541997,-0.0216906610876322,-0.0101132150739431,0.00239902664907277
116,-0.0244958605617285,-0.0539425984025002,0.0491560846567154,0.0272173564881086,0.00624427059665322,0.0284272283315659
117,-0.00896407570689917,-0.0629959627985954,0.088619627058506,0.0749646723270416,0.0299690198153257,0.0456331521272659
118,0.00478849606588483,-0.0730082616209984,0.104803763329983,0.105131767690182,0.0496831871569157,0.0541605427861214
119,0.0152576668187976,-0.0809243619441986,0.099528007209301,0.114349812269211,0.0603279992938042,0.059783261269331
120,0.0213518757373095,-0.0795905217528343,0.0806022137403488,0.103762775659561,0.0651795044541359,0.0591844245791435
121,0.028582289814949,-0.0685148537158966,0.050462830811739,0.0759875699877739,0.064827099442482,0.0470979325473309
122,0.0408897250890732,-0.0599438734352589,0.0119207222014666,0.0369455404579639,0.0538247898221016,0.0229274425655603
123,0.0503105297684669,-0.0599158555269241,-0.0181347690522671,0.00276129180565476,0.0329295322299004,-0.002426877617836
124,0.0499715618789196,-0.0580354891717434,-0.0212726667523384,-0.00986763648688793,0.0120505429804325,-0.0149234533309937
125,0.0476468466222286,-0.0472648032009602,0.00118440191727132,-0.000369168556062505,0.00282825087197125,-0.0157985705882311
126,0.0472024381160736,-0.0314888767898083,0.0272039584815502,0.0144321834668517,0.00381494429893792,-0.0165131818503141
127,0.0343874618411064,-0.0168209988623858,0.0333269387483597,0.0148089351132512,-0.000199921283638105,-0.0215197131037712
128,0.00350598897784948,-0.00920979119837284,0.0231012459844351,0.00300249457359314,-0.0112895453348756,-0.0216437671333551
129,-0.0265434347093105,-0.00751495780423284,0.0209577158093452,0.00133919436484575,-0.0148306963965297,-0.00334772490896285
130,-0.0355588793754578,-0.0041673518717289,0.0347890257835388,0.018777908757329,-0.00649354048073292,0.0310682337731123
131,-0.0278721414506435,-0.0028507059905678,0.0480236485600472,0.0383099317550659,0.00214114878326654,0.0564995035529137
132,-0.022449953481555,-0.00977103225886822,0.0458998866379261,0.0419273599982262,0.00244849594309926,0.0541722439229488
133,-0.0240483079105616,-0.0200773887336254,0.0283055510371923,0.0272773634642363,-0.00544808665290475,0.0310965459793806
134,-0.0215935464948416,-0.0295924600213766,0.00423398707062006,0.00403257412835956,-0.0141562465578318,0.00432753330096602
135,-0.00772158429026604,-0.0437027849256992,-0.0215384773910046,-0.0185193456709385,-0.0128322532400489,-0.0192620065063238
136,0.0096599543467164,-0.0764904543757439,-0.0615167394280434,-0.0473231859505177,-0.00756911979988217,-0.0524245873093605
137,0.0120488423854113,-0.131400063633919,-0.118745788931847,-0.0895179659128189,-0.0190919283777475,-0.103255771100521
138,-0.00927696004509926,-0.17807449400425,-0.157866209745407,-0.123644679784775,-0.050281286239624,-0.142614543437958
139,-0.0406085625290871,-0.181451171636581,-0.143338859081268,-0.11901993304491,-0.078914113342762,-0.134405642747879
140,-0.0591133646667004,-0.145738795399666,-0.0804807841777802,-0.074052095413208,-0.0834170505404472,-0.0891484618186951
141,-0.0527092255651951,-0.0965479761362076,0.000712915847543627,-0.0110879391431808,-0.0597237125039101,-0.0406722538173199
142,-0.0308834444731474,-0.0532607510685921,0.0677689984440804,0.0445477180182934,-0.0224343184381723,-0.00297106779180467
143,-0.0111948540434241,-0.0263236574828625,0.104505002498627,0.0787837952375412,0.00997179839760065,0.0238438919186592
144,0.00270087993703783,-0.0123495776206255,0.120673730969429,0.0968102961778641,0.0333308093249798,0.043385948985815
145,0.014816259033978,-0.000234343053307384,0.123515397310257,0.103218913078308,0.0464354529976845,0.0568645671010017
146,0.0311833675950766,0.0220204796642065,0.111432366073132,0.097343735396862,0.0502354726195335,0.0655004009604454
147,0.050895094871521,0.0519280508160591,0.0876234993338585,0.0803762972354889,0.0494987554848194,0.0678810775279999
148,0.0538586489856243,0.0627637207508087,0.0520681440830231,0.0480154119431973,0.0349139645695686,0.050433736294508
149,0.0299795009195805,0.0388808958232403,0.00654763868078589,0.00336121348664165,-0.00200893892906606,0.0110836774110794
150,-0.00486480817198753,-0.00131165992934257,-0.0373913794755936,-0.0378345064818859,-0.0484828762710094,-0.0289794746786356
151,-0.0321627855300903,-0.0300791952759027,-0.06696917116642,-0.0637713670730591,-0.0813101604580879,-0.0479016155004501
152,-0.0461611561477184,-0.0429485589265823,-0.0787190943956375,-0.0731563866138458,-0.0875435844063759,-0.0419036112725735
153,-0.0489391386508942,-0.0567865408957005,-0.0783127769827843,-0.0699112713336945,-0.0731170624494553,-0.0273458696901798
154,-0.0397235713899136,-0.0821097940206528,-0.0705140084028244,-0.0593117289245129,-0.050612285733223,-0.0263763312250376
155,-0.0225899890065193,-0.117897383868694,-0.060847345739603,-0.0514248907566071,-0.0318452119827271,-0.0515626780688763
156,-0.00685621704906225,-0.153296187520027,-0.0551370233297348,-0.0517643541097641,-0.0241251867264509,-0.0893201008439064
157,0.00932972133159637,-0.167310535907745,-0.050341684371233,-0.0528404824435711,-0.0215182974934578,-0.10770209133625
158,0.0297258235514164,-0.14828684926033,-0.0418284237384796,-0.0491480901837349,-0.0157949160784483,-0.0960034504532814
159,0.0438846722245216,-0.108318261802197,-0.0348110012710094,-0.0444715358316898,-0.0110972449183464,-0.0696616992354393
160,0.0422031804919243,-0.0703345909714699,-0.0337152816355228,-0.0401474200189114,-0.0131632965058088,-0.03986806422472
161,0.0314244367182255,-0.0452216677367687,-0.0296918898820877,-0.0319678969681263,-0.0161217804998159,-0.00866441894322634
162,0.0207370445132256,-0.0276019126176834,-0.0139094023033977,-0.0205081813037395,-0.0132522024214268,0.019400043413043
163,0.0101584577932954,-0.00297197024337947,0.00865918304771185,-0.0107365315780044,-0.00919437408447266,0.0413081087172031
164,0.00167328712996095,0.0318113528192043,0.0188551917672157,-0.00939155090600252,-0.0149075323715806,0.0525085777044296
165,0.00166375550907105,0.0475513823330402,-0.00807610526680946,-0.0288903992623091,-0.0383194647729397,0.0351323783397675
166,0.0060813962481916,0.0148990489542484,-0.0773858353495598,-0.0765344947576523,-0.0798227712512016,-0.0266374796628952
167,0.000435325608123094,-0.0544684119522572,-0.157538264989853,-0.137921303510666,-0.129553496837616,-0.115875780582428
168,-0.020908284932375,-0.121666602790356,-0.196013674139977,-0.175802513957024,-0.162846729159355,-0.183061018586159
169,-0.04306435957551,-0.154003039002419,-0.158514425158501,-0.154160037636757,-0.15203720331192,-0.183252453804016
170,-0.0487342365086079,-0.147415369749069,-0.0634211972355843,-0.0768036469817162,-0.100910559296608,-0.120136097073555
171,-0.0357129238545895,-0.119132474064827,0.0375443696975708,0.0168475545942783,-0.0393107309937477,-0.038554597645998
172,-0.0120752155780792,-0.0829678997397423,0.108493655920029,0.0891405791044235,0.0159744303673506,0.0263853259384632
173,0.0123595176264644,-0.042991641908884,0.142071068286896,0.120985098183155,0.0629235282540321,0.0655566304922104
174,0.0382320769131184,0.00477319164201617,0.147964715957642,0.118704810738564,0.0967760756611824,0.0851268097758293
175,0.0686800181865692,0.0572608038783073,0.134986251592636,0.100960835814476,0.105245843529701,0.0937925428152084
176,0.0907184854149818,0.0929841101169586,0.101941481232643,0.0743547677993774,0.0804273933172226,0.0899349376559258
177,0.0906260386109352,0.0960050597786903,0.0558715015649796,0.0424986332654953,0.0353220887482166,0.0740110129117966
178,0.0738139301538467,0.07401492446661,0.0177751146256924,0.0174855869263411,-0.00357761606574059,0.0596505180001259
179,0.0543042905628681,0.0453837402164936,0.00169056886807084,0.00760983442887664,-0.0209137741476297,0.0597796142101288
180,0.0378704555332661,0.0208709929138422,0.000829062948469073,0.00720552587881684,-0.0243087857961655,0.0700990781188011
181,0.0218458585441113,-0.00375915761105716,-0.00801627617329359,-0.000176943300175481,-0.0293170046061277,0.0649315267801285
182,0.00609923107549548,-0.0365432649850845,-0.0366239547729492,-0.0226284917443991,-0.0369553864002228,0.0239407680928707
183,-0.00463746068999171,-0.070472925901413,-0.069203294813633,-0.0501419380307198,-0.0399676486849785,-0.0362692587077618
184,-0.00687745912000537,-0.0840988904237747,-0.0818153545260429,-0.0656890571117401,-0.0382966957986355,-0.0770762413740158
185,-0.00541226472705603,-0.0705632790923119,-0.0682557076215744,-0.0627313405275345,-0.0386225543916225,-0.0828796774148941
186,-0.0107509512454271,-0.0499805174767971,-0.0450276844203472,-0.0510287582874298,-0.0482817254960537,-0.0694549530744553
187,-0.0260967630892992,-0.0398994460701942,-0.028672082349658,-0.0407691262662411,-0.0643255561590195,-0.0536639727652073
188,-0.0444924458861351,-0.0346236117184162,-0.0196941755712032,-0.0324868112802505,-0.0715153515338898,-0.0382590927183628
189,-0.056974645704031,-0.0200748145580292,-0.0133055187761784,-0.0246335566043854,-0.0611884370446205,-0.0199867431074381
190,-0.0636046156287193,0.000515240186359733,-0.0119738057255745,-0.0214888975024223,-0.0440396182239056,-0.00424702418968081
191,-0.0693522840738297,0.00992412865161896,-0.0239355210214853,-0.0313929617404938,-0.0386757999658585,-0.00194169348105788
192,-0.0693118795752525,0.00576995080336928,-0.0506590344011784,-0.0557294227182865,-0.0518163256347179,-0.0112912319600582
193,-0.0552287250757217,0.000518035376444459,-0.0808090418577194,-0.083051472902298,-0.0719707906246185,-0.0207079350948334
194,-0.0320389196276665,-0.00206088530831039,-0.105526134371758,-0.103225372731686,-0.0862982869148254,-0.0294339638203382
195,-0.00955187622457743,-0.00568124186247587,-0.119894675910473,-0.110550694167614,-0.0880124047398567,-0.0413844399154186
196,0.0121489996090531,-0.00674281641840935,-0.11044680327177,-0.0928021818399429,-0.0704852789640427,-0.0438018254935741
197,0.0319074504077435,-0.00272318650968373,-0.0700187012553215,-0.0451026931405067,-0.0369177274405956,-0.0243374947458506
198,0.0402373932301998,-0.00333984196186066,-0.0167686101049185,0.0125542376190424,-0.00370207172818482,0.00419700378552079
199,0.0315576195716858,-0.0150526650249958,0.0193442869931459,0.049730446189642,0.0129745043814182,0.0162445604801178
200,0.0165394525974989,-0.0246308650821447,0.0299847219139338,0.0571463294327259,0.0142894480377436,0.00720585975795984
201,0.013589745387435,-0.0157293640077114,0.0280469935387373,0.0475825443863869,0.0152325285598636,-0.00208453531377018
202,0.0223419144749641,0.0072293421253562,0.0194729138165712,0.0290020238608122,0.0192551258951426,-0.00143364479299635
203,0.0231313034892082,0.0244103632867336,0.00146363361272961,1.73079877185955E-06,0.0174166336655617,-0.00663991831243038
204,0.00437967339530587,0.0191765874624252,-0.0249085929244757,-0.0344427339732647,0.00763167440891266,-0.029626552015543
205,-0.022664962336421,-0.00242257537320256,-0.0490652769804001,-0.0597948618233204,-0.00206578243523836,-0.0576058477163315
206,-0.0388170406222343,-0.0143016865476966,-0.0562851428985596,-0.0647120997309685,-0.00499431416392326,-0.0736866295337677
207,-0.0382737517356873,-0.00345904962159693,-0.042848713696003,-0.0511746369302273,-0.00173959077801555,-0.0743813663721085
208,-0.0269142296165228,0.0228205230087042,-0.0198747962713242,-0.0294973216950893,0.0048630191013217,-0.0619589351117611
209,-0.00980326998978853,0.0559355355799198,0.00011652793182293,-0.00634524552151561,0.0155952125787735,-0.038860809057951
210,0.00695825135335326,0.0833853930234909,0.00744190905243158,0.0106130577623844,0.0283491034060717,-0.0171202644705772
211,0.0182379111647606,0.0906001031398773,-0.000383424310712144,0.0141170956194401,0.0390740633010864,-0.00964770279824734
212,0.0252562146633863,0.0761583745479584,-0.0156305599957705,0.00544642843306065,0.0484401248395443,-0.0119616203010082
213,0.0294694155454636,0.0498683862388134,-0.0344108454883099,-0.013972532004118,0.0545262321829796,-0.0186135359108448
214,0.0325930044054985,0.0209923647344112,-0.0554891154170036,-0.0388207025825977,0.0528379008173943,-0.0364978425204754
215,0.0343821756541729,-0.00436518481001258,-0.0706373453140259,-0.0555710382759571,0.0430088005959988,-0.0645847618579865
216,0.0299521591514349,-0.0180252175778151,-0.0721722170710564,-0.0574674755334854,0.0316990129649639,-0.0885740295052528
217,0.0200214851647615,-0.0200622919946909,-0.0657276809215546,-0.0513081140816212,0.0258938428014517,-0.101969048380852
218,0.0160728190094233,-0.0206691585481167,-0.0654992237687111,-0.0441781394183636,0.0246363114565611,-0.10341738909483
219,0.0277844872325659,-0.0195906590670347,-0.075493685901165,-0.0350468382239342,0.0233367662876844,-0.0901231691241264
220,0.0476215593516827,-0.0130817545577884,-0.089471273124218,-0.026944549754262,0.0165678709745407,-0.0776317492127419
221,0.0591887310147285,-0.0133992880582809,-0.105728931725025,-0.0312206540256739,0.000628974812570959,-0.0911183655261993
222,0.0579412505030632,-0.0292217582464218,-0.122896410524845,-0.0489354096353054,-0.0168418977409601,-0.128287315368652
223,0.0467964485287666,-0.0475655198097229,-0.134564444422722,-0.0674257799983025,-0.0230895765125752,-0.165726721286774
224,0.0258314535021782,-0.0585288852453232,-0.13354329764843,-0.0756352320313454,-0.0162282567471266,-0.190280735492706
225,0.0046379379928112,-0.0629041939973831,-0.111612185835838,-0.0666358470916748,0.000771277467720211,-0.196526885032654
226,-0.00264105899259448,-0.0624358542263508,-0.075444296002388,-0.045617088675499,0.0240066219121218,-0.185839295387268
227,0.00348873948678374,-0.0591003000736237,-0.04504768922925,-0.0283872317522764,0.0470690540969372,-0.166918322443962
228,0.0154866315424442,-0.0424639247357845,-0.0230957604944706,-0.0143719846382737,0.0723313689231873,-0.140141069889069
229,0.0288142040371895,-0.00659459037706256,-0.00217982917092741,0.00589590799063444,0.103313334286213,-0.106558375060558
230,0.0426518693566322,0.0281661171466112,0.0124466950073838,0.0251626931130886,0.132141545414925,-0.0743869245052338
231,0.0563684515655041,0.0421554036438465,0.0108748851343989,0.0294843520969152,0.146946579217911,-0.0501646958291531
232,0.0654717907309532,0.0427012629806995,-0.00159003131557256,0.0219084750860929,0.145426616072655,-0.036679919809103
233,0.066991850733757,0.043578889220953,-0.00852031540125608,0.0184552483260632,0.134899228811264,-0.032945804297924
234,0.0598793402314186,0.0388800352811813,-0.00944035965949297,0.0213622953742743,0.117317996919155,-0.0391160659492016
235,0.048893116414547,0.021203925833106,-0.014854172244668,0.0207157991826534,0.0952847227454185,-0.0551831014454365
236,0.0447571761906147,-0.00300095416605473,-0.0263702627271414,0.0139526640996337,0.0769277587532997,-0.0767881721258163
237,0.046240609139204,-0.0272741857916117,-0.0426819883286953,0.00283551984466612,0.0610518082976341,-0.100865431129932
238,0.0416679382324219,-0.0501980297267437,-0.0628208741545677,-0.0135784316807985,0.0428306199610233,-0.124874301254749
239,0.0282580982893705,-0.0664249137043953,-0.0822228267788887,-0.0345657877624035,0.0276471991091967,-0.138971731066704
240,0.0141480499878526,-0.0644916146993637,-0.0955229476094246,-0.054034136235714,0.024378776550293,-0.130840823054314
241,0.00440152361989021,-0.0439513809978962,-0.101379744708538,-0.0682930648326874,0.0300427190959454,-0.105721928179264
242,-0.00314908218570054,-0.0221184138208628,-0.101198337972164,-0.078485831618309,0.036260511726141,-0.0902561321854591
243,-0.00653241481631994,-0.0101257003843784,-0.0937075689435005,-0.080379456281662,0.0458001010119915,-0.0992446392774582
244,0.00119472143705934,-0.00727928290143609,-0.0773933753371239,-0.0674239620566368,0.0655994862318039,-0.114771366119385
245,0.0198144037276506,-0.015509326942265,-0.0598146803677082,-0.0472433343529701,0.0898655503988266,-0.118401631712914
246,0.0403106771409512,-0.0302334167063236,-0.0561298802495003,-0.0396425165235996,0.100456565618515,-0.121124342083931
247,0.0577996149659157,-0.0397384241223335,-0.0704315453767776,-0.0499461442232132,0.0908443927764893,-0.136335536837578
248,0.073650486767292,-0.0435170866549015,-0.0871003642678261,-0.0608585439622402,0.0772757604718208,-0.153619736433029
249,0.0818052887916565,-0.0514690540730953,-0.091658242046833,-0.0589156150817871,0.0732935518026352,-0.162086501717567
250,0.0739725977182388,-0.0664416402578354,-0.0850206613540649,-0.0485929474234581,0.0785966068506241,-0.165472686290741
251,0.0558642670512199,-0.0795749798417091,-0.0729281008243561,-0.0386373326182365,0.0911076217889786,-0.166418686509132
252,0.0407893322408199,-0.0828470885753632,-0.0581401512026787,-0.0305606964975595,0.103061035275459,-0.157990917563438
253,0.033893384039402,-0.0734016746282578,-0.0429046079516411,-0.0206045918166637,0.101481921970844,-0.133010625839233
254,0.0309714302420616,-0.0525230057537556,-0.0314016602933407,-0.00854810141026974,0.0836751237511635,-0.0993715077638626
255,0.0270743798464537,-0.0269833281636238,-0.0274393167346716,-0.00239547132514417,0.0611506327986717,-0.0772721096873283
256,0.0186399482190609,-0.0065375929698348,-0.0327635891735554,-0.0102496789768338,0.0481878332793713,-0.0763614401221275
257,0.00388229149393737,-0.00288590136915445,-0.0470444746315479,-0.0297969598323107,0.0485654547810555,-0.0894261747598648
258,-0.00878473650664091,-0.0168208964169025,-0.0625616535544395,-0.0476548038423061,0.0572943463921547,-0.100888483226299
259,-0.0078734215348959,-0.0325696170330048,-0.0712343528866768,-0.0553601421415806,0.066065639257431,-0.103132240474224
260,0.00629588216543198,-0.0370583571493626,-0.0736499279737473,-0.0566848590970039,0.0715828835964203,-0.103857427835464
261,0.0253980997949839,-0.0320749245584011,-0.0693923532962799,-0.0522508844733238,0.0807405784726143,-0.104450426995754
262,0.0392911620438099,-0.0306715834885836,-0.0585950054228306,-0.043734822422266,0.0873406156897545,-0.0975881516933441
263,0.0401119887828827,-0.0399951748549938,-0.0474648289382458,-0.0399375259876251,0.0747607201337814,-0.0842823162674904
264,0.0293410029262304,-0.0469961687922478,-0.0385265536606312,-0.0398982204496861,0.0496027506887913,-0.0710099041461945
265,0.0174070317298174,-0.0348402820527554,-0.0291303191334009,-0.0348687246441841,0.0309411305934191,-0.0589667186141014
266,0.0154276518151164,-0.00977195706218481,-0.0213459488004446,-0.0224132221192122,0.0231622122228146,-0.0458224005997181
267,0.0285510644316673,0.00965387653559446,-0.0199681781232357,-0.00493109226226807,0.0238770768046379,-0.0322009660303593
268,0.0445403791964054,0.01634182035923,-0.0267660021781921,0.0077284355647862,0.0308956764638424,-0.031765416264534
269,0.0451498739421368,0.0147291915491223,-0.0389844924211502,0.00524760084226727,0.0409072265028954,-0.0591623783111572
270,0.0365898124873638,0.0104141160845757,-0.0478504709899426,-0.00529291667044163,0.0557814911007881,-0.097735695540905
271,0.0349195562303066,0.000139048046548851,-0.049946378916502,-0.014316389337182,0.0715634375810623,-0.121258363127708
272,0.0317359827458858,-0.0241740271449089,-0.0560208559036255,-0.0322667844593525,0.0675378367304802,-0.137065246701241
273,0.00736553501337767,-0.0604585334658623,-0.0714714899659157,-0.0656706616282463,0.0327367186546326,-0.162634998559952
274,-0.0319569930434227,-0.0927410647273064,-0.080833911895752,-0.0895641073584557,-0.0119863664731383,-0.18406443297863
275,-0.0590465255081654,-0.103385090827942,-0.0640562772750854,-0.0723853707313538,-0.0324040092527866,-0.169615671038628
276,-0.0612594783306122,-0.0871785581111908,-0.0188525896519423,-0.0158077087253332,-0.0113327791914344,-0.109140738844872
277,-0.0478029176592827,-0.0529294013977051,0.0348605029284954,0.0463848188519478,0.0354383215308189,-0.0295098330825567
278,-0.0278853848576546,-0.0102016367018223,0.0762832462787628,0.0889658778905869,0.0797634571790695,0.0296846535056829
279,-0.00353072118014097,0.0342170037329197,0.100710518658161,0.113164082169533,0.108620181679726,0.0521055646240711
280,0.0211244467645884,0.0693628937005997,0.11008457839489,0.125108957290649,0.119662962853909,0.0489784926176071
281,0.0431890934705734,0.0891273841261864,0.109422862529755,0.126718729734421,0.117093160748482,0.0394028536975384
282,0.0653221607208252,0.0945406258106232,0.104524374008179,0.120449595153332,0.109731286764145,0.0316930115222931
283,0.0856956392526627,0.0841250419616699,0.0899259969592094,0.104891896247864,0.0991621240973473,0.0186575017869473
284,0.095182865858078,0.0603161342442036,0.0581536926329136,0.0755330547690392,0.0831210017204285,-0.0067802332341671
285,0.0888545587658882,0.0331939160823822,0.0144683718681335,0.0342619642615318,0.0622134022414684,-0.0396381504833698
286,0.0732865557074547,0.0138559322804213,-0.0244251322001219,-0.00274840067140758,0.0413245670497417,-0.0652806013822556
287,0.0551056303083897,0.00876336079090834,-0.0426623336970806,-0.017327269539237,0.0298239942640066,-0.0737238749861717
288,0.0359850153326988,0.0145188113674521,-0.0376256890594959,-0.0115305809304118,0.0336883626878262,-0.0715254247188568
289,0.0248140878975391,0.0247197337448597,-0.0172651205211878,0.000776305794715881,0.0509751997888088,-0.068174734711647
290,0.0273225139826536,0.0356110408902168,0.00467239273712039,0.0108277127146721,0.0707293078303337,-0.0648529529571533
291,0.0346268862485886,0.0425778217613697,0.0144221121445298,0.0133862644433975,0.0782755464315414,-0.061436615884304
292,0.0344838947057724,0.0437710359692574,0.00856827385723591,0.00507469428703189,0.0696337670087814,-0.0604804866015911
293,0.0238772742450237,0.050941988825798,-0.00253385445103049,-0.00893477816134691,0.0553353652358055,-0.0561698265373707
294,0.0114284809678793,0.0840080976486206,-0.00690273474901915,-0.0188095513731241,0.0426112860441208,-0.0321702174842358
295,-0.00187458074651659,0.135117620229721,-0.0112804789096117,-0.0293513257056475,0.0212586969137192,0.00361991254612803
296,-0.0238316729664803,0.165317818522453,-0.0317257381975651,-0.0525648519396782,-0.0150592420250177,0.01337631046772
297,-0.0486444123089314,0.147398456931114,-0.0663306936621666,-0.0831147730350494,-0.0515346080064774,-0.0216512717306614
298,-0.0624672994017601,0.0871501788496971,-0.093715488910675,-0.102630242705345,-0.070626400411129,-0.0794306322932243
299,-0.0581455565989017,0.0199117157608271,-0.0935652181506157,-0.097764290869236,-0.068339578807354,-0.121574997901917
300,-0.0362869091331959,-0.0193515922874212,-0.0658964514732361,-0.0681924447417259,-0.0526280179619789,-0.127760216593742
301,-0.00110493693500757,-0.0268813651055098,-0.0225188322365284,-0.0205429159104824,-0.0298118833452463,-0.104664698243141
302,0.036822035908699,-0.0185805354267359,0.0255570914596319,0.0352649614214897,-0.00283516780473292,-0.0716321170330048
303,0.0626734271645546,-0.00778020219877362,0.0677955746650696,0.0876302421092987,0.0225406866520643,-0.0430063232779503
304,0.0695912837982178,0.00102985557168722,0.0950349420309067,0.126743122935295,0.0419690757989883,-0.0206727553158998
305,0.0566797181963921,0.007282888982445,0.0951011851429939,0.136760368943214,0.049848809838295,-0.00959654711186886
306,0.0336434356868267,0.018243795260787,0.0683808848261833,0.110098578035831,0.044605441391468,-0.0150702046230435
307,0.0195628292858601,0.0404055416584015,0.033917773514986,0.0622942857444286,0.031814206391573,-0.0295691397041082
308,0.0197140946984291,0.0589896030724049,-0.000485774071421474,0.0083445506170392,0.0139857064932585,-0.0468295738101006
309,0.0298249218612909,0.0555411912500858,-0.0409698523581028,-0.0469115078449249,-0.00500694615766406,-0.070884607732296
310,0.0481738597154617,0.0306683927774429,-0.0849276632070541,-0.0948954224586487,-0.0200489852577448,-0.105881325900555
311,0.0641770586371422,0.000937271921429783,-0.116881683468819,-0.122388936579227,-0.0322681181132793,-0.143063843250275
312,0.063824437558651,-0.0146846221759915,-0.12125102430582,-0.12146507948637,-0.0416638366878033,-0.162859752774239
313,0.0446986258029938,-0.0127872694283724,-0.0968296229839325,-0.095785066485405,-0.0466951206326485,-0.1539077013731
314,0.0159568600356579,-0.00294167222455144,-0.0544137768447399,-0.0569904744625092,-0.0473190061748028,-0.12013003975153
315,-0.00716989394277334,0.0105970287695527,-0.00357086909934878,-0.0137771740555763,-0.0395978726446629,-0.0709446296095848
316,-0.0160000864416361,0.0268909558653831,0.0432665422558784,0.0273034684360027,-0.0241161677986383,-0.0176289137452841
317,-0.014731545932591,0.0388675071299076,0.0701736062765121,0.0551901087164879,-0.00913853850215673,0.0256119165569544
318,-0.0122732920572162,0.0372743830084801,0.0729741826653481,0.0625100582838058,-9.27184373722412E-05,0.0434398576617241
319,-0.0115643013268709,0.0220791064202785,0.0617014840245247,0.0546885691583157,0.00140864541754127,0.0309404861181974
320,-0.00838974118232727,0.00475053349509835,0.0484099015593529,0.042842011898756,-0.00197564624249935,0.00301532982848585
321,-0.00149733060970902,-0.00865054130554199,0.0369002558290958,0.0293216723948717,-0.00264618173241615,-0.0247031096369028
322,0.00573940901085734,-0.0228871386498213,0.0250024721026421,0.0107900509610772,0.00173818087205291,-0.0488313511013985
323,0.0151635510846972,-0.0391849875450134,0.00897639431059361,-0.0104287350550294,0.00294175976887345,-0.0651917979121208
324,0.0334119386970997,-0.0510449968278408,-0.0143363866955042,-0.0298919472843409,-0.00622739223763347,-0.0680966302752495
325,0.056568555533886,-0.0526068769395351,-0.0446070730686188,-0.0502468124032021,-0.0266906339675188,-0.065649725496769
326,0.0659849569201469,-0.0442054383456707,-0.0777148529887199,-0.0765000879764557,-0.0565031617879868,-0.0709327906370163
327,0.0508774667978287,-0.029202887788415,-0.102157406508923,-0.100290030241013,-0.0838304832577705,-0.0822169557213783
328,0.0202930551022291,-0.0154797472059727,-0.108168743550777,-0.111850194633007,-0.0960396528244019,-0.0980571284890175
329,-0.00922202970832586,-0.0124960290268064,-0.0977191552519798,-0.113918237388134,-0.094646193087101,-0.118656910955906
330,-0.0243883077055216,-0.0158699862658978,-0.0775841325521469,-0.107148572802544,-0.0850664302706718,-0.128773093223572
331,-0.0227369032800198,-0.0106723494827747,-0.0562768653035164,-0.0907287448644638,-0.068914070725441,-0.11529429256916
332,-0.011983067728579,0.00944095011800528,-0.0362535938620567,-0.066588968038559,-0.0465481728315353,-0.0803499519824982
333,-0.00317857787013054,0.0346465222537518,-0.0115565937012434,-0.0350259356200695,-0.0235721729695797,-0.0367834381759167
334,-0.00252608302980661,0.0495678558945656,0.0196021106094122,0.000961053709033877,-0.00979636609554291,-0.00389822130091488
335,-0.00450784107670188,0.0495434068143368,0.0534697398543358,0.0366988256573677,-0.00503862276673317,0.00870868843048811
336,-0.00124626653268933,0.0415301322937012,0.081988736987114,0.0670025199651718,-0.00236963666975498,0.00852589774876833
337,0.0113652115687728,0.0380856730043888,0.0985898301005363,0.0887593254446983,0.00377554725855589,0.0115899834781885
338,0.0316303670406342,0.0464851073920727,0.104749001562595,0.102794513106346,0.0165469534695148,0.0284102503210306
339,0.0470495522022247,0.0579366348683834,0.100959949195385,0.106805242598057,0.0279797594994307,0.0536719895899296
340,0.0535402782261372,0.0646958500146866,0.0887701138854027,0.100754030048847,0.0294251795858145,0.0774637162685394
341,0.0581187084317207,0.0647870451211929,0.0720210075378418,0.0868696123361588,0.0216596089303494,0.0903565138578415
342,0.0594226270914078,0.0531963333487511,0.0531429350376129,0.0649767071008682,0.00869031902402639,0.0825668573379517
343,0.0515482723712921,0.0300839468836784,0.0353537425398827,0.036983784288168,-0.00271307118237019,0.0486795455217361
344,0.0375325456261635,0.0014323404757306,0.0192997064441442,0.00676386477425694,-0.00773602165281773,-0.00544191338121891
345,0.0253887120634317,-0.0279202740639448,0.000503776536788791,-0.0225431881844997,-0.0130123076960444,-0.0611734315752983
346,0.0152188027277589,-0.0564801879227161,-0.0241918712854385,-0.0484790131449699,-0.0288473106920719,-0.102431207895279
347,0.00751068582758307,-0.0735761225223541,-0.0413227751851082,-0.0598816387355328,-0.0454691462218761,-0.11357980966568
348,0.00549593195319176,-0.0619377680122852,-0.0365363247692585,-0.0491539761424065,-0.0444804541766644,-0.087610237300396
349,0.00747997127473354,-0.0260007604956627,-0.0199422314763069,-0.030062984675169,-0.0248035658150911,-0.0463314689695835
350,0.00817630719393492,0.00570412073284388,-0.00930773839354515,-0.020612359046936,-0.000647081120405346,-0.0167068839073181
351,-0.00159898155834526,0.0148617951199412,-0.0106273014098406,-0.0268228482455015,0.00641113985329866,-0.00663736462593079
352,-0.02574223279953,0.00626337807625532,-0.0231475383043289,-0.04491376131773,-0.0171088147908449,-0.0167890153825283
353,-0.0561659373342991,-0.0165291987359524,-0.0452266596257687,-0.0680893138051033,-0.0639509409666061,-0.0457960702478886
354,-0.0762257426977158,-0.0493045784533024,-0.0642576515674591,-0.0830903425812721,-0.106946393847466,-0.0735821053385735
355,-0.0661520659923553,-0.0701209977269173,-0.0568028651177883,-0.0686250925064087,-0.111162692308426,-0.070608489215374
356,-0.0200528502464294,-0.059649720788002,-0.0171110164374113,-0.0199427157640457,-0.0651011392474175,-0.0325197130441666
357,0.0370338037610054,-0.025873051956296,0.0281871650367975,0.0345046110451221,-0.000923153012990952,0.0149378664791584
358,0.0681963264942169,0.00920908432453871,0.0517191141843796,0.0634590163826942,0.0378709733486176,0.0461243540048599
359,0.0688036903738976,0.035196129232645,0.060014646500349,0.0714255794882774,0.0460008680820465,0.0646238923072815
360,0.0597131215035915,0.0461185649037361,0.0672869235277176,0.0761452615261078,0.0400264821946621,0.0823492035269737
361,0.0472674407064915,0.0305181741714478,0.0654150247573853,0.0739436075091362,0.0223052352666855,0.0855342447757721
362,0.0303824432194233,-0.00365274166688323,0.0486286729574203,0.0572530440986156,-0.00476248050108552,0.0605922043323517
363,0.0186982490122318,-0.0282481778413057,0.0273629110306501,0.0320069305598736,-0.0293918456882238,0.0224197544157505
364,0.022178815677762,-0.0303320102393627,0.0137288374826312,0.0119208879768848,-0.0407267659902573,-0.0023383772931993
365,0.0353969894349575,-0.0209701526910067,0.00335186417214572,-0.000537918996997178,-0.0403917841613293,-0.00680409092456102
366,0.0391300991177559,-0.0181246176362038,-0.0204174648970366,-0.0203108619898558,-0.0445382967591286,-0.0140193905681372
367,0.020344402641058,-0.0306306164711714,-0.0521841868758202,-0.051295954734087,-0.0610311478376389,-0.0428646616637707
368,-0.0159145649522543,-0.0467636436223984,-0.0619299076497555,-0.0718164592981339,-0.0756388455629349,-0.07624252140522
369,-0.0527399405837059,-0.0505540445446968,-0.033307783305645,-0.0602970272302628,-0.0703957974910736,-0.0835454314947128
370,-0.0765343606472015,-0.0462058484554291,0.0158219244331121,-0.022631224244833,-0.0474650226533413,-0.0581783093512058
371,-0.0829730778932571,-0.037434957921505,0.0592638850212097,0.0208414196968079,-0.0191968288272619,-0.0118614519014955
372,-0.0727817788720131,-0.013884193263948,0.0890165120363235,0.0579839944839478,0.0106563521549106,0.0430480986833572
373,-0.0491799414157867,0.0230847299098969,0.105831667780876,0.0838364362716675,0.0386350974440575,0.0921889394521713
374,-0.0203336197882891,0.0553827174007893,0.106356084346771,0.0960882157087326,0.0557521842420101,0.11947775632143
375,-0.00300581799820066,0.062005840241909,0.0828508958220482,0.0882414653897285,0.0526064336299896,0.11271058768034
376,-0.00284957606345415,0.0394046008586884,0.0392582751810551,0.0581628791987896,0.0313374176621437,0.079706184566021
377,-0.00259868730790913,0.0113555984571576,-0.00452841818332672,0.019811287522316,0.00660666823387146,0.0456307716667652
378,0.0116142341867089,-0.000853210920467973,-0.0350076146423817,-0.0111447609961033,-0.0132286781445146,0.0269264485687017
379,0.0310838408768177,-0.0038719077128917,-0.0513582602143288,-0.0295599848031998,-0.0295271407812834,0.0193431861698627
380,0.0397012457251549,-0.0134580442681909,-0.0561120100319386,-0.0371431633830071,-0.0411938168108463,0.00828084629029036
381,0.0378557033836842,-0.0306810662150383,-0.0546218603849411,-0.0385401546955109,-0.0442934632301331,-0.0118307620286942
382,0.0383005291223526,-0.0497404932975769,-0.0544135868549347,-0.0406431779265404,-0.0415731817483902,-0.0352512709796429
383,0.0441010780632496,-0.0643782317638397,-0.0550530590116978,-0.0431698374450207,-0.0379154197871685,-0.0499657243490219
384,0.0415537096560001,-0.0738578587770462,-0.0533657222986221,-0.0422838404774666,-0.0387137494981289,-0.0513730496168137
385,0.0230761785060167,-0.0827309936285019,-0.0495039336383343,-0.038846131414175,-0.0487715303897858,-0.046697836369276
386,0.00108900887425989,-0.0856291726231575,-0.0412413738667965,-0.0327998585999012,-0.0621486008167267,-0.0408296957612038
387,-0.0123955952003598,-0.0746317654848099,-0.0283777415752411,-0.0248184353113174,-0.0695715621113777,-0.0335408970713615
388,-0.0218494012951851,-0.0548746734857559,-0.0168587528169155,-0.0210920795798302,-0.0719538033008575,-0.0248508751392365
389,-0.0409443490207195,-0.0339506156742573,-0.0134527692571282,-0.0301747526973486,-0.0780319273471832,-0.0185983292758465
390,-0.0701907202601433,-0.00642093829810619,-0.0137867759913206,-0.0467735789716244,-0.0859317407011986,-0.0118860481306911
391,-0.0944449454545975,0.0241903942078352,-0.00577756017446518,-0.0532123148441315,-0.0848284140229225,0.00116983917541802
392,-0.100397773087025,0.0410121269524097,0.0172690730541945,-0.0406037978827953,-0.0710543692111969,0.0194371603429317
393,-0.0847614109516144,0.043502539396286,0.0510739386081696,-0.0127130197361112,-0.0467095710337162,0.0404965803027153
394,-0.0608557835221291,0.0387881211936474,0.076460599899292,0.0175726432353258,-0.0227809567004442,0.0547499135136604
395,-0.0459334179759026,0.0288366973400116,0.0787496417760849,0.0384404174983501,-0.0115902200341225,0.055504072457552
396,-0.0383583903312683,0.017265884205699,0.0663211718201637,0.0509542226791382,-0.0103888195008039,0.0507825314998627
397,-0.0287810806185007,0.00324350758455694,0.0506298281252384,0.057551421225071,-0.0132740829139948,0.0437664985656738
398,-0.0185587927699089,-0.0167838707566261,0.0263200234621763,0.0491734072566032,-0.0257201883941889,0.0216113738715649
399,-0.0150726772844791,-0.0380771718919277,-0.0148894786834717,0.0190794691443443,-0.0521721988916397,-0.0241913869976997
400,-0.022502463310957,-0.053457111120224,-0.0644131451845169,-0.0228188280016184,-0.0835557356476784,-0.0780523866415024
401,-0.0405181348323822,-0.0600035041570663,-0.102338932454586,-0.059259220957756,-0.106509625911713,-0.115516774356365
402,-0.061244647949934,-0.0524109415709972,-0.114898167550564,-0.0795859172940254,-0.113623283803463,-0.125569432973862
403,-0.0711961314082146,-0.0315054170787334,-0.108230568468571,-0.0870410799980164,-0.108867861330509,-0.116936258971691
404,-0.0653882101178169,-0.00881832279264927,-0.0981929823756218,-0.0883338898420334,-0.100428678095341,-0.101239368319511
405,-0.0538119785487652,0.00431012082844973,-0.0906538739800453,-0.0832540839910507,-0.0893605872988701,-0.0753431990742683
406,-0.0485977604985237,0.000204743817448616,-0.0895467475056648,-0.0802504420280457,-0.0812590718269348,-0.0444138832390308
407,-0.0466818958520889,-0.0107799870893359,-0.0978071987628937,-0.0919319838285446,-0.0842652842402458,-0.0282858442515135
408,-0.0418112277984619,-0.00898661930114031,-0.108417920768261,-0.113318666815758,-0.0913554951548576,-0.0324018187820911
409,-0.0411762185394764,0.00244877813383937,-0.108030632138252,-0.124553710222244,-0.089593730866909,-0.0432746410369873
410,-0.048745259642601,0.00737596210092306,-0.083244726061821,-0.1062848046422,-0.0767081528902054,-0.0436903685331345
411,-0.0565616898238659,0.00156353891361505,-0.0359629802405834,-0.0583770908415318,-0.0604546815156937,-0.0244009904563427
412,-0.0576428808271885,-0.00696908449754119,0.015389695763588,-0.00139564508572221,-0.0476913005113602,0.0118986396118999
413,-0.0525888837873936,-0.0099535258486867,0.0559464059770107,0.045976810157299,-0.0406313315033913,0.0496064759790897
414,-0.0431983955204487,-0.00379530759528279,0.0850638374686241,0.0823288634419441,-0.0370971448719502,0.0718690380454063
415,-0.0291488990187645,0.0146546252071857,0.106273114681244,0.110701665282249,-0.0315016843378544,0.0768863782286644
416,-0.0171472541987896,0.0411426387727261,0.114074312150478,0.120580658316612,-0.0248550735414028,0.0676373690366745
417,-0.0151714682579041,0.0628116950392723,0.105450458824635,0.104017056524754,-0.0198055300861597,0.04647346585989
418,-0.0187364593148232,0.0717898309230804,0.0873516798019409,0.0711344480514526,-0.0147473979741335,0.0216660592705011
419,-0.0189149975776672,0.0679247230291367,0.0626523196697235,0.035158783197403,-0.0144973630085588,0.00043468558578752
420,-0.0167149025946856,0.0550471767783165,0.0286462567746639,0.000272666075034067,-0.0277535300701857,-0.016575176268816
421,-0.0204890556633472,0.0323636755347252,-0.0144990924745798,-0.0346517041325569,-0.0557451322674751,-0.0330271013081074
422,-0.0334862172603607,-0.00484414771199226,-0.0596834309399128,-0.0669000297784805,-0.0914726927876472,-0.0490503497421741
423,-0.0495558306574821,-0.045150775462389,-0.0922872945666313,-0.0863247513771057,-0.123290963470936,-0.0556801445782185
424,-0.0603232644498348,-0.0661299303174019,-0.100351065397263,-0.0841935724020004,-0.140739858150482,-0.0422991812229156
425,-0.0617744438350201,-0.0570197775959969,-0.0844871401786804,-0.0632780715823174,-0.14026403427124,-0.00839011464267969
426,-0.0533734373748302,-0.0238440148532391,-0.0604464337229729,-0.0426106452941895,-0.125691041350365,0.0289295092225075
427,-0.0371016897261143,0.0148420371115208,-0.052130650728941,-0.0472146086394787,-0.106397025287151,0.0474389083683491
428,-0.017428208142519,0.0413647592067719,-0.0690113231539726,-0.0807206258177757,-0.0905297845602036,0.0427247658371925
429,0.000218363056774251,0.0464109890162945,-0.0972482562065125,-0.118955038487911,-0.0810867846012115,0.0216779503971338
430,0.00842489022761583,0.0244996901601553,-0.116841860115528,-0.136434510350227,-0.081441767513752,-0.013443318195641
431,-0.0014616217231378,-0.0161985717713833,-0.116631038486958,-0.127280786633492,-0.0930619165301323,-0.0544158294796944
432,-0.0304952692240477,-0.0521019920706749,-0.0933422520756722,-0.0975492969155312,-0.105582624673843,-0.0805030986666679
433,-0.0620607957243919,-0.0668411105871201,-0.0480536669492722,-0.0523095466196537,-0.101612910628319,-0.0745253786444664
434,-0.0730688646435738,-0.062097005546093,0.00879591330885887,0.00128000613767654,-0.0770481005311012,-0.0355510897934437
435,-0.0618054233491421,-0.0463232025504112,0.0571682266891003,0.0476338751614094,-0.0481233187019825,0.0195635892450809
436,-0.0459240190684795,-0.022224884480238,0.0810896009206772,0.0702105537056923,-0.033050648868084,0.0669756904244423
437,-0.0313893742859364,0.0160280764102936,0.0842480286955833,0.0697434842586517,-0.0291708894073963,0.0980361476540565
438,-0.0153799252584577,0.0649249702692032,0.0795731544494629,0.0598575510084629,-0.0240307841449976,0.11625512689352
439,-0.00529410317540169,0.101933695375919,0.0707137510180473,0.0481613278388977,-0.0196420699357986,0.119880013167858
440,-0.00759217469021678,0.110431902110577,0.057473462074995,0.0359145291149616,-0.0235484223812819,0.106889203190804
441,-0.0154531542211771,0.0986215174198151,0.041996281594038,0.0250147916376591,-0.0340249203145504,0.0829494595527649
442,-0.0147209838032722,0.0864743590354919,0.0279097761958838,0.0201067123562098,-0.0414897315204144,0.0591775104403496
443,-0.00174381665419787,0.079565554857254,0.0163576435297728,0.0219910312443972,-0.0382004231214523,0.0436137318611145
444,0.0186766032129526,0.072803221642971,0.00752648012712598,0.0279780998826027,-0.022257711738348,0.0409663878381252
445,0.0374847277998924,0.060167234390974,-0.000485049473354593,0.0289037749171257,-0.00514690717682242,0.0456714853644371
446,0.041163794696331,0.0399500019848347,-0.0112521722912788,0.0127787543460727,-0.00515876896679401,0.0468201525509357
447,0.0274457279592752,0.0240228399634361,-0.0232587438076735,-0.0177040342241526,-0.0245859548449516,0.0446758195757866
448,0.0041049774736166,0.0189345516264439,-0.0358608588576317,-0.050020094960928,-0.0520923063158989,0.0371703691780567
449,-0.0156266782432795,0.0171688105911016,-0.0477855205535889,-0.0696341618895531,-0.0721610113978386,0.0222746096551418
450,-0.0213464684784412,0.0130399549379945,-0.0552034787833691,-0.0711226239800453,-0.077605277299881,0.00731582473963499
451,-0.0196555536240339,0.0128412442281842,-0.059228677302599,-0.0663815960288048,-0.0754794701933861,-0.00210871314629912
452,-0.0226899385452271,0.0241193100810051,-0.0620643496513367,-0.0643256977200508,-0.0724444836378098,-0.00680802529677749
453,-0.0313688889145851,0.0383556187152863,-0.0566844791173935,-0.0567765235900879,-0.0668846368789673,-0.00718588102608919
454,-0.0400351583957672,0.041643001139164,-0.035559318959713,-0.0363120250403881,-0.0548781752586365,0.00205800216645002
455,-0.0472647771239281,0.0301319528371096,-0.00838034134358168,-0.0115991588681936,-0.0408655256032944,0.018376911059022
456,-0.0513122119009495,0.0100140739232302,0.00917137693613768,0.00686325319111347,-0.0336503684520721,0.0266874320805073
457,-0.0461944900453091,-0.00849741045385599,0.0148111376911402,0.0163420755416155,-0.0311944615095854,0.0183471776545048
458,-0.0318902209401131,-0.0201189257204533,0.01448605209589,0.0177611373364925,-0.0279781091958284,-0.000403045065468177
459,-0.0191739778965712,-0.0261570606380701,0.0109799979254603,0.0154403988271952,-0.0297369305044413,-0.018074169754982
460,-0.0180935971438885,-0.0258752144873142,0.00675352150574327,0.0143636902794242,-0.0409490130841732,-0.0256563555449247
461,-0.0238685756921768,-0.010973603464663,0.0105664758011699,0.019181489944458,-0.0499731302261353,-0.0173544082790613
462,-0.0260099954903126,0.0209347568452358,0.0247330814599991,0.0284722205251455,-0.045171283185482,0.00458731222897768
463,-0.0225419793277979,0.0605090670287609,0.0352860726416111,0.0311567056924105,-0.0325723849236965,0.0324448756873608
464,-0.0160978510975838,0.0981275290250778,0.0284805316478014,0.020127234980464,-0.0270668640732765,0.0573604442179203
465,-0.00833010300993919,0.122371472418308,0.00882791541516781,0.00354094919748604,-0.0329405851662159,0.0676359161734581
466,0.00246684928424656,0.122814640402794,-0.00716771278530359,-0.00453764433041215,-0.0388274826109409,0.0610783137381077
467,0.0179303083568811,0.10273963958025,-0.0166748575866222,-0.00606925459578633,-0.0367537550628185,0.0453099682927132
468,0.0342953726649284,0.0716683492064476,-0.0311198495328426,-0.0171075072139502,-0.0285154543817043,0.0217159260064363
469,0.043365016579628,0.0347305648028851,-0.0558250322937965,-0.0449111200869083,-0.0189519729465246,-0.0146067980676889
470,0.0380345843732357,0.000403738929890096,-0.0836790204048157,-0.0788823962211609,-0.019447885453701,-0.0624524503946304
471,0.0134690152481198,-0.0223898906260729,-0.10112938284874,-0.103143885731697,-0.0398814603686333,-0.107540339231491
472,-0.0280196163803339,-0.0284518823027611,-0.0981437042355537,-0.109033867716789,-0.0719123780727386,-0.125655859708786
473,-0.0698692202568054,-0.016385979950428,-0.075649157166481,-0.095898412168026,-0.0948516428470612,-0.106564484536648
474,-0.0946634262800217,0.00513135595247149,-0.0458573177456856,-0.0729464069008827,-0.101186357438564,-0.0712810829281807
475,-0.096488930284977,0.0322714634239674,-0.0169010162353516,-0.0484700947999954,-0.0983565598726273,-0.0384256355464458
476,-0.0747938305139542,0.0729256793856621,0.0171652100980282,-0.0167139433324337,-0.0858358442783356,-0.00126901897601783
477,-0.036284051835537,0.126206263899803,0.0586950406432152,0.0258304011076689,-0.0579790621995926,0.0449945963919163
478,-0.0022878919262439,0.174602150917053,0.0926439985632896,0.0637402608990669,-0.0257837641984224,0.0852248594164848
479,0.0131073035299778,0.202188104391098,0.106343351304531,0.08270063996315,-0.00462150387465954,0.109202906489372
480,0.0226617902517319,0.213273599743843,0.107368662953377,0.0906093865633011,0.00904949381947517,0.128011971712112
481,0.0395651012659073,0.21886157989502,0.108076818287373,0.100291378796101,0.0245721191167831,0.143585830926895
482,0.0562129393219948,0.213910013437271,0.111779309809208,0.110870398581028,0.0401019081473351,0.142298012971878
483,0.0636796727776527,0.191841617226601,0.117486834526062,0.118149526417255,0.0502088144421577,0.125458389520645
484,0.0659785121679306,0.163046106696129,0.120911456644535,0.120820179581642,0.053123377263546,0.106551937758923
485,0.0658690333366394,0.138149589300156,0.111653842031956,0.111214056611061,0.0475957319140434,0.087946429848671
486,0.0558317415416241,0.113641209900379,0.0773268267512321,0.0767777413129807,0.0302185863256454,0.0597409047186375
487,0.0311573762446642,0.0826778188347816,0.0140622956678271,0.0135853635147214,-0.00527791539207101,0.0146596748381853
488,-0.0014463032130152,0.0451232902705669,-0.0620501786470413,-0.0622491054236889,-0.05781464651227,-0.0394135415554047
489,-0.0266844760626554,0.0127437673509121,-0.119132190942764,-0.119012773036957,-0.105319634079933,-0.0790150389075279
490,-0.0311923492699862,0.00184178061317652,-0.132208421826363,-0.132639408111572,-0.121175937354565,-0.0803889408707619
491,-0.021441638469696,0.0107378885149956,-0.1027827039361,-0.104731142520905,-0.104289129376411,-0.0419771447777748
492,-0.015920739620924,0.023772856220603,-0.0544336326420307,-0.0582601279020309,-0.0772632732987404,0.0100088510662317
493,-0.0184697359800339,0.0366980917751789,-0.00463277287781239,-0.0133424606174231,-0.0541677623987198,0.0477509684860706
494,-0.0211159493774176,0.0563873201608658,0.041913740336895,0.0224190428853035,-0.0304133873432875,0.0621420592069626
495,-0.022894473746419,0.0872834175825119,0.0766497999429703,0.0410622730851173,-0.00641530426219106,0.05729665979743
496,-0.0308511983603239,0.1211788803339,0.0884796679019928,0.0345556847751141,0.00527399079874158,0.0455343313515186
497,-0.0446906723082066,0.137054711580276,0.0737996399402618,0.00589949497953057,-0.000927276501897722,0.042428333312273
498,-0.0536754541099072,0.128635331988335,0.0380304977297783,-0.0296271461993456,-0.0182524211704731,0.0493373610079288
499,-0.0547614432871342,0.11302150785923,-0.0104920482262969,-0.0605526231229305,-0.0417552143335342,0.0472263097763062
500,-0.0565222576260567,0.0986561626195908,-0.0616306066513062,-0.0851074755191803,-0.0681779161095619,0.024608077481389
501,-0.0630061626434326,0.0746975764632225,-0.100206203758717,-0.0993958935141563,-0.0921607837080956,-0.00508830230683088
502,-0.0683756768703461,0.0383906811475754,-0.110257633030415,-0.0957126617431641,-0.109657861292362,-0.022216472774744
503,-0.0669080391526222,0.00615510577335954,-0.0842312946915627,-0.0684364214539528,-0.113298192620277,-0.0189643558114767
504,-0.0561563707888126,-0.00244706892408431,-0.0275465566664934,-0.0197648108005524,-0.0938530415296555,0.00398694025352597
505,-0.0362027958035469,0.0176208131015301,0.0432524755597115,0.0367362014949322,-0.0526071824133396,0.0397637262940407
506,-0.0123645206913352,0.0528771951794624,0.107351705431938,0.0835160240530968,-0.00434084050357342,0.0732404515147209
507,0.0073437443934381,0.0859251692891121,0.150934889912605,0.111845731735229,0.0337058082222939,0.0951553955674171
508,0.0172766670584679,0.106183923780918,0.166403919458389,0.11971590667963,0.0491155683994293,0.106036856770515
509,0.0172774493694305,0.111131764948368,0.149554640054703,0.10657312721014,0.0369458198547363,0.103774331510067
510,0.0145582854747772,0.108645059168339,0.112037032842636,0.0820858031511307,0.00825351197272539,0.0895499885082245
511,0.0161869470030069,0.105646289885044,0.0714660882949829,0.0571560561656952,-0.0188446715474129,0.0688817650079727
512,0.0226336102932692,0.0981470867991447,0.0309409722685814,0.0296245031058788,-0.0358332619071007,0.042513333261013
513,0.0280148405581713,0.0832530930638313,-0.0109988246113062,-0.0045984573662281,-0.0411292128264904,0.0143020814284682
514,0.018728606402874,0.0634865611791611,-0.0524841658771038,-0.0465800762176514,-0.041650302708149,-0.0147366765886545
515,-0.0082518458366394,0.0432185046374798,-0.0879849642515183,-0.0914713069796562,-0.0476781092584133,-0.0479854121804237
516,-0.0351671725511551,0.0274580623954535,-0.106675133109093,-0.125048071146011,-0.0555986948311329,-0.0709710270166397
517,-0.0509672686457634,0.0161426123231649,-0.105540916323662,-0.140966013073921,-0.0559192597866058,-0.0659600719809532
518,-0.0605565421283245,0.00920043047517538,-0.0938757434487343,-0.144370764493942,-0.0517931059002876,-0.0448466427624226
519,-0.0661104395985603,0.0104578649625182,-0.0803811997175217,-0.136407628655434,-0.0520391315221787,-0.0324363447725773
520,-0.0654080510139465,0.0181782767176628,-0.0655984655022621,-0.113678850233555,-0.0538918264210224,-0.0331094637513161
521,-0.0548135749995708,0.0299821421504021,-0.0439181365072727,-0.0758834183216095,-0.0454426929354668,-0.0317628271877766
522,-0.033845167607069,0.0495476648211479,-0.0193886328488588,-0.0367790646851063,-0.0267623513936996,-0.0202880594879389
523,-0.0155607182532549,0.0758574306964874,-0.00966213829815388,-0.0227765012532473,-0.0161238014698029,-0.0104082003235817
524,-0.0150130381807685,0.0959673225879669,-0.019445801153779,-0.0395282171666622,-0.0266853421926498,-0.0105468174442649
525,-0.032241452485323,0.0961913019418716,-0.030268857255578,-0.0576956868171692,-0.0511503666639328,-0.0102796843275428
526,-0.0564239993691444,0.0836541354656219,-0.0231995321810246,-0.0479953922331333,-0.0729641988873482,0.00323091517202556
527,-0.0756913125514984,0.0803413242101669,0.00102961750235409,-0.013137198984623,-0.0809176862239838,0.0276473630219698
528,-0.0776979625225067,0.0912496522068977,0.0303785111755133,0.0264993514865637,-0.0688257440924644,0.05291398614645
529,-0.0573423840105534,0.101108908653259,0.0579735636711121,0.0595338381826878,-0.0356255657970905,0.0771438628435135
530,-0.0250985864549875,0.0989904180169106,0.079545795917511,0.0821112915873528,0.00522003881633282,0.0973562300205231
531,0.00523873372003436,0.0868280455470085,0.0884568691253662,0.0907281190156937,0.0333772972226143,0.103706903755665
532,0.0238283053040504,0.0683845803141594,0.0786867812275887,0.0804427862167358,0.0392947681248188,0.0935182496905327
533,0.0259589329361916,0.0522897839546204,0.0560116656124592,0.054257471114397,0.0299143437296152,0.0779715925455093
534,0.0195524748414755,0.051363330334425,0.0378563031554222,0.0319096781313419,0.0198973193764687,0.0750076472759247
535,0.0156096164137125,0.06587053835392,0.0349131114780903,0.0296217482537031,0.018227145075798,0.0897566825151443
536,0.0123519338667393,0.0832499414682388,0.0435807891190052,0.0414759032428265,0.0218686684966087,0.102241657674313
537,0.00313088530674577,0.0886113718152046,0.0532032586634159,0.0513357184827328,0.0235120318830013,0.0902324244379997
538,-0.00766825303435326,0.0799844264984131,0.0593651905655861,0.0545762442052364,0.025685915723443,0.0589357204735279
539,-0.00987918768078089,0.0696059018373489,0.0657025277614594,0.057610496878624,0.0337775275111198,0.0312249846756458
540,0.00171015970408916,0.0701114535331726,0.0762270167469978,0.0647816732525826,0.0487609691917896,0.0230871420353651
541,0.0256966128945351,0.0865299254655838,0.0881649851799011,0.0726393833756447,0.0693376436829567,0.0381558127701283
542,0.0515016242861748,0.109712846577168,0.0885723233222961,0.0706850066781044,0.0845646634697914,0.0656008496880531
543,0.0610381513834,0.120658427476883,0.0656843781471252,0.0501394905149937,0.0776340365409851,0.081348828971386
544,0.0460444092750549,0.111877009272575,0.0256152544170618,0.0167512744665146,0.0472692809998989,0.0728000625967979
545,0.0189217962324619,0.0965689569711685,-0.0134276188910007,-0.0136599168181419,0.0105813834816217,0.0516714602708817
546,-0.00234664720483124,0.0862679407000542,-0.0447254925966263,-0.0372072719037533,-0.0186769776046276,0.0285209119319916
547,-0.00892919395118952,0.0755981132388115,-0.0693177059292793,-0.0595297142863274,-0.0365259200334549,0.00319689069874585
548,-0.00514762150123715,0.0581245459616184,-0.0782947838306427,-0.0752200409770012,-0.0413955077528954,-0.0155869163572788
549,-0.00539027107879519,0.0382830761373043,-0.0657158270478249,-0.0759829729795456,-0.038182407617569,-0.0179813150316477
550,-0.0183107722550631,0.0214134715497494,-0.0446573905646801,-0.0665935054421425,-0.0370762795209885,-0.0152518432587385
551,-0.0390922911465168,0.00368802389129996,-0.0325821973383427,-0.0579084455966949,-0.0404923185706139,-0.0243416167795658
552,-0.0628644526004791,-0.0205286480486393,-0.035588625818491,-0.0584922097623348,-0.0443706139922142,-0.0477250553667545
553,-0.0851856768131256,-0.0425630137324333,-0.0453292652964592,-0.0641308426856995,-0.0441539473831654,-0.0731040760874748
554,-0.0973076000809669,-0.0488110296428204,-0.0455167517066002,-0.0579939521849155,-0.0376573912799358,-0.0835464522242546
555,-0.0966013744473457,-0.0426279567182064,-0.0301133152097464,-0.033541951328516,-0.0289266183972359,-0.0750168189406395
556,-0.083310030400753,-0.0331798754632473,-0.00462270388379693,0.00153912079986185,-0.0199320800602436,-0.051721353083849
557,-0.0609545782208443,-0.0227652844041586,0.0200245417654514,0.0312278158962727,-0.0127331763505936,-0.0197493154555559
558,-0.0435161963105202,-0.0127170439809561,0.0305091105401516,0.039206501096487,-0.0152081279084086,0.00750636216253042
559,-0.0384899526834488,-0.00181999290362,0.0283407401293516,0.0311188083142042,-0.0232066661119461,0.0228115115314722
560,-0.0374540314078331,0.0139565225690603,0.0274081751704216,0.0266221594065428,-0.0220478903502226,0.033996470272541
561,-0.0385889559984207,0.0282629244029522,0.0211605746299028,0.0209159608930349,-0.0208638589829206,0.0378315150737762
562,-0.0502009838819504,0.023230604827404,-0.00986478012055159,-0.0058419699780643,-0.0424838215112686,0.0173268225044012
563,-0.0646638050675392,-0.00418899673968554,-0.0526348613202572,-0.042524665594101,-0.0765840485692024,-0.0190363023430109
564,-0.0638605803251266,-0.0319804027676582,-0.0745213851332664,-0.0605402588844299,-0.091978095471859,-0.0442341379821301
565,-0.0463529080152512,-0.0362007841467857,-0.0712828412652016,-0.0569160468876362,-0.0798426494002342,-0.0501406453549862
566,-0.0242436155676842,-0.0131084499880672,-0.058946218341589,-0.0461879000067711,-0.0505706667900085,-0.0441379994153976
567,-0.00596224470064044,0.0243375040590763,-0.0425968244671822,-0.0337046273052692,-0.0160712655633688,-0.0283041708171368
568,0.00700092408806086,0.0589802078902721,-0.0217061545699835,-0.0192981865257025,0.0104013569653034,0.00180454202927649
569,0.0154140694066882,0.072630763053894,-0.00580595945939422,-0.00936526525765657,0.0184506699442863,0.0360923521220684
570,0.0191072225570679,0.0610114298760891,-0.0013630932662636,-0.00649035349488258,0.0105460584163666,0.0524255409836769
571,0.0191469807177782,0.0444437265396118,0.00108402408659458,-0.00316866883076727,0.000255520892096683,0.0456769987940788
572,0.0141917848959565,0.0409907214343548,0.00357045489363372,-0.00214092410169542,-0.00731107918545604,0.0195788182318211
573,-0.00337037164717913,0.0429672375321388,-0.00656084902584553,-0.0171745121479034,-0.0202570185065269,-0.0245026927441359
574,-0.0379233472049236,0.0284410379827023,-0.0347402766346931,-0.0527556613087654,-0.0445174612104893,-0.0790471956133842
575,-0.081013023853302,-0.0130075858905911,-0.0735630840063095,-0.0973522439599037,-0.0774322375655174,-0.132275834679604
576,-0.117985755205154,-0.0696308836340904,-0.108802750706673,-0.130342155694962,-0.109800904989243,-0.170002296566963
577,-0.140633180737495,-0.120060637593269,-0.124699555337429,-0.136812999844551,-0.129074409604073,-0.178841143846512
578,-0.148928970098495,-0.147765040397644,-0.115319490432739,-0.116974197328091,-0.13019223511219,-0.157334089279175
579,-0.144288197159767,-0.147131189703941,-0.0891523733735085,-0.0807121694087982,-0.118158489465714,-0.117314957082272
580,-0.127030193805695,-0.119646608829498,-0.0554293692111969,-0.0367713831365108,-0.0948240756988525,-0.067665122449398
581,-0.103466808795929,-0.0745846703648567,-0.0201002173125744,0.00321565219201148,-0.0637611150741577,-0.0160810854285955
582,-0.0830474123358727,-0.028985433280468,0.00929836463183165,0.0260603632777929,-0.0369649939239025,0.0233366936445236
583,-0.0668891817331314,0.00398466130718589,0.02987308986485,0.0330327786505222,-0.0200868882238865,0.0443418994545937
584,-0.0484292842447758,0.022735457867384,0.0471390336751938,0.0381850712001324,-0.00712836952880025,0.0517077781260014
585,-0.0259675793349743,0.0313064455986023,0.0633742660284042,0.0479937717318535,0.00528665212914348,0.0488655045628548
586,-0.0025602241512388,0.0328895561397076,0.0732650086283684,0.0570048429071903,0.0153914950788021,0.0397887788712978
587,0.0209874529391527,0.031523235142231,0.0710037276148796,0.0570691823959351,0.022932143881917,0.0276497416198254
588,0.0377702675759792,0.0322173498570919,0.0504324845969677,0.0378199927508831,0.0239902939647436,0.00891119986772537
589,0.0371983796358109,0.0341026224195957,0.00797397363930941,-0.00556853041052818,0.0105180600658059,-0.0151400491595268
590,0.0223894920200109,0.0235306844115257,-0.0562429018318653,-0.0656497180461884,-0.0221363473683596,-0.0421997420489788
591,0.0100665921345353,-0.00447176583111286,-0.129141241312027,-0.123855635523796,-0.0656385570764542,-0.0739408358931541
592,0.00542898615822196,-0.0357949659228325,-0.17770528793335,-0.158388242125511,-0.0996730923652649,-0.105340473353863
593,-0.00211302004754543,-0.0618873983621597,-0.182851269841194,-0.163279414176941,-0.112963400781155,-0.127692729234695
594,-0.00985993631184101,-0.0792208686470985,-0.156326934695244,-0.145328208804131,-0.10877800732851,-0.131717786192894
595,-0.00662785489112139,-0.0834597647190094,-0.11497075855732,-0.10899843275547,-0.0927963554859161,-0.112954169511795
596,0.0019961972720921,-0.0779343768954277,-0.0676956698298454,-0.0580639690160751,-0.068236768245697,-0.0775169804692268
597,0.00531403021886945,-0.0644674524664879,-0.0146587574854493,0.00208481564186513,-0.0339747443795204,-0.0303553342819214
598,0.000925261760130525,-0.0410879664123058,0.0424074046313763,0.0613943934440613,0.00483504123985767,0.0248581580817699
599,-0.00841680727899075,-0.0118627520278096,0.0930988937616348,0.106222234666348,0.0347450897097588,0.0762122347950935
600,-0.0207909978926182,0.0119479857385159,0.125811859965324,0.123222343623638,0.0489325523376465,0.103494733572006
601,-0.0323219858109951,0.0251358821988106,0.135897621512413,0.109927505254745,0.0534741058945656,0.0975106954574585
602,-0.0296546500176191,0.0345756262540817,0.132083579897881,0.085831880569458,0.0607446543872356,0.0778677612543106
603,-0.0114255789667368,0.0365257076919079,0.11752612888813,0.0647249892354012,0.0663372725248337,0.0613808780908585
604,0.00691555393859744,0.019853450357914,0.0863220617175102,0.0413411520421505,0.0538694970309734,0.0432688407599926
605,0.0184608828276396,-0.00961782038211823,0.0477599985897541,0.017794469371438,0.0262412894517183,0.0244957022368908
606,0.0256920922547579,-0.0315379425883293,0.0208342205733061,0.00675518764182925,0.00289579550735652,0.0167312156409025
607,0.0297926142811775,-0.0248874053359032,0.0127863837406039,0.0105278771370649,-0.00639198580756783,0.021396866068244
608,0.0311379916965961,0.0141363497823477,0.0165843348950148,0.0181378480046988,-0.00716011971235275,0.032059907913208
609,0.0286966226994991,0.0616282857954502,0.0195549707859755,0.0174782611429691,-0.00702700577676296,0.0436449311673641
610,0.018617182970047,0.0905691385269165,0.00945074111223221,0.00141731440089643,-0.0108765466138721,0.0461004562675953
611,0.00535208499059081,0.0923784002661705,-0.0150003395974636,-0.0248684864491224,-0.0178697668015957,0.0364111438393593
612,-0.00167058862280101,0.0625832676887512,-0.0416543409228325,-0.0462747439742088,-0.022702107205987,0.0249870177358389
613,-0.00322015932761133,0.00548483058810234,-0.0559043362736702,-0.0512765720486641,-0.0210022088140249,0.0171156171709299
614,-0.00146759173367172,-0.0549732595682144,-0.0504206195473671,-0.0400464832782745,-0.0103481514379382,0.00630731740966439
615,0.00484366668388247,-0.0959517285227776,-0.0297137089073658,-0.0199760440737009,0.00435592839494348,-0.00722530484199524
616,0.0117499697953463,-0.111509531736374,-0.00383463967591524,0.00433787843212485,0.0145512251183391,-0.0086593059822917
617,0.0106094153597951,-0.108755320310593,0.0145572973415256,0.0242012850940228,0.0128604043275118,0.0046414490789175
618,0.000374563329387456,-0.0919500887393951,0.0196992233395576,0.0305788889527321,-0.000320662657031789,0.0207997560501099
619,-0.00667075673118234,-0.0591383650898933,0.0209878254681826,0.0280484445393085,-0.0131773576140404,0.0343747027218342
620,-0.00730176456272602,-0.0228794366121292,0.0197452940046787,0.0171386785805225,-0.0250191930681467,0.0352509096264839
621,-0.0105827022343874,-0.0039649847894907,0.00975273922085762,-0.00527505297213793,-0.0402442403137684,0.0160918142646551
622,-0.0147772114723921,-0.00221027224324644,-0.000126000275486149,-0.0242309011518955,-0.0460248775780201,-0.00353729701600969
623,-0.0106120118871331,-0.00117598625365645,0.00615336373448372,-0.0209115594625473,-0.0305488090962172,-0.000823652546387166
624,-0.000584419583901763,-0.00129031541291624,0.0240938197821379,-0.00208309711888433,-0.00599896255880594,0.0147469323128462
625,0.00809406116604805,-0.0150688942521811,0.0332193076610565,0.0107847573235631,0.00867989379912615,0.0219255778938532
626,0.0194259863346815,-0.0331053398549557,0.0303023625165224,0.0119130695238709,0.0136468503624201,0.0234032571315765
627,0.0348396077752113,-0.0376612730324268,0.0182288736104965,0.00086681853281334,0.0106098335236311,0.0246676243841648
628,0.0459130443632603,-0.0287502836436033,-0.00671988492831588,-0.0244117900729179,-0.00471313763409853,0.0174870565533638
629,0.0452947579324245,-0.0219466779381037,-0.0411890335381031,-0.0566175356507301,-0.0266625098884106,-0.00265783537179232
630,0.0309909284114838,-0.0308347288519144,-0.0771447941660881,-0.0874646380543709,-0.0446440763771534,-0.0323675237596035
631,0.00650873268023133,-0.0511863082647324,-0.102401554584503,-0.109394505620003,-0.0483140796422958,-0.0612771883606911
632,-0.0232067219913006,-0.0720374658703804,-0.107542410492897,-0.113629214465618,-0.037788026034832,-0.0774193108081818
633,-0.0509115271270275,-0.0859229937195778,-0.0940419882535934,-0.0957871824502945,-0.0271262675523758,-0.0759924873709679
634,-0.0674501359462738,-0.0913446992635727,-0.0682819858193398,-0.060400553047657,-0.0243187937885523,-0.0593292936682701
635,-0.0714235380291939,-0.0954536274075508,-0.0393403731286526,-0.0207027494907379,-0.026035375893116,-0.0334688350558281
636,-0.0631239116191864,-0.100864127278328,-0.0103108743205667,0.01364391669631,-0.0244405306875706,0.000937502423767
637,-0.0426405631005764,-0.0972142294049263,0.0203146710991859,0.0369536280632019,-0.0171131957322359,0.0441538095474243
638,-0.0218933131545782,-0.0747770667076111,0.0425264723598957,0.0422173328697681,-0.0141515098512173,0.0816418007016182
639,-0.0109355896711349,-0.0421730801463127,0.0445563681423664,0.0318656489253044,-0.0211295336484909,0.0946628376841545
640,-0.00711513217538595,-0.0246173329651356,0.0258522797375917,0.0139982057735324,-0.0306996218860149,0.0753054618835449
641,-0.00726757291704416,-0.0347605869174004,-0.00548063265159726,-0.00854996591806412,-0.0364013947546482,0.0313768498599529
642,-0.0134674562141299,-0.0545458346605301,-0.0359539054334164,-0.0333475209772587,-0.0393399223685265,-0.0105803497135639
643,-0.0282732397317886,-0.0623671039938927,-0.0540445111691952,-0.0546141751110554,-0.0415470860898495,-0.0279887784272432
644,-0.0425650589168072,-0.0537492074072361,-0.0494301877915859,-0.0599373131990433,-0.0355288609862328,-0.0198814868927002
645,-0.0445767790079117,-0.0385705083608627,-0.0217143204063177,-0.0431000031530857,-0.0180413704365492,-0.000125785489217378
646,-0.0378859601914883,-0.0318035110831261,0.0116137797012925,-0.0169645138084888,-0.00105962506495416,0.0136152524501085
647,-0.0323078222572804,-0.0358246117830276,0.0308645665645599,-0.000200002614292316,0.00215535121969879,0.0124320164322853
648,-0.0318145267665386,-0.043797928839922,0.0289608482271433,-0.00248852954246104,-0.0130108296871185,0.000591831572819501
649,-0.0321776978671551,-0.0505104064941406,0.0127169946208596,-0.0185322668403387,-0.0374862365424633,-0.0115633765235543
650,-0.0296311546117067,-0.05074817314744,-0.0130468234419823,-0.0384274050593376,-0.0598060227930546,-0.0218665804713964
651,-0.0287940669804811,-0.0459924973547459,-0.0504866167902946,-0.0583917088806629,-0.0751197338104248,-0.0366400666534901
652,-0.0336270555853844,-0.0487274676561356,-0.0911313891410828,-0.0741314813494682,-0.0780138596892357,-0.0576071590185165
653,-0.0442193187773228,-0.0698561668395996,-0.112518832087517,-0.0782530084252357,-0.0697734355926514,-0.0764293521642685
654,-0.0600132383406162,-0.10228468477726,-0.0988524332642555,-0.068364292383194,-0.0607480071485043,-0.0781187489628792
655,-0.0777677372097969,-0.122559547424316,-0.0610871315002441,-0.050571009516716,-0.0586434043943882,-0.0565092824399471
656,-0.0917489677667618,-0.120981328189373,-0.0265027228742838,-0.034220103174448,-0.0641015991568565,-0.0240481644868851
657,-0.0931588858366013,-0.109338112175465,-0.00688683893531561,-0.0210398994386196,-0.0694516599178314,0.00861197989434004
658,-0.0816888138651848,-0.096908263862133,-0.000681648962199688,-0.0116233769804239,-0.0717946439981461,0.0398569740355015
659,-0.0687122195959091,-0.0815077126026154,-0.00782637111842632,-0.0123379454016685,-0.0761559754610062,0.061649527400732
660,-0.0563333258032799,-0.0580453984439373,-0.0194193180650473,-0.0196756646037102,-0.0752429962158203,0.0648897439241409
661,-0.0401620678603649,-0.0307618360966444,-0.0236541405320168,-0.0244066826999187,-0.058232307434082,0.0492782965302467
662,-0.0276542082428932,-0.0115662030875683,-0.024550711736083,-0.0287806075066328,-0.0351570770144463,0.019331119954586
663,-0.0256490539759398,-0.00545354699715972,-0.0304463356733322,-0.0373834297060966,-0.0240557417273521,-0.0129485949873924
664,-0.0258270818740129,-0.00925020780414343,-0.0383105911314487,-0.0456749349832535,-0.0282167103141546,-0.0303063187748194
665,-0.0240004286170006,-0.0223236139863729,-0.0473670139908791,-0.0514741651713848,-0.0420699678361416,-0.0333612635731697
666,-0.0255913361907005,-0.041049849241972,-0.0594585761427879,-0.0565061569213867,-0.0556838326156139,-0.0363044701516628
667,-0.0281428918242455,-0.0501127615571022,-0.0689557194709778,-0.0606920346617699,-0.0583482980728149,-0.0427196845412254
668,-0.0276818610727787,-0.0450040027499199,-0.0761636272072792,-0.068688876926899,-0.0537152513861656,-0.0507899075746536
669,-0.0301755983382463,-0.0440695397555828,-0.0844366848468781,-0.0817453265190125,-0.0521867126226425,-0.055883701890707
670,-0.040178220719099,-0.0544057302176952,-0.0819338336586952,-0.0858170166611671,-0.0519423335790634,-0.0423188954591751
671,-0.0505835302174091,-0.0603128336369991,-0.0569135881960392,-0.0664643570780754,-0.0464088879525661,-0.00193442206364125
672,-0.0520912036299706,-0.0554923936724663,-0.0212690494954586,-0.0305688250809908,-0.0391321070492268,0.0445706136524677
673,-0.040296196937561,-0.0490117445588112,0.00917622540146112,0.00631658872589469,-0.0317210666835308,0.0724707469344139
674,-0.0142273204401135,-0.045167189091444,0.0333537012338638,0.0377228632569313,-0.0200029220432043,0.0814230740070343
675,0.0205182377249002,-0.0406805574893951,0.0525169260799885,0.0601772665977478,-0.00489273807033896,0.0810784548521042
676,0.0503554753959179,-0.0321611687541008,0.0628564804792404,0.0698990151286125,0.0116302650421858,0.07487753033638
677,0.0597025454044342,-0.0250127669423819,0.0550334267318249,0.0609187223017216,0.0186357349157333,0.0596412345767021
678,0.0433924458920956,-0.0267756469547749,0.0287431143224239,0.0348373912274837,0.00247003091499209,0.035259772092104
679,0.0100159449502826,-0.0324093550443649,0.00201779836788774,0.00692342640832067,-0.0272917468100786,0.0115301217883825
680,-0.0247975178062916,-0.0321726240217686,-0.00948152597993612,-0.0102406665682793,-0.0488738380372524,-0.000215316016692668
681,-0.0442753098905087,-0.0230601653456688,-0.00450560683384538,-0.0124055510386825,-0.052653793245554,0.00553578278049827
682,-0.0467205904424191,-0.00889604166150093,0.00648624356836081,-0.00519936252385378,-0.0470021590590477,0.0199601836502552
683,-0.045729786157608,0.0101335952058434,0.0127601316198707,0.000642907689325511,-0.045782495290041,0.0306271482259035
684,-0.0466315634548664,0.0347589701414108,0.0142176188528538,0.0021841237321496,-0.0513039603829384,0.0402155891060829
685,-0.0419123731553555,0.0502147264778614,0.010828566737473,-0.00101403030566871,-0.0574022866785526,0.0500381663441658
686,-0.023191973567009,0.0450341664254665,0.00166709104087204,-0.00692826835438609,-0.0554545857012272,0.0550731159746647
687,0.00735767604783177,0.027904873713851,-0.00998589210212231,-0.00994850415736437,-0.0409967452287674,0.0551635101437569
688,0.0369363985955715,0.0107072340324521,-0.0222705602645874,-0.0108244968578219,-0.0219384338706732,0.0497860163450241
689,0.0512180924415588,-0.00362313957884908,-0.0330609418451786,-0.014773041009903,-0.00971175078302622,0.0371896103024483
690,0.0454436056315899,-0.0196659378707409,-0.0378468334674835,-0.0223107747733593,-0.00561084831133485,0.0171803925186396
691,0.031024094671011,-0.0367222242057323,-0.0331946015357971,-0.0261427201330662,-0.00323976250365376,-0.00611385703086853
692,0.0235629882663488,-0.0426060892641544,-0.0173364449292421,-0.0162584651261568,0.000170889994478785,-0.0210172384977341
693,0.0271397344768047,-0.0328800790011883,0.00751149235293269,0.00883342605084181,0.00207065930590034,-0.0169761888682842
694,0.0336041748523712,-0.0206171590834856,0.0292845163494349,0.034331776201725,-0.000567594426684082,0.00620025908574462
695,0.0340967327356339,-0.0133750019595027,0.034778218716383,0.0434088557958603,-0.00711910147219896,0.0398295111954212
696,0.0273036137223244,-0.00779595831409097,0.0224725902080536,0.0327090583741665,-0.016198018565774,0.0635087937116623
697,0.0181592293083668,-0.00533972261473536,0.000445905636297539,0.00896349083632231,-0.0294542480260134,0.0602865219116211
698,0.0100756138563156,-0.00982963386923075,-0.0217190477997065,-0.016781285405159,-0.0477502085268497,0.0365187227725983
699,-0.00132284953724593,-0.0180279947817326,-0.0355836190283298,-0.0343795046210289,-0.0656603202223778,0.00540571892634034
700,-0.0184427611529827,-0.0209822431206703,-0.0359107032418251,-0.0396619439125061,-0.0728422179818153,-0.0227767899632454
701,-0.0345157496631145,-0.017018822953105,-0.0273434408009052,-0.0370038114488125,-0.066683754324913,-0.0369681715965271
702,-0.0410508140921593,-0.0145165184512734,-0.0208770483732224,-0.0339279733598232,-0.0548387058079243,-0.0325546078383923
703,-0.0342705436050892,-0.0203440897166729,-0.0217932183295488,-0.0312984436750412,-0.0429732650518417,-0.0173937305808067
704,-0.0215189289301634,-0.0282356012612581,-0.0256788916885853,-0.0244042165577412,-0.0292538516223431,-0.00593090988695621
705,-0.0152855962514877,-0.0276446808129549,-0.0244219843298197,-0.0117914061993361,-0.0108617916703224,-0.00554099678993225
706,-0.0187926907092333,-0.0262734424322844,-0.0155164422467351,0.00172665063291788,0.00702838366851211,-0.0159227941185236
707,-0.0270636007189751,-0.0364249683916569,-0.0057283123023808,0.00953736435621977,0.0143838301301003,-0.0333338342607021
708,-0.0326736085116863,-0.0545636042952538,-0.00128430395852774,0.0102411899715662,0.00985137093812227,-0.0478683784604073
709,-0.0263449605554342,-0.0702364221215248,0.00568689918145537,0.0115552730858326,0.00667749112471938,-0.0486834719777107
710,-0.00645769434049726,-0.0795107334852219,0.0232256948947906,0.0201786998659372,0.0154969766736031,-0.0371338129043579
711,0.015926705673337,-0.0836561098694801,0.042118564248085,0.0328973717987537,0.0314902812242508,-0.0228087361901999
712,0.0307018365710974,-0.0785870477557182,0.0521257147192955,0.0446929149329662,0.0466834418475628,-0.00618009874597192
713,0.0370503589510918,-0.0573193281888962,0.05540981143713,0.0547761768102646,0.0580492652952671,0.0184219460934401
714,0.0377911441028118,-0.0182394608855248,0.0550900064408779,0.0612500533461571,0.0637863129377365,0.0454886592924595
715,0.0305459946393967,0.0221282057464123,0.0463044829666615,0.0565065108239651,0.0577284805476666,0.0565694905817509
716,0.0161958523094654,0.0369713604450226,0.0296359900385141,0.0379827693104744,0.0360994674265385,0.0444245561957359
717,0.00565294502303004,0.026127589866519,0.0134556507691741,0.0136211821809411,0.00682617072016001,0.0258762780576944
718,0.00723320990800858,0.0181567519903183,-0.0003615134046413,-0.00771562103182077,-0.0179389733821154,0.018703781068325
719,0.020756097510457,0.03216702491045,-0.0142611199989915,-0.0215320624411106,-0.0319737792015076,0.0225737914443016
720,0.0376993417739868,0.0601166523993015,-0.0262269768863916,-0.0268188994377851,-0.0341568626463413,0.0286512617021799
721,0.0489719733595848,0.0815110206604004,-0.0310734584927559,-0.0244105141609907,-0.0252865608781576,0.0275996066629887
722,0.050703153014183,0.0760044306516647,-0.0294870957732201,-0.0191328413784504,-0.0135205490514636,0.0075707258656621
723,0.0420006066560745,0.0406576469540596,-0.0274372696876526,-0.0162028092890978,-0.00851199869066477,-0.0309125054627657
724,0.0268421452492476,0.00147792079951614,-0.0280242711305618,-0.0159961022436619,-0.00915246736258268,-0.0655869469046593
725,0.0105838188901544,-0.0193396210670471,-0.0280192717909813,-0.0146826095879078,-0.00807433854788542,-0.0750603377819061
726,-0.00501004001125693,-0.0299976691603661,-0.0228284522891045,-0.00901834014803171,-0.00270931213162839,-0.0626257061958313
727,-0.0187061075121164,-0.0430078282952309,-0.0137570258229971,-0.00330981239676476,0.00476475385949016,-0.0475545041263103
728,-0.0278411079198122,-0.0570890083909035,-0.00687816692516208,-0.00514542544260621,0.0107159623876214,-0.0439667291939259
729,-0.0283578708767891,-0.0637799724936485,-0.00299774738959968,-0.010069870389998,0.0119781531393528,-0.0486200898885727
730,-0.0187452659010887,-0.0520405545830727,0.00638221204280853,-0.00442920671775937,0.0119013991206884,-0.0419836416840553
731,-0.00628949142992496,-0.0221189968287945,0.0244167912751436,0.0139116030186415,0.0148345651105046,-0.0125109665095806
732,0.00470391241833568,0.0130553906783462,0.0462583601474762,0.0386471003293991,0.0228168740868568,0.030243806540966
733,0.014025840908289,0.0380706116557121,0.0626226812601089,0.0608651749789715,0.0332906953990459,0.0643591806292534
734,0.0123958820477128,0.0408954881131649,0.0580229610204697,0.0631378069519997,0.0330618694424629,0.0680501163005829
735,-0.00260898610576987,0.0300628989934921,0.0331710614264011,0.0387523882091045,0.015904363244772,0.0430004596710205
736,-0.0185618605464697,0.0262617096304893,0.00761685566976666,0.00170780858024955,-0.00970144011080265,0.0135033065453172
737,-0.0264363512396812,0.0322479121387005,-0.0118583422154188,-0.0337500311434269,-0.0380371510982513,-0.00322645646519959
738,-0.0293789394199848,0.0392117649316788,-0.0342071950435638,-0.064206026494503,-0.0698263123631477,-0.00563963735476136
739,-0.0331003293395042,0.0480217486619949,-0.0594927482306957,-0.0866307243704796,-0.0994118005037308,0.00545577704906464
740,-0.0326994955539703,0.0579742901027203,-0.0780071318149567,-0.0937136933207512,-0.113610245287418,0.0246164966374636
741,-0.018581785261631,0.0574301294982433,-0.0848621726036072,-0.0814374163746834,-0.104888044297695,0.0353929661214352
742,0.00764811271801591,0.0436892583966255,-0.0780695751309395,-0.0525676906108856,-0.0762679874897003,0.0277864281088114
743,0.0342544391751289,0.0270588751882315,-0.056593481451273,-0.0174910333007574,-0.0369352251291275,0.00885379500687122
744,0.0519432947039604,0.0168993230909109,-0.0265519041568041,0.00995157472789288,0.00109517702367157,-0.0105359498411417
745,0.0535944327712059,0.0141250165179372,-0.00223458325490355,0.0183974970132113,0.0234303176403046,-0.028132064267993
746,0.0370384603738785,0.0146212689578533,0.00957094226032496,0.0113484775647521,0.0242583025246859,-0.0398590564727783
747,0.0130464509129524,0.0172968860715628,0.0199106242507696,0.0103066144511104,0.0149130746722221,-0.0326820760965347
748,-0.00555480411276221,0.0224700067192316,0.0411389768123627,0.0303547419607639,0.0112255904823542,-0.00224385177716613
749,-0.0156369470059872,0.0262601617723703,0.0704461932182312,0.062517486512661,0.0183962062001228,0.0369723662734032
750,-0.0202802158892155,0.0230825077742338,0.0918741449713707,0.0848043411970139,0.0273081641644239,0.0621522255241871
751,-0.021583866328001,0.0160580277442932,0.0921256020665169,0.0845663249492645,0.0268861819058657,0.0645029991865158
752,-0.0193468406796455,0.0158475767821074,0.0741130709648132,0.0673934146761894,0.0177764538675547,0.0572441890835762
753,-0.015815757215023,0.0211095716804266,0.0482750087976456,0.0432228967547417,0.00481080915778875,0.0485046096146107
754,-0.0126112941652536,0.0214413106441498,0.0224642623215914,0.0173499193042517,-0.0097295856103301,0.0329341031610966
755,-0.00919500458985567,0.013927829451859,0.00270391767844558,-0.00497661763802171,-0.0227272696793079,0.0112688643857837
756,-0.00871834624558687,0.000389677763450891,-0.00834307260811329,-0.0179010760039091,-0.0299079362303019,-0.00926027726382017
757,-0.0103818299248815,-0.0123016815632582,-0.0107689741998911,-0.017731411382556,-0.0252243988215923,-0.0206828154623508
758,-0.00910237245261669,-0.0142019037157297,-0.00910983514040709,-0.00947015546262264,-0.0104803396388888,-0.0210470408201218
759,-0.00594275072216988,-0.00698792980983853,-0.0118268197402358,-0.00529007893055677,0.00063200993463397,-0.0180634371936321
760,-0.0032455928158015,0.00166666100267321,-0.0213456209748983,-0.0102497106418014,-0.000928542460314929,-0.0126918870955706
761,-0.000651635054964572,0.00949744787067175,-0.032492246478796,-0.0194774996489286,-0.0132275717332959,0.00198254431597888
762,0.0019737349357456,0.0132612176239491,-0.0400523468852043,-0.0281869266182184,-0.0284090451896191,0.020966375246644
763,0.0156617481261492,0.0166580695658922,-0.039285235106945,-0.0310727152973413,-0.0291069261729717,0.0340621657669544
764,0.0547965802252293,0.0262627694755793,-0.0339428968727589,-0.0283693224191666,-0.00359607115387917,0.0352789498865604
765,0.10555974394083,0.0297052692621946,-0.0383318476378918,-0.0354271084070206,0.0316983237862587,0.017445357516408
766,0.133820593357086,0.0132521633058786,-0.057359267026186,-0.0620023831725121,0.0473400577902794,-0.0150190405547619
767,0.11985881626606,-0.015913950279355,-0.0812821239233017,-0.0937851369380951,0.0281831175088882,-0.0434299409389496
768,0.0697115957736969,-0.0432405397295952,-0.0967434123158455,-0.107968270778656,-0.015525296330452,-0.0563398823142052
769,0.00883936043828726,-0.0559086911380291,-0.0893235728144646,-0.0902451053261757,-0.0549306012690067,-0.0518409684300423
770,-0.0352997779846191,-0.0428477972745895,-0.0462670475244522,-0.0382349528372288,-0.0639921575784683,-0.0258808899670839
771,-0.0526010952889919,-0.00705213192850351,0.0256030559539795,0.0305907912552357,-0.0389935784041882,0.0188246294856071
772,-0.0473191924393177,0.0321079380810261,0.0957897529006004,0.0855789333581924,0.00522201787680388,0.0636322498321533
773,-0.0216507352888584,0.0593751221895218,0.136725962162018,0.111318945884705,0.053269449621439,0.089984729886055
774,0.0182599779218435,0.072786420583725,0.143049359321594,0.112418949604034,0.0879440009593964,0.0917979180812836
775,0.0514996610581875,0.0697331577539444,0.126405373215675,0.0975132808089256,0.0945740416646004,0.0743868574500084
776,0.0637957528233528,0.0486796237528324,0.0990903750061989,0.0755326598882675,0.0771371722221375,0.0533339306712151
777,0.0592106692492962,0.0245410688221455,0.0675063505768776,0.053564939647913,0.0488273613154888,0.039972897619009
778,0.0474808514118195,0.017881004139781,0.0387309417128563,0.0357229150831699,0.022446246817708,0.0316273868083954
779,0.0363224372267723,0.0324966199696064,0.0181256979703903,0.0237742178142071,0.00909384060651064,0.0244444161653519
780,0.031630951911211,0.0628288313746452,0.00703584589064121,0.0169143192470074,0.0108484597876668,0.0266470778733492
781,0.0322443582117558,0.0952905714511871,0.00152550358325243,0.0108335698023438,0.0155437774956226,0.0471611171960831
782,0.0323036201298237,0.107351019978523,-0.000325962668284774,0.00577658135443926,0.0134264240041375,0.0791309401392937
783,0.0370078906416893,0.0953239798545837,0.01276077888906,0.0155037706717849,0.0162669569253922,0.106533952057362
784,0.0525330863893032,0.0735853239893913,0.0465324819087982,0.0467216707766056,0.0361380726099014,0.116368502378464
785,0.0749996528029442,0.0578695125877857,0.0927952453494072,0.0920056775212288,0.0692643225193024,0.113607384264469
786,0.0975692868232727,0.0574494898319244,0.140358075499535,0.142700150609016,0.104629710316658,0.115142360329628
787,0.111052922904491,0.0662808939814568,0.175018444657326,0.183459118008614,0.128553941845894,0.123224161565304
788,0.105949886143208,0.0715304091572762,0.183210819959641,0.194458335638046,0.129153892397881,0.124623611569405
789,0.082614041864872,0.0688613876700401,0.166442394256592,0.173236072063446,0.10875228792429,0.114085212349892
790,0.0554361529648304,0.0630591213703156,0.143479600548744,0.139701083302498,0.0892369672656059,0.102498404681683
791,0.0364507213234901,0.056347843259573,0.123842008411884,0.106503210961819,0.0849025845527649,0.092608854174614
792,0.0276944488286972,0.0464660488069057,0.0967580527067184,0.0674902126193047,0.086869090795517,0.0757894068956375
793,0.0293998196721077,0.032918956130743,0.0528882294893265,0.0206401497125626,0.0840071141719818,0.0527922585606575
794,0.0363111011683941,0.0233170129358768,-0.00154204189311713,-0.0243360549211502,0.0707074105739594,0.0283859055489302
795,0.0402542874217033,0.0286569558084011,-0.0477695353329182,-0.0553968921303749,0.0469095557928085,0.00384545628912747
796,0.0424797125160694,0.0480433776974678,-0.0671004727482796,-0.0637637674808502,0.0257808715105057,-0.0124301724135876
797,0.0486410148441792,0.0735754668712616,-0.0546168386936188,-0.0477206781506538,0.0201191529631615,-0.00878755655139685
798,0.0539968684315681,0.0944694578647614,-0.0221360120922327,-0.0164346229285002,0.0230368915945292,0.00948597397655249
799,0.0519186742603779,0.101137228310108,0.0130394473671913,0.0172598101198673,0.0211089197546244,0.0261189602315426
800,0.0460335686802864,0.0961387231945992,0.0355978272855282,0.04114630818367,0.0131671531125903,0.0338112115859985
801,0.0453670285642147,0.0845327824354172,0.0358513481914997,0.0439891889691353,0.00939734745770693,0.0333512984216213
802,0.0559486523270607,0.0687288716435432,0.0220652539283037,0.0288379173725843,0.0205542668700218,0.0286950003355742
803,0.0688317865133286,0.0514757633209229,0.0123913958668709,0.0106517663225532,0.0428365021944046,0.0218810718506575
804,0.0716823190450668,0.0362619534134865,0.0136588057503104,0.00157024804502726,0.0613769255578518,0.013639866374433
805,0.0648270323872566,0.0276807378977537,0.0201862119138241,0.00485799601301551,0.0635697990655899,0.00583198061212897
806,0.0556174479424953,0.0297454167157412,0.0297204256057739,0.0190046578645706,0.0505057722330093,0.000599122315179557
807,0.0503196641802788,0.0439862534403801,0.0451740808784962,0.0407814793288708,0.0361468903720379,0.00176350260153413
808,0.0421378687024117,0.0637606456875801,0.0531060956418514,0.0525064207613468,0.0225702226161957,0.00328920525498688
809,0.0234534628689289,0.0797661170363426,0.0389232523739338,0.0380440168082714,0.00737832766026258,-0.00400439836084843
810,0.00390205602161586,0.0870957151055336,0.0166863854974508,0.00974729191511869,0.0013472477439791,-0.0166914444416761
811,-0.00403257366269827,0.0861985385417938,0.00895492825657129,-0.00921399053186178,0.0115880351513624,-0.0274338126182556
812,0.00389303034171462,0.084238663315773,0.0189616810530424,-0.0110282590612769,0.0331934429705143,-0.0333110056817532
813,0.026177890598774,0.0875955894589424,0.0398452430963516,0.000613471725955606,0.0590316690504551,-0.0334399081766605
814,0.055139135569334,0.0943194180727005,0.0701374784111977,0.0257191304117441,0.0861087515950203,-0.024232404306531
815,0.0823464021086693,0.102648466825485,0.104599177837372,0.0618961900472641,0.110849045217037,-0.00084102968685329
816,0.102118894457817,0.118029646575451,0.130087926983833,0.0954338237643242,0.126047849655151,0.0354054756462574
817,0.105899900197983,0.135278940200806,0.134467408061028,0.110323630273342,0.121919825673103,0.0700793042778969
818,0.090768076479435,0.137099981307983,0.114566422998905,0.101825892925262,0.0934429168701172,0.0863116979598999
819,0.0669500529766083,0.118807330727577,0.0814897194504738,0.0788199529051781,0.0527327097952366,0.0815729051828384
820,0.0423431396484375,0.0895235762000084,0.0464381575584412,0.0498438403010368,0.0159393548965454,0.0623136013746262
821,0.0174324363470078,0.0580321699380875,0.00790755916386843,0.0154646644368768,-0.014103009365499,0.0346246026456356
822,-0.0039056318346411,0.0284387022256851,-0.0327566601336002,-0.0206665620207787,-0.0370929129421711,0.00274540670216084
823,-0.0159949250519276,-0.000919495127163827,-0.0618894919753075,-0.0463241301476955,-0.0470572635531425,-0.0310534313321114
824,-0.017058877274394,-0.0272175073623657,-0.0654209181666374,-0.0498277693986893,-0.0359742157161236,-0.0606637224555016
825,-0.0071973386220634,-0.0383498482406139,-0.0402648523449898,-0.0288703572005033,-0.00191903801169246,-0.0750298947095871
826,0.0136417178437114,-0.0263191014528275,0.00256795017048717,0.00728060072287917,0.0439582020044327,-0.0649435296654701
827,0.0379392579197884,0.00452528707683086,0.0405985563993454,0.0388611294329166,0.0821869298815727,-0.0340241938829422
828,0.0532393865287304,0.040372222661972,0.0539836212992668,0.0478137172758579,0.0964964553713799,-0.00224985182285309
829,0.0588545873761177,0.0687342882156372,0.047502625733614,0.0361321642994881,0.0879210829734802,0.0155659662559628
830,0.0618251822888851,0.0832828506827354,0.0425537750124931,0.0209187418222427,0.0733592286705971,0.0218864530324936
831,0.0689874142408371,0.0865157395601273,0.051117729395628,0.0189119279384613,0.0683050602674484,0.0270969457924366
832,0.0824388265609741,0.0844168215990067,0.0702822133898735,0.0347928330302238,0.0732201039791107,0.039039421826601
833,0.090621255338192,0.0728646963834763,0.0888540223240852,0.0555182173848152,0.07608412951231,0.05327383056283
834,0.0810495316982269,0.0490603409707546,0.097332552075386,0.0659904107451439,0.0669667422771454,0.0633172988891602
835,0.0540630295872688,0.0255457870662212,0.0944550931453705,0.0633566156029701,0.0446813516318798,0.0728573873639107
836,0.0161950327455997,0.0166013780981302,0.0827169790863991,0.0512446686625481,0.0138280494138598,0.0796415507793427
837,-0.0215900857001543,0.0232186522334814,0.067357636988163,0.0360630825161934,-0.0165840052068233,0.0712210386991501
838,-0.043057668954134,0.0367682315409184,0.0578514188528061,0.027269035577774,-0.0339392833411694,0.0482682436704636
839,-0.0424335524439812,0.047463595867157,0.0545380674302578,0.0257271323353052,-0.0336260795593262,0.0237067546695471
840,-0.0272273253649473,0.0528474636375904,0.049502395093441,0.0247727930545807,-0.0218268483877182,0.00694268848747015
841,-0.00283910008147359,0.0544970110058784,0.0418592505156994,0.02385014295578,-0.004957792814821,0.00108424678910524
842,0.0239751357585192,0.0458714105188847,0.0313645340502262,0.0241521280258894,0.00996077340096235,-7.37278824090026E-05
843,0.0453697964549065,0.0258555579930544,0.0184084437787533,0.0259668305516243,0.023496937006712,-0.00247618439607322
844,0.0578367598354816,0.00341546349227428,0.0039102234877646,0.0237857960164547,0.0393231250345707,-0.0110427225008607
845,0.0568139590322971,-0.0198144856840372,-0.0171997100114822,0.00539270555600524,0.0451161935925484,-0.0332329422235489
846,0.0402264446020126,-0.0425374768674374,-0.0412431657314301,-0.0257660392671824,0.0314161814749241,-0.0600730627775192
847,0.0126439472660422,-0.0574609637260437,-0.0584753639996052,-0.0530875213444233,0.00675649335607886,-0.0719448775053024
848,-0.0123051349073648,-0.0601185634732246,-0.0644483640789986,-0.064822643995285,-0.0136577226221561,-0.0621137209236622
849,-0.0191708207130432,-0.0502528101205826,-0.0567308999598026,-0.0570127591490746,-0.0176079571247101,-0.0383013337850571
850,-0.0103432713076472,-0.0380107164382935,-0.0411808043718338,-0.0392331592738628,-0.00871645286679268,-0.0174648594111204
851,0.000904512358829379,-0.0338575392961502,-0.0262245517224073,-0.0246551521122456,-0.00139929517172277,-0.0118043022230268
852,0.012652637436986,-0.0286613646894693,-0.00974646490067244,-0.0144052607938647,-0.000814451137557626,-0.0145214656367898
853,0.0245567876845598,-0.0109197832643986,0.00942748505622149,-0.00868051964789629,-0.00489949528127909,-0.0124920243397355
854,0.0252348370850086,0.00940288137644529,0.0225432645529509,-0.0119432006031275,-0.01384137570858,-0.00324620818719268
855,0.00594511488452554,0.0138113088905811,0.0200059209018946,-0.0230788551270962,-0.0299215447157621,0.00331050460226834
856,-0.023660734295845,0.00625394331291318,0.00547742983326316,-0.0328667908906937,-0.047110591083765,-0.0010897065512836
857,-0.0443175286054611,0.0025338470004499,-0.0108759719878435,-0.0366148427128792,-0.0526472963392735,-0.0156824961304665
858,-0.0456817746162415,0.00361306197009981,-0.0242970436811447,-0.0386907458305359,-0.0429421737790108,-0.0370214506983757
859,-0.0278948768973351,0.00715203024446964,-0.026660367846489,-0.0378494821488857,-0.0226176735013723,-0.0566314458847046
860,0.000532204343471676,0.0128927826881409,-0.0166981015354395,-0.0312311556190252,0.001618058886379,-0.0675252452492714
861,0.0264814980328083,0.0175075065344572,-0.00440954603254795,-0.0210470389574766,0.0243835430592299,-0.0683147087693214
862,0.0420068651437759,0.0226488132029772,0.00757503882050514,-0.00872243475168943,0.040777150541544,-0.0547019764780998
863,0.0469529554247856,0.0276884119957685,0.0164015963673592,-0.000821239489596337,0.0423942543566227,-0.0339472964406013
864,0.047187827527523,0.02757428586483,0.0161529425531626,-0.00225138152018189,0.0295967925339937,-0.0252715367823839
865,0.0524011589586735,0.0339110307395458,0.0141706187278032,-0.00240542809478939,0.0170674342662096,-0.025136461481452
866,0.06355120241642,0.0604445077478886,0.018946148455143,0.00640339544042945,0.0126288663595915,-0.0126031935214996
867,0.0748284608125687,0.0943753197789192,0.0269833877682686,0.0177331268787384,0.0127113834023476,0.0136570231989026
868,0.0867832079529762,0.115969635546207,0.0333408825099468,0.0253939833492041,0.0173189286142588,0.0342776514589787
869,0.100039981305599,0.119508840143681,0.0403272211551666,0.0309666581451893,0.0304362159222364,0.0343849174678326
870,0.108882606029511,0.105686590075493,0.0501481331884861,0.0365341231226921,0.0497274659574032,0.0152162425220013
871,0.105442494153976,0.0810573548078537,0.0534272119402885,0.0340701155364513,0.0624899491667748,-0.0130288284271955
872,0.0855390951037407,0.0536396354436874,0.0357288494706154,0.0112259248271585,0.0542029514908791,-0.0455657988786697
873,0.0562456175684929,0.0222405698150396,-0.0093626482412219,-0.0372966937720776,0.0201783534139395,-0.0875385925173759
874,0.0297080613672733,-0.0110767241567373,-0.0746007338166237,-0.103305727243423,-0.028548626229167,-0.137235924601555
875,0.00825686845928431,-0.0359106622636318,-0.14357103407383,-0.166637673974037,-0.073700875043869,-0.180100500583649
876,-0.00626629684120417,-0.0467229969799519,-0.194965958595276,-0.206546574831009,-0.102338708937168,-0.201959952712059
877,-0.00969850271940231,-0.0439316369593143,-0.209699526429176,-0.214864879846573,-0.113817751407623,-0.20159238576889
878,-0.0076111601665616,-0.0324399061501026,-0.19388584792614,-0.205300822854042,-0.122809670865536,-0.195447340607643
879,-0.0100440364331007,-0.0234808679670095,-0.177805215120316,-0.201812729239464,-0.143752306699753,-0.202051222324371
880,-0.0182341057807207,-0.0201593227684498,-0.174388274550438,-0.210374489426613,-0.167409524321556,-0.214851975440979
881,-0.0222232975065708,-0.00641850288957357,-0.166784957051277,-0.214371353387833,-0.171065211296082,-0.209976941347122
882,-0.0182501208037138,0.0242718420922756,-0.147526472806931,-0.20275767147541,-0.154967233538628,-0.190879106521606
883,-0.01249407697469,0.0557629875838757,-0.129133284091949,-0.180672869086266,-0.140036568045616,-0.178240284323692
884,-0.0124104507267475,0.0749461725354195,-0.122019335627556,-0.160184815526009,-0.140404909849167,-0.166194722056389
885,-0.0224703047424555,0.0836096405982971,-0.128033250570297,-0.152329459786415,-0.156214267015457,-0.142307057976723
886,-0.0363717786967754,0.0909188240766525,-0.139746740460396,-0.152940064668655,-0.175353914499283,-0.115062892436981
887,-0.0388201363384724,0.0998296737670898,-0.142830178141594,-0.144853502511978,-0.181404858827591,-0.0939269959926605
888,-0.019490908831358,0.101338185369968,-0.134451150894165,-0.124566093087196,-0.170712724328041,-0.0852060541510582
889,0.0125702442601323,0.083555206656456,-0.133015424013138,-0.111620351672173,-0.156724333763123,-0.102482803165913
890,0.0392944775521755,0.0517566688358784,-0.147501096129417,-0.118098676204681,-0.147800087928772,-0.138494685292244
891,0.0495851971209049,0.0263219550251961,-0.164785280823708,-0.136869087815285,-0.145568519830704,-0.165380999445915
892,0.0418825559318066,0.0248207356780767,-0.171002045273781,-0.157997742295265,-0.155917942523956,-0.173225969076157
893,0.0274962689727545,0.0514202676713467,-0.156769350171089,-0.169725209474564,-0.174888744950294,-0.167841896414757
894,0.0180271100252867,0.0844697132706642,-0.129602134227753,-0.16613532602787,-0.194121360778809,-0.158900320529938
895,0.0148290498182178,0.0970392450690269,-0.114119522273541,-0.154606685042381,-0.213444396853447,-0.155747294425964
896,0.0136856315657496,0.0829054191708565,-0.123571656644344,-0.14712031185627,-0.23090960085392,-0.158127874135971
897,0.00984032172709703,0.05466328561306,-0.149956524372101,-0.149545922875404,-0.237173050642014,-0.158484011888504
898,0.00313613330945373,0.0308509096503258,-0.179484590888023,-0.162615150213242,-0.23186944425106,-0.155733704566956
899,-0.00302304816432297,0.023293873295188,-0.203097924590111,-0.18465818464756,-0.228998631238937,-0.15696494281292
900,-0.0076762568205595,0.0315593592822552,-0.215155452489853,-0.207426637411118,-0.234461307525635,-0.16246922314167
901,-0.0167770683765411,0.0405189134180546,-0.21850498020649,-0.227134704589844,-0.244417831301689,-0.16939003765583
902,-0.0366221331059933,0.0440399460494518,-0.221106737852097,-0.245322644710541,-0.257746040821075,-0.175969034433365
903,-0.0611808747053146,0.0574936829507351,-0.223860427737236,-0.25543275475502,-0.271011561155319,-0.174413427710533
904,-0.0763797536492348,0.0834976211190224,-0.222058981657028,-0.249965593218803,-0.273683607578278,-0.162298172712326
905,-0.0713299736380577,0.102495282888412,-0.21119724214077,-0.230135723948479,-0.258700996637344,-0.146839529275894
906,-0.0457445122301579,0.104647383093834,-0.193995863199234,-0.204424813389778,-0.233450472354889,-0.132810011506081
907,-0.0125585831701756,0.0957437828183174,-0.186020955443382,-0.186699107289314,-0.213468924164772,-0.125940650701523
908,0.0171031076461077,0.0791775435209274,-0.195980250835419,-0.185138672590256,-0.205061018466949,-0.133104830980301
909,0.0386338718235493,0.0586780682206154,-0.205321416258812,-0.191065415740013,-0.198938801884651,-0.145855695009232
910,0.0484908893704414,0.0486462377011776,-0.191242828965187,-0.187791764736176,-0.185921937227249,-0.142532736063004
911,0.0466025583446026,0.0575391501188278,-0.159787178039551,-0.171247988939285,-0.172917932271957,-0.115716256201267
912,0.0372387245297432,0.0748300924897194,-0.133032888174057,-0.151462435722351,-0.168912172317505,-0.0780803188681602
913,0.0232237111777067,0.0826873332262039,-0.127679035067558,-0.143895834684372,-0.178874775767326,-0.0509370043873787
914,0.00291296816430986,0.0704373121261597,-0.15168733894825,-0.161177307367325,-0.211714759469032,-0.0524912253022194
915,-0.0239227786660194,0.0462993048131466,-0.195964425802231,-0.198360085487366,-0.26410847902298,-0.079800046980381
916,-0.0503865927457809,0.0283231344074011,-0.235776796936989,-0.232217058539391,-0.313062220811844,-0.111476369202137
917,-0.0602941624820232,0.0279195513576269,-0.242381408810616,-0.236791610717773,-0.329264760017395,-0.124877333641052
918,-0.0454124733805656,0.0437150672078133,-0.208721920847893,-0.209383547306061,-0.301540732383728,-0.116002351045609
919,-0.0145955868065357,0.0622665993869305,-0.163550034165382,-0.173394426703453,-0.252275407314301,-0.100928165018559
920,0.0199833363294601,0.0710492730140686,-0.135901853442192,-0.14819647371769,-0.211118414998055,-0.0877654105424881
921,0.0480940602719784,0.0742303878068924,-0.123016469180584,-0.133256241679192,-0.183116033673286,-0.0668312981724739
922,0.0625868737697601,0.0837324112653732,-0.106740660965443,-0.117434240877628,-0.15933546423912,-0.0299760103225708
923,0.0581147484481335,0.0951125472784042,-0.0826356485486031,-0.0961562097072601,-0.140988230705261,0.012635906226933
924,0.0355612896382809,0.103007376194,-0.0576753802597523,-0.0741864293813705,-0.131205067038536,0.0447258204221725
925,0.00895396526902914,0.117146193981171,-0.0348042622208595,-0.0552922561764717,-0.123866237699986,0.062710665166378
926,-0.00813107192516327,0.136561125516891,-0.0197241324931383,-0.0440009981393814,-0.117596752941608,0.0692664310336113
927,-0.0165183134377003,0.143660947680473,-0.0289039574563503,-0.0502567663788795,-0.12413077801466,0.0636159330606461
928,-0.0252148322761059,0.127168819308281,-0.0735163241624832,-0.0815514400601387,-0.154350772500038,0.0389029420912266
929,-0.0364141762256622,0.0922773331403732,-0.140029907226563,-0.132839858531952,-0.198273211717606,-0.00659573683515191
930,-0.0437610410153866,0.0522857494652271,-0.201197981834412,-0.189271599054337,-0.232564195990562,-0.0597522258758545
931,-0.0480609238147736,0.0164115782827139,-0.241661906242371,-0.235563173890114,-0.24835392832756,-0.108540222048759
932,-0.0614707283675671,-0.0119338911026716,-0.261385858058929,-0.261204361915588,-0.256231188774109,-0.145733043551445
933,-0.0881282761693001,-0.0256882850080729,-0.262433141469955,-0.261976301670074,-0.270003885030746,-0.159015029668808
934,-0.110796719789505,-0.0123791685327888,-0.236794903874397,-0.233575344085693,-0.284376800060272,-0.137333378195763
935,-0.111683778464794,0.0251076240092516,-0.18051789700985,-0.176649138331413,-0.278317719697952,-0.0861301720142365
936,-0.0920411944389343,0.065489336848259,-0.109893418848515,-0.105591177940369,-0.246054098010063,-0.0236073415726423
937,-0.0593294426798821,0.0941634699702263,-0.0437504462897778,-0.0376953966915607,-0.198405757546425,0.0347778350114822
938,-0.0184787232428789,0.113182827830315,0.0117064723744988,0.0177295878529549,-0.144338384270668,0.0798287019133568
939,0.0174841154366732,0.131365165114403,0.0543815828859806,0.0545268207788467,-0.0953529998660088,0.109110876917839
940,0.0294870678335428,0.149184316396713,0.0718851536512375,0.0613470077514648,-0.0711099877953529,0.122576631605625
941,0.0145847294479609,0.157232165336609,0.0474599562585354,0.0306605454534292,-0.0825866013765335,0.11596517264843
942,-0.0115995490923524,0.147568196058273,-0.0201487839221954,-0.0314186438918114,-0.119609229266644,0.0810472071170807
943,-0.031717237085104,0.121038384735584,-0.107588961720467,-0.106361143290997,-0.156132444739342,0.0206121448427439
944,-0.0410810261964798,0.0838003009557724,-0.178619280457497,-0.169346958398819,-0.171112880110741,-0.0420292913913727
945,-0.0481888800859451,0.0431079603731632,-0.209224626421928,-0.200761675834656,-0.166401192545891,-0.0809049382805824
946,-0.059538584202528,0.00909457076340914,-0.198752328753471,-0.193172812461853,-0.157878160476685,-0.0852339938282967
947,-0.0740735232830048,-0.00870782695710659,-0.160093665122986,-0.153385356068611,-0.155461072921753,-0.0592436008155346
948,-0.0869279205799103,-0.0110071832314134,-0.110765486955643,-0.103993251919746,-0.154662072658539,-0.017955981194973
949,-0.0916053652763367,-0.00241246307268739,-0.0678053647279739,-0.0670988485217094,-0.145364508032799,0.0227598287165165
950,-0.085753008723259,0.0178332012146711,-0.039489109069109,-0.0443069711327553,-0.127034798264503,0.0592416450381279
951,-0.0765107572078705,0.0394886955618858,-0.02397670596838,-0.0280075762420893,-0.111997336149216,0.0914356783032417
952,-0.0671465694904327,0.0511957257986069,-0.0043987319804728,-0.00512830028310418,-0.100226886570454,0.122175842523575
953,-0.0530683510005474,0.0609935745596886,0.0344093851745129,0.0374325178563595,-0.0777391418814659,0.160036876797676
954,-0.0390101000666618,0.0779656171798706,0.0762636959552765,0.0837770998477936,-0.0510253608226776,0.201604977250099
955,-0.0332101285457611,0.0970808416604996,0.0947495326399803,0.10482370108366,-0.040083110332489,0.231807112693787
956,-0.0338484905660152,0.106479682028294,0.0843088403344154,0.0954320058226585,-0.0481023788452148,0.237405046820641
957,-0.0347104072570801,0.104368269443512,0.0595781467854977,0.0716368407011032,-0.0595959536731243,0.219798028469086
958,-0.0327487252652645,0.0958858802914619,0.0386086776852608,0.0496757850050926,-0.0587950572371483,0.197603657841682
959,-0.0295715667307377,0.080518826842308,0.025387316942215,0.034535389393568,-0.0454084612429142,0.182222068309784
960,-0.0256604719907045,0.0592948794364929,0.0137361064553261,0.0234900750219822,-0.0293709803372622,0.165310233831406
961,-0.0127670280635357,0.0387460999190807,0.00354054430499673,0.0168225858360529,-0.0128203378990293,0.143376708030701
962,0.00860945973545313,0.0215955879539251,-0.00297847599722445,0.0142773492261767,0.00596685661002994,0.124722011387348
963,0.0153312049806118,0.00270373467355967,-0.01301343832165,0.00502460729330778,0.0149601437151432,0.105946347117424
964,-0.00838476233184338,-0.0184004940092564,-0.0279472321271896,-0.0133910626173019,0.00333830039016902,0.0821043625473976
965,-0.0495134182274342,-0.028722956776619,-0.0330971293151379,-0.0232771933078766,-0.0171167496591806,0.0685032904148102
966,-0.0860430672764778,-0.0159893352538347,-0.0207966007292271,-0.0153060033917427,-0.0275741349905729,0.0796442404389381
967,-0.10892266780138,0.0142052108421922,-0.0018951651873067,-0.000752338557504117,-0.0272018332034349,0.106466472148895
968,-0.122872076928616,0.0369366481900215,0.0110460510477424,0.010467785410583,-0.0273608472198248,0.129328265786171
969,-0.130041494965553,0.0278172791004181,0.0187071599066257,0.0228183902800083,-0.0257318299263716,0.14036051928997
970,-0.1208501085639,-0.00771136023104191,0.0355531312525272,0.0477727428078651,-0.00767257576808333,0.147144183516502
971,-0.0920759811997414,-0.0411792621016502,0.0697937458753586,0.0879469141364098,0.0274609979242086,0.160300955176353
972,-0.0583699308335781,-0.0523732453584671,0.108532778918743,0.13041090965271,0.0648862347006798,0.182153269648552
973,-0.0370280593633652,-0.0389885082840919,0.136916950345039,0.160101011395454,0.0925747528672218,0.205658614635468
974,-0.0304533131420612,-0.00976222660392523,0.156496226787567,0.175622642040253,0.107980206608772,0.227290987968445
975,-0.0253802537918091,0.0219755731523037,0.173301309347153,0.184109553694725,0.115616388618946,0.249835550785065
976,-0.0108031705021858,0.0384349972009659,0.17594350874424,0.179401457309723,0.116394586861134,0.258601844310761
977,0.00646033510565758,0.0267884116619825,0.144959300756454,0.147715896368027,0.104683272540569,0.230863109230995
978,0.00861783046275377,-0.0120626855641603,0.0827820524573326,0.0933104231953621,0.0793319195508957,0.173616006970406
979,-0.00896269921213388,-0.0662877559661865,0.0170659329742193,0.0361572876572609,0.0473995581269264,0.114005349576473
980,-0.0379687510430813,-0.114174194633961,-0.0246601365506649,-0.00574715016409755,0.0173373781144619,0.0669515579938889
981,-0.0761483460664749,-0.140267938375473,-0.0353664793074131,-0.0244789626449347,-0.0045968210324645,0.033408772200346
982,-0.117196902632713,-0.143518447875977,-0.0227366518229246,-0.0208351258188486,-0.0120207713916898,0.0171372685581446
983,-0.142595395445824,-0.123287290334702,0.00757489586248994,0.0029185323510319,0.00177548418287188,0.0267229527235031
984,-0.139237999916077,-0.0830807834863663,0.0567496083676815,0.0460948310792446,0.0390504710376263,0.0624392926692963
985,-0.10987962782383,-0.0378862433135509,0.120331831276417,0.101601019501686,0.0898323208093643,0.112337380647659
986,-0.0695814937353134,-0.00113992323167622,0.17909649014473,0.152659833431244,0.133109927177429,0.160258054733276
987,-0.0393542274832726,0.0226994324475527,0.21057316660881,0.183542236685753,0.150326728820801,0.193743631243706
988,-0.0292284060269594,0.0345398858189583,0.210357129573822,0.193062722682953,0.145022213459015,0.21161176264286
989,-0.0276988577097654,0.0385279841721058,0.195519238710403,0.19365493953228,0.143931671977043,0.223415404558182
990,-0.0206910967826843,0.0360110923647881,0.180560261011124,0.192987903952599,0.159560829401016,0.233723714947701
991,-0.00460407184436917,0.0301932226866484,0.170224711298943,0.190430149435997,0.178228870034218,0.238196417689323
992,0.0167265310883522,0.0272587481886148,0.167713910341263,0.186231628060341,0.188815131783485,0.233486279845238
993,0.0317574366927147,0.0234219375997782,0.171942338347435,0.182149082422256,0.188954770565033,0.223972022533417
994,0.0336035378277302,0.0149344615638256,0.180220291018486,0.18187028169632,0.180815666913986,0.221336871385574
995,0.0303357467055321,0.00402016052976251,0.183178424835205,0.182585626840591,0.167881861329079,0.224103972315788
996,0.0278515536338091,-0.0117780324071646,0.166647747159004,0.171592935919762,0.146900996565819,0.214716479182243
997,0.0143528617918491,-0.033669613301754,0.129365235567093,0.141209155321121,0.111771292984486,0.185622602701187
