,AF3,AF4,Fp1,Fp2,AF7,AF8
0,-0.021972294896841,-0.101587519049644,-0.029931029304862,-0.0380570590496063,0.0105213681235909,-0.357404977083206
1,0.00316420150920749,-0.106552690267563,-0.0455442927777767,-0.0462269894778728,0.00298513704910874,-0.359186887741089
2,0.0118396198377013,-0.105836547911167,-0.0557678677141666,-0.0510096624493599,-0.0117697417736053,-0.343252271413803
3,0.00411605648696423,-0.0984519869089127,-0.0646592453122139,-0.0595294013619423,-0.0269053876399994,-0.32833269238472
4,-0.0158415976911783,-0.0928588584065437,-0.0838237181305885,-0.0795930474996567,-0.0444924309849739,-0.326727598905563
5,-0.045521903783083,-0.0980188250541687,-0.109786063432693,-0.105168223381042,-0.0699790641665459,-0.33537033200264
6,-0.0719087421894073,-0.109518304467201,-0.119415417313576,-0.113798730075359,-0.0963436141610146,-0.332112729549408
7,-0.0777188315987587,-0.117577075958252,-0.0990699455142021,-0.0896709710359573,-0.106876440346241,-0.294818162918091
8,-0.0656265765428543,-0.111372523009777,-0.0584748201072216,-0.0416758619248867,-0.0949940234422684,-0.223467260599136
9,-0.0531089417636395,-0.0900752544403076,-0.0232734326273203,-0.000512953964062035,-0.07182577252388,-0.142422989010811
10,-0.0529653951525688,-0.071119524538517,-0.0166181270033121,0.00794436782598495,-0.0546079128980637,-0.0871683806180954
11,-0.0628089532256126,-0.0622486919164658,-0.026390053331852,-0.0049658389762044,-0.0447091944515705,-0.0720223858952522
12,-0.0718195885419846,-0.0536705888807774,-0.0224372837692499,-0.0130476336926222,-0.0314529202878475,-0.078978568315506
13,-0.0709256678819656,-0.0381509400904179,0.00218113418668509,-0.008113375864923,-0.0116486046463251,-0.0804386511445045
14,-0.0569781772792339,-0.0195163004100323,0.0310277249664068,0.00403283210471272,0.00576072232797742,-0.0596045665442944
15,-0.0350382998585701,-0.0103632314130664,0.0455656163394451,0.0147284707054496,0.0115343118086457,-0.0185711029917002
16,-0.0117103755474091,-0.0176054630428553,0.0428091138601303,0.0216136984527111,0.0100713400170207,0.0272374954074621
17,0.0114181647077203,-0.0304930452257395,0.0350178368389606,0.0276645012199879,0.0165191721171141,0.0652139335870743
18,0.0345711223781109,-0.0339451655745506,0.0351439602673054,0.0345632471144199,0.0377730987966061,0.0962328240275383
19,0.0514052361249924,-0.0275349169969559,0.0413381308317184,0.0381855368614197,0.0557005368173122,0.124595671892166
20,0.0492642261087894,-0.0188818518072367,0.0418349243700504,0.0333470031619072,0.0470404513180256,0.146638005971909
21,0.0270269382745028,-0.00811951793730259,0.0381367653608322,0.0287199206650257,0.0181753523647785,0.163028568029404
22,0.00237177615053952,0.00895379204303026,0.0407620891928673,0.0367406271398067,-0.0049981102347374,0.179792165756226
23,-0.00592378620058298,0.0267161503434181,0.0476590655744076,0.0522514320909977,-0.00644173379987478,0.194585070014
24,0.0110039710998535,0.0336430929601192,0.0514023154973984,0.0644876509904861,0.0188876055181026,0.205632925033569
25,0.0381413996219635,0.0199376400560141,0.047011811286211,0.0655474960803986,0.05435860902071,0.207185804843903
26,0.0428362525999546,-0.0154019678011537,0.0325377844274044,0.0510644689202309,0.0629075095057487,0.186167344450951
27,0.0160674154758453,-0.0533764958381653,0.013178464025259,0.0280103664845228,0.030443811789155,0.148646712303162
28,-0.0220800135284662,-0.0716594979166985,-0.00421448284760118,0.00667857844382524,-0.0211837459355593,0.120197854936123
29,-0.0486799888312817,-0.0651829615235329,-0.0128097832202911,-0.00431015063077211,-0.0601410493254662,0.120655260980129
30,-0.0597441382706165,-0.0457179583609104,-0.0117773609235883,-0.00371984904631972,-0.073350302875042,0.14432381093502
31,-0.0665650442242622,-0.0263859909027815,-0.00275857630185783,0.00509598152711988,-0.0667611062526703,0.172555148601532
32,-0.0697825253009796,-0.00583654316142201,0.0199532136321068,0.0257779266685247,-0.0435226075351238,0.198317661881447
33,-0.0594292990863323,0.0227968320250511,0.0547772459685802,0.0571175925433636,-0.00498134875670075,0.220072522759438
34,-0.0318826511502266,0.0537205189466476,0.0869414061307907,0.085919588804245,0.0411550961434841,0.235781878232956
35,0.00283679948188365,0.071087934076786,0.0974165871739388,0.0934481248259544,0.0787053406238556,0.239454597234726
36,0.0298608671873808,0.0682043060660362,0.0719405710697174,0.0653747245669365,0.087663933634758,0.21442061662674
37,0.0466945394873619,0.0512853562831879,0.0168198514729738,0.0109194153919816,0.0660905539989471,0.155492946505547
38,0.0563025027513504,0.0309980809688568,-0.0411515273153782,-0.0395874790847301,0.0348978824913502,0.0894766300916672
39,0.0581228099763393,0.0222358535975218,-0.0734506100416183,-0.0607958622276783,0.0159738957881927,0.050361193716526
40,0.0548336990177631,0.0283115152269602,-0.0697313770651817,-0.0487916953861713,0.014161872677505,0.0470649711787701
41,0.0508168414235115,0.032272145152092,-0.0422269813716412,-0.0180852971971035,0.0191826187074184,0.067078597843647
42,0.0461544468998909,0.0233559459447861,-0.00821336358785629,0.0132609745487571,0.0257042814046144,0.0915717333555222
43,0.0358750596642494,0.00642010243609548,0.0151302814483643,0.027248028665781,0.0324802100658417,0.0973677411675453
44,0.0220231525599957,-0.011080470867455,0.0163182578980923,0.0181953553110361,0.0344618745148182,0.0750279799103737
45,0.0211833845824003,-0.0197689011693001,0.00812107603996992,0.0113168582320213,0.040380947291851,0.0502265691757202
46,0.0381292812526226,-0.0180518999695778,0.00161370018031448,0.021628575399518,0.0577584989368916,0.0471648797392845
47,0.0533909276127815,-0.0196593441069126,-0.0147987082600594,0.0275550410151482,0.0695842504501343,0.0551060400903225
48,0.0510966889560223,-0.0309180654585361,-0.0413587465882301,0.0168270841240883,0.0612303353846073,0.057488214224577
49,0.0321456044912338,-0.0431192554533482,-0.0631852522492409,-0.00145012582652271,0.0368954129517078,0.0486964359879494
50,0.00929395668208599,-0.046382162719965,-0.0697887763381004,-0.0151629308238626,0.0121148591861129,0.0352315977215767
51,-0.00685823662206531,-0.0380504950881004,-0.0594620779156685,-0.0175494756549597,0.00187811616342515,0.0331452786922455
52,-0.0195725224912167,-0.0245505645871162,-0.0440773367881775,-0.0136643033474684,0.00383654912002385,0.0419978983700275
53,-0.0280824601650238,-0.00695775216445327,-0.0316970199346542,-0.00712621258571744,0.0121158603578806,0.0481773801147938
54,-0.0240217205137014,0.018724886700511,-0.0203215274959803,0.00186676089651883,0.0328918322920799,0.0498096719384193
55,-0.0105138439685106,0.0419916808605194,-0.0152983646839857,0.00822473596781492,0.0643497481942177,0.0532946065068245
56,0.00272129522636533,0.0494083650410175,-0.0185697879642248,0.00986703485250473,0.0897537469863892,0.0598789937794209
57,0.0134570486843586,0.046504195779562,-0.0192379150539637,0.0101675260812044,0.099187895655632,0.0644359290599823
58,0.0211117211729288,0.0452957227826118,-0.0162178073078394,0.0103613436222076,0.0938169062137604,0.05691983923316
59,0.0191437434405088,0.0395875424146652,-0.0239969026297331,0.00705078523606062,0.072421632707119,0.0268676523119211
60,0.00675964495167136,0.013294086791575,-0.0451641045510769,-0.000222786839003675,0.0380345173180103,-0.0214414112269878
61,-0.0065526831895113,-0.0333881117403507,-0.0643047988414764,-0.00588175794109702,0.00729175610467792,-0.0662673711776733
62,-0.00872488878667355,-0.0758655816316605,-0.0642672702670097,-0.000182979201781563,0.00422460539266467,-0.082046166062355
63,0.00528713827952743,-0.0892457291483879,-0.0436706766486168,0.0203935299068689,0.0359087251126766,-0.0662285387516022
64,0.0282420981675386,-0.075516901910305,-0.0205560605973005,0.0445768609642982,0.0785229578614235,-0.0461090952157974
65,0.0497631505131722,-0.0513180010020733,-0.00540997786447406,0.0622082687914371,0.108740270137787,-0.0383374281227589
66,0.0595889575779438,-0.0275579802691936,0.00325776846148074,0.070465013384819,0.11985370516777,-0.0338729470968246
67,0.0511275194585323,-0.00471170991659164,0.00167208712082356,0.0644483119249344,0.108564235270023,-0.025285042822361
68,0.0279471576213837,0.0195824261754751,-0.0145457237958908,0.0411316864192486,0.0755316838622093,-0.0220743753015995
69,0.00196989346295595,0.0442676208913326,-0.036727424710989,0.0104221431538463,0.0377905070781708,-0.0324523448944092
70,-0.0117938630282879,0.0649312660098076,-0.0483897477388382,-0.00993546191602945,0.0206921249628067,-0.0480907820165157
71,-0.00982704386115074,0.0656945332884789,-0.051706749945879,-0.0182897709310055,0.0230679698288441,-0.0653377547860146
72,0.00158827216364443,0.0416542924940586,-0.0587011463940144,-0.0217388011515141,0.0278263166546822,-0.085882730782032
73,0.0184692312031984,0.0184965990483761,-0.0630834400653839,-0.0157943125814199,0.0376173965632916,-0.100361041724682
74,0.0299058835953474,0.0145174488425255,-0.0594798810780048,-0.00304202223196626,0.0556359924376011,-0.103212080895901
75,0.0249973367899656,0.0221753790974617,-0.0574191473424435,0.00302524981088936,0.0694925040006638,-0.101341113448143
76,0.0111145935952663,0.0301767103374004,-0.0634616836905479,-0.00236110668629408,0.0729251131415367,-0.10339167714119
77,0.00388881075195968,0.0321106985211372,-0.0753709524869919,-0.0118918167427182,0.0700729191303253,-0.111856549978256
78,0.00157344061881304,0.0178225580602884,-0.0924527123570442,-0.0214674603193998,0.0573098845779896,-0.129238337278366
79,-0.00977240782231092,-0.0154669061303139,-0.114482805132866,-0.0357603281736374,0.0297308750450611,-0.154194533824921
80,-0.0306752100586891,-0.0439921580255032,-0.130338087677956,-0.0519213527441025,0.000372621550923213,-0.168792888522148
81,-0.0516569055616856,-0.0394378118216991,-0.12476971745491,-0.0569138899445534,-0.0107047325000167,-0.152675449848175
82,-0.066803477704525,-0.00460133887827396,-0.0988783091306686,-0.0459511801600456,0.00157093955203891,-0.112669542431831
83,-0.0712672173976898,0.0303557645529509,-0.0699487403035164,-0.0280367434024811,0.0265306960791349,-0.0807512328028679
84,-0.0572923608124256,0.0415404699742794,-0.0487758181989193,-0.00923752225935459,0.0506749302148819,-0.0729930400848389
85,-0.0225718878209591,0.0301711168140173,-0.0325455218553543,0.0126535529270768,0.0681628212332726,-0.0791204571723938
86,0.0191524103283882,0.0111457230523229,-0.0175425391644239,0.0370554327964783,0.0805248245596886,-0.0880708321928978
87,0.0437021814286709,-0.0036049063783139,-0.00929450336843729,0.0556140467524529,0.082921490073204,-0.0965654104948044
88,0.0389576777815819,-0.00853551551699638,-0.0151004604995251,0.0582992658019066,0.0674810260534287,-0.103916116058826
89,0.0131475860252976,-0.00551868136972189,-0.0306637659668922,0.0447912029922009,0.0398463308811188,-0.109959617257118
90,-0.0173754990100861,-0.00422418350353837,-0.0454747825860977,0.0244822949171066,0.012615118175745,-0.115648724138737
91,-0.0395001508295536,-0.0146504528820515,-0.0569210089743137,0.00239777495153248,-0.00841490738093853,-0.125154361128807
92,-0.0492127016186714,-0.0387625023722649,-0.0708396881818771,-0.0236706137657166,-0.0208603627979755,-0.145588234066963
93,-0.048653781414032,-0.0682862550020218,-0.0905940681695938,-0.0528324209153652,-0.020509360358119,-0.176876381039619
94,-0.0383637063205242,-0.087888203561306,-0.10906183719635,-0.0735330507159233,-0.00698384735733271,-0.198174193501472
95,-0.0175084173679352,-0.0873798057436943,-0.116999074816704,-0.0752072706818581,0.0108398515731096,-0.18779294192791
96,0.00474168453365564,-0.0703497007489204,-0.116453908383846,-0.0649187713861465,0.0216568894684315,-0.154374957084656
97,0.00955711212009192,-0.0489719323813915,-0.114377029240131,-0.0561822727322578,0.0208658203482628,-0.124103002250195
98,-0.00277103064581752,-0.0368886515498161,-0.103501513600349,-0.0468330383300781,0.0174615290015936,-0.110987849533558
99,-0.00820121262222528,-0.0419444367289543,-0.0748056620359421,-0.0254088267683983,0.0292203649878502,-0.110625997185707
100,0.00786548759788275,-0.0557997785508633,-0.0385037325322628,0.00858570821583271,0.05835285410285,-0.108856476843357
101,0.0387215837836266,-0.0550927631556988,-0.00492031779140234,0.0484500639140606,0.0888634100556374,-0.0910111218690872
102,0.0662306919693947,-0.0265004932880402,0.0285815130919218,0.0894773826003075,0.108561970293522,-0.0531437806785107
103,0.0739517733454704,0.0166164003312588,0.0644803270697594,0.124691337347031,0.116301007568836,-0.00874408334493637
104,0.058409720659256,0.0512795746326447,0.0948890671133995,0.141783699393272,0.112540997564793,0.0199041254818439
105,0.0277523286640644,0.068937249481678,0.108478292822838,0.135906666517258,0.0953765362501144,0.0249991975724697
106,-0.00385555136017501,0.073702909052372,0.104250095784664,0.118525438010693,0.0687144994735718,0.0201682075858116
107,-0.0271882023662329,0.0670790001749992,0.0882338806986809,0.100615479052067,0.0413815379142761,0.0181249212473631
108,-0.0418079160153866,0.0518439561128616,0.0673858970403671,0.0843300819396973,0.0203616619110107,0.0174371935427189
109,-0.0464321300387383,0.0365774147212505,0.0467114187777042,0.0681130886077881,0.00916170980781317,0.0143121583387256
110,-0.0371451191604137,0.0307008028030396,0.0259129386395216,0.0505525134503841,0.00671764509752393,0.0155314384028316
111,-0.016383271664381,0.0356545709073544,0.00160530570428818,0.0327815040946007,0.00851394701749086,0.0191736109554768
112,0.00682108988985419,0.0403801649808884,-0.0252386685460806,0.0169136002659798,0.0141976475715637,0.00512908073142171
113,0.0293692406266928,0.0351406335830688,-0.0433761402964592,0.00776152219623327,0.0309713613241911,-0.0304663814604282
114,0.0512600466609001,0.0171850118786097,-0.0435120947659016,0.00998810026794672,0.0548249594867229,-0.0686578378081322
115,0.0724441558122635,-0.0047339778393507,-0.0227815471589565,0.029119273647666,0.0725928843021393,-0.0875050649046898
116,0.0918470472097397,-0.0110098849982023,0.0215497501194477,0.0695279911160469,0.0866834223270416,-0.0705908611416817
117,0.0986450612545013,0.00149525888264179,0.0771607458591461,0.117436848580837,0.103774920105934,-0.0267070066183805
118,0.0836204290390015,0.0145974913612008,0.114440880715847,0.143061473965645,0.115354731678963,0.00730597646906972
119,0.0542187616229057,0.0188574455678463,0.120499007403851,0.13275209069252,0.112568892538548,0.0137908952310681
120,0.0242087841033936,0.0154378544539213,0.104114674031734,0.0985030829906464,0.0935923904180527,0.00811139401048422
121,-0.00133112433832139,0.00534697528928518,0.0700396373867989,0.0558138638734818,0.0572053119540215,0.00178818916901946
122,-0.0257564187049866,-0.00596503773704171,0.0229254215955734,0.0139641696587205,0.00944136455655098,-0.00745391147211194
123,-0.049100786447525,-0.0140784867107868,-0.0155176147818565,-0.0139371650293469,-0.0325228497385979,-0.0179323386400938
124,-0.0621694214642048,-0.0194239187985659,-0.0235841069370508,-0.0137574849650264,-0.0489665903151035,-0.0174235086888075
125,-0.0606961138546467,-0.0254614464938641,-0.00984586216509342,0.00753985485062003,-0.0404423847794533,-0.000778817571699619
126,-0.0544051229953766,-0.0313581973314285,0.00129850499797612,0.0273426752537489,-0.0304269045591354,0.0206962339580059
127,-0.0598222687840462,-0.0332826711237431,-0.00275288918055594,0.0277784168720245,-0.0370754897594452,0.0306753590703011
128,-0.0753898024559021,-0.0240648910403252,-0.00795407500118017,0.0135672176256776,-0.0489475093781948,0.0307554174214602
129,-0.0822846442461014,-0.000153978253365494,0.00430847192183137,0.00508671160787344,-0.0474590808153152,0.0290473997592926
130,-0.0787680000066757,0.0167981665581465,0.0159797463566065,0.00223310478031635,-0.0447889566421509,0.0114387962967157
131,-0.0665158554911613,0.00852195639163256,0.00942360050976276,-0.000752871681470424,-0.0509237945079803,-0.0209591258317232
132,-0.0349231287837029,-0.00888853892683983,0.00300226896069944,0.0101863751187921,-0.0476058311760426,-0.0331124141812325
133,0.0108825648203492,-0.00670389784500003,0.015635447576642,0.0435474514961243,-0.0241371225565672,-0.00922642275691032
134,0.0481783896684647,0.0189111158251762,0.0472726374864578,0.0867837518453598,0.0110455760732293,0.0299136564135551
135,0.0609018802642822,0.0410066321492195,0.088615819811821,0.122394181787968,0.0464235842227936,0.0604163557291031
136,0.0473840981721878,0.0407366491854191,0.128371685743332,0.142590567469597,0.0743658319115639,0.0758328139781952
137,0.0195115078240633,0.0267437715083361,0.159169733524323,0.149530753493309,0.0919686555862427,0.0827491953969002
138,-0.00311081390827894,0.0142570082098246,0.172388836741447,0.144392520189285,0.0948726013302803,0.0850310996174812
139,-0.00530308019369841,0.00821170676499605,0.156019538640976,0.124985076487064,0.0802048817276955,0.0793398171663284
140,0.0122610740363598,0.00121169909834862,0.105845727026463,0.0886061266064644,0.0542782433331013,0.0589594654738903
141,0.0290169063955545,-0.0142550151795149,0.0323552563786507,0.0355512537062168,0.0227391198277473,0.0250678155571222
142,0.026770418509841,-0.0290405359119177,-0.0376941189169884,-0.0189335700124502,-0.0113340578973293,-0.00132211914751679
143,0.00954263657331467,-0.0316956155002117,-0.0835099294781685,-0.0584996342658997,-0.0456668063998222,-0.0118728121742606
144,-0.0125986440107226,-0.0264406483620405,-0.10476216673851,-0.0816468372941017,-0.0826218947768211,-0.0238543264567852
145,-0.035905234515667,-0.0193928107619286,-0.0996578186750412,-0.0832079946994781,-0.114511698484421,-0.0354118272662163
146,-0.0531453974545002,-0.010254692286253,-0.0644213706254959,-0.0549235306680202,-0.119900166988373,-0.0264435764402151
147,-0.0550891757011414,-7.99117260612547E-05,-0.0110355895012617,-0.00808906741440296,-0.0908314734697342,0.00343596958555281
148,-0.0431739762425423,0.00686807092279196,0.0392995402216911,0.0346789509057999,-0.0456130802631378,0.0345093086361885
149,-0.0251722950488329,0.0114659368991852,0.0767340660095215,0.0661547854542732,-0.00371234584599733,0.0563929192721844
150,-0.00979733839631081,0.019093269482255,0.102833978831768,0.0881011262536049,0.0293671526014805,0.0768266171216965
151,-0.00737723708152771,0.0264605209231377,0.117123641073704,0.0949560925364494,0.0499766431748867,0.0950979441404343
152,-0.00992022268474102,0.0283777173608541,0.117712184786797,0.0861314609646797,0.0552433207631111,0.102401174604893
153,-0.00133100268431008,0.022991344332695,0.0974594354629517,0.0656404197216034,0.042659867554903,0.0986982062458992
154,0.00919996667653322,0.00472935615107417,0.0540486238896847,0.0367038808763027,0.00914557557553053,0.0882135182619095
155,0.00368730607442558,-0.024451470002532,0.00964714959263802,0.0108559047803283,-0.0363672152161598,0.0794401243329048
156,-0.0160570628941059,-0.0485060773789883,-0.00812222994863987,0.00122444541193545,-0.071988619863987,0.0841182395815849
157,-0.0325147621333599,-0.0535259060561657,0.00555256754159927,0.00849053170531988,-0.0824698060750961,0.101394809782505
158,-0.0405306965112686,-0.0454539507627487,0.0291392877697945,0.0181760936975479,-0.0755239576101303,0.11066946387291
159,-0.0472312979400158,-0.0365239344537258,0.0412073396146297,0.0208013784140348,-0.0641732737421989,0.102924674749374
160,-0.0497961230576038,-0.0275442488491535,0.0438616126775742,0.0250493455678225,-0.0506154336035252,0.0978886112570763
161,-0.0421743206679821,-0.0172700174152851,0.0511081218719482,0.0399946309626102,-0.0332141406834126,0.113883808255196
162,-0.0277249272912741,-0.00671361060813069,0.0661932304501534,0.0601458288729191,-0.0110346153378487,0.150948762893677
163,-0.019272992387414,0.00584633136168122,0.0717100873589516,0.0664823800325394,0.00523135764524341,0.193215548992157
164,-0.0258631259202957,0.0264445263892412,0.0514595732092857,0.0454120002686977,-0.000205117568839341,0.214963361620903
165,-0.0368906855583191,0.0578850917518139,0.0196551214903593,0.0135472696274519,-0.0208562463521957,0.208457440137863
166,-0.0339241847395897,0.0858074426651001,0.00589437317103148,0.00341563089750707,-0.0317962355911732,0.194867968559265
167,-0.018995251506567,0.0863179937005043,0.0178516823798418,0.0205952394753695,-0.0218938235193491,0.188709393143654
168,-0.00535422656685114,0.0581997595727444,0.0388830229640007,0.0435639917850494,-0.00337093416601419,0.18254242837429
169,0.00408995430916548,0.0267733484506607,0.049843568354845,0.054289273917675,0.00648536719381809,0.170646607875824
170,0.00624872976914048,0.00910792034119368,0.0435630902647972,0.0480694957077503,-0.00356436125002801,0.157512366771698
171,-0.00658759055659175,-0.00188821123447269,0.0261162593960762,0.0325842797756195,-0.0350994169712067,0.147611290216446
172,-0.0345382988452911,-0.0175789408385754,0.00849342718720436,0.019741665571928,-0.074098140001297,0.139159217476845
173,-0.0655912309885025,-0.0388674512505531,-0.000281536107650027,0.0107241002842784,-0.0989153012633324,0.123747102916241
174,-0.0823153182864189,-0.0627950504422188,0.00119760434608907,-0.00114996475167573,-0.10082870721817,0.0986602976918221
175,-0.0714742913842201,-0.0808229520916939,0.00739596784114838,-0.0118952067568898,-0.0878112688660622,0.0794370472431183
176,-0.035316240042448,-0.0776817947626114,0.0169207397848368,-0.00658763153478503,-0.066443644464016,0.0845983996987343
177,0.00348103698343039,-0.0521093606948853,0.0309206023812294,0.0148070687428117,-0.0404425971210003,0.108125306665897
178,0.0256748478859663,-0.0198347363620996,0.0477556437253952,0.0387313291430473,-0.0134146753698587,0.129854828119278
179,0.0320043079555035,0.00595897203311324,0.0682749450206757,0.0604316890239716,0.0167550556361675,0.143997579813004
180,0.0263709668070078,0.0203664153814316,0.0882375612854958,0.0770985335111618,0.0442399010062218,0.152375981211662
181,0.0137219456955791,0.0261124726384878,0.0990214645862579,0.0850059762597084,0.0582468919456005,0.159350499510765
182,0.00302754924632609,0.0323182940483093,0.0985885933041573,0.0834824070334435,0.0579569898545742,0.17360033094883
183,-0.00529603753238916,0.0460337437689304,0.0846972391009331,0.0694697424769402,0.0452448092401028,0.189896076917648
184,-0.0137914028018713,0.0653750374913216,0.0567766129970551,0.0452025532722473,0.0268466826528311,0.191836327314377
185,-0.0171519834548235,0.0812955424189568,0.0265998058021069,0.0205690283328295,0.0173510033637285,0.175992235541344
186,-0.0128318099305034,0.086076557636261,0.00629887776449323,-0.00114198867231607,0.0197792332619429,0.150072023272514
187,-0.00788452662527561,0.0738779306411743,-0.00777447363361716,-0.0230258163064718,0.0227565951645374,0.116323873400688
188,-0.00532074784860015,0.0373496077954769,-0.0244442354887724,-0.0431003384292126,0.0189984533935785,0.0759944543242455
189,-0.00206825556233525,-0.0196017362177372,-0.041148915886879,-0.0544338040053844,0.00602088961750269,0.0388187654316425
190,-0.00406136363744736,-0.0755133032798767,-0.0467881411314011,-0.049263134598732,-0.0161330178380013,0.018512174487114
191,-0.018615759909153,-0.104657873511314,-0.0316002406179905,-0.0221230033785105,-0.0360826812684536,0.0279222670942545
192,-0.0404123403131962,-0.0975608974695206,0.00325207295827568,0.0207106471061707,-0.0394784100353718,0.0648332610726357
193,-0.0518513917922974,-0.0678140372037888,0.0486112534999847,0.0659194886684418,-0.0194080863147974,0.107775427401066
194,-0.0361005291342735,-0.0352223925292492,0.0931779816746712,0.106009855866432,0.0205074232071638,0.142242193222046
195,-0.00251817982643843,-0.0154650807380676,0.118631534278393,0.130429565906525,0.0604785308241844,0.167994633316994
196,0.02478963509202,-0.00659299781545997,0.117421895265579,0.132507666945457,0.0836035385727882,0.184316515922546
197,0.033203486353159,0.00247354037128389,0.0963860154151917,0.115703612565994,0.0849760621786118,0.177136287093163
198,0.0205040574073792,0.00465883826836944,0.0593695305287838,0.0806999057531357,0.0627506971359253,0.13360632956028
199,-0.00239738589152694,-0.00411024643108249,0.0192755628377199,0.0373387709259987,0.0301554445177317,0.0729499161243439
200,-0.0198530089110136,-0.0116035137325525,-0.00612935749813914,0.0050492282025516,0.00576245086267591,0.0302352886646986
201,-0.0278110969811678,-0.010449162684381,-0.0137189459055662,-0.00696063879877329,-0.00487479846924543,0.0193480215966702
202,-0.0294664204120636,-0.00674992799758911,-0.0102672101929784,-0.00339460675604641,-0.00308216735720634,0.0277895070612431
203,-0.0270645376294851,-0.00999519228935242,-0.00330180651508272,0.00262153544463217,0.00713788997381926,0.0368378162384033
204,-0.0189285911619663,-0.0150203071534634,-0.000111488770926371,-0.00200239499099553,0.0190377831459045,0.0392835475504398
205,-0.00374590954743326,-0.00946023035794497,-0.00642370991408825,-0.0188611093908548,0.0265383794903755,0.0367281772196293
206,0.0148198800161481,-0.000384100974770263,-0.021240932866931,-0.0371605791151524,0.0289827454835176,0.0292059257626534
207,0.0228067692369223,-0.014402786269784,-0.0447816327214241,-0.0555005446076393,0.0230725985020399,0.00854752492159605
208,0.0108971297740936,-0.057128693908453,-0.071687713265419,-0.0762643441557884,0.00452924380078912,-0.0229884535074234
209,-0.00117797567509115,-0.0945065468549728,-0.0746649950742722,-0.0784498229622841,-0.0131342960521579,-0.0360433496534824
210,0.00528015661984682,-0.101847305893898,-0.0392214879393578,-0.0453701429069042,-0.0146898524835706,-0.00999361276626587
211,0.015432701446116,-0.0934531018137932,0.00530507462099195,0.00155810127034783,-0.0106623256579041,0.038191594183445
212,0.0121894767507911,-0.0851246193051338,0.0269990023225546,0.0317808240652084,-0.0146892452612519,0.0805681720376015
213,0.000451318861451,-0.0726795643568039,0.030695877969265,0.0396118052303791,-0.0215610135346651,0.107192829251289
214,-0.0119989719241858,-0.0550429224967957,0.0325938910245895,0.0342638157308102,-0.0212064944207668,0.116997748613358
215,-0.0210943222045898,-0.0400437749922276,0.0337416790425777,0.0228120088577271,-0.0116306943818927,0.104865789413452
216,-0.0269151516258717,-0.0278562046587467,0.0312008578330278,0.00824498292058706,-0.00468393322080374,0.0747796967625618
217,-0.0367615111172199,-0.0134926699101925,0.026054035872221,-0.0074784466996789,-0.0123098455369473,0.0476008243858814
218,-0.0530353970825672,-0.00139210070483387,0.0155459977686405,-0.0242598950862885,-0.0292030684649944,0.0382480174303055
219,-0.0649814084172249,0.000953623268287629,0.000449451239546761,-0.0399904921650887,-0.0392104089260101,0.0423099100589752
220,-0.0618488751351833,-0.00182602985296398,-0.00519997486844659,-0.0440176203846931,-0.0318925976753235,0.0501699708402157
221,-0.0475546196103096,-0.000295488513074815,0.00935034919530153,-0.0290627591311932,-0.011715036816895,0.0564387738704681
222,-0.0310008842498064,0.00225728424265981,0.0374363549053669,-0.00189931818749756,0.00866139680147171,0.0606183893978596
223,-0.015973050147295,-0.00732594868168235,0.0627332329750061,0.0254973620176315,0.0214524772018194,0.0643121302127838
224,-0.00336961029097438,-0.0368638299405575,0.0659054964780808,0.0383393056690693,0.0249968357384205,0.0616922192275524
225,0.0110038295388222,-0.0790861248970032,0.0373310819268227,0.0268773902207613,0.0203351136296988,0.0456254743039608
226,0.0297038443386555,-0.114162296056747,-0.00606856448575854,0.00365852983668447,0.00972090288996696,0.0242251418530941
227,0.041412565857172,-0.127015992999077,-0.0347061976790428,-0.0110802762210369,-0.00468580704182386,0.014314747415483
228,0.0358396284282207,-0.113756313920021,-0.0313921421766281,-0.0103590833023191,-0.0132861528545618,0.0272388122975826
229,0.0183668918907642,-0.0784405544400215,-0.00405794894322753,0.00100243056658655,-0.00878480449318886,0.0597775280475616
230,0.000994061352685094,-0.0376305729150772,0.023522088304162,0.0149343470111489,-0.000522663700394332,0.092017374932766
231,-0.00921748112887144,-0.00907600671052933,0.0390066169202328,0.0265219360589981,0.00369092239998281,0.105967551469803
232,-0.0138355707749724,0.00576578360050917,0.0437600798904896,0.0317569337785244,0.00753299659118056,0.10169991850853
233,-0.0169146899133921,0.0149444378912449,0.0372560024261475,0.0239690281450748,0.00926194991916418,0.0884082689881325
234,-0.0239095538854599,0.0243669021874666,0.0163008477538824,-0.00221594795584679,-0.00648163072764874,0.0673943087458611
235,-0.0366438813507557,0.0324878245592117,-0.0128933489322662,-0.0386010482907295,-0.0438464730978012,0.0369981043040752
236,-0.0477436818182468,0.032188206911087,-0.0301024839282036,-0.0606130212545395,-0.0780331790447235,0.0117943100631237
237,-0.052048459649086,0.019860977306962,-0.0209270659834147,-0.0503627881407738,-0.0847615376114845,0.0104338433593512
238,-0.0490282960236073,-0.00335364369675517,0.00659113982692361,-0.0154734263196588,-0.0660919323563576,0.0281272158026695
239,-0.0368646197021008,-0.0299109872430563,0.0364024005830288,0.0245373249053955,-0.0380163080990314,0.0471852496266365
240,-0.0168346110731363,-0.0468010157346725,0.0618929751217365,0.0584548749029636,-0.0104679120704532,0.0641299486160278
241,0.000796760898083448,-0.0509910546243191,0.0804895833134651,0.0809987708926201,0.011262190528214,0.0863781943917274
242,0.00119745265692472,-0.054245550185442,0.0844719782471657,0.0839018076658249,0.0194283947348595,0.10930997133255
243,-0.0167949721217155,-0.0627139434218407,0.0695549845695496,0.0650649219751358,0.015204519033432,0.118422657251358
244,-0.0388156436383724,-0.0711752697825432,0.0402486063539982,0.0330393463373184,0.00713743362575769,0.108044266700745
245,-0.0549649000167847,-0.0763097777962685,0.00242654769681394,-0.0036649031098932,-0.00676860520616174,0.0825293511152267
246,-0.0639340430498123,-0.0752992779016495,-0.0350718982517719,-0.0379660166800022,-0.0304385460913181,0.0497907996177673
247,-0.0677180215716362,-0.069648265838623,-0.0619923956692219,-0.063873179256916,-0.0569336973130703,0.0166468769311905
248,-0.072870284318924,-0.0736506059765816,-0.0857242718338966,-0.0877159386873245,-0.0857577174901962,-0.0167981553822756
249,-0.0881154015660286,-0.0983650535345078,-0.124547369778156,-0.122468963265419,-0.127218946814537,-0.0532961525022984
250,-0.111620850861073,-0.129141852259636,-0.167662441730499,-0.157812803983688,-0.172884881496429,-0.0856080427765846
251,-0.125897958874702,-0.138362720608711,-0.181746751070023,-0.165546953678131,-0.194410145282745,-0.0978101193904877
252,-0.114665262401104,-0.114125646650791,-0.151016056537628,-0.132916525006294,-0.17389203608036,-0.0765510126948357
253,-0.082839772105217,-0.0650210678577423,-0.0889331102371216,-0.0725412741303444,-0.11953591555357,-0.0257761254906654
254,-0.0510086305439472,-0.00974680576473475,-0.0263377409428358,-0.0117422435432673,-0.0593607537448406,0.031554538756609
255,-0.0350756421685219,0.0317731313407421,0.0117174247279763,0.0232786610722542,-0.0226512439548969,0.0736972317099571
256,-0.0352364219725132,0.0484166033565998,0.0211620796471834,0.0232152584940195,-0.0201893132179976,0.0950521528720856
257,-0.0427529029548168,0.0392096228897572,0.00614226888865232,-0.00702799344435334,-0.0420547984540462,0.0954619869589806
258,-0.0546167343854904,0.00494465325027704,-0.033344928175211,-0.0590092986822128,-0.0760327726602554,0.0655727684497833
259,-0.0714347586035728,-0.0512940734624863,-0.0868516862392426,-0.114124357700348,-0.115653589367867,0.00351810269057751
260,-0.0898679867386818,-0.118197381496429,-0.130249723792076,-0.149823322892189,-0.151108399033546,-0.0674450919032097
261,-0.101164296269417,-0.171504601836205,-0.139160588383675,-0.151167914271355,-0.162275359034538,-0.107745230197906
262,-0.0958794876933098,-0.190924152731895,-0.106006667017937,-0.11771996319294,-0.137351080775261,-0.0982049703598022
263,-0.0739770159125328,-0.176856935024261,-0.0500064343214035,-0.0687874406576157,-0.0954875349998474,-0.0605930313467979
264,-0.0483309179544449,-0.138069748878479,0.00106018595397472,-0.0269951820373535,-0.0668980628252029,-0.0201393347233534
265,-0.0323489122092724,-0.0785048380494118,0.0336402878165245,0.000154040797497146,-0.058418869972229,0.0237728450447321
266,-0.0242464113980532,-0.00468711834400892,0.0521232932806015,0.0176315661519766,-0.0511550977826118,0.074804499745369
267,-0.0181149449199438,0.0539894923567772,0.0608825460076332,0.0250262264162302,-0.030391376465559,0.111275188624859
268,-0.0155272427946329,0.068493977189064,0.0611039884388447,0.0237203650176525,-0.00566372834146023,0.110689178109169
269,-0.0127662597224116,0.052060205489397,0.0662139654159546,0.032209612429142,0.00941426027566195,0.0893223956227303
270,-0.00272002606652677,0.0384873673319817,0.0844683051109314,0.0583880692720413,0.0157839562743902,0.0790799856185913
271,0.0095222182571888,0.0400464162230492,0.101019568741322,0.0823748931288719,0.0190491657704115,0.0843695998191834
272,0.0125516168773174,0.0434752032160759,0.100866392254829,0.0857663005590439,0.0229065120220184,0.0886287093162537
273,0.0065792603418231,0.0389488264918327,0.090641163289547,0.0752776563167572,0.0312810353934765,0.0882839038968086
274,5.02640541526489E-05,0.0309714209288359,0.0785329192876816,0.0625673830509186,0.0384748131036758,0.0904377177357674
275,-0.00359410280361772,0.0191911328583956,0.0571958087384701,0.0443272553384304,0.0293036438524723,0.091018058359623
276,-0.00281368847936392,0.00198315246962011,0.0247007682919502,0.0198859125375748,0.00105630652979016,0.0839527174830437
277,0.00201610242947936,-0.0172394812107086,-0.00750388950109482,-0.00388023699633777,-0.0332454368472099,0.0697265565395355
278,0.00563596095889807,-0.0344029106199741,-0.0264423973858356,-0.0224806405603886,-0.0577449426054955,0.0493114441633224
279,0.00161124393343925,-0.0431080311536789,-0.0273063089698553,-0.0350933782756329,-0.0648813396692276,0.0231230016797781
280,-0.00935691688209772,-0.0373038947582245,-0.0116447256878018,-0.0374493189156055,-0.0587590932846069,0.000864688016008586
281,-0.0171732101589441,-0.0199329257011414,0.0178257245570421,-0.0213934108614922,-0.0457326322793961,-0.000283671892248094
282,-0.0209530908614397,-0.00212404830381274,0.0498170182108879,0.00593694625422359,-0.0314724445343018,0.0212184600532055
283,-0.0268886871635914,0.0180562939494848,0.0716061666607857,0.0285757165402174,-0.0204679742455482,0.0547708980739117
284,-0.0309980399906635,0.0439760461449623,0.0746506601572037,0.0361180976033211,-0.0180520303547382,0.0877007842063904
285,-0.0249381493777037,0.0595170333981514,0.0589937642216682,0.0290751177817583,-0.0210560820996761,0.10343848913908
286,-0.010622026398778,0.0489915385842323,0.0374260768294334,0.0188152827322483,-0.0182474311441183,0.0884832218289375
287,0.0028978674672544,0.00951599981635809,0.0146391503512859,0.00705017475411296,-0.0155170289799571,0.0410053357481956
288,0.0153598506003618,-0.0412397533655167,-0.0105375796556473,-0.00910228583961725,-0.0222337171435356,-0.0173210650682449
289,0.0229676309973001,-0.0721947774291039,-0.0318044349551201,-0.0240530055016279,-0.0348355546593666,-0.0529364533722401
290,0.0146096339449286,-0.069866806268692,-0.0431269630789757,-0.0337022803723812,-0.0496326722204685,-0.0490570925176144
291,-0.00324229104444385,-0.0411331243813038,-0.0404986701905727,-0.035032719373703,-0.0611647963523865,-0.0133002055808902
292,-0.0164830386638641,-0.00454706000164151,-0.0253487881273031,-0.026283772662282,-0.0617389008402824,0.0279054548591375
293,-0.0218090638518333,0.0191400367766619,-0.00314368773251772,-0.00966832600533962,-0.0455235801637173,0.051592729985714
294,-0.0151975899934769,0.0261249169707298,0.024048525840044,0.0147932907566428,-0.0105616608634591,0.0589027144014835
295,0.00354171101935208,0.0189128648489714,0.0458751171827316,0.0373697653412819,0.0233436841517687,0.0545799881219864
296,0.0212007444351912,-0.00182655837852508,0.0489569157361984,0.0397332422435284,0.0259394608438015,0.0366516970098019
297,0.0273181982338429,-0.0212820265442133,0.0378913842141628,0.021735543385148,-0.00115302903577685,0.0145234744995832
298,0.0243783351033926,-0.0179838202893734,0.0275911446660757,0.00168982916511595,-0.0296008326113224,0.00681906845420599
299,0.018412297591567,0.0099551547318697,0.0250771995633841,-0.0077288425527513,-0.0426103137433529,0.0228322502225637
300,0.0126456152647734,0.0390849895775318,0.0230959039181471,-0.0111126629635692,-0.0459317266941071,0.0501714237034321
301,0.0145622864365578,0.0523794628679752,0.0143125411123037,-0.0134809883311391,-0.0471085086464882,0.0694879218935966
302,0.0224526580423117,0.0536464415490627,0.00171139475423843,-0.0146369095891714,-0.0465533994138241,0.0733380615711212
303,0.0205430388450623,0.050790473818779,-0.00675704423338175,-0.0160086546093225,-0.0447975993156433,0.0672242268919945
304,0.00958519708365202,0.0470841377973557,-0.00392968347296119,-0.0147590572014451,-0.0412698797881603,0.0609516426920891
305,0.000747224781662226,0.0334889851510525,0.00146683841012418,-0.0148683059960604,-0.0435958132147789,0.0505956187844276
306,-0.00482376897707582,0.00426351325586438,-0.00591991143301129,-0.0260718688368797,-0.0606571659445763,0.0328338146209717
307,-0.00864002201706171,-0.0211115926504135,-0.0221079252660275,-0.0438330173492432,-0.0802178159356117,0.0280779656022787
308,-0.0131067465990782,-0.0192455537617207,-0.0335083790123463,-0.0542690940201283,-0.0845151618123055,0.0543943867087364
309,-0.0191387198865414,0.00435031903907657,-0.0367860980331898,-0.0509503893554211,-0.0712379440665245,0.0930724516510963
310,-0.0225590821355581,0.0201493371278048,-0.0367388501763344,-0.0402902103960514,-0.0500124506652355,0.10412010550499
311,-0.0177615061402321,0.0160513687878847,-0.0359323099255562,-0.0310909301042557,-0.0343738123774529,0.0785583108663559
312,-0.00426346622407436,0.00763846049085259,-0.0380687639117241,-0.0290475375950336,-0.0326033718883991,0.0447176024317741
313,0.012764310464263,0.00610623601824045,-0.0434595607221127,-0.0329285711050034,-0.0374668017029762,0.0291161891072989
314,0.0269567687064409,0.00773313082754612,-0.0433999635279179,-0.0368880853056908,-0.0387906730175018,0.0332714021205902
315,0.0327911898493767,0.00452570943161845,-0.0358872637152672,-0.0385495461523533,-0.0417034514248371,0.0419384688138962
316,0.0293701365590096,-0.00713397283107042,-0.0240788366645575,-0.0322640500962734,-0.0526286251842976,0.0443841554224491
317,0.0129171786829829,-0.0239629354327917,-0.0117817223072052,-0.0197147708386183,-0.0712399631738663,0.0371758937835693
318,-0.0167279355227947,-0.0373421125113964,-0.00617841957136989,-0.0137588027864695,-0.0915741994976997,0.0267809517681599
319,-0.0439125820994377,-0.037861131131649,-0.00535115646198392,-0.0147220129147172,-0.0991100296378136,0.0310726705938578
320,-0.0573133714497089,-0.0286838933825493,-0.00314254779368639,-0.0144447274506092,-0.0892126336693764,0.053438737988472
321,-0.0598930716514587,-0.0249689947813749,-0.00463543273508549,-0.0131424991413951,-0.0740468129515648,0.0707797780632973
322,-0.0505906231701374,-0.0288794580847025,-0.012342557311058,-0.0086317416280508,-0.0579346492886543,0.0698418393731117
323,-0.0247520469129086,-0.0280967727303505,-0.0142051810398698,0.00528991548344493,-0.0329047106206417,0.065706379711628
324,0.00713401800021529,-0.0156142758205533,-0.00085884309373796,0.0240006390959024,-0.00116870051715523,0.0704516097903252
325,0.0305120348930359,0.0133606167510152,0.0232689492404461,0.038117203861475,0.0252989623695612,0.0814573913812637
326,0.042127575725317,0.0575015880167484,0.0469395704567432,0.0431440062820911,0.0394239537417889,0.0921760275959969
327,0.04145847260952,0.0973465666174889,0.0608934536576271,0.0408049263060093,0.0417726002633572,0.096428170800209
328,0.0282351579517126,0.108956694602966,0.059856690466404,0.0337733924388886,0.0356246270239353,0.0912206843495369
329,0.0122670652344823,0.0915930196642876,0.0484797321259975,0.023801427334547,0.0287927854806185,0.08135125041008
330,0.00840471126139164,0.0663471445441246,0.0378929190337658,0.0163689665496349,0.0276855211704969,0.0777852982282639
331,0.0168733205646276,0.045340221375227,0.0277226343750954,0.0132278809323907,0.0221667475998402,0.0825257897377014
332,0.0287305489182472,0.0358186773955822,0.0189929138869047,0.017358735203743,0.00640715472400188,0.0919308364391327
333,0.037916325032711,0.0491402074694633,0.0224560648202896,0.0326662175357342,-0.00961542595177889,0.108860485255718
334,0.0359493717551231,0.0753260105848312,0.032245434820652,0.0439822822809219,-0.0241093728691339,0.130560323596001
335,0.0205396860837936,0.091669924557209,0.0326438434422016,0.0350032784044743,-0.0392261520028114,0.148028686642647
336,0.0044754515402019,0.0949316322803497,0.0304768159985542,0.0185772683471441,-0.04511384293437,0.161594986915588
337,-0.00308423163369298,0.0908985808491707,0.0369745530188084,0.0129178846254945,-0.0358512960374355,0.167592793703079
338,-0.00705260830000043,0.0776716396212578,0.041017659008503,0.015863973647356,-0.0183738805353642,0.152509644627571
339,-0.0119389845058322,0.0520753115415573,0.029293043538928,0.0170678701251745,0.000648674438707531,0.115075923502445
340,-0.0129082202911377,0.021078011021018,0.00981109123677015,0.0133163910359144,0.0193744022399187,0.0743229761719704
341,-0.00615066289901733,-0.00182100990787148,-0.00180808827280998,0.00628778105601668,0.0318391099572182,0.0468165315687656
342,0.00870130024850369,-0.0102079240605235,-0.00265518040396273,-0.00160873599816114,0.0313235111534595,0.0337952338159084
343,0.0355694331228733,0.000964973878581077,0.00471482565626502,-0.00180109159555286,0.0279973894357681,0.0415625087916851
344,0.0653208121657372,0.0324061401188374,0.0117413923144341,0.00550172058865428,0.0293601416051388,0.0697192549705505
345,0.0810156464576721,0.0703500807285309,0.0112420553341508,0.0113331424072385,0.0271462090313435,0.100989110767841
346,0.0842502191662788,0.100460223853588,0.0167282205075026,0.0221946891397238,0.0254427343606949,0.128212362527847
347,0.0768246278166771,0.112637467682362,0.0345636233687401,0.0406814813613892,0.0264380611479282,0.149065434932709
348,0.0477633811533451,0.0987769365310669,0.0441252887248993,0.0495436787605286,0.0109162405133247,0.157883405685425
349,0.000385974446544424,0.0683174654841423,0.0404313281178474,0.0475394278764725,-0.0207478534430265,0.164053097367287
350,-0.0424877032637596,0.0442126244306564,0.0465600565075874,0.0544988177716732,-0.0390983112156391,0.183139994740486
351,-0.0662586539983749,0.037693727761507,0.0699698179960251,0.0720888152718544,-0.0329953916370869,0.212696611881256
352,-0.0732531100511551,0.0452900156378746,0.0904357507824898,0.0795592442154884,-0.0195354018360376,0.232232600450516
353,-0.0656812116503716,0.056046687066555,0.0903108194470406,0.0662261098623276,-0.0101554840803146,0.224326387047768
354,-0.0416609272360802,0.0609842874109745,0.0743369087576866,0.0436056777834892,0.00572950765490532,0.195744872093201
355,-0.010138020850718,0.0596279427409172,0.0489578172564507,0.0206091683357954,0.0340810604393482,0.161358445882797
356,0.0132940644398332,0.0498833693563938,0.0115928221493959,-0.00653151096776128,0.0559130236506462,0.124422170221806
357,0.0244808737188578,0.0271023903042078,-0.0309023279696703,-0.0398594662547112,0.051622211933136,0.0844867825508118
358,0.0299629103392363,-0.000657660944852978,-0.0654637441039085,-0.0736643895506859,0.0247001182287931,0.0465876050293446
359,0.0368515066802502,-0.0117960153147578,-0.0834763273596764,-0.0950089320540428,-0.00659812800586224,0.0235047806054354
360,0.0494170784950256,0.00485091935843229,-0.0797160416841507,-0.0912403464317322,-0.0237682089209557,0.0258054286241531
361,0.0678579211235046,0.033842857927084,-0.0567691475152969,-0.0632395297288895,-0.0145545396953821,0.0498572178184986
362,0.0828307867050171,0.0530782341957092,-0.0270109809935093,-0.0274521037936211,0.0127770835533738,0.0792699977755547
363,0.0830057859420776,0.0623911991715431,0.00144338270183653,0.00329557945951819,0.0331911034882069,0.102154769003391
364,0.066328153014183,0.0686153471469879,0.0275627933442593,0.029564069584012,0.0342294871807098,0.116275303065777
365,0.0388500392436981,0.0659754723310471,0.0491693392395973,0.0540249384939671,0.0263421926647425,0.120345540344715
366,0.0119136553257704,0.0483185425400734,0.0627051219344139,0.0722083300352097,0.023212993517518,0.112422674894333
367,-0.0033605732023716,0.0205081216990948,0.0652452260255814,0.0778850764036179,0.0255502816289663,0.095681831240654
368,-0.00437621027231216,-0.00434447219595313,0.0558936335146427,0.0720120519399643,0.0276090353727341,0.0817071348428726
369,0.00271806190721691,-0.0176050234586,0.035932332277298,0.0576249063014984,0.026440754532814,0.0763353854417801
370,0.00987841188907623,-0.0172178987413645,0.0103298900648952,0.0340952277183533,0.0213210340589285,0.0683029592037201
371,0.0132877407595515,0.000561101885978132,-0.0154326036572456,0.000735555309802294,0.0123584074899554,0.0485868118703365
372,0.0119998259469867,0.0366174355149269,-0.0473782978951931,-0.0441183783113956,-0.00375651195645332,0.0241343360394239
373,0.00364363612607121,0.0732409507036209,-0.094914972782135,-0.0992256551980972,-0.0301467142999172,-0.00324221746996045
374,-0.0105378711596131,0.0803107991814613,-0.147546038031578,-0.149026319384575,-0.0580119714140892,-0.0400221832096577
375,-0.0211338624358177,0.0524803474545479,-0.183040350675583,-0.174610868096352,-0.0732908174395561,-0.0813596323132515
376,-0.0193981286138296,0.0190054159611464,-0.192098811268806,-0.172320753335953,-0.0704131126403809,-0.113728396594524
377,-0.00723491981625557,0.00300673139281571,-0.187968537211418,-0.154942110180855,-0.059415627270937,-0.132089123129845
378,0.0099057387560606,-0.00299430801533163,-0.190538674592972,-0.139569759368896,-0.0576150566339493,-0.139886572957039
379,0.0326310396194458,-0.0173972193151712,-0.205880209803581,-0.137282505631447,-0.0693944692611694,-0.141768127679825
380,0.0558269210159779,-0.0462886579334736,-0.229142114520073,-0.149647310376167,-0.0850285738706589,-0.146605670452118
381,0.0667015612125397,-0.0804215893149376,-0.247113600373268,-0.161987721920013,-0.0939857885241508,-0.159745559096336
382,0.0651725009083748,-0.108132995665073,-0.245687767863274,-0.157577827572823,-0.0902940183877945,-0.173053875565529
383,0.0618983879685402,-0.11861264705658,-0.225125625729561,-0.139133229851723,-0.0734593123197556,-0.171029180288315
384,0.0637129545211792,-0.0984867587685585,-0.19966846704483,-0.121495097875595,-0.0590314902365208,-0.146383821964264
385,0.0689442306756973,-0.0463985837996006,-0.184850335121155,-0.115596726536751,-0.0695787072181702,-0.108975946903229
386,0.0670091882348061,0.0125313056632876,-0.184688270092011,-0.122142039239407,-0.10331466794014,-0.0807009637355804
387,0.0474923960864544,0.0438015200197697,-0.192036643624306,-0.134725466370583,-0.139819920063019,-0.079162023961544
388,0.0116109242662787,0.0388458631932735,-0.199603691697121,-0.147337168455124,-0.1701290756464,-0.0983550846576691
389,-0.0253051780164242,0.0151375066488981,-0.208748355507851,-0.156626135110855,-0.193224266171455,-0.123677767813206
390,-0.0440943501889706,-0.0130168432369828,-0.220045804977417,-0.156988859176636,-0.197666078805923,-0.154449939727783
391,-0.0425619445741177,-0.0439351610839367,-0.223192006349564,-0.145542100071907,-0.175320744514465,-0.186026886105537
392,-0.0301411040127277,-0.0709842145442963,-0.203858986496925,-0.121183633804321,-0.133972600102425,-0.196988865733147
393,-0.0105611514300108,-0.0820805430412292,-0.164032936096191,-0.0838746055960655,-0.0896987617015839,-0.179600760340691
394,0.0130201550200582,-0.0742141976952553,-0.123685337603092,-0.0439559556543827,-0.0557686537504196,-0.14831331372261
395,0.0354441329836845,-0.0480672791600227,-0.0957116782665253,-0.0142775066196918,-0.0344475209712982,-0.107886329293251
396,0.0502828620374203,-0.00715510500594974,-0.0833949744701386,-0.00377005222253501,-0.024928867816925,-0.0535569228231907
397,0.0578223317861557,0.042383648455143,-0.0812771618366241,-0.00937819201499224,-0.0212320555001497,0.00802549812942743
398,0.0641539916396141,0.0943450331687927,-0.0773577019572258,-0.0176762975752354,-0.0135311186313629,0.051526416093111
399,0.0686060860753059,0.136956498026848,-0.0701139345765114,-0.0232413839548826,-0.00437007425352931,0.0504686571657658
400,0.0716809257864952,0.154760271310806,-0.0647291168570518,-0.0256254952400923,-0.00205154856666923,0.0117532964795828
401,0.0785270258784294,0.138069555163383,-0.0678981691598892,-0.0282957199960947,-0.0102936122566462,-0.0319515764713287
402,0.0855689123272896,0.0908049121499062,-0.0958625748753548,-0.0473047606647015,-0.0331070832908154,-0.066941112279892
403,0.0821883827447891,0.0324567258358002,-0.157553121447563,-0.0930247455835342,-0.0721615999937058,-0.102200247347355
404,0.0632006153464317,-0.00870283786207438,-0.236314475536346,-0.156620517373085,-0.12127397954464,-0.13744530081749
405,0.0321047268807888,-0.0148065704852343,-0.307539790868759,-0.223457857966423,-0.167972594499588,-0.165373340249062
406,-0.000597203790675849,0.00103985983878374,-0.351687580347061,-0.278234273195267,-0.19333228468895,-0.19244872033596
407,-0.025169475004077,0.00367722986266017,-0.35553041100502,-0.302835017442703,-0.184936717152596,-0.234736889600754
408,-0.0358671955764294,-0.0284941121935844,-0.322816878557205,-0.285778075456619,-0.152604475617409,-0.287957608699799
409,-0.030127665027976,-0.0803426429629326,-0.268249452114105,-0.233233228325844,-0.113836906850338,-0.314931690692902
410,-0.0210079774260521,-0.115311406552792,-0.207847982645035,-0.165289342403412,-0.0792623534798622,-0.288084208965302
411,-0.0255686789751053,-0.118214569985867,-0.158277258276939,-0.104074411094189,-0.054667878895998,-0.214772269129753
412,-0.0399019494652748,-0.106526054441929,-0.125046193599701,-0.0635496526956558,-0.0416141971945763,-0.120059549808502
413,-0.0532448515295982,-0.0900372341275215,-0.107118010520935,-0.0460774302482605,-0.0441362522542477,-0.0337281934916973
414,-0.0639506354928017,-0.0535335466265678,-0.103013232350349,-0.0454361438751221,-0.0620389990508556,0.0172130819410086
415,-0.0719797611236572,0.00266362214460969,-0.0976895466446877,-0.0506202168762684,-0.075943186879158,0.0217447858303785
416,-0.0730544030666351,0.0627286434173584,-0.0774150267243385,-0.0513850376009941,-0.0675323233008385,0.00536301452666521
417,-0.0625997260212898,0.117545090615749,-0.052938424050808,-0.0487214587628841,-0.0407374314963818,-0.00568880001083016
418,-0.0353779494762421,0.146897777915001,-0.0435099266469479,-0.0541881024837494,-0.00498411944136024,-0.023798581212759
419,0.00451402831822634,0.131814405322075,-0.0538560822606087,-0.0714368224143982,0.0309595596045256,-0.0537748336791992
420,0.0252554398030043,0.0653884932398796,-0.0904021859169006,-0.109287939965725,0.0395730547606945,-0.0881422683596611
421,0.00280865491367877,-0.0422162860631943,-0.153627663850784,-0.171866789460182,0.00100894493516535,-0.136543706059456
422,-0.0371799133718014,-0.138816639780998,-0.197438582777977,-0.208116978406906,-0.0525004826486111,-0.18465319275856
423,-0.0555691570043564,-0.16598305106163,-0.17366686463356,-0.168974325060844,-0.0700046941637993,-0.193924531340599
424,-0.0426365472376347,-0.125138282775879,-0.0936054214835167,-0.0815752372145653,-0.0354582853615284,-0.163501039147377
425,-0.0119433281943202,-0.0691556036472321,-0.00252010696567595,0.00366459181532264,0.0309552606195211,-0.127289056777954
426,0.0201411228626966,-0.0398683398962021,0.0637310147285461,0.0641301348805428,0.0962332859635353,-0.107795551419258
427,0.0482491664588451,-0.0372910723090172,0.0929385498166084,0.092595748603344,0.139060974121094,-0.102557368576527
428,0.0742002874612808,-0.0328553058207035,0.0893485620617867,0.0897225812077522,0.159552678465843,-0.100918240845203
429,0.096276193857193,-0.00840211380273104,0.06254693120718,0.0646287873387337,0.164398655295372,-0.106862992048264
430,0.108249574899673,0.0156932882964611,0.0282777063548565,0.0325915589928627,0.15548899769783,-0.13266558945179
431,0.107109032571316,0.0181810185313225,0.00642311433330178,0.00727733038365841,0.140245646238327,-0.17157581448555
432,0.0965904593467712,0.0136716552078724,0.007008564658463,-0.00815112888813019,0.129249930381775,-0.207276463508606
433,0.0803514420986176,0.0147801134735346,0.0227960646152496,-0.0137815959751606,0.122482724487782,-0.24113504588604
434,0.0666405484080315,0.0170018244534731,0.0450610257685184,-0.0049512037076056,0.120647557079792,-0.276327341794968
435,0.0684462934732437,0.0215223375707865,0.0718672052025795,0.0178606454282999,0.130819365382195,-0.308467298746109
436,0.0857903137803078,0.0262833833694458,0.094384603202343,0.0421405918896198,0.148932442069054,-0.343290716409683
437,0.109250709414482,0.0221527889370918,0.0997376590967178,0.0540892146527767,0.161691725254059,-0.387073487043381
438,0.130335763096809,0.00331547204405069,0.0866697579622269,0.0495715700089931,0.159832999110222,-0.439759254455566
439,0.138691127300262,-0.022633008658886,0.0692949816584587,0.0389638170599937,0.143381401896477,-0.495883494615555
440,0.129375353455544,-0.0415587164461613,0.0621826574206352,0.0359822288155556,0.123613804578781,-0.5
441,0.106081329286098,-0.0497456938028336,0.0617608912289143,0.0374598391354084,0.109831750392914,-0.5
442,0.0766057968139648,-0.0471406728029251,0.0596324764192104,0.0345697291195393,0.104030579328537,-0.5
443,0.0507844425737858,-0.0333762839436531,0.0602015666663647,0.0291171539574862,0.103907197713852,-0.5
444,0.034831952303648,-0.00872831977903843,0.0670280829071999,0.0252634435892105,0.102551817893982,-0.5
445,0.0354514457285404,0.0284214429557323,0.0749573782086372,0.0270283743739128,0.102928131818771,-0.5
446,0.054957952350378,0.0650351867079735,0.0780057832598686,0.0348031111061573,0.11367754638195,-0.5
447,0.0836488530039787,0.0825943872332573,0.0798302292823792,0.0460739098489285,0.136289581656456,-0.5
448,0.113841719925404,0.0888154357671738,0.0937381684780121,0.0657105445861816,0.169704228639603,-0.5
449,0.140260472893715,0.0953699573874474,0.116650946438313,0.090248167514801,0.203453466296196,-0.5
450,0.153499901294708,0.0987160578370094,0.126486986875534,0.0986177697777748,0.221083775162697,-0.5
451,0.146804645657539,0.104196578264236,0.116706266999245,0.0830141603946686,0.219916179776192,-0.5
452,0.11874858289957,0.110830761492252,0.0991408079862595,0.0605287626385689,0.204593554139137,-0.5
453,0.0827717781066895,0.104615226387978,0.0944377109408379,0.0588201805949211,0.186631038784981,-0.5
454,0.0627796500921249,0.0836716964840889,0.126280933618546,0.0989598631858826,0.190287470817566,-0.5
455,0.0667838454246521,0.0523444935679436,0.190270617604256,0.172460183501244,0.222797736525536,-0.5
456,0.0825125947594643,0.0152208628132939,0.248358175158501,0.240093633532524,0.258792400360107,-0.5
457,0.0918193832039833,-0.0215663909912109,0.268369793891907,0.264332205057144,0.270603179931641,-0.5
458,0.0918327420949936,-0.045532401651144,0.254683703184128,0.246953815221787,0.262286156415939,-0.5
459,0.0901326090097427,-0.0456114076077938,0.222466737031937,0.208881795406342,0.249733701348305,-0.5
460,0.0784930512309074,-0.0253153964877129,0.168224856257439,0.150297224521637,0.225260317325592,-0.5
461,0.0489543080329895,-0.00167154252994806,0.0908082127571106,0.0680991560220718,0.17819219827652,-0.5
462,0.0181294418871403,0.00533294584602118,0.0185663290321827,-0.0113664679229259,0.126386031508446,-0.5
463,0.00489260675385594,-0.00596847757697105,-0.00832774862647057,-0.0480379201471806,0.0998422428965569,-0.5
464,0.00672585610300303,-0.0218327753245831,0.0117710614576936,-0.0353480018675327,0.102064080536366,-0.5
465,0.0157718826085329,-0.0307286884635687,0.0416949912905693,-0.00296317902393639,0.112443044781685,-0.5
466,0.0326203368604183,-0.036162756383419,0.0538355894386768,0.0221375897526741,0.118728771805763,-0.5
467,0.0499658398330212,-0.054541002959013,0.0468222126364708,0.0300175957381725,0.119310595095158,-0.5
468,0.0522124879062176,-0.0899554416537285,0.0358210913836956,0.0256384797394276,0.117508225142956,-0.5
469,0.0408841967582703,-0.126878842711449,0.0431419722735882,0.0292416978627443,0.126375898718834,-0.5
470,0.0331091918051243,-0.145654320716858,0.0809422880411148,0.0594848655164242,0.154957726597786,-0.5
471,0.0363123379647732,-0.135992527008057,0.138735398650169,0.110580965876579,0.19504688680172,-0.5
472,0.0440518632531166,-0.095173753798008,0.190703809261322,0.154113665223122,0.228351727128029,-0.5
473,0.0468988157808781,-0.0286948811262846,0.214764356613159,0.167858436703682,0.239730581641197,-0.5
474,0.0381973795592785,0.0306430887430906,0.205509498715401,0.152398064732552,0.22430956363678,-0.496222406625748
475,0.0191567670553923,0.0472720600664616,0.175550147891045,0.121808066964149,0.190210595726967,-0.451881498098373
476,0.000260219239862636,0.034108828753233,0.146704584360123,0.0966192185878754,0.157496005296707,-0.433152705430985
477,-0.00902563240379095,0.0229838844388723,0.132929682731628,0.0935633778572083,0.143517881631851,-0.424741864204407
478,-0.00758865149691701,0.014709010720253,0.133374199271202,0.111962109804153,0.149989128112793,-0.421300828456879
479,0.00733091915026307,0.000662399688735604,0.142809376120567,0.142110571265221,0.171200692653656,-0.422130942344666
480,0.0382532142102718,-0.0191755648702383,0.153612658381462,0.170797944068909,0.197096601128578,-0.418778091669083
481,0.0742314681410789,-0.0370384342968464,0.157901421189308,0.182061836123466,0.218168586492538,-0.405128926038742
482,0.0952972397208214,-0.0445218607783318,0.149318307638168,0.165150299668312,0.228140860795975,-0.39264976978302
483,0.0822313949465752,-0.0588834919035435,0.114281289279461,0.114978827536106,0.209368869662285,-0.404879122972488
484,0.0380021780729294,-0.092386931180954,0.0606148093938828,0.0515268258750439,0.16036219894886,-0.438928097486496
485,-0.00764849781990051,-0.12000136077404,0.029263112694025,0.0166005399078131,0.112687163054943,-0.461059510707855
486,-0.0315242148935795,-0.121113419532776,0.040175624191761,0.0250583663582802,0.0890247449278831,-0.449295699596405
487,-0.0301415957510471,-0.0964342281222343,0.0751135647296906,0.0579524524509907,0.0911445543169975,-0.39830756187439
488,-0.0117045855149627,-0.05630012601614,0.113544061779976,0.0931655615568161,0.115715466439724,-0.31697216629982
489,0.0117122698575258,-0.0230099074542522,0.143775999546051,0.115614831447601,0.153211683034897,-0.241472199559212
490,0.0302709359675646,-0.0089433379471302,0.153991430997849,0.118527464568615,0.181128814816475,-0.206490203738213
491,0.0328003615140915,-0.0071043991483748,0.141706958413124,0.110749654471874,0.177629306912422,-0.213019385933876
492,0.0162297710776329,-0.0128900595009327,0.125327467918396,0.111104160547256,0.153250589966774,-0.234179630875587
493,-0.0093778083100915,-0.0220479667186737,0.124446414411068,0.125275328755379,0.136051684617996,-0.242179036140442
494,-0.0367765091359615,-0.0256266538053751,0.132268115878105,0.13633531332016,0.124371536076069,-0.232627555727959
495,-0.0628266856074333,-0.0234366301447153,0.129193469882011,0.127843916416168,0.100026741623878,-0.219719961285591
496,-0.0777588188648224,-0.0122556397691369,0.118833087384701,0.110568456351757,0.0734093859791756,-0.208816528320313
497,-0.0637798234820366,0.0162061639130116,0.124054498970509,0.109333954751492,0.0748512595891953,-0.187812879681587
498,-0.0156667176634073,0.0453155823051929,0.148810714483261,0.130451887845993,0.11150873452425,-0.151742309331894
499,0.0417178869247437,0.0509865283966064,0.174135938286781,0.161837801337242,0.161554843187332,-0.109470941126347
500,0.0762950256466866,0.0370669141411781,0.187889531254768,0.189361199736595,0.201547920703888,-0.0664572492241859
501,0.084942638874054,0.0226749461144209,0.19368988275528,0.204782098531723,0.220568969845772,-0.0318263284862041
502,0.0849301442503929,0.0155618265271187,0.195980608463287,0.208281740546227,0.215765058994293,-0.0235860086977482
503,0.0761887803673744,0.00786694139242172,0.194827482104301,0.20322597026825,0.188342988491058,-0.044260386377573
504,0.0516607500612736,-3.69152003258932E-05,0.198748648166656,0.199384525418282,0.154171317815781,-0.070623978972435
505,0.026074793189764,0.00681619066745043,0.217466190457344,0.209424823522568,0.138595625758171,-0.0727587938308716
506,0.017061734572053,0.0303283538669348,0.238185122609138,0.226312920451164,0.146300837397575,-0.0427350997924805
507,0.0265524033457041,0.0575280785560608,0.243853718042374,0.232252910733223,0.16548053920269,-0.00268495595082641
508,0.0516592599451542,0.0768889710307121,0.239963665604591,0.22897182404995,0.190270885825157,0.0219034422188997
509,0.0820315256714821,0.0782346948981285,0.233393117785454,0.224346160888672,0.210768982768059,0.0215731076896191
510,0.0980716347694397,0.0629548281431198,0.218613371253014,0.210199519991875,0.213034138083458,0.00174557801801711
511,0.0921807587146759,0.0502198971807957,0.194615468382835,0.180253893136978,0.195904359221458,-0.0259839575737715
512,0.0711861848831177,0.0502138547599316,0.16905802488327,0.144217863678932,0.168411746621132,-0.0505085438489914
513,0.0418258123099804,0.0509776957333088,0.149197444319725,0.114832542836666,0.140547022223473,-0.0551410689949989
514,0.0120669724419713,0.0404245592653751,0.135500103235245,0.0969767272472382,0.120365463197231,-0.0332349687814713
515,-0.00635911244899035,0.0176590774208307,0.125773519277573,0.0910516828298569,0.114175550639629,-0.00457822624593973
516,-0.00842721294611692,-0.00891849398612976,0.11871000379324,0.0935923531651497,0.11836564540863,0.0133368596434593
517,0.00366682605817914,-0.0211823545396328,0.1135363727808,0.100167959928513,0.123937144875526,0.0252140052616596
518,0.0296030193567276,-0.00853727385401726,0.114708855748177,0.114531874656677,0.135265484452248,0.0421975888311863
519,0.0605457089841366,0.0156343542039394,0.126231491565704,0.13939057290554,0.157312273979187,0.0685483068227768
520,0.0792889818549156,0.0349731259047985,0.14643956720829,0.168370351195335,0.179328709840775,0.101594842970371
521,0.0783442184329033,0.0467672049999237,0.167584300041199,0.189618557691574,0.186051174998283,0.125920310616493
522,0.0619443245232105,0.052704032510519,0.185765281319618,0.197649613022804,0.178484603762627,0.127498522400856
523,0.0400032326579094,0.0540028400719166,0.206769049167633,0.200400844216347,0.170378565788269,0.120090059936047
524,0.0198628455400467,0.0530632399022579,0.225366279482841,0.201637879014015,0.161832317709923,0.122261084616184
525,0.00579925253987312,0.0541499778628349,0.233217656612396,0.200990334153175,0.151088461279869,0.13166955113411
526,-0.000462387048173696,0.0498225577175617,0.229689121246338,0.197708785533905,0.145501673221588,0.134061723947525
527,0.000296951911877841,0.0311956312507391,0.215282917022705,0.18634931743145,0.144369453191757,0.124091908335686
528,0.00544298626482487,0.0110820783302188,0.198192954063416,0.166870027780533,0.140863493084908,0.114236637949944
529,0.00267131975851953,0.00164763571228832,0.180684313178062,0.142180919647217,0.126278147101402,0.111623741686344
530,-0.0134706189855933,0.00239646248519421,0.161496669054031,0.120791032910347,0.103166073560715,0.114131942391396
531,-0.0263733752071857,0.0131221320480108,0.153301954269409,0.118602640926838,0.0919146314263344,0.130957514047623
532,-0.0240216348320246,0.0248976089060307,0.158599898219109,0.132140696048737,0.09682896733284,0.16521055996418
533,-0.0141938924789429,0.023804385215044,0.159672036767006,0.13631135225296,0.10167021304369,0.200400099158287
534,-0.00932879745960236,0.0128789395093918,0.141832187771797,0.115870997309685,0.097637340426445,0.223335966467857
535,-0.0167683735489845,0.00941000413149595,0.107308126986027,0.0793675109744072,0.0865220427513123,0.228762850165367
536,-0.0354669913649559,0.0240705814212561,0.073116272687912,0.045956838876009,0.0739161521196365,0.213491067290306
537,-0.0524193830788136,0.0473672151565552,0.0552271604537964,0.02851159311831,0.0669147074222565,0.184202238917351
538,-0.0506031475961208,0.0575208067893982,0.0582403652369976,0.0315185040235519,0.0703584104776382,0.158008933067322
539,-0.0278746355324984,0.045820839703083,0.0765874907374382,0.053741779178381,0.0784610658884048,0.150112628936768
540,0.00157911365386099,0.0220867525786161,0.0955678150057793,0.0836116895079613,0.0788528472185135,0.15906235575676
541,0.0240757092833519,0.000683735648635775,0.107289955019951,0.1090272590518,0.0717749521136284,0.172172099351883
542,0.0296572986990213,-0.00608923193067312,0.122913420200348,0.130279645323753,0.0667616575956345,0.185275003314018
543,0.0110815837979317,0.000539632281288505,0.147690579295158,0.145405128598213,0.0630625486373901,0.201765716075897
544,-0.023707116022706,0.00704397307708859,0.169417083263397,0.148605093359947,0.0582896918058395,0.222809359431267
545,-0.0517405271530151,0.00804813485592604,0.184256583452225,0.147825792431831,0.0611729808151722,0.245807617902756
546,-0.0596108548343182,0.00721913436427712,0.200134322047234,0.155552834272385,0.0766965374350548,0.26689687371254
547,-0.0571458712220192,0.00521618919447064,0.211561679840088,0.167563274502754,0.0937418937683105,0.283645689487457
548,-0.0565307028591633,0.00694641238078475,0.205053865909576,0.168822407722473,0.0992568954825401,0.297850012779236
549,-0.0531467646360397,0.0254322774708271,0.184473812580109,0.153876692056656,0.0937753841280937,0.312234163284302
550,-0.0395703129470348,0.0582006238400936,0.15961454808712,0.124976500868797,0.0832749828696251,0.318317979574203
551,-0.0249090977013111,0.0780869051814079,0.127129003405571,0.0845020189881325,0.0682919397950172,0.30291810631752
552,-0.0207490175962448,0.0687733963131905,0.0860028639435768,0.0418400950729847,0.0502325966954231,0.269646167755127
553,-0.0212205834686756,0.0430773086845875,0.0460704974830151,0.00608560489490628,0.0371149182319641,0.236190617084503
554,-0.0162115916609764,0.0232753213495016,0.0155493393540382,-0.0201303791254759,0.0356139913201332,0.215256899595261
555,-0.00737428991124034,0.0216255318373442,-0.00143808941356838,-0.0292901676148176,0.0444035157561302,0.209142580628395
556,0.000119395095680375,0.0269341673702002,0.0017691976390779,-0.0137684857472777,0.0591839142143726,0.216028690338135
557,0.0104317059740424,0.0263220705091953,0.0344322249293327,0.0264862813055515,0.0768650472164154,0.238602086901665
558,0.0266273636370897,0.0246269572526217,0.0885653272271156,0.0807813182473183,0.0889772474765778,0.280149400234222
559,0.0383151285350323,0.0285971611738205,0.134548634290695,0.125469192862511,0.0833916664123535,0.330749928951263
560,0.0367916598916054,0.0372383967041969,0.152131721377373,0.143351182341576,0.0591813921928406,0.367276310920715
561,0.01954535394907,0.0371956750750542,0.141873881220818,0.133343786001205,0.0239850338548422,0.370511204004288
562,-0.0107797719538212,0.0232107117772102,0.119493544101715,0.109394133090973,-0.00909186992794275,0.35149547457695
563,-0.0342067182064056,0.0163219813257456,0.109127640724182,0.0963789746165276,-0.019509568810463,0.342632681131363
564,-0.0398468524217606,0.0270186793059111,0.111194714903831,0.092960424721241,-0.00943886395543814,0.34445858001709
565,-0.0422933213412762,0.0410489290952683,0.0999009609222412,0.0702802687883377,-0.00467116106301546,0.326383739709854
566,-0.0470356829464436,0.0446058437228203,0.0602464377880096,0.017189146950841,-0.0146565828472376,0.279051423072815
567,-0.0460697934031487,0.0327926799654961,-0.0037336943205446,-0.0540605261921883,-0.0312717333436012,0.222584515810013
568,-0.0423204861581326,0.00995601247996092,-0.0723357647657394,-0.117472983896732,-0.0482804849743843,0.187692373991013
569,-0.046142753213644,-0.0151878669857979,-0.113896362483501,-0.140556812286377,-0.0619635805487633,0.190947473049164
570,-0.0551032237708569,-0.0339724384248257,-0.107912726700306,-0.110773324966431,-0.0625554993748665,0.221432253718376
571,-0.0566581562161446,-0.0465589985251427,-0.0608372688293457,-0.0468019880354404,-0.0451930314302444,0.261562436819077
572,-0.0454740971326828,-0.0593462288379669,0.00537349563091993,0.0220653377473354,-0.020482337102294,0.298552453517914
573,-0.0316043496131897,-0.0685704723000526,0.0709569901227951,0.0797895938158035,-0.000518059474416077,0.326447397470474
574,-0.0296272803097963,-0.065043680369854,0.123010508716106,0.123211853206158,0.00936753302812576,0.349116444587708
575,-0.0392890200018883,-0.0380082912743092,0.151403740048409,0.142762258648872,0.00858370680361986,0.371321201324463
576,-0.0482837483286858,0.0107646472752094,0.15415894985199,0.128325283527374,0.00162995036225766,0.393163442611694
577,-0.0503357835114002,0.0464323274791241,0.142926618456841,0.0928208455443382,-0.00587645033374429,0.408702105283737
578,-0.0506204552948475,0.0386875495314598,0.126416370272636,0.0612756051123142,-0.0164584647864103,0.407217144966125
579,-0.0511935204267502,0.00488739414140582,0.107835523784161,0.0491545870900154,-0.0312113221734762,0.39089047908783
580,-0.0481765680015087,-0.0233064647763968,0.0916431173682213,0.0534625127911568,-0.0431703589856625,0.37556591629982
581,-0.0393377877771854,-0.0365021303296089,0.0792082920670509,0.0596087276935577,-0.0471395328640938,0.367845952510834
582,-0.0224518477916718,-0.0359571576118469,0.071887269616127,0.0624451637268066,-0.037116352468729,0.362720549106598
583,-0.00213769008405507,-0.028062840923667,0.0662714391946793,0.0618676841259003,-0.0106222098693252,0.356930166482925
584,0.0112528670579195,-0.0223932042717934,0.0491361021995544,0.0482828170061111,0.016927033662796,0.354652523994446
585,0.0179416444152594,-0.0175444222986698,0.0174031890928745,0.0192939769476652,0.0253923460841179,0.359885543584824
586,0.0246407091617584,-0.00424449611455202,-0.0109003866091371,-0.00747046200558543,0.0143351331353188,0.371556669473648
587,0.02479955740273,0.0161573868244886,-0.0234617721289396,-0.0204415284097195,-0.00518219405785203,0.387420386075974
588,0.00809384416788816,0.0329398065805435,-0.0248423758894205,-0.0259974803775549,-0.0276301838457584,0.40238419175148
589,-0.014149752445519,0.0387290865182877,-0.0192104317247868,-0.0287499353289604,-0.050211776047945,0.407082110643387
590,-0.0248994156718254,0.029869681224227,-0.0111499950289726,-0.0292724557220936,-0.0697132274508476,0.395303308963776
591,-0.028631616383791,0.0126339513808489,-0.00393190421164036,-0.0274498723447323,-0.0832494720816612,0.372686445713043
592,-0.0361894033849239,-4.15144022554159E-05,0.00856955256313086,-0.018234096467495,-0.0887592434883118,0.355475693941116
593,-0.0505451336503029,-0.00631388323381543,0.0252360850572586,-0.00217583868652582,-0.0872318372130394,0.355934709310532
594,-0.0695124715566635,-0.0053823534399271,0.0347875393927097,0.011302906088531,-0.0788639411330223,0.366996288299561
595,-0.0845729783177376,0.00191291724331677,0.0335296541452408,0.0138230184093118,-0.0668076947331429,0.368876338005066
596,-0.0940448045730591,-0.00726680131629109,0.019427577033639,-0.00291477353312075,-0.067227341234684,0.348210692405701
597,-0.0990964099764824,-0.0449266321957111,-0.0101189455017447,-0.0366062968969345,-0.088765874505043,0.31218746304512
598,-0.092981331050396,-0.0856728106737137,-0.045821450650692,-0.0678661093115807,-0.11642725020647,0.287263095378876
599,-0.0784102529287338,-0.10285210609436,-0.0728054717183113,-0.0838662087917328,-0.133925452828407,0.29388102889061
600,-0.0695134922862053,-0.0961469858884811,-0.0878256186842918,-0.0899916589260101,-0.141742825508118,0.322385996580124
601,-0.0804316177964211,-0.0884794741868973,-0.107513658702374,-0.103651449084282,-0.157059580087662,0.329367578029633
602,-0.108770377933979,-0.0983552262187004,-0.139847978949547,-0.130884230136871,-0.189201056957245,0.286842256784439
603,-0.132260620594025,-0.115922562777996,-0.164390593767166,-0.154029414057732,-0.221756666898727,0.228038385510445
604,-0.133832484483719,-0.117441564798355,-0.164251536130905,-0.157790303230286,-0.231859967112541,0.203368216753006
605,-0.112710073590279,-0.0916860774159431,-0.146117523312569,-0.142506048083305,-0.210104882717133,0.222747936844826
606,-0.0818337798118591,-0.0538786873221397,-0.131704390048981,-0.124410793185234,-0.175464540719986,0.252122104167938
607,-0.0607717297971249,-0.0265571493655443,-0.128561809659004,-0.116979084908962,-0.158004969358444,0.266375094652176
608,-0.0648740157485008,-0.0134927546605468,-0.119529873132706,-0.109348848462105,-0.163684740662575,0.27907007932663
609,-0.0924193114042282,-0.00646393978968263,-0.094277560710907,-0.0886343121528625,-0.179752290248871,0.299071341753006
610,-0.123430579900742,-0.00214115902781487,-0.0606499388813972,-0.0600124374032021,-0.192251220345497,0.31906071305275
611,-0.138832092285156,-0.000567423703614622,-0.0322027280926704,-0.0370871238410473,-0.192494094371796,0.343006014823914
612,-0.135522812604904,-0.00421646097674966,-0.0233601350337267,-0.034452959895134,-0.184086725115776,0.370287477970123
613,-0.126448556780815,-0.0267332009971142,-0.0457200407981873,-0.0620859935879707,-0.177569165825844,0.373181581497192
614,-0.11673916131258,-0.0709524527192116,-0.0908339843153954,-0.106463484466076,-0.1711545586586,0.334197849035263
615,-0.0962784737348557,-0.115230411291122,-0.132178768515587,-0.140318036079407,-0.158267647027969,0.276832044124603
616,-0.0706736966967583,-0.140702962875366,-0.154075548052788,-0.155129224061966,-0.147507876157761,0.230548560619354
617,-0.0551471635699272,-0.14324751496315,-0.155450150370598,-0.154837071895599,-0.146715804934502,0.203915730118752
618,-0.0501435361802578,-0.124811880290508,-0.144060015678406,-0.14526954293251,-0.149802088737488,0.196138665080071
619,-0.0530777312815189,-0.0898982137441635,-0.136266678571701,-0.138176470994949,-0.1524468511343,0.20162907242775
620,-0.0656363144516945,-0.0499491728842258,-0.137850433588028,-0.137959331274033,-0.160409078001976,0.20997853577137
621,-0.0910891368985176,-0.0248898454010487,-0.138454794883728,-0.138490602374077,-0.180390730500221,0.218289032578468
622,-0.130706593394279,-0.0257881097495556,-0.129068210721016,-0.135472699999809,-0.206392049789429,0.237387359142303
623,-0.174479842185974,-0.0358872897922993,-0.110222466289997,-0.129066199064255,-0.222628086805344,0.277614891529083
624,-0.205682009458542,-0.0314740687608719,-0.0921842455863953,-0.120923139154911,-0.222396239638329,0.325016528367996
625,-0.213501200079918,-0.0155551144853234,-0.0792201608419418,-0.10666910558939,-0.208021491765976,0.351766914129257
626,-0.193987786769867,-0.00632207142189145,-0.0599202439188957,-0.0775047317147255,-0.179788812994957,0.349948346614838
627,-0.147531688213348,-0.0152375930920243,-0.0330417305231094,-0.0400882251560688,-0.142504692077637,0.328017234802246
628,-0.0861839056015015,-0.0408765710890293,-0.0124739995226264,-0.0121582103893161,-0.106897182762623,0.29981803894043
629,-0.0361660048365593,-0.0665920674800873,-0.00729651609435678,-0.00191063154488802,-0.0792824476957321,0.280492752790451
630,-0.0148080606013536,-0.0785784125328064,-0.0218387320637703,-0.0108587769791484,-0.0619605183601379,0.273428201675415
631,-0.0147204883396626,-0.0810300037264824,-0.060452688485384,-0.0427026301622391,-0.0621443055570126,0.265926837921143
632,-0.0139787951484323,-0.0810022726655006,-0.113977663218975,-0.0901851430535316,-0.0823017582297325,0.246163085103035
633,-0.00409787800163031,-0.07822135835886,-0.156746461987495,-0.129000499844551,-0.107166215777397,0.22207036614418
634,-0.000838118838146329,-0.0713489726185799,-0.169763073325157,-0.141002088785172,-0.119566611945629,0.21084500849247
635,-0.0117876455187798,-0.0558702200651169,-0.149963811039925,-0.124505504965782,-0.115491785109043,0.222430482506752
636,-0.0249438807368279,-0.0245837513357401,-0.102338708937168,-0.0858235582709312,-0.0958823263645172,0.25935485959053
637,-0.0267271436750889,0.0234538242220879,-0.0425204262137413,-0.0383780337870121,-0.0628899484872818,0.315592378377914
638,-0.0170157421380281,0.0736562460660934,-0.0027492088265717,-0.0086186770349741,-0.0319641381502151,0.363531827926636
639,-0.010647096671164,0.103817589581013,-0.0057237483561039,-0.0174347385764122,-0.0213166996836662,0.374831795692444
640,-0.0154434759169817,0.111050017178059,-0.0363400615751743,-0.0510210357606411,-0.0285804104059935,0.355163782835007
641,-0.0208078883588314,0.11157164722681,-0.0615368895232677,-0.0736930146813393,-0.0376811325550079,0.330129653215408
642,-0.0141118364408612,0.110855266451836,-0.0637344866991043,-0.0646554231643677,-0.0400197468698025,0.319183379411697
643,0.00513336481526494,0.096188023686409,-0.0455659665167332,-0.0290573704987764,-0.0369770117104054,0.323860853910446
644,0.0274632498621941,0.0632952377200127,-0.018998920917511,0.0154288476333022,-0.030497420579195,0.332546770572662
645,0.045185849070549,0.0299588423222303,0.00524368835613132,0.052615400403738,-0.0187119003385305,0.336317479610443
646,0.0556747689843178,0.00924704689532518,0.0234784707427025,0.0728755742311478,-0.00351754389703274,0.329827964305878
647,0.0553045533597469,-0.00321775348857045,0.0320025682449341,0.0710302665829659,0.00349509413354099,0.308842062950134
648,0.0472028255462646,-0.00908746756613255,0.0296134632080793,0.0525021441280842,-0.00101894908584654,0.280196994543076
649,0.0422892645001411,-0.00750073371455073,0.0207859221845865,0.0296124946326017,-0.00824094656854868,0.256376057863235
650,0.0404715649783611,-0.00960127729922533,-0.00121015089098364,-4.70478380520944E-06,-0.0209402460604906,0.23627308011055
651,0.033790361136198,-0.0252827666699886,-0.0446069315075874,-0.0432042703032494,-0.0465952903032303,0.216396316885948
652,0.0227322857826948,-0.0427998937666416,-0.0969374775886536,-0.0912223756313324,-0.0778887420892715,0.203194513916969
653,0.0120180798694491,-0.0420593023300171,-0.1359473913908,-0.129923209547997,-0.103597179055214,0.199561014771461
654,0.00171596475411206,-0.0200059376657009,-0.148530587553978,-0.150418847799301,-0.118719346821308,0.204988032579422
655,-0.0128413578495383,0.00783674605190754,-0.140795797109604,-0.153829276561737,-0.122257277369499,0.218083098530769
656,-0.0354625917971134,0.0248769409954548,-0.131840586662292,-0.151526525616646,-0.119937770068645,0.230035588145256
657,-0.0615394450724125,0.0270689241588116,-0.128641352057457,-0.146379709243774,-0.118252947926521,0.233527690172195
658,-0.0770731866359711,0.0164217054843903,-0.115366250276566,-0.123043537139893,-0.108137495815754,0.233043015003204
659,-0.0735476240515709,-0.0137472189962864,-0.0817435011267662,-0.0790926218032837,-0.0799631252884865,0.230954065918922
660,-0.0568896122276783,-0.0631937012076378,-0.0413388721644878,-0.0370608046650887,-0.0449408069252968,0.21953447163105
661,-0.0344029739499092,-0.10451502352953,-0.00780362216755748,-0.00813351199030876,-0.0187609922140837,0.206429436802864
662,-0.00900839455425739,-0.112883180379868,0.0137311685830355,0.0120386620983481,-0.00525502022355795,0.216217786073685
663,0.0148484678938985,-0.0866469964385033,0.0144689995795488,0.0187834072858095,-0.00186807219870389,0.252567023038864
664,0.0285657271742821,-0.0351505056023598,-0.0113028548657894,-0.000289798772428185,-0.00804514065384865,0.287058860063553
665,0.0256673917174339,0.022833464667201,-0.0542588792741299,-0.0473671182990074,-0.0265932828187943,0.290749192237854
666,0.0117736821994185,0.0707947760820389,-0.0928494557738304,-0.0999881848692894,-0.0550057664513588,0.264388650655746
667,-5.85005182074383E-05,0.108092367649078,-0.107962660491467,-0.125983357429504,-0.0785848498344421,0.236180186271667
668,-0.000917850586120039,0.13290798664093,-0.0979598015546799,-0.117377072572708,-0.0844947695732117,0.231890946626663
669,0.0044313408434391,0.128875225782394,-0.0770349279046059,-0.0921347513794899,-0.0774814933538437,0.245318382978439
670,0.00135135115124285,0.0885608568787575,-0.058130394667387,-0.0673248916864395,-0.0726334676146507,0.246944114565849
671,-0.0170667245984077,0.0261248052120209,-0.0430462211370468,-0.0460403710603714,-0.0753588378429413,0.221554905176163
672,-0.0417165458202362,-0.0388759672641754,-0.0258294884115458,-0.022314416244626,-0.0738822519779205,0.183817237615585
673,-0.0543713569641113,-0.0878321006894112,-0.00240330118685961,0.00881462171673775,-0.0570148155093193,0.160293728113174
674,-0.046128548681736,-0.105020999908447,0.025120111182332,0.0450255945324898,-0.0296469088643789,0.166748583316803
675,-0.0276495590806007,-0.0895295068621635,0.0484111644327641,0.0732028782367706,-0.00722922990098596,0.200720056891441
676,-0.0122889410704374,-0.0491102635860443,0.0573474504053593,0.0787950456142426,-0.000863120483700186,0.255080193281174
677,-0.000868628092575818,0.0135759860277176,0.0526229701936245,0.0650544762611389,-0.00566788529977202,0.317501068115234
678,0.0089173698797822,0.0831215903162956,0.0419259890913963,0.0444385185837746,-0.00716444803401828,0.35609370470047
679,0.017997469753027,0.128613278269768,0.0228563062846661,0.0176271423697472,-0.000331361196003854,0.346447378396988
680,0.0277818143367767,0.137364462018013,-0.014907062985003,-0.0211219415068626,0.00502110738307238,0.295976728200912
681,0.0328819081187248,0.118758797645569,-0.0695868581533432,-0.0670227333903313,-0.00299975671805441,0.229550749063492
682,0.0290521960705519,0.083359606564045,-0.119043357670307,-0.0998584181070328,-0.0244711115956306,0.176909267902374
683,0.0200379528105259,0.0437585636973381,-0.138972759246826,-0.100732803344727,-0.0521246641874313,0.151855304837227
684,0.00687022972851992,0.0182743463665247,-0.122202463448048,-0.0749076008796692,-0.0774330720305443,0.145738750696182
685,-0.0086119407787919,0.0172722078859806,-0.078629694879055,-0.0431651622056961,-0.0851603820919991,0.152940735220909
686,-0.0209519453346729,0.0302539858967066,-0.0309830661863089,-0.0188136473298073,-0.0716378316283226,0.172361418604851
687,-0.0274154394865036,0.0369314290583134,0.000563028210308403,-0.00319689814932644,-0.0530145019292831,0.201340824365616
688,-0.0275643542408943,0.0323589257895947,0.0179075114428997,0.00819261278957129,-0.0388321876525879,0.237336531281471
689,-0.0285597313195467,0.0249408762902021,0.0280110687017441,0.0163849610835314,-0.0304572135210037,0.269333988428116
690,-0.0387569814920425,0.0174760203808546,0.0248451996594667,0.01657535135746,-0.0324334092438221,0.28164404630661
691,-0.0501534789800644,0.0142344040796161,0.00837383512407541,0.00896422099322081,-0.0393296331167221,0.271411240100861
692,-0.0464770756661892,0.0241400729864836,-0.00518415542319417,0.0030847848393023,-0.0346738770604134,0.254703968763351
693,-0.0243253018707037,0.0471045114099979,0.000213422361412086,0.00990935601294041,-0.0142407631501555,0.248033538460732
694,-0.000636707351077348,0.0651335045695305,0.0193299558013678,0.0253772661089897,0.00579251255840063,0.242570638656616
695,0.00675910525023937,0.0584681257605553,0.0326638035476208,0.0331202819943428,0.0133573682978749,0.217299491167068
696,0.00624936586245894,0.0396498031914234,0.0344792194664478,0.0327176451683044,0.0167727265506983,0.178222626447678
697,0.0170119591057301,0.0313373431563377,0.0276392940431833,0.0323175862431526,0.0198095496743917,0.148307457566261
698,0.0372223742306232,0.0296260342001915,0.00979857984930277,0.0264475923031569,0.010505591519177,0.133735433220863
699,0.0509972348809242,0.0248785559087992,-0.0174830295145512,0.00926779210567474,-0.0156110497191548,0.130984395742416
700,0.0476567149162292,0.0187855269759893,-0.0493616089224815,-0.0172748770564795,-0.0486641526222229,0.137510284781456
701,0.025310754776001,0.0137691693380475,-0.0832978710532188,-0.0493955761194229,-0.0769204273819923,0.143851816654205
702,-0.00679205264896154,0.0141612403094769,-0.114672064781189,-0.0812263339757919,-0.0982335656881332,0.138466089963913
703,-0.03032111749053,0.0244865715503693,-0.132877841591835,-0.105676837265491,-0.114959836006165,0.121318310499191
704,-0.0370192714035511,0.0383957624435425,-0.127428963780403,-0.115200959146023,-0.121455267071724,0.108961164951324
705,-0.0423605255782604,0.044768363237381,-0.106878042221069,-0.11309839785099,-0.117699585855007,0.110800832509995
706,-0.0554445572197437,0.03762461617589,-0.0896583944559097,-0.110955752432346,-0.110847130417824,0.114153265953064
707,-0.062088280916214,0.0201423112303019,-0.0786488875746727,-0.108635827898979,-0.0989337041974068,0.113694570958614
708,-0.0610812716186047,0.000672264315653592,-0.0735029578208923,-0.105065822601318,-0.0876233354210854,0.112575054168701
709,-0.0633236691355705,-0.0163804292678833,-0.0747460424900055,-0.103927344083786,-0.0886337384581566,0.1079066619277
710,-0.0593905746936798,-0.0258433986455202,-0.0683300346136093,-0.0963339582085609,-0.0900770202279091,0.107237204909325
711,-0.0394004508852959,-0.0212569553405046,-0.0445698648691177,-0.071858361363411,-0.0732888802886009,0.124574042856693
712,-0.0166945904493332,-0.00205789296887815,-0.01707992143929,-0.038642656058073,-0.0430050417780876,0.158160239458084
713,-0.00122157076839358,0.0324263498187065,0.000995221780613065,-0.00904462113976479,-0.0139349987730384,0.192065253853798
714,0.00588742550462484,0.0728195831179619,0.00928196683526039,0.010647744871676,0.00231933663599193,0.209267243742943
715,0.000492582796141505,0.0958886370062828,0.0121165961027145,0.0190561339259148,3.50381196767557E-06,0.20451283454895
716,-0.0137020796537399,0.0939574018120766,0.0162719562649727,0.0230976771563292,-0.0138685153797269,0.185935363173485
717,-0.0269794184714556,0.0794447287917137,0.0215096976608038,0.0272649023681879,-0.0272354912012815,0.167043045163155
718,-0.0288191754370928,0.0659716725349426,0.0246777236461639,0.031589787453413,-0.0288063921034336,0.161174073815346
719,-0.0125599401071668,0.0608277842402458,0.0235332921147347,0.0308904983103275,-0.0142367305234075,0.160362407565117
720,0.0157783590257168,0.0667623281478882,0.00673265941441059,0.0107842897996306,0.00568168237805367,0.144599005579948
721,0.0452471189200878,0.0768072381615639,-0.0375037528574467,-0.0340386405587196,0.0115887448191643,0.114119522273541
722,0.0697769150137901,0.0759223029017448,-0.0974412932991982,-0.0833276882767677,-0.00414100475609303,0.0792102590203285
723,0.0861501321196556,0.0623967163264751,-0.136947780847549,-0.10738579928875,-0.025103846564889,0.0527670122683048
724,0.0904591754078865,0.046317171305418,-0.126650840044022,-0.0938729494810104,-0.0339115932583809,0.0497971437871456
725,0.0766096338629723,0.0315120182931423,-0.0704324990510941,-0.05091567710042,-0.0313528813421726,0.0698571726679802
726,0.0437047779560089,0.0179806388914585,-0.00142323179170489,0.00154263793956488,-0.0237225070595741,0.100683659315109
727,0.00385431270115078,0.00988255720585585,0.0472409017384052,0.0424184128642082,-0.0147728221490979,0.132850661873817
728,-0.0259340517222881,0.0138436313718557,0.0696958377957344,0.0649859681725502,-0.00518549606204033,0.160201460123062
729,-0.0399021208286285,0.0284577049314976,0.0788427516818047,0.0719273835420609,0.0035502843093127,0.17602750658989
730,-0.0447834469377995,0.0467655025422573,0.0809211730957031,0.0630094856023788,0.00215189042501152,0.178528994321823
731,-0.046663835644722,0.0690677389502525,0.0730128288269043,0.0416783951222897,-0.0143844606354833,0.178354442119598
732,-0.0412347689270973,0.094446137547493,0.0530992075800896,0.0160800442099571,-0.0336035788059235,0.183793157339096
733,-0.0222067218273878,0.111675448715687,0.0233405381441116,-0.00949687417596579,-0.0396242216229439,0.183451756834984
734,0.00450554862618446,0.111336335539818,-0.00879922229796648,-0.0320313610136509,-0.030697014182806,0.164966493844986
735,0.0316986553370953,0.096610464155674,-0.0302631482481956,-0.0430007316172123,-0.0144592598080635,0.137934848666191
736,0.0607865266501904,0.079883337020874,-0.0285633895546198,-0.0315790399909019,0.00602975813671947,0.124490179121494
737,0.0903128236532211,0.0737673863768578,-0.00157907616812736,0.00206316378898919,0.0309635065495968,0.134634256362915
738,0.10822856426239,0.0847157388925552,0.0378388166427612,0.0412452928721905,0.0510406047105789,0.155576810240746
739,0.101573966443539,0.1136759147048,0.0719671025872231,0.0671543627977371,0.0545605272054672,0.170747756958008
740,0.0729616284370422,0.152512162923813,0.093001700937748,0.0744669958949089,0.0461065545678139,0.178210824728012
741,0.0431093871593475,0.182593896985054,0.102981016039848,0.0725002065300941,0.0425133928656578,0.183069556951523
742,0.0308410655707121,0.18575020134449,0.103716976940632,0.0693139955401421,0.0487004294991493,0.183507636189461
743,0.0305755957961082,0.155344933271408,0.0931631326675415,0.06059480458498,0.0513400621712208,0.175636261701584
744,0.0221215169876814,0.100799269974232,0.0666846334934235,0.0395393557846546,0.0353156626224518,0.159608691930771
745,-0.00138430390506983,0.0416653864085674,0.0223316848278046,0.00450102519243956,-0.00464859558269382,0.130205005407333
746,-0.0320377312600613,-0.000988084240816534,-0.033371414989233,-0.0427486598491669,-0.059454157948494,0.082754448056221
747,-0.0592692494392395,-0.0172510612756014,-0.0828949213027954,-0.0891144499182701,-0.105732694268227,0.0336591452360153
748,-0.0718314871191978,-0.0135871497914195,-0.101611368358135,-0.109421201050282,-0.119240887463093,0.014210700057447
749,-0.0680205971002579,0.00397407682612538,-0.0830604881048203,-0.0941393300890923,-0.100836157798767,0.029710141941905
750,-0.0553559213876724,0.0336750969290733,-0.0449939593672752,-0.0586927160620689,-0.0705724209547043,0.0555444471538067
751,-0.0343296118080616,0.0663377270102501,-0.0051301228813827,-0.0226695239543915,-0.0396413989365101,0.0783572942018509
752,-0.00425560772418976,0.0913216173648834,0.0275136101990938,0.0053818803280592,-0.0117752812802792,0.102238930761814
753,0.02944615483284,0.105418160557747,0.0509305857121944,0.0305165499448776,0.00941340439021587,0.13308410346508
754,0.0590317323803902,0.107807651162148,0.0609686337411404,0.0515837930142879,0.0182951670140028,0.164498060941696
755,0.0786303654313087,0.0993733331561089,0.0482888258993626,0.0530553609132767,0.0117177609354258,0.175324231386185
756,0.0891183763742447,0.0895146131515503,0.0151014840230346,0.0294934194535017,-0.00302664190530777,0.158403143286705
757,0.0924710035324097,0.0925507545471191,-0.0180323105305433,-0.00370495696552098,-0.0122148636728525,0.132199048995972
758,0.0894067585468292,0.107290126383305,-0.0315415821969509,-0.027629753574729,-0.00513963447883725,0.111398763954639
759,0.0811510309576988,0.109128519892693,-0.0266687888652086,-0.0379440374672413,0.0143200242891908,0.0881327837705612
760,0.0671109110116959,0.0777988508343697,-0.0210652239620686,-0.0447822101414204,0.0279607884585857,0.0563579238951206
761,0.0462959744036198,0.0259392354637384,-0.0286689829081297,-0.0544250160455704,0.0186837818473578,0.0328479260206223
762,0.0211119819432497,-0.0111848078668118,-0.0408143103122711,-0.0561488792300224,-0.0100080342963338,0.0378416739404202
763,-0.00535110849887133,-0.0151774985715747,-0.0361942276358604,-0.039878848940134,-0.0377986319363117,0.0696798488497734
764,-0.0345859453082085,0.000266231771092862,-0.010341914370656,-0.0136871607974172,-0.0528229437768459,0.108777470886707
765,-0.0639979466795921,0.0144854262471199,0.0183221306651831,0.00664614094421268,-0.0538254417479038,0.13277380168438
766,-0.0853468403220177,0.0201084744185209,0.0236919764429331,0.00630584871396422,-0.0494367964565754,0.123652800917625
767,-0.0897163301706314,0.0223088264465332,-0.00183820037636906,-0.0176236853003502,-0.0542559586465359,0.0869191288948059
768,-0.0721225813031197,0.0228546746075153,-0.0374030135571957,-0.0480056144297123,-0.0675993263721466,0.0528505183756351
769,-0.0425692573189735,0.0142812570556998,-0.0600510872900486,-0.0672462955117226,-0.0796334594488144,0.0390244387090206
770,-0.0147604392841458,0.00100475293584168,-0.0595242753624916,-0.0664696469902992,-0.0844987034797668,0.0391252003610134
771,0.00333671784028411,-0.00110708770807832,-0.0371915735304356,-0.0444268323481083,-0.0796415209770203,0.0447642728686333
772,0.0100421383976936,0.0118964668363333,-0.00587965548038483,-0.0131051493808627,-0.0650252997875214,0.0552849695086479
773,0.0160975772887468,0.0329271890223026,0.0227987747639418,0.0120183518156409,-0.0396522991359234,0.0730237141251564
774,0.0265416335314512,0.0510650351643562,0.0397699438035488,0.0195200517773628,-0.0117836855351925,0.0908358544111252
775,0.032302238047123,0.0546753332018852,0.0296953711658716,0.00361162819899619,7.65704753575847E-05,0.0970806553959847
776,0.0297342762351036,0.0479251146316528,-0.0134290987625718,-0.0281806699931622,-0.0130205182358623,0.0915704891085625
777,0.024200489744544,0.0474061742424965,-0.06007344648242,-0.0524240583181381,-0.0406244248151779,0.0806780308485031
778,0.0134236384183168,0.0523881241679192,-0.0708985403180122,-0.0477829426527023,-0.0614361949265003,0.0674187839031219
779,-0.00852043274790049,0.0451027266681194,-0.0456817038357258,-0.0190374460071325,-0.0630620047450066,0.0520233511924744
780,-0.0323787182569504,0.0180877353996038,-0.0133064966648817,0.0102563844993711,-0.0548219606280327,0.0352363996207714
781,-0.0430664494633675,-0.0149459457024932,0.0055314707569778,0.0240374710410833,-0.0529100112617016,0.0193749889731407
782,-0.0334644131362438,-0.0327513590455055,0.0127768572419882,0.0254694744944572,-0.0535606294870377,0.0114624388515949
783,-0.0103014195337892,-0.0297871045768261,0.0181808210909367,0.023731742054224,-0.0462900400161743,0.0191266350448132
784,0.00998836103826761,-0.00671685673296452,0.0290507879108191,0.0265594366937876,-0.0310751497745514,0.0499871373176575
785,0.0212177522480488,0.041815023869276,0.0517563335597515,0.0392993241548538,-0.00707990489900112,0.10377961397171
786,0.0314496979117393,0.104872807860374,0.0824914500117302,0.0570807084441185,0.0247132480144501,0.160252138972282
787,0.0476848594844341,0.147131815552711,0.10609558224678,0.0689638257026672,0.0546241477131844,0.193539068102837
788,0.065024271607399,0.142968758940697,0.111364297568798,0.0681123584508896,0.0736546665430069,0.191095009446144
789,0.0758424997329712,0.105587393045425,0.101122297346592,0.0573480054736137,0.079282134771347,0.159825876355171
790,0.0836093574762344,0.0587274879217148,0.0770078226923943,0.0409046933054924,0.0690065622329712,0.11231953650713
791,0.093316487967968,0.0171650964766741,0.0364636667072773,0.0193533152341843,0.0437696874141693,0.0600337199866772
792,0.0924849733710289,0.0022686047013849,-0.00917366053909063,-0.0050360462628305,0.00902428012341261,0.019677322357893
793,0.0645590350031853,0.018786933273077,-0.0414288379251957,-0.0269847102463245,-0.0301089752465487,0.00263220141641796
794,0.0198295675218105,0.0364979058504105,-0.0513437911868095,-0.0382844358682632,-0.0636689737439156,0.0056256907992065
795,-0.00929126236587763,0.0366848669946194,-0.0364415310323238,-0.0285805109888315,-0.0771087482571602,0.0230726078152657
796,-0.00254070060327649,0.0407602488994598,0.00547835323959589,0.0110630923882127,-0.0584894679486752,0.0615834854543209
797,0.0256151035428047,0.0667096823453903,0.0642653554677963,0.0707353800535202,-0.0152365919202566,0.1205013692379
798,0.0464676469564438,0.0941175147891045,0.111823387444019,0.119899980723858,0.0273292679339647,0.173748537898064
799,0.0597449354827404,0.0994710698723793,0.131959363818169,0.141461044549942,0.0599672235548496,0.200764194130898
800,0.0771824717521667,0.0888251811265945,0.133055359125137,0.139619708061218,0.0860442742705345,0.200514495372772
801,0.0868053734302521,0.0722687542438507,0.125073850154877,0.120408244431019,0.0978556200861931,0.17199419438839
802,0.073330320417881,0.0499945618212223,0.108165718615055,0.0878487080335617,0.0877695232629776,0.120371304452419
803,0.0427428185939789,0.0305114202201366,0.0770523548126221,0.0470742508769035,0.0583713576197624,0.0606560334563255
804,0.0164497718214989,0.0201792158186436,0.0320155955851078,0.00562325492501259,0.0178682319819927,0.00147598842158914
805,0.00622673891484737,0.00827754940837622,-0.0148260518908501,-0.0285808015614748,-0.0209131464362144,-0.0530939102172852
806,0.00263217440806329,-0.00840619020164013,-0.0498808957636356,-0.0537178218364716,-0.0459777601063252,-0.093292236328125
807,-0.00693583115935326,-0.0158228036016226,-0.0734888017177582,-0.0791732966899872,-0.0595958530902863,-0.115453988313675
808,-0.020292405039072,-0.0129709877073765,-0.0937866643071175,-0.106789484620094,-0.0706630572676659,-0.126373559236526
809,-0.0246465280652046,-0.00928202550858259,-0.107813015580177,-0.117130495607853,-0.0789095535874367,-0.121977835893631
810,-0.0147243328392506,0.00138359412085265,-0.101977460086346,-0.0983322113752365,-0.0774539560079575,-0.0955533534288406
811,0.00268047489225864,0.0198686495423317,-0.0680099949240685,-0.0613720901310444,-0.0594792626798153,-0.0529815517365932
812,0.018605126067996,0.0322872586548328,-0.0147396922111511,-0.0200104843825102,-0.0291783213615417,0.00305537274107337
813,0.029454817995429,0.0389447622001171,0.0386333093047142,0.0223902221769094,-3.24768843711354E-05,0.0661079809069633
814,0.0327387787401676,0.0425266660749912,0.0681936740875244,0.0552047416567802,0.0131965279579163,0.102914564311504
815,0.0193441547453403,0.0242667961865664,0.0515509769320488,0.049911443144083,-0.00439334288239479,0.0735182911157608
816,-0.00791067164391279,-0.0148554826155305,0.00960060674697161,0.0142310569062829,-0.039941031485796,-0.00695723667740822
817,-0.0304865967482328,-0.0424469001591206,-0.00773945124819875,-0.00423152185976505,-0.0612137839198112,-0.0753586441278458
818,-0.0404958501458168,-0.0437233969569206,0.00451235938817263,0.00451104203239083,-0.0638171434402466,-0.0986502096056938
819,-0.0347771793603897,-0.0210011079907417,0.0226814150810242,0.0206351596862078,-0.0555086433887482,-0.0817178785800934
820,-0.0122634638100863,0.0163260418921709,0.0381483547389507,0.036550659686327,-0.0371774211525917,-0.0429555401206017
821,0.0148972729220986,0.0481498874723911,0.0480596274137497,0.0487546250224113,-0.0178057290613651,-0.0091241467744112
822,0.0314195416867733,0.0617853663861752,0.049944281578064,0.0540369041264057,-0.00941162556409836,0.00602914532646537
823,0.0320714749395847,0.0580129660665989,0.0444491878151894,0.0519043542444706,-0.0148018421605229,0.00701745599508286
824,0.0276137236505747,0.0435331389307976,0.0322922058403492,0.0407405085861683,-0.0281654950231314,-0.000166935904417187
825,0.0272867511957884,0.0261176750063896,0.00803923886269331,0.0135317100211978,-0.0456643179059029,-0.0147155113518238
826,0.0269490964710712,0.0193119086325169,-0.0301205962896347,-0.0283439569175243,-0.0648214221000671,-0.0320605374872684
827,0.0238376818597317,0.0351077057421207,-0.0714373886585236,-0.0690435245633125,-0.0797750428318977,-0.0464043468236923
828,0.0205536596477032,0.0662075877189636,-0.109922930598259,-0.103956893086433,-0.091692216694355,-0.0610754638910294
829,0.0200213734060526,0.094190314412117,-0.146464794874191,-0.138396039605141,-0.110510006546974,-0.0783238336443901
830,0.0204504579305649,0.101451613008976,-0.1800676882267,-0.16827654838562,-0.144344568252563,-0.0972845107316971
831,0.0168008729815483,0.0804978609085083,-0.208171024918556,-0.186060875654221,-0.186726748943329,-0.120098806917667
832,0.0124964993447065,0.0480195321142673,-0.216796338558197,-0.183514788746834,-0.213329553604126,-0.137068375945091
833,0.0116092870011926,0.0253224615007639,-0.199156045913696,-0.162372916936874,-0.211837187409401,-0.138359352946281
834,0.0127913122996688,0.0137386731803417,-0.179915726184845,-0.144884765148163,-0.199070647358894,-0.133248880505562
835,0.0175341423600912,0.00345120835117996,-0.188318997621536,-0.153554514050484,-0.200754433870316,-0.138815760612488
836,0.0220082998275757,-0.0120387310162187,-0.226150840520859,-0.189257547259331,-0.228492558002472,-0.167921230196953
837,0.0139012485742569,-0.0247698277235031,-0.267896085977554,-0.229566723108292,-0.266705483198166,-0.210012823343277
838,-0.00976836495101452,-0.0164495278149843,-0.281637012958527,-0.246510371565819,-0.286025106906891,-0.231568738818169
839,-0.0311103947460651,0.0166484657675028,-0.248731672763824,-0.223219722509384,-0.266681432723999,-0.208769038319588
840,-0.0332110300660133,0.0503650046885014,-0.182544693350792,-0.169390618801117,-0.215107291936874,-0.154298901557922
841,-0.0182147957384586,0.0566646456718445,-0.123913295567036,-0.120240122079849,-0.158812552690506,-0.108518123626709
842,0.00190947647206485,0.0374923460185528,-0.100957579910755,-0.103431202471256,-0.118283912539482,-0.0933581367135048
843,0.00953249540179968,0.0150868613272905,-0.111547313630581,-0.120773062109947,-0.103130877017975,-0.0969712659716606
844,-0.00572287291288376,0.000455404457170516,-0.141089528799057,-0.157125487923622,-0.120855830609798,-0.10714515298605
845,-0.0285041462630033,-0.00649693794548512,-0.168485045433044,-0.188148409128189,-0.160524562001228,-0.123765759170055
846,-0.0355793014168739,-0.00562530197203159,-0.169729083776474,-0.189574375748634,-0.192525565624237,-0.141739904880524
847,-0.0245362501591444,-0.000118741387268528,-0.139849439263344,-0.156047224998474,-0.200199276208878,-0.14864119887352
848,-0.00476307002827525,0.0046076294966042,-0.0925094038248062,-0.102256201207638,-0.183612644672394,-0.134665280580521
849,0.0231628380715847,0.0117795960977674,-0.0450429543852806,-0.0458972007036209,-0.144306629896164,-0.0949534475803375
850,0.0616334676742554,0.0227533429861069,-0.0212931800633669,-0.00704054394736886,-0.098673403263092,-0.0441568344831467
851,0.0971807688474655,0.0235296469181776,-0.0391429737210274,-0.00537384068593383,-0.076925665140152,-0.0197450313717127
852,0.107847549021244,0.00782050937414169,-0.0826952233910561,-0.0361468978226185,-0.0819278508424759,-0.0381487309932709
853,0.0858996883034706,-0.0144286174327135,-0.117673687636852,-0.0743154734373093,-0.0905574485659599,-0.0786733478307724
854,0.0399393849074841,-0.0318689569830894,-0.128833338618279,-0.10371471196413,-0.0944968536496162,-0.117192462086678
855,-0.0126248421147466,-0.0343759842216969,-0.124323315918446,-0.123707450926304,-0.0989755690097809,-0.140352517366409
856,-0.0474803745746613,-0.0185459386557341,-0.118779145181179,-0.139862507581711,-0.0975883007049561,-0.144077554345131
857,-0.0458184406161308,0.00276758125983179,-0.121569156646729,-0.15585857629776,-0.0772413238883018,-0.138049110770226
858,-0.0181577317416668,0.00466853100806475,-0.134494617581367,-0.169818758964539,-0.0491573661565781,-0.135444894433022
859,0.00880114082247019,-0.0204903185367584,-0.147095710039139,-0.17224295437336,-0.0452522113919258,-0.133884370326996
860,0.0181517135351896,-0.0522157847881317,-0.14755916595459,-0.157683655619621,-0.0760758370161057,-0.124995246529579
861,-0.00150709901936352,-0.0726415365934372,-0.141458198428154,-0.140405267477036,-0.124707870185375,-0.113446049392223
862,-0.0409222431480885,-0.0782027766108513,-0.133101850748062,-0.131184846162796,-0.165512934327126,-0.0983894765377045
863,-0.0683892965316772,-0.0694088861346245,-0.109676271677017,-0.115042179822922,-0.175781935453415,-0.061320424079895
864,-0.0700935050845146,-0.0492964312434196,-0.0668667852878571,-0.0803312882781029,-0.153813511133194,-0.00321329012513161
865,-0.0515376552939415,-0.022261118516326,-0.0187305472791195,-0.0337698347866535,-0.112416744232178,0.0466738529503345
866,-0.019704582169652,0.0071077011525631,0.0262681860476732,0.0180069822818041,-0.0620466209948063,0.0734938159584999
867,0.00894894544035196,0.0326425544917583,0.0656993389129639,0.0643690377473831,-0.0154708102345467,0.0836691036820412
868,0.0212087146937847,0.0473663434386253,0.0923204272985458,0.0905554369091988,0.0202959943562746,0.082963339984417
869,0.0275318566709757,0.0473418273031712,0.102337941527367,0.0946091860532761,0.0536691509187222,0.0795903503894806
870,0.0443427003920078,0.0314400717616081,0.0891608446836472,0.079181507229805,0.0917924717068672,0.0761625543236732
871,0.0678590908646584,0.0014087506569922,0.0455035232007504,0.0435224324464798,0.122864589095116,0.0593786463141441
872,0.074587419629097,-0.0320457257330418,-0.0203060265630484,-0.0091370977461338,0.120738439261913,0.0248446557670832
873,0.0472482517361641,-0.0522979162633419,-0.0913280621170998,-0.0702581405639648,0.0719700530171394,-0.0140621662139893
874,-0.00629656482487917,-0.057129867374897,-0.147684246301651,-0.12295251339674,-0.00697175366804004,-0.0447279587388039
875,-0.0597860403358936,-0.0537665709853172,-0.161398380994797,-0.140962168574333,-0.0759332329034805,-0.0570754446089268
876,-0.086305595934391,-0.040599849075079,-0.113443084061146,-0.106004074215889,-0.0961779728531837,-0.0414514914155006
877,-0.0735006481409073,-0.0167313814163208,-0.0163884200155735,-0.0244918279349804,-0.0587100684642792,0.00346480589359999
878,-0.0308152791112661,0.0115523925051093,0.0906693190336227,0.0735936835408211,0.0121347848325968,0.0652832016348839
879,0.014828366227448,0.034323263913393,0.165443912148476,0.149579465389252,0.0788175538182259,0.122995480895042
880,0.04098229855299,0.0442146733403206,0.185541719198227,0.179649218916893,0.116134829819202,0.165315538644791
881,0.0411238372325897,0.0398803241550922,0.158209159970284,0.163107514381409,0.117506980895996,0.188584685325623
882,0.0253203716129065,0.0281424783170223,0.115822672843933,0.12173917889595,0.0986633822321892,0.189054027199745
883,0.018953014165163,0.0210381001234055,0.0920488908886909,0.0896580889821053,0.0921650379896164,0.171525731682777
884,0.0346665047109127,0.0227634515613317,0.0904367864131927,0.0798016637563705,0.111566118896008,0.140950113534927
885,0.0518389753997326,0.0244666188955307,0.0832807049155235,0.0705436021089554,0.133320584893227,0.0946151614189148
886,0.0453293025493622,0.0137370182201266,0.0552816055715084,0.044469378888607,0.131257340312004,0.0395675636827946
887,0.0196335148066282,-0.00943660084158182,0.0262893922626972,0.0160804912447929,0.110644303262234,-0.000187020530574955
888,-0.00583295943215489,-0.0342532731592655,0.0137192290276289,0.00235891854390502,0.0858324021100998,-0.00391143513843417
889,-0.0241858344525099,-0.0470685437321663,0.0176951326429844,0.00750290742143989,0.060207162052393,0.0310498718172312
890,-0.0402090102434158,-0.0437900573015213,0.0329152271151543,0.0288268215954304,0.0375033132731915,0.0816965028643608
891,-0.0556137785315514,-0.0378815345466137,0.0479613356292248,0.0518387891352177,0.0208042599260807,0.111376024782658
892,-0.0640277341008186,-0.035651508718729,0.0547562390565872,0.0647801980376244,0.0110005373135209,0.107688076794147
893,-0.061833344399929,-0.0321761295199394,0.0514586120843887,0.0677185356616974,0.0114760203287005,0.0845827609300613
894,-0.0464411228895187,-0.0233904700726271,0.04045669734478,0.0626137554645538,0.0244096107780933,0.0555742420256138
895,-0.0207164827734232,-0.00389344757422805,0.0243401005864143,0.044920302927494,0.0397465042769909,0.0273651871830225
896,-0.00337232765741646,0.0226313304156065,-0.00012278652866371,0.00712118484079838,0.0413127243518829,0.0108515284955502
897,0.00037565128877759,0.0457787998020649,-0.030919523909688,-0.0417425371706486,0.0297546107321978,0.0160037726163864
898,0.00631865952163935,0.0508879572153091,-0.0582929812371731,-0.0802626386284828,0.0153387859463692,0.0275858268141747
899,0.0126683693379164,0.0222002249211073,-0.0727551057934761,-0.0951886475086212,0.000448342354502529,0.0222275070846081
900,0.00605268776416779,-0.0280218329280615,-0.0625146776437759,-0.0789256319403648,-0.010148273780942,0.00678254151716828
901,-0.00679441401734948,-0.071962982416153,-0.0262734927237034,-0.0351286977529526,-0.00838462542742491,-7.26255893823691E-05
902,-0.0135923633351922,-0.0937230885028839,0.0147977080196142,0.0125444876030087,0.00933488551527262,0.00139790982939303
903,-0.0105078695341945,-0.0833394154906273,0.0451917722821236,0.0463855676352978,0.044339869171381,0.0055122054181993
904,0.00255247089080513,-0.0549209751188755,0.0643971934914589,0.064843162894249,0.0819909796118736,0.0102272061631083
905,0.0174556169658899,-0.0427492409944534,0.0707440450787544,0.0684424191713333,0.0959918797016144,0.0120860794559121
906,0.0217912048101425,-0.050694540143013,0.0683337971568108,0.0649011880159378,0.0814331620931625,0.0126400627195835
907,0.0116198929026723,-0.0519137233495712,0.0732842907309532,0.0731077492237091,0.0588135123252869,0.0238148532807827
908,-0.00762050691992044,-0.0353772006928921,0.0946929454803467,0.100784488022327,0.0455877743661404,0.0553985051810741
909,-0.0271174889057875,-0.0110259549692273,0.122981131076813,0.131006523966789,0.0448116771876812,0.099766880273819
910,-0.0401676632463932,0.0138049898669124,0.146153792738914,0.144091635942459,0.0551974885165691,0.137675046920776
911,-0.0426207110285759,0.0369186922907829,0.155688807368279,0.133433043956757,0.0707627385854721,0.153459742665291
912,-0.030534440651536,0.0518848858773708,0.138040006160736,0.0983351692557335,0.0782513916492462,0.14247228205204
913,-0.00579995103180408,0.0527838319540024,0.0908089205622673,0.0487033799290657,0.0713534951210022,0.115118905901909
914,0.0265592876821756,0.0457735806703568,0.0394433066248894,0.0112084113061428,0.0649423077702522,0.0915281176567078
915,0.0586188659071922,0.0356600731611252,0.0126086492091417,0.00523737585172057,0.0770857632160187,0.077778160572052
916,0.0750752687454224,0.0172175765037537,0.0168213695287704,0.0249892380088568,0.09980159252882,0.0657044053077698
917,0.0658379420638084,-0.00972457602620125,0.0415277034044266,0.0530818663537502,0.108401775360107,0.0540706142783165
918,0.0380340591073036,-0.0322741158306599,0.0752093121409416,0.080859862267971,0.0965574160218239,0.0544007271528244
919,0.0123622985556722,-0.0354720987379551,0.10949432104826,0.10875840485096,0.0827005207538605,0.0762550532817841
920,0.00696865236386657,-0.0138618005439639,0.136924058198929,0.135760053992271,0.0874725878238678,0.108628548681736
921,0.0167808178812265,0.0156867951154709,0.144540503621101,0.149068787693977,0.100813060998917,0.121664978563786
922,0.0191227309405804,0.0220520664006472,0.120235107839108,0.131585106253624,0.089088074862957,0.0930811837315559
923,0.00736331986263394,0.00239497027359903,0.0822540894150734,0.0957673862576485,0.0537262670695782,0.0418880246579647
924,-0.00351259973831475,-0.0163530129939318,0.0666755810379982,0.0761335045099258,0.031887911260128,0.0143882930278778
925,-0.00513598136603832,-0.0160634033381939,0.0845644325017929,0.0851529687643051,0.0426883399486542,0.0314233414828777
926,-0.00409956090152264,-0.00139142293483019,0.116598904132843,0.106553569436073,0.0726666152477264,0.0742514431476593
927,0.00201794528402388,0.016599353402853,0.146109968423843,0.126922428607941,0.109674565494061,0.121648997068405
928,0.0240964647382498,0.0249057952314615,0.161622732877731,0.13748100399971,0.148202359676361,0.158736363053322
929,0.0526053458452225,0.00516925286501646,0.137102797627449,0.116988219320774,0.164201244711876,0.159837812185287
930,0.0647302493453026,-0.0391658507287502,0.0725225061178207,0.0646264851093292,0.142167612910271,0.122447349131107
931,0.0476511344313622,-0.0770319700241089,0.00986035820096731,0.0106296120211482,0.0940412431955338,0.0770578235387802
932,0.00772569654509425,-0.0808563902974129,-0.0165595281869173,-0.0181405376642942,0.039402537047863,0.0462999194860458
933,-0.0332816652953625,-0.0490156933665276,-0.0027192342095077,-0.0117841446772218,-0.000107462474261411,0.0353250652551651
934,-0.0583401434123516,-0.00719222007319331,0.0310664214193821,0.0160480812191963,-0.00992020312696695,0.0359067618846893
935,-0.0627290904521942,0.0198276117444038,0.0586976110935211,0.0401785150170326,0.0100590102374554,0.0353702157735825
936,-0.0530733801424503,0.0230366121977568,0.0655404329299927,0.0478811413049698,0.0430441536009312,0.0286962669342756
937,-0.0387421995401382,0.00356140220537782,0.0563467666506767,0.0457771643996239,0.0688170567154884,0.0183590222150087
938,-0.0258516278117895,-0.024999713525176,0.0490497164428234,0.0471264980733395,0.0806715711951256,0.0108813224360347
939,-0.0218628849834204,-0.0401178151369095,0.0544416382908821,0.0550431460142136,0.0790129601955414,0.0134069360792637
940,-0.0266563128679991,-0.0291137360036373,0.0697114616632462,0.0655746310949326,0.0727464035153389,0.0315750129520893
941,-0.0313496701419353,-0.00672150030732155,0.0811625272035599,0.0704435631632805,0.0751505345106125,0.0576116554439068
942,-0.0253801438957453,0.00717357592657208,0.0811471864581108,0.0639042109251022,0.0871541351079941,0.072221539914608
943,6.8422632466536E-05,0.00928640924394131,0.0756736025214195,0.0514702685177326,0.0976135358214378,0.0679313242435455
944,0.0420937649905682,0.00382339023053646,0.0651067793369293,0.0407346822321415,0.0969506651163101,0.0546045303344727
945,0.0769187361001968,-0.00501496158540249,0.0450113750994205,0.0315161012113094,0.0786815583705902,0.0432140715420246
946,0.0810787081718445,-0.00966938119381666,0.0253442265093327,0.0238466821610928,0.0430348701775074,0.0402890630066395
947,0.0599992349743843,-0.000602866872213781,0.0237405132502317,0.0262143928557634,0.00940650142729282,0.0542408153414726
948,0.036036491394043,0.0164793357253075,0.0412892438471317,0.0377842225134373,0.000859016610775143,0.0818112343549728
949,0.0153236389160156,0.021830253303051,0.0525342114269733,0.0372786708176136,0.00920961890369654,0.0947704762220383
950,-0.0133451474830508,0.00706037785857916,0.0367136709392071,0.0168089978396893,0.00595640437677503,0.0749000832438469
951,-0.0461552850902081,-0.0179082881659269,0.0107633238658309,-0.00167154485825449,-0.00870619993656874,0.0396467857062817
952,-0.0597507022321224,-0.0346035286784172,0.00698489183560014,0.00407745502889156,-0.00731347594410181,0.0173718240112066
953,-0.0403038337826729,-0.0256883334368467,0.0361955724656582,0.0394217520952225,0.0196107048541307,0.024068359285593
954,0.00172219600062817,0.00806187186390162,0.0864076316356659,0.0939871594309807,0.0567957125604153,0.0548938475549221
955,0.0455572381615639,0.0456179045140743,0.14420211315155,0.151444315910339,0.0971041768789291,0.0907716900110245
956,0.0831412896513939,0.0683642029762268,0.195808738470078,0.197050392627716,0.143006026744843,0.11225438117981
957,0.123184069991112,0.0774363800883293,0.222577154636383,0.217204794287682,0.183733627200127,0.110455587506294
958,0.164045467972755,0.0880492255091667,0.214882865548134,0.207228034734726,0.200129345059395,0.0977570414543152
959,0.18203441798687,0.105217933654785,0.178726240992546,0.175548166036606,0.181261762976646,0.0978305861353874
960,0.166111811995506,0.113561518490314,0.13230112195015,0.138109862804413,0.135515332221985,0.116466715931892
961,0.127838671207428,0.0977178066968918,0.0962796434760094,0.108601257205009,0.0844434499740601,0.136161118745804
962,0.079072542488575,0.0637790486216545,0.0792243704199791,0.0919346883893013,0.0418781265616417,0.144103348255157
963,0.0345036871731281,0.0326817855238914,0.0773021578788757,0.087750531733036,0.0153418509289622,0.143737554550171
964,0.00879545137286186,0.0193731747567654,0.0794817432761192,0.0898832604289055,0.0126807186752558,0.14053837954998
965,0.00637340592220426,0.0246840380132198,0.0743857398629189,0.0886149406433105,0.0335948318243027,0.131971940398216
966,0.0202835444360971,0.0304919499903917,0.0576357617974281,0.0741822719573975,0.0577081181108952,0.104580327868462
967,0.0299457516521215,0.0177701599895954,0.0350703708827496,0.0461287833750248,0.058039516210556,0.0566187165677547
968,0.0180269572883844,-0.00609257165342569,0.0194186810404062,0.0223472528159618,0.0328494533896446,0.0119385123252869
969,-0.00854975450783968,-0.0199606399983168,0.0193616338074207,0.017511535435915,0.00308129680342972,-0.00852285884320736
970,-0.0243469271808863,-0.011759121902287,0.0382413156330585,0.0299744252115488,-0.00696141552180052,-0.00344583042897284
971,-0.0174091402441263,0.00359879736788571,0.0608168989419937,0.0423739515244961,0.00928386021405458,0.00640422943979502
972,0.00397741794586182,0.000450664869276807,0.0599938109517097,0.0346676483750343,0.0340023748576641,-0.00121286930516362
973,0.0319091565907002,-0.0166579205542803,0.0294261462986469,0.0083398949354887,0.0464484579861164,-0.0223443247377872
974,0.0580265671014786,-0.0302181653678417,-0.0159418396651745,-0.0215147212147713,0.0392812304198742,-0.0438023619353771
975,0.0705044567584991,-0.0380679629743099,-0.0456124618649483,-0.0362081713974476,0.0236521176993847,-0.050549753010273
976,0.0637104511260986,-0.0381356664001942,-0.0279484856873751,-0.0159456990659237,0.0197237320244312,-0.0242208670824766
977,0.0459222756326199,-0.0200020913034678,0.0371876060962677,0.0417653508484364,0.0352649167180061,0.0341583527624607
978,0.0294170193374157,0.0159661825746298,0.114357993006706,0.112535893917084,0.058634988963604,0.100673981010914
979,0.0186463724821806,0.0544782653450966,0.168176904320717,0.166583225131035,0.0791891887784004,0.148717179894447
980,0.0151326134800911,0.0849815905094147,0.195147186517715,0.196222692728043,0.10194756090641,0.166501060128212
981,0.0217627100646496,0.100596219301224,0.209557875990868,0.209367573261261,0.130039468407631,0.162219047546387
982,0.0405780039727688,0.0926192328333855,0.210178047418594,0.207093417644501,0.150999188423157,0.154016256332397
983,0.0733073428273201,0.0707659050822258,0.191111043095589,0.191115662455559,0.156583532691002,0.152328878641129
984,0.111244827508926,0.0518647953867912,0.156212687492371,0.165895402431488,0.146241500973701,0.147044152021408
985,0.132240563631058,0.0344265326857567,0.106822907924652,0.126089364290237,0.114562712609768,0.123307667672634
986,0.123963691294193,0.0131488833576441,0.0474241003394127,0.0700343698263168,0.0668362826108933,0.0766201540827751
987,0.0965399295091629,-0.0106899691745639,-0.0055297720246017,0.0123221697285771,0.0246480274945498,0.0100548630580306
988,0.0720760226249695,-0.0307004284113646,-0.0327460169792175,-0.0250178519636393,0.00566011760383844,-0.0528960525989532
989,0.0587977506220341,-0.0410755947232246,-0.0374325029551983,-0.0391936451196671,0.000780440226662904,-0.0839347243309021
990,0.046951487660408,-0.0428845323622227,-0.0407562702894211,-0.0486156046390533,-0.0111135104671121,-0.085038460791111
991,0.0288423486053944,-0.0399030558764935,-0.043972697108984,-0.0571396984159946,-0.0244403555989265,-0.076276883482933
992,0.0130763920024037,-0.0360032580792904,-0.0281650628894567,-0.0479578897356987,-0.0154570546001196,-0.060478463768959
993,0.0111341327428818,-0.0298801939934492,0.0122094368562102,-0.0137262595817447,0.0182121396064758,-0.0256609655916691
994,0.00903729628771544,-0.0195514038205147,0.0547230765223503,0.0274779796600342,0.051480870693922,0.0215216986835003
995,-0.00721348589286208,-0.0120989931747317,0.0754793882369995,0.0512354522943497,0.0637725815176964,0.0556949898600578
996,-0.021712951362133,-0.00774426246061921,0.0804349705576897,0.0591362677514553,0.0599291510879993,0.0648481249809265
997,-0.016359519213438,0.00720020290464163,0.0959694087505341,0.0770191177725792,0.0610578507184982,0.064938560128212
998,0.00487671280279756,0.0378113053739071,0.135502144694328,0.116460844874382,0.0814094543457031,0.0794061794877052
999,0.0266797244548798,0.0714185461401939,0.180838286876678,0.158215045928955,0.112125046551228,0.109700717031956
1000,0.0352449379861355,0.0862927734851837,0.193772792816162,0.171149402856827,0.128360524773598,0.132145717740059
1001,0.0315873473882675,0.0741031840443611,0.157972097396851,0.144313126802444,0.120046205818653,0.129726752638817
1002,0.0347157642245293,0.0484084635972977,0.0953424274921417,0.0963088721036911,0.10222489386797,0.106530793011189
1003,0.0526822097599506,0.0180023647844791,0.0271467678248882,0.0430848672986031,0.0794521123170853,0.0621710829436779
1004,0.0716416463255882,-0.0163378939032555,-0.0358754545450211,-0.00944317877292633,0.0419889092445374,-0.000346639135386795
1005,0.0754424780607224,-0.0433552972972393,-0.0784979164600372,-0.0508299209177494,-0.00264110113494098,-0.0543795526027679
1006,0.057634063065052,-0.0478201657533646,-0.0904111638665199,-0.0710874050855637,-0.031528864055872,-0.0729982927441597
1007,0.0240157097578049,-0.0380088090896606,-0.0723694637417793,-0.0662330687046051,-0.0301337037235498,-0.0599060505628586
1008,-0.00618278561159968,-0.0352040342986584,-0.0326949208974838,-0.0362138152122498,-0.00133520097006112,-0.0372397229075432
