,AF3,AF4,Fp1,Fp2,AF7,AF8
0,-0.0745087862014771,-0.00957089569419622,-0.0148804020136595,-0.0163738671690226,-0.0665962994098663,-0.0216035153716803
1,-0.040345162153244,0.0112738180905581,0.0144213754683733,0.016974525526166,-0.0341464430093765,0.00199612509459257
2,0.0102668749168515,0.0265269577503204,0.0412205420434475,0.0462811663746834,0.0116960369050503,0.0166829824447632
3,0.0509658269584179,0.0273754447698593,0.05477175116539,0.0636528804898262,0.0458478033542633,0.0202571377158165
4,0.0666600465774536,0.0179269909858704,0.0565497055649757,0.0688305646181107,0.0554789565503597,0.0118974670767784
5,0.0700165778398514,0.0102050434798002,0.0620382726192474,0.073931448161602,0.0564734525978565,0.0031356627587229
6,0.0752572417259216,0.0102436756715178,0.0767068788409233,0.0851847529411316,0.0649363249540329,0.00633896188810468
7,0.0795574858784676,0.0123034669086337,0.0872870534658432,0.0919312909245491,0.0758363455533981,0.0171575360000134
8,0.0742777436971664,0.00998001918196678,0.0778431594371796,0.0774171203374863,0.0753091797232628,0.0189373884350061
9,0.0616373308002949,0.0065276687964797,0.0496606528759003,0.0418826565146446,0.0629522278904915,0.0042104790918529
10,0.057480726391077,0.0117904748767614,0.023227671161294,0.00958313699811697,0.0555314794182777,-0.0144673073664308
11,0.0672731921076775,0.0292350314557552,0.01287114713341,-0.00177699490450323,0.0625674203038216,-0.0227959156036377
12,0.0805995762348175,0.056439783424139,0.0199454929679632,0.00622817175462842,0.0782401561737061,-0.012954761274159
13,0.090608261525631,0.0864805802702904,0.0403256081044674,0.024560023099184,0.0931537672877312,0.0161051265895367
14,0.0938144698739052,0.108513578772545,0.0606461726129055,0.0407619327306747,0.0980461537837982,0.0514587908983231
15,0.0873338431119919,0.11834741383791,0.0710406973958015,0.0484602302312851,0.0939228758215904,0.0774004906415939
16,0.0706307590007782,0.116913594305515,0.0718700289726257,0.0483466573059559,0.0907268449664116,0.0853997841477394
17,0.0442720837891102,0.106579095125198,0.0634173452854156,0.0387023948132992,0.0879120975732803,0.074402816593647
18,0.0117505863308907,0.090971365571022,0.0475174933671951,0.0182193331420422,0.0740420147776604,0.053832221776247
19,-0.0173564460128546,0.0732459425926209,0.0337419621646404,-0.00176150468178093,0.0482608117163181,0.0361887253820896
20,-0.0281563345342875,0.0563884861767292,0.0340528897941113,-0.00342518207617104,0.0274601671844721,0.0253473911434412
21,-0.0158489346504211,0.042212825268507,0.0492075122892857,0.0141871590167284,0.0246234405785799,0.0181207675486803
22,0.00740485219284892,0.0309651289135218,0.0664254426956177,0.0355414152145386,0.0336968638002872,0.0108043607324362
23,0.0272403955459595,0.0231132823973894,0.0718061625957489,0.0479221940040588,0.0417071953415871,0.000703169731423259
24,0.0420950278639793,0.0245134774595499,0.0655300468206406,0.0543435029685497,0.0482134409248829,-0.00794289726763964
25,0.0635123923420906,0.0388927571475506,0.0618602372705936,0.0671779736876488,0.0622534453868866,-0.00543476268649101
26,0.0950630977749825,0.0587889663875103,0.0681859478354454,0.084512010216713,0.0827428922057152,0.00615847064182162
27,0.115281470119953,0.0672185197472572,0.0707190036773682,0.0836963430047035,0.091152161359787,0.00932729057967663
28,0.103290170431137,0.0501806028187275,0.0535454228520393,0.0525013878941536,0.0713683143258095,-0.00571596808731556
29,0.0681155174970627,0.0143911428749561,0.0223571546375752,0.00897092185914516,0.0331418141722679,-0.0270810090005398
30,0.0308106224983931,-0.0195976570248604,-0.00318752857856452,-0.0216649044305086,0.000941344071179628,-0.0351597294211388
31,0.000835624407045543,-0.0350794568657875,-0.00975592248141766,-0.0295578986406326,-0.0117074884474278,-0.0182793773710728
32,-0.0159022621810436,-0.0262339990586042,0.00345365609973669,-0.0183205902576447,-0.00529024004936218,0.0179203487932682
33,-0.0096617229282856,-0.00096015800954774,0.0277508273720741,0.00335090700536966,0.0149838523939252,0.0497346743941307
34,0.0186402723193169,0.0274890791624784,0.0505423508584499,0.026366924867034,0.0409748777747154,0.0587185770273209
35,0.0462278500199318,0.0490278750658035,0.0575595013797283,0.0387170799076557,0.0546019971370697,0.0445963814854622
36,0.0495973266661167,0.0554034449160099,0.0403082855045795,0.0296868793666363,0.0402210801839828,0.0151256201788783
37,0.0336769782006741,0.046817772090435,0.0115756746381521,0.0052854185923934,0.0122388117015362,-0.0116294650360942
38,0.0203303471207619,0.0315826125442982,-0.0108417682349682,-0.0190185960382223,-0.00276714493520558,-0.0172010567039251
39,0.0180729795247316,0.0138429459184408,-0.0222199112176895,-0.0325179882347584,4.60188784927595E-05,-0.00542415259405971
40,0.0141381490975618,-0.0100300339981914,-0.0255437381565571,-0.0352807641029358,0.00529103446751833,0.00104487070348114
41,-0.00384375266730785,-0.0397165082395077,-0.0281560812145472,-0.0362387150526047,-0.00185096263885498,-0.0103427898138762
42,-0.0279018245637417,-0.065620131790638,-0.0316028110682964,-0.0379703901708126,-0.0186002273112535,-0.0299099385738373
43,-0.0417988821864128,-0.0795011520385742,-0.0302375145256519,-0.0381198488175869,-0.0305132400244474,-0.0455851070582867
44,-0.0360791981220245,-0.0771931335330009,-0.0206738188862801,-0.0352058932185173,-0.0263063628226519,-0.048822920769453
45,-0.0114285480231047,-0.0632104650139809,-0.00622616289183497,-0.0268712434917688,-0.00570025108754635,-0.0365588963031769
46,0.0204225797206163,-0.0515112690627575,0.00552814640104771,-0.0155686605721712,0.0213795304298401,-0.0228040814399719
47,0.0451061502099037,-0.0494371205568314,0.0135536743327975,-0.00520785106346011,0.0430854074656963,-0.0213607717305422
48,0.0573181696236134,-0.0498397462069988,0.0255199037492275,0.00999518018215895,0.053440660238266,-0.0218454245477915
49,0.0624340362846851,-0.0403338894248009,0.0480135343968868,0.0399180166423321,0.0576632954180241,-0.00371526344679296
50,0.0667439177632332,-0.016130056232214,0.0786304101347923,0.0804104581475258,0.0641436576843262,0.0351114086806774
51,0.0695200115442276,0.0181156396865845,0.110236369073391,0.114753670990467,0.0744509473443031,0.0788940787315369
52,0.0649005845189095,0.0521909072995186,0.131667077541351,0.12605619430542,0.082028292119503,0.108701035380363
53,0.0519272647798061,0.0746269747614861,0.127783820033073,0.106335021555424,0.0775149315595627,0.114097900688648
54,0.0362674817442894,0.0751069486141205,0.0942527577280998,0.0637368783354759,0.0579646416008472,0.0951532050967216
55,0.025873489677906,0.0523166842758656,0.0468520224094391,0.019527979195118,0.0308532193303108,0.0592979714274406
56,0.0283177979290485,0.0219516381621361,0.0126888938248158,-0.00207931525073946,0.010277658700943,0.0295878257602453
57,0.0365864038467407,-0.0013069708365947,0.00238038273528218,0.00223165354691446,-0.000948133878409863,0.0241411607712507
58,0.0391389243304729,-0.0119118494912982,0.00501993764191866,0.0150981564074755,-0.0066473288461566,0.0349111035466194
59,0.0373387709259987,-0.00747702270746231,0.0112166637554765,0.0264327339828014,0.000470943632535636,0.0483766794204712
60,0.0277259144932032,0.0016173223266378,0.0148900197818875,0.0296639166772366,0.0170720238238573,0.0547126270830631
61,0.0083979619666934,0.00169511476997286,0.014924586750567,0.0205944012850523,0.0268551968038082,0.0491403937339783
62,-0.00638167606666684,-0.00989054329693317,0.0139760598540306,0.00833824649453163,0.0273659322410822,0.0350391902029514
63,-0.00587561912834644,-0.0261529702693224,0.0128855342045426,0.0060221585445106,0.0310294106602669,0.019272580742836
64,0.00563732953742146,-0.0340099707245827,0.018203629180789,0.0190012473613024,0.0467280298471451,0.0137953571975231
65,0.0151582770049572,-0.0280655696988106,0.0319489985704422,0.0379664599895477,0.063845157623291,0.0251923035830259
66,0.016998078674078,-0.014510927721858,0.0468762926757336,0.0509087480604649,0.0701602250337601,0.0451098084449768
67,0.0158431064337492,-0.00268417387269437,0.056257925927639,0.0548397451639175,0.0667998120188713,0.0594903863966465
68,0.0122528551146388,0.00171428720932454,0.0567413456737995,0.0507562756538391,0.0545522682368755,0.0615966245532036
69,0.0056168157607317,-0.00064772751647979,0.0481459051370621,0.0413625687360764,0.0339344851672649,0.0542181394994259
70,0.000329420785419643,-0.00910770520567894,0.0291076302528381,0.0273863393813372,0.00839543901383877,0.0401680879294872
71,-0.00238259439356625,-0.0232016015797853,-0.00121149735059589,0.00528898742049932,-0.0212153494358063,0.0195085927844048
72,-0.00571276480332017,-0.0399908572435379,-0.0364819429814816,-0.0258318763226271,-0.0527537018060684,-0.0051324381493032
73,-0.0136139057576656,-0.0589406229555607,-0.0670688152313232,-0.059229526668787,-0.0799623057246208,-0.0270489901304245
74,-0.0288308933377266,-0.0788223817944527,-0.0893160179257393,-0.0859901085495949,-0.0975843295454979,-0.0409026294946671
75,-0.0465868152678013,-0.0915467739105225,-0.101509943604469,-0.10181387513876,-0.101045452058315,-0.0483545586466789
76,-0.0581695400178432,-0.0916218012571335,-0.0995740592479706,-0.106753185391426,-0.0883764699101448,-0.0576328262686729
77,-0.0575562082231045,-0.0808777064085007,-0.0825421512126923,-0.0997326746582985,-0.0625069290399551,-0.0710159987211227
78,-0.0408919602632523,-0.0620886981487274,-0.0543130412697792,-0.0785979852080345,-0.0276637561619282,-0.0766738504171371
79,-0.0113228606060147,-0.0409145466983318,-0.0229409914463758,-0.0479782931506634,0.00793896056711674,-0.0660427287220955
80,0.0172831658273935,-0.0265980940312147,0.000795255531556904,-0.0201695207506418,0.0295362900942564,-0.0471438728272915
81,0.0299061518162489,-0.0243036095052958,0.00898804422467947,-0.0056658610701561,0.0280827488750219,-0.028712559491396
82,0.0261710546910763,-0.0331234224140644,-0.00111357343848795,-0.00909177400171757,0.00827706325799227,-0.0115205384790897
83,0.0187962595373392,-0.0497868917882442,-0.0283755715936422,-0.0314936712384224,-0.0223650336265564,-0.00110099895391613
84,0.00983427744358778,-0.0695283189415932,-0.0675714761018753,-0.069527231156826,-0.057834729552269,-0.00785942375659943
85,-0.0092066265642643,-0.088357500731945,-0.106695435941219,-0.110798984766006,-0.0814062356948853,-0.0321769900619984
86,-0.0302260927855968,-0.0992405340075493,-0.125075131654739,-0.131382644176483,-0.074297234416008,-0.0578665696084499
87,-0.0354601852595806,-0.0946113616228104,-0.110828697681427,-0.113850191235542,-0.0444088578224182,-0.0674845203757286
88,-0.0206909794360399,-0.0777007862925529,-0.0731807500123978,-0.0665313303470612,-0.0147237339988351,-0.0550692267715931
89,0.00361456954851747,-0.0571180805563927,-0.0293971542268991,-0.0152198122814298,0.00382645358331501,-0.0266774594783783
90,0.0225591640919447,-0.0381455570459366,0.00823437608778477,0.0197118669748306,0.0108834551647305,0.000348290923284367
91,0.0300447326153517,-0.0233838092535734,0.0383091978728771,0.0383024364709854,0.0137684755027294,0.0144683755934238
92,0.031957171857357,-0.0127930650487542,0.0660025030374527,0.0531717985868454,0.0230321642011404,0.0221511349081993
93,0.0337007790803909,-0.00287490920163691,0.091499850153923,0.0695728287100792,0.0388840325176716,0.0342472046613693
94,0.0329082980751991,0.0109774647280574,0.107181094586849,0.0804257318377495,0.0513666421175003,0.054059375077486
95,0.0301930550485849,0.0345002524554729,0.104539267718792,0.0778713747859001,0.0548330843448639,0.0785132944583893
96,0.0332732647657394,0.0690749734640121,0.0812955871224403,0.0598256662487984,0.0529558807611465,0.0983816161751747
97,0.042358972132206,0.0974554494023323,0.0413491427898407,0.0255707241594791,0.0485140457749367,0.0962922722101212
98,0.0452236533164978,0.0918177366256714,-0.00589896319434047,-0.0205820836126804,0.0370900444686413,0.0599207989871502
99,0.0369765609502792,0.0462091751396656,-0.0424321517348289,-0.0584439896047115,0.019165275618434,0.00355541496537626
100,0.0260296426713467,-0.0162789970636368,-0.0549785196781158,-0.0702333897352219,0.00365460012108088,-0.0457996651530266
101,0.0199856609106064,-0.0661251917481422,-0.0448912940919399,-0.0611573867499828,-0.000259449880104512,-0.0759220942854881
102,0.0231607295572758,-0.0869782343506813,-0.0219690036028624,-0.045221034437418,0.0145963979884982,-0.0865300223231316
103,0.0289971251040697,-0.0863660722970963,-0.00792893301695585,-0.0372395925223827,0.0397829636931419,-0.0852222964167595
104,0.0252712909132242,-0.0779307335615158,-0.0163994878530502,-0.0456447452306747,0.0562861450016499,-0.0821397975087166
105,0.012473788112402,-0.066255696117878,-0.0330796018242836,-0.0592273324728012,0.0546719916164875,-0.0800782963633537
106,-0.00425495440140367,-0.0535060726106167,-0.0418201461434364,-0.06200160831213,0.0329848825931549,-0.0756930336356163
107,-0.0218201596289873,-0.0359204858541489,-0.0404138751327991,-0.0509446486830711,0.00156174914445728,-0.0640810802578926
108,-0.0336788631975651,-0.0144543247297406,-0.030285706743598,-0.0325733497738838,-0.0152936168015003,-0.0466543510556221
109,-0.0321051739156246,-0.00282504106871784,-0.0154920797795057,-0.0176457278430462,-0.00573863741010427,-0.031735684722662
110,-0.0182230193167925,-0.00203662691637874,0.000421431846916676,-0.011033077724278,0.0169304609298706,-0.0203152298927307
111,-0.00359951634891331,0.00713728182017803,0.0209915842860937,-0.00502134580165148,0.0335321798920631,-0.00104893243405968
112,0.00416011083871126,0.034567579627037,0.0468864366412163,0.00686684064567089,0.036820188164711,0.030006593093276
113,0.0112225618213415,0.0662654191255569,0.0717628672719002,0.0238741207867861,0.035378135740757,0.0599070452153683
114,0.0276972353458405,0.0822039246559143,0.0917460024356842,0.0444486364722252,0.0423660352826118,0.077999971807003
115,0.0542796105146408,0.0797988548874855,0.108610741794109,0.0684653371572495,0.0613805316388607,0.0886846855282784
116,0.0793350115418434,0.0687642693519592,0.120276860892773,0.0894109979271889,0.0828206613659859,0.0926988646388054
117,0.0894720181822777,0.0510456524789333,0.120507054030895,0.0966999903321266,0.0921467170119286,0.0800889432430267
118,0.0835387036204338,0.0277693904936314,0.109134085476398,0.0922711119055748,0.084676131606102,0.0524311736226082
119,0.0656874030828476,0.00563439540565014,0.0871113464236259,0.0826390534639359,0.0640361607074738,0.0186715256422758
120,0.0369720570743084,-0.014500243589282,0.056101493537426,0.0668910071253777,0.0347834564745426,-0.0185024719685316
121,0.00195024709682912,-0.0352411232888699,0.0238760858774185,0.0432177446782589,0.00381297804415226,-0.0537743493914604
122,-0.0257755108177662,-0.0479901470243931,0.0023354880977422,0.0195339396595955,-0.0174362063407898,-0.0748570561408997
123,-0.0321783758699894,-0.0398280546069145,0.00220282655209303,0.0123744001612067,-0.019517358392477,-0.0722596347332001
124,-0.0197114571928978,-0.0164574198424816,0.0191714074462652,0.0241506937891245,-0.00874794088304043,-0.0516171678900719
125,-0.00237988610751927,0.00252744974568486,0.0345204435288906,0.0380992516875267,0.000776286295149475,-0.0288926437497139
126,0.0132538126781583,0.00698957033455372,0.0333135202527046,0.0404101274907589,0.00572291295975447,-0.016330536454916
127,0.0243920963257551,-0.000485926691908389,0.00773857440799475,0.0253932718187571,0.00504922308027744,-0.0184477157890797
128,0.0230394564568996,-0.0139581207185984,-0.0420196764171124,-0.0094104390591383,-0.00837650988250971,-0.0312332045286894
129,0.00969887059181929,-0.0237802974879742,-0.0923277586698532,-0.0521661154925823,-0.0311589129269123,-0.0436052903532982
130,-0.00577582512050867,-0.0212047323584557,-0.111713193356991,-0.0813000798225403,-0.0486093088984489,-0.0482309088110924
131,-0.0187948551028967,-0.0103738121688366,-0.100018866360188,-0.0889621004462242,-0.0537669695913792,-0.0476180352270603
132,-0.0230571832507849,0.00212055235169828,-0.0775282084941864,-0.0790133476257324,-0.0450973957777023,-0.0429062023758888
133,-0.0146531099453568,0.0108935553580523,-0.0600040704011917,-0.0608409829437733,-0.028536370024085,-0.0370824672281742
134,-0.0103030167520046,-0.0010314357932657,-0.0589413903653622,-0.0506781116127968,-0.0271689593791962,-0.043411236256361
135,-0.0218553226441145,-0.0348761603236198,-0.0624537579715252,-0.0450862757861614,-0.0458531267940998,-0.0581379607319832
136,-0.0369494520127773,-0.0654836818575859,-0.0478061251342297,-0.0267406422644854,-0.0613476224243641,-0.0623696595430374
137,-0.0486172251403332,-0.0844385325908661,-0.027056785300374,-0.00709788827225566,-0.0670479536056519,-0.0607364103198051
138,-0.0627027601003647,-0.0979133695363998,-0.0209941454231739,-0.00686237215995789,-0.0693046972155571,-0.0667112618684769
139,-0.0775375962257385,-0.100821942090988,-0.023748317733407,-0.0235337726771832,-0.0669711381196976,-0.0772368237376213
140,-0.083865188062191,-0.0919223427772522,-0.0287633743137121,-0.0469117909669876,-0.0623875856399536,-0.0849899426102638
141,-0.0764577463269234,-0.0773280188441277,-0.0338723659515381,-0.0635060518980026,-0.0541545636951923,-0.0821146667003632
142,-0.0562652386724949,-0.0651724860072136,-0.0346025265753269,-0.061794389039278,-0.0390790738165379,-0.0672760754823685
143,-0.0286645721644163,-0.0643730685114861,-0.0383705943822861,-0.050329402089119,-0.0282908454537392,-0.0545361824333668
144,-0.00196159398183227,-0.0696956664323807,-0.0490959994494915,-0.040708851069212,-0.0298701897263527,-0.0529591590166092
145,0.0164245907217264,-0.0681298449635506,-0.0532972626388073,-0.0311479344964027,-0.0365724861621857,-0.0542552955448627
146,0.0214402973651886,-0.0569105222821236,-0.0442304238677025,-0.0220651477575302,-0.0431767590343952,-0.0489032752811909
147,0.0121688079088926,-0.0424476154148579,-0.0349132679402828,-0.0205421596765518,-0.0521429181098938,-0.0381502583622932
148,-0.00544435577467084,-0.0272573418915272,-0.0364781767129898,-0.025121396407485,-0.0615857355296612,-0.0245004091411829
149,-0.0262142866849899,-0.00989896431565285,-0.0459024421870708,-0.0282106231898069,-0.0674395710229874,-0.0101228728890419
150,-0.0540219396352768,-8.64487592480145E-05,-0.0585916489362717,-0.0321123972535133,-0.0761502534151077,-0.00517519563436508
151,-0.0895813480019569,-0.00858918018639088,-0.0691986978054047,-0.0396802648901939,-0.0958088636398315,-0.0123573644086719
152,-0.11644684523344,-0.023233899846673,-0.0609948188066483,-0.0361852385103703,-0.11364658176899,-0.0163885839283466
153,-0.117753267288208,-0.0254468638449907,-0.0245029181241989,-0.0109384302049875,-0.108020573854446,-0.00909960828721523
154,-0.0954189896583557,-0.0164269711822271,0.0234749987721443,0.0211386326700449,-0.0772361904382706,-0.000921229366213083
155,-0.0614717565476894,-0.00488751754164696,0.061039000749588,0.0417728126049042,-0.0342758409678936,0.00101503252517432
156,-0.0275463368743658,0.0029252462554723,0.0756835490465164,0.0439708679914474,0.00532464357092977,-0.00070749589940533
157,0.000539030123036355,1.23646977954195E-05,0.0648749172687531,0.0300325565040112,0.0279743149876595,-0.00120909116230905
158,0.0243117064237595,-0.0111798895522952,0.0400228090584278,0.0134808039292693,0.029452396556735,0.00552545953541994
159,0.0404450781643391,-0.0176701061427593,0.0186525918543339,0.00900518894195557,0.0164343863725662,0.0188762340694666
160,0.042071595788002,-0.0152011476457119,0.0124376593157649,0.0200491324067116,0.00425076019018888,0.0319704748690128
161,0.0357320159673691,-0.0112756937742233,0.0200248938053846,0.0390327163040638,0.00621305871754885,0.0418988652527332
162,0.0367335639894009,-0.00598459923639894,0.0341839194297791,0.0581591241061687,0.0218839570879936,0.050701305270195
163,0.0493804290890694,0.00598783604800701,0.050210028886795,0.0743632093071938,0.0376743450760841,0.0614448525011539
164,0.0665505677461624,0.0193609204143286,0.0631758943200111,0.0846023261547089,0.0408672876656055,0.075338251888752
165,0.0804425626993179,0.0252923872321844,0.0667013376951218,0.0833386778831482,0.0311559699475765,0.0867541804909706
166,0.079287625849247,0.0237720683217049,0.0544763095676899,0.0652619004249573,0.0126732224598527,0.0843930020928383
167,0.0543864965438843,0.0183976870030165,0.0291607696563005,0.0347383320331573,-0.0114641282707453,0.0678791180253029
168,0.017293956130743,0.0104047656059265,0.00312745617702603,0.00490698823705316,-0.0357109159231186,0.0480818450450897
169,-0.015500414185226,0.00025663324049674,-0.0178906433284283,-0.0168616697192192,-0.0573970340192318,0.0266974326223135
170,-0.0422577485442162,-0.0100123537704349,-0.0394102968275547,-0.0347897112369537,-0.0778313875198364,0.000356095726601779
171,-0.0606639049947262,-0.0150374053046107,-0.0621556639671326,-0.0521303862333298,-0.0924503952264786,-0.0203849337995052
172,-0.0588993094861507,-0.0105104800313711,-0.0736863166093826,-0.0610563457012177,-0.0930240377783775,-0.0217733979225159
173,-0.0365848354995251,0.00155676191207021,-0.063876174390316,-0.0537106469273567,-0.0796808376908302,-0.00861914455890656
174,-0.00882900878787041,0.0132186422124505,-0.039584144949913,-0.0337039083242416,-0.0583939515054226,0.00217619561590254
175,0.0122769512236118,0.0183968730270863,-0.0159273203462362,-0.0114091029390693,-0.032727736979723,0.00201712362468243
176,0.0254860483109951,0.0259515177458525,0.00618680100888014,0.00889136642217636,-0.00394545355811715,0.00218174350447953
177,0.029619961977005,0.0446404628455639,0.0283836629241705,0.0207946598529816,0.0179604664444923,0.0121616087853909
178,0.0158242993056774,0.0580633468925953,0.0327634923160076,0.00856541655957699,0.0136983906850219,0.0148481456562877
179,-0.0128552271053195,0.0506153106689453,0.0147181870415807,-0.01963378675282,-0.0138249052688479,-5.76797719986644E-05
180,-0.0347289890050888,0.0346347093582153,-0.00182114809285849,-0.0321150869131088,-0.0365538373589516,-0.0154073657467961
181,-0.0349388495087624,0.0248858351260424,-0.00111704156734049,-0.0200880132615566,-0.039369061589241,-0.0193125791847706
182,-0.0182086024433374,0.0179029684513807,0.00902595836669207,-0.00297826691530645,-0.0300225634127855,-0.017882764339447
183,0.00110566837247461,0.00463497312739491,0.0111356088891625,-0.00132022413890809,-0.0242649205029011,-0.0225672163069248
184,0.0090174600481987,-0.0189569797366858,-0.00835350900888443,-0.0232821330428123,-0.0362568199634552,-0.0363609567284584
185,0.00361576257273555,-0.0453947708010674,-0.0438002422451973,-0.0560011863708496,-0.0628904104232788,-0.0428552888333797
186,0.000692448695190251,-0.0608141273260117,-0.0733424723148346,-0.0737193077802658,-0.0820707380771637,-0.0262724570930004
187,0.0119381118565798,-0.0672746822237968,-0.0903928130865097,-0.0716429650783539,-0.0806551948189735,-0.000900022801943123
188,0.0282020214945078,-0.0750354006886482,-0.10307639092207,-0.0664958134293556,-0.0648833438754082,0.00517362076789141
189,0.0307330451905727,-0.0782334506511688,-0.110426962375641,-0.0669814497232437,-0.0490305833518505,-0.0189419463276863
190,0.00979152787476778,-0.0618258900940418,-0.106224074959755,-0.0692034587264061,-0.0442566387355328,-0.0613323412835598
191,-0.0229480247944593,-0.0227653980255127,-0.0850451812148094,-0.0623923651874065,-0.0451336391270161,-0.0935855284333229
192,-0.0478133261203766,0.0227698851376772,-0.0483455173671246,-0.0412489734590054,-0.0409662425518036,-0.093570239841938
193,-0.0588927902281284,0.0522132366895676,-0.0103768520057201,-0.0171892065554857,-0.0370557121932507,-0.0683429315686226
194,-0.0545355454087257,0.0578876659274101,0.0221298821270466,0.00379687733948231,-0.0362641960382462,-0.03640416264534
195,-0.0305372625589371,0.0511170774698257,0.0548215769231319,0.0297793280333281,-0.0249265339225531,-0.00228901952505112
196,0.0045761507935822,0.0428149439394474,0.0814362391829491,0.05903435125947,0.000693556794431061,0.03353575989604
197,0.0286063924431801,0.029340660199523,0.0822363868355751,0.0735104009509087,0.0216762907803059,0.0569893568754196
198,0.024982638657093,0.00727906636893749,0.0515860579907894,0.0597277916967869,0.0197751894593239,0.0538112372159958
199,0.00280891079455614,-0.00578388338908553,0.0128239952027798,0.0301150679588318,0.00170942069962621,0.0349723659455776
200,-0.0117466514930129,0.00962017197161913,-0.00640641758218408,0.00982819870114326,-0.00891075935214758,0.0247465968132019
201,-0.00681741070002317,0.0393668338656425,-0.00821490865200758,0.00173382903449237,-0.00625791447237134,0.0263424590229988
202,0.00860264152288437,0.0514858700335026,-0.016543859615922,-0.0117648122832179,-0.00748722208663821,0.0191767513751984
203,0.0217054020613432,0.0355022922158241,-0.0385230854153633,-0.0362508594989777,-0.0227346289902925,-0.00896869041025639
204,0.025300670415163,0.00296246842481196,-0.0572772212326527,-0.0580936297774315,-0.0439165532588959,-0.0427587665617466
205,0.020568648353219,-0.0336137712001801,-0.0604963898658752,-0.0650671273469925,-0.0586948432028294,-0.0615441799163818
206,0.0132438559085131,-0.0651644244790077,-0.057790283113718,-0.0640719011425972,-0.0649236291646957,-0.0684702321887016
207,0.00171077961567789,-0.0815703272819519,-0.0667919293045998,-0.0715371742844582,-0.0717001855373383,-0.0780757293105125
208,-0.0183238349854946,-0.0769276022911072,-0.0856529697775841,-0.0865060836076736,-0.0848345384001732,-0.0859210565686226
209,-0.0403922945261002,-0.0546853095293045,-0.0923043861985207,-0.0911641120910645,-0.0958135947585106,-0.0779313370585442
210,-0.0538867674767971,-0.0233126543462276,-0.0738106444478035,-0.0748589634895325,-0.0933231115341187,-0.0544025078415871
211,-0.0594958737492561,0.00813128147274256,-0.0409204065799713,-0.0457119531929493,-0.0794840753078461,-0.0274015534669161
212,-0.0628419145941734,0.0342554189264774,-0.00884716585278511,-0.0184439327567816,-0.0623511299490929,-0.00472641224041581
213,-0.057574450969696,0.0583579279482365,0.0180528033524752,0.00343755120411515,-0.0411519110202789,0.0158091373741627
214,-0.040317315608263,0.082073837518692,0.0346070788800716,0.0207403656095266,-0.0182040818035603,0.032788023352623
215,-0.022375175729394,0.0942739024758339,0.0331752225756645,0.0286182872951031,-0.00837083626538515,0.0369324721395969
216,-0.00470516690984368,0.0899472460150719,0.0240783710032701,0.0325440354645252,-0.011735774576664,0.0288514029234648
217,0.0193267818540335,0.0798262506723404,0.02598094381392,0.0445330254733562,-0.0123767508193851,0.0186429228633642
218,0.0398571230471134,0.0665240734815598,0.0354495719075203,0.0567114613950253,-0.011226711794734,0.00663803471252322
219,0.0449846163392067,0.0456267260015011,0.0364768579602242,0.0532685779035091,-0.0175479408353567,-0.00939137302339077
220,0.040603794157505,0.0272759757936001,0.0239345878362656,0.0350145623087883,-0.0268310513347387,-0.0173538830131292
221,0.0383790694177151,0.0208905972540379,0.00461733946576715,0.0146941542625427,-0.0279809683561325,-0.0065169776789844
222,0.0388279631733894,0.0154609968885779,-0.0123672429472208,0.00284099765121937,-0.0176614094525576,0.0130774034187198
223,0.042219016700983,0.00214931252412498,-0.0195204261690378,0.00458718556910753,-0.00105729082133621,0.0275400299578905
224,0.0539632849395275,-0.0116684306412935,-0.0157029069960117,0.0175610855221748,0.0116045456379652,0.0326888523995876
225,0.0663152933120728,-0.0220244582742453,-0.0131549267098308,0.0268731992691755,0.00783723313361406,0.0241149794310331
226,0.0633355900645256,-0.0307189971208572,-0.02505212277174,0.016411866992712,-0.0129904597997665,0.00187061517499387
227,0.0392877943813801,-0.0331601537764072,-0.0546485595405102,-0.01766761764884,-0.040943332016468,-0.0231817904859781
228,-0.000676398805808276,-0.0264535471796989,-0.0937386378645897,-0.0651099532842636,-0.0692853629589081,-0.0411615744233131
229,-0.0429029390215874,-0.018173286691308,-0.123702593147755,-0.106534004211426,-0.0954665988683701,-0.054021280258894
230,-0.07002904266119,-0.0156313721090555,-0.127876788377762,-0.123669281601906,-0.114303857088089,-0.0674003884196281
231,-0.073377326130867,-0.0157786309719086,-0.102283321321011,-0.109637282788754,-0.115819290280342,-0.0776906460523605
232,-0.0575004704296589,-0.0112148225307465,-0.0583794042468071,-0.0738318562507629,-0.0984024256467819,-0.075301855802536
233,-0.0326489768922329,-0.000799174653366208,-0.012674811296165,-0.0323500074446201,-0.0714543908834457,-0.0543193705379963
234,-0.00821846351027489,0.0101319029927254,0.0212710276246071,0.00236404803581536,-0.0447460189461708,-0.0176350604742765
235,0.0128890732303262,0.0175185669213533,0.0379525944590569,0.0267283301800489,-0.0246431659907103,0.0251138303428888
236,0.0302105564624071,0.0202009435743093,0.0455817319452763,0.0448245219886303,-0.0145756518468261,0.0576917342841625
237,0.0377285368740559,0.0145581187680364,0.0512923188507557,0.0575955733656883,-0.0125736929476261,0.0657844841480255
238,0.0365099273622036,0.00318113574758172,0.0543575808405876,0.0646865665912628,-0.00744419870898128,0.0579177141189575
239,0.0347153060138226,-0.00471213273704052,0.0525551959872246,0.0653537586331367,0.00371668743900955,0.0512823313474655
240,0.0339452922344208,-0.0080036548897624,0.0470663569867611,0.058193426579237,0.0102102868258953,0.0485819354653358
241,0.033716693520546,-0.00634405901655555,0.0468473173677921,0.0523894764482975,0.0114626856520772,0.0525136701762676
242,0.0321492962539196,0.00134702702052891,0.0552195534110069,0.0566538348793983,0.0115421703085303,0.0659059509634972
243,0.030804542824626,0.0125853912904859,0.0659705102443695,0.0684898048639297,0.0100904870778322,0.0835684314370155
244,0.0348245799541473,0.0235912408679724,0.0704213380813599,0.0789851471781731,0.00806491356343031,0.0972827672958374
245,0.0400782376527786,0.0292273797094822,0.0594966225326061,0.0764039531350136,0.00262691755779088,0.0966068580746651
246,0.0405269637703896,0.0278026517480612,0.0343025960028172,0.0590251497924328,-0.00658154999837279,0.0804706811904907
247,0.0306803919374943,0.0182964261621237,-0.000360968959284946,0.0295249167829752,-0.0178709197789431,0.0567010343074799
248,0.0056279101409018,0.00648631015792489,-0.0419642813503742,-0.0138137228786945,-0.0348046571016312,0.029802804812789
249,-0.0260700713843107,0.00668785814195871,-0.076201006770134,-0.0618484951555729,-0.0524851903319359,0.00502615002915263
250,-0.0500237606465817,0.0173186361789703,-0.0875552296638489,-0.0967355221509933,-0.0585852451622486,-0.0150381121784449
251,-0.0571481361985207,0.0209771580994129,-0.081936351954937,-0.107305854558945,-0.0503354519605637,-0.0375252664089203
252,-0.0443630069494247,0.0104550058022141,-0.0763368606567383,-0.0942784994840622,-0.0354002453386784,-0.0658024027943611
253,-0.0192393809556961,-0.0115792583674192,-0.0712392926216125,-0.0664397105574608,-0.0224258415400982,-0.0888186693191528
254,0.00431156437844038,-0.045445516705513,-0.0566100738942623,-0.0341655239462852,-0.0145393433049321,-0.0941495150327683
255,0.0134199531748891,-0.0870941653847694,-0.0371302925050259,-0.00912737194448709,-0.0130822965875268,-0.0811092928051949
256,0.00606620730832219,-0.117687992751598,-0.0199821554124355,0.00578578189015388,-0.0148270996287465,-0.0508759133517742
257,-0.00662907119840384,-0.126752585172653,-0.00529908807948232,0.0134723568335176,-0.0147321745753288,-0.00889818836003542
258,-0.0147461714223027,-0.126886948943138,0.00198222836479545,0.0105955703184009,-0.0171315781772137,0.0254698060452938
259,-0.015722619369626,-0.126728042960167,-0.000949544191826135,-0.0039662760682404,-0.0274438597261906,0.0325220935046673
260,-0.0110250627622008,-0.121052213013172,-0.00840824563056231,-0.0239984858781099,-0.0412508621811867,0.00879772752523422
261,-0.0074780061841011,-0.109183602035046,-0.0178514029830694,-0.0420761480927467,-0.0528947710990906,-0.0302186440676451
262,-0.0155346114188433,-0.0992287844419479,-0.0324428044259548,-0.0530591197311878,-0.0650086402893066,-0.0644601806998253
263,-0.034398078918457,-0.092884860932827,-0.0444217212498188,-0.0505331009626389,-0.0746682733297348,-0.0792075544595718
264,-0.049211960285902,-0.0831593573093414,-0.0386405810713768,-0.0309308562427759,-0.0679390206933022,-0.0687795281410217
265,-0.0457810573279858,-0.0628506988286972,-0.0139328455552459,-0.000448388454969972,-0.0373549573123455,-0.0405234806239605
266,-0.0272849444299936,-0.0274551101028919,0.0165841337293386,0.0294243860989809,0.00742352055385709,-0.00456061074510217
267,-0.0103735756129026,0.0175427068024874,0.0405768007040024,0.0485379621386528,0.0483805052936077,0.0326054356992245
268,-0.00238214759156108,0.0522900745272636,0.0525966882705688,0.0518462359905243,0.0739652886986732,0.0578915476799011
269,0.00303138699382544,0.0640844106674194,0.0555604286491871,0.0478808060288429,0.0836666971445084,0.0610646717250347
270,0.0150724370032549,0.0602110885083675,0.0583627074956894,0.0514018945395947,0.0839449241757393,0.0503497235476971
271,0.034542303532362,0.0466440543532372,0.060205016285181,0.0589938201010227,0.0797354876995087,0.0366426855325699
272,0.050202339887619,0.0183947905898094,0.048322930932045,0.0556873269379139,0.0692788138985634,0.0173960085958242
273,0.0504695288836956,-0.024249354377389,0.0202191490679979,0.0390551015734673,0.0498891659080982,-0.0101032666862011
274,0.0340003930032253,-0.0666525140404701,-0.00957938097417355,0.015516484156251,0.0232459381222725,-0.0366679951548576
275,0.00612235954031348,-0.0953660160303116,-0.0283498056232929,-0.0102071277797222,-0.00794816669076681,-0.0530175566673279
276,-0.0258792005479336,-0.111174531280994,-0.0383236669003963,-0.0341913811862469,-0.0427225865423679,-0.0602297373116016
277,-0.0496608726680279,-0.121776655316353,-0.0451483055949211,-0.0494412258267403,-0.0723977908492088,-0.0617011412978172
278,-0.0495050400495529,-0.127009272575378,-0.0398342050611973,-0.0447915680706501,-0.0753865391016006,-0.0502654872834682
279,-0.0269834250211716,-0.117439217865467,-0.0158297494053841,-0.0207448955625296,-0.0464687086641788,-0.0222797561436892
280,-0.00543744442984462,-0.0899223461747169,0.0146343661472201,0.00521990610286593,-0.0101330755278468,0.00630331924185157
281,0.000917183351702988,-0.0545308999717236,0.0398456379771233,0.0203999578952789,0.0151576390489936,0.020587308332324
282,0.000936930882744491,-0.0244549680501223,0.0586352124810219,0.0277969855815172,0.0346885845065117,0.0227113775908947
283,0.00639884220436215,-0.011245422065258,0.0659460872411728,0.031394612044096,0.0508257783949375,0.0183972604572773
284,0.0165759734809399,-0.0186393577605486,0.053934533149004,0.0308547541499138,0.0521266981959343,0.012808476574719
285,0.0260843504220247,-0.0296929329633713,0.0325176827609539,0.0327738970518112,0.0387431792914867,0.0171005912125111
286,0.0308884624391794,-0.0277260262519121,0.0156569350510836,0.0370053239166737,0.0228701308369637,0.0299821048974991
287,0.0252582095563412,-0.0197749342769384,-0.000236583000514656,0.029087794944644,0.0074251526966691,0.0304253492504358
288,0.0111826993525028,-0.0176015347242355,-0.0164517499506474,0.0103369792923331,-0.0082200700417161,0.0118501959368587
289,-0.00164148292969912,-0.025681983679533,-0.0255259498953819,-0.00218992703594267,-0.0222002733498812,-0.0119142811745405
290,-0.0109568424522877,-0.0450271591544151,-0.0251477006822824,-0.00133386452216655,-0.0342534780502319,-0.0301880929619074
291,-0.0227198582142591,-0.0693924725055695,-0.0176444463431835,0.00746815651655197,-0.0423072464764118,-0.0378971435129642
292,-0.0390954501926899,-0.0887439101934433,-0.0116630122065544,0.0114065855741501,-0.0448910556733608,-0.0363857448101044
293,-0.0525565966963768,-0.0954689532518387,-0.0182512048631907,0.00115231308154762,-0.0447786040604115,-0.0326657705008984
294,-0.0616333857178688,-0.0921709612011909,-0.0401238687336445,-0.0221071392297745,-0.0499554947018623,-0.0342544801533222
295,-0.0736295208334923,-0.090787261724472,-0.0692919790744781,-0.0515583083033562,-0.0656360611319542,-0.0453143157064915
296,-0.0846338868141174,-0.0918780565261841,-0.0943687334656715,-0.0783601775765419,-0.0831105560064316,-0.058847937732935
297,-0.0868707969784737,-0.0856791064143181,-0.115036576986313,-0.099358431994915,-0.0961266234517097,-0.0661478042602539
298,-0.0823020562529564,-0.072231687605381,-0.134424924850464,-0.116610519587994,-0.10882230848074,-0.067552462220192
299,-0.0767445862293243,-0.0620013028383255,-0.143948033452034,-0.127372205257416,-0.120708182454109,-0.0638319402933121
300,-0.0708042904734612,-0.0609429813921452,-0.136008411645889,-0.125117868185043,-0.124186813831329,-0.052517507225275
301,-0.0540845766663551,-0.0600687600672245,-0.110684879124165,-0.101416297256947,-0.106668770313263,-0.0312982387840748
302,-0.0248398687690496,-0.0492067746818066,-0.0728320479393005,-0.0567393377423286,-0.0656529366970062,-0.00284314714372158
303,-0.00483649130910635,-0.0326363742351532,-0.0338656157255173,-0.00879683159291744,-0.0208041165024042,0.022887883707881
304,-0.00875144824385643,-0.0198712330311537,-0.000787276367191225,0.0278530716896057,0.00782886892557144,0.0353200621902943
305,-0.022458340972662,-0.0165182445198298,0.0284102819859982,0.0533795543015003,0.0180514473468065,0.0291759837418795
306,-0.0269974078983068,-0.0242491979151964,0.0515998639166355,0.0685728341341019,0.018409326672554,0.00746126472949982
307,-0.0204068515449762,-0.0357858687639236,0.0605426542460918,0.0687769576907158,0.0169383790344,-0.0175575911998749
308,-0.0132439462468028,-0.0392558611929417,0.0511472076177597,0.0519807152450085,0.0142783829942346,-0.0364533178508282
309,-0.0147857945412397,-0.0328247584402561,0.0261704754084349,0.023980176076293,0.00553715601563454,-0.0521432049572468
310,-0.0250755436718464,-0.029268603771925,-0.0114541109651327,-0.0094054713845253,-0.0168777499347925,-0.071974940598011
311,-0.0357652269303799,-0.0411873050034046,-0.0542285479605198,-0.0424775071442127,-0.0543864294886589,-0.093699611723423
312,-0.0388456098735332,-0.0652713850140572,-0.0858162268996239,-0.0639796927571297,-0.0925055369734764,-0.105518318712711
313,-0.0354661121964455,-0.0860912427306175,-0.0980934202671051,-0.0708115920424461,-0.11691015958786,-0.103950187563896
314,-0.029417036101222,-0.0884709656238556,-0.0949997752904892,-0.068831779062748,-0.123425662517548,-0.0930867716670036
315,-0.0217547062784433,-0.0695521533489227,-0.080620177090168,-0.0587066300213337,-0.110197849571705,-0.0712360069155693
316,-0.0127361919730902,-0.0378792583942413,-0.0563158206641674,-0.0366495959460735,-0.0796686261892319,-0.0337005332112312
317,-0.00681768730282784,-0.00371871003881097,-0.0285611487925053,-0.00659134052693844,-0.0448627956211567,0.0106013501062989
318,-0.0142604783177376,0.0211109761148691,-0.0135542899370193,0.0150040686130524,-0.0238037128001451,0.0372049957513809
319,-0.0308145340532064,0.0319778807461262,-0.0160849299281836,0.0209163818508387,-0.0204427391290665,0.043457143008709
320,-0.0359260365366936,0.03903953358531,-0.0223326403647661,0.0195131059736013,-0.0215873755514622,0.0527996830642223
321,-0.0244163349270821,0.049162145704031,-0.0271316897124052,0.0109251718968153,-0.0182381756603718,0.068459577858448
322,-0.00610063783824444,0.0581420920789242,-0.0332575254142284,-0.00492887385189533,-0.0079290708526969,0.0735100209712982
323,0.0123141864314675,0.0623930469155312,-0.032079141587019,-0.0143093299120665,0.0106961335986853,0.0602145418524742
324,0.0236754156649113,0.0620420575141907,-0.0116882286965847,-0.00707208039239049,0.0307352710515261,0.0345993749797344
325,0.02092613466084,0.0528901219367981,0.0225429832935333,0.0110830534249544,0.039539061486721,0.00776838092133403
326,0.00902911555022001,0.0333026796579361,0.0527986958622932,0.030091468244791,0.035345334559679,-0.00926696974784136
327,0.00254996074363589,0.0187492575496435,0.0679505690932274,0.04616779088974,0.0316342487931252,-0.00986396241933107
328,0.00250160414725542,0.0186911560595036,0.0606092885136604,0.0508887581527233,0.0313401110470295,-0.00582090066745877
329,-0.000177641501068138,0.0217482373118401,0.0331526771187782,0.0359054729342461,0.0276130624115467,-0.0130617516115308
330,-0.00550020951777697,0.0165665689855814,0.00117536319885403,0.00629822025075555,0.0229039378464222,-0.0298059638589621
331,-0.00786790996789932,-0.00165961857419461,-0.0250081960111856,-0.0248499512672424,0.0173051487654448,-0.0459886975586414
332,-0.00419089291244745,-0.0315597504377365,-0.0431388914585114,-0.0433782078325748,0.00489087123423815,-0.0525571219623089
333,-0.000103766178654041,-0.0651701465249062,-0.0549914538860321,-0.0459579527378082,-0.0141286095604301,-0.0487125478684902
334,-0.0035971540492028,-0.092343881726265,-0.0611855685710907,-0.0391231030225754,-0.031062101945281,-0.038936473429203
335,-0.00915743783116341,-0.10113164037466,-0.0507886782288551,-0.0200817566365004,-0.0313269905745983,-0.0167915988713503
336,-0.00334556959569454,-0.0848656892776489,-0.0122621338814497,0.0195060949772596,-0.0058276797644794,0.0267403889447451
337,0.0110770417377353,-0.0547522306442261,0.0414584055542946,0.0683445706963539,0.0328719615936279,0.0750372335314751
338,0.0170096177607775,-0.0323401503264904,0.0786916837096214,0.0964266881346703,0.06057358533144,0.0926209092140198
339,0.0123102394863963,-0.0248390808701515,0.0815951451659203,0.088288702070713,0.0660365596413612,0.0699613317847252
340,0.00494180899113417,-0.0272340979427099,0.0516171082854271,0.0505568087100983,0.0489490889012814,0.0264634117484093
341,-0.00924433767795563,-0.0403361693024635,-0.00383903901092708,-0.00574013683944941,0.0116291204467416,-0.022569689899683
342,-0.0314849317073822,-0.0620858557522297,-0.0649671852588654,-0.0628624185919762,-0.0306133944541216,-0.0628515109419823
343,-0.0501563176512718,-0.0762599408626556,-0.104496024549007,-0.0984686240553856,-0.055125929415226,-0.0766046494245529
344,-0.0525133237242699,-0.0641220062971115,-0.104049071669579,-0.097858689725399,-0.0484091229736805,-0.0593361854553223
345,-0.0363999977707863,-0.0257957670837641,-0.0631981268525124,-0.0623751357197762,-0.0153850233182311,-0.0235247798264027
346,-0.0170752145349979,0.0183052327483892,-0.00675226468592882,-0.0137792769819498,0.0198118761181831,0.0133224166929722
347,-0.00872650370001793,0.0512267202138901,0.0346558690071106,0.0242284219712019,0.0388803482055664,0.042790487408638
348,-0.00696464581415057,0.0669003948569298,0.0489162728190422,0.0428717620670795,0.0448593012988567,0.0589320063591003
349,-0.00127566140145063,0.0671687349677086,0.0397812128067017,0.0431336350739002,0.0496217608451843,0.0551885887980461
350,0.00566713185980916,0.0569443590939045,0.0146568259224296,0.0268914736807346,0.0584359057247639,0.0350328870117664
351,0.00614283978939056,0.0376024655997753,-0.0125934993848205,0.00333546265028417,0.0699221789836884,0.0109678395092487
352,0.0059377234429121,0.01752376742661,-0.0232513621449471,-0.00866124127060175,0.0873043239116669,-0.00477968342602253
353,0.00995997432619333,0.00706766033545136,-0.018082819879055,-0.00615772465243936,0.104830794036388,-0.0136264013126493
354,0.010000123642385,-0.00166005897335708,-0.0141899269074202,-0.00386146432720125,0.0994454845786095,-0.0251551400870085
355,0.00363914109766483,-0.0234220679849386,-0.017084376886487,-0.00495325913652778,0.063162125647068,-0.0388811826705933
356,-0.00379841797985137,-0.0540395081043243,-0.0195259489119053,-0.000634649128187448,0.0169535726308823,-0.046621710062027
357,-0.0165239367634058,-0.0788790434598923,-0.0201008561998606,0.00637498311698437,-0.0171455573290586,-0.0485724695026875
358,-0.0373059511184692,-0.0887679681181908,-0.0206525158137083,0.00778634753078222,-0.0298234485089779,-0.0489051677286625
359,-0.0553746521472931,-0.0810866057872772,-0.0155996084213257,0.00669342605397105,-0.0219183042645454,-0.0468185544013977
360,-0.064994715154171,-0.0621780231595039,-0.0058831050992012,0.00604732800275087,-0.00758495507761836,-0.0445821806788445
361,-0.0714724063873291,-0.0407930016517639,-0.00188553694169968,0.00134821562096477,-0.000802159425802529,-0.0411276109516621
362,-0.0781211853027344,-0.0200600065290928,-0.00918316841125488,-0.013255886733532,-0.00226134178228676,-0.0319552719593048
363,-0.0848166197538376,-0.000625248940195888,-0.0287582129240036,-0.0411168336868286,-0.010858777910471,-0.0280246343463659
364,-0.0860103145241737,0.0179928429424763,-0.0553908385336399,-0.0740975961089134,-0.026865541934967,-0.038141768425703
365,-0.0721477195620537,0.0378209501504898,-0.0761869996786118,-0.0941887497901917,-0.0403068475425243,-0.0457999780774117
366,-0.0467141382396221,0.0516388714313507,-0.0897367969155312,-0.0984783843159676,-0.0425749942660332,-0.0395290143787861
367,-0.0220397524535656,0.04659104347229,-0.106631048023701,-0.100476749241352,-0.0385055728256702,-0.0309596974402666
368,-0.00430370029062033,0.0214629434049129,-0.122691929340363,-0.1004478931427,-0.0341513678431511,-0.0303381085395813
369,0.00460015330463648,-0.0109748216345906,-0.117523595690727,-0.0820894613862038,-0.0294721275568008,-0.0343010053038597
370,0.00592220760881901,-0.034814216196537,-0.0824420005083084,-0.0396766401827335,-0.0212445612996817,-0.0332666039466858
371,0.00196431344375014,-0.0449514985084534,-0.0311278160661459,0.0137309841811657,-0.00673379842191935,-0.0208968538790941
372,-0.00410872278735042,-0.0454768054187298,0.0180077776312828,0.0637952759861946,0.0125318383798003,0.000483281852211803
373,-0.0108111277222633,-0.0435601584613323,0.0490389950573444,0.0969599112868309,0.0253693051636219,0.0177801456302404
374,-0.0170324072241783,-0.0423316434025764,0.0560869909822941,0.106253549456596,0.026239886879921,0.0230747181922197
375,-0.0182332899421453,-0.0385064296424389,0.0481310002505779,0.0966146662831306,0.0232106428593397,0.0218450613319874
376,-0.0139211267232895,-0.0272541623562574,0.0313774272799492,0.0693132132291794,0.0167157202959061,0.0179529786109924
377,-0.00477634044364095,-0.000441370997577906,0.00535275880247355,0.0259955059736967,0.00161613267846406,0.0124690365046263
378,0.00751807587221265,0.0411160849034786,-0.0271863173693419,-0.0214398801326752,-0.0188494902104139,0.00319904950447381
379,0.0186041370034218,0.0773747935891151,-0.052171915769577,-0.0542994402348995,-0.0328853204846382,-0.0115618696436286
380,0.026060214266181,0.0870584174990654,-0.0541231445968151,-0.0616107955574989,-0.0320668406784534,-0.0252232663333416
381,0.0244514681398869,0.0681102052330971,-0.0369076542556286,-0.0507706142961979,-0.0218011569231749,-0.0308277383446693
382,0.0118297412991524,0.0355367958545685,-0.0140803745016456,-0.0312317404896021,-0.00640052324160933,-0.0248206723481417
383,-0.00512488605454564,0.00684983935207129,0.00686431536450982,-0.00778049975633621,0.0130251869559288,-0.0101847657933831
384,-0.0228443965315819,-0.00769350025802851,0.0231927819550037,0.012567981146276,0.0269636772572994,0.00196679309010506
385,-0.0367156192660332,-0.00476060342043638,0.0405261814594269,0.030721765011549,0.0361395068466663,0.00817682594060898
386,-0.0407330840826035,0.00918858777731657,0.0604637749493122,0.0483751110732555,0.0461942777037621,0.0133661003783345
387,-0.0415339954197407,0.0175129380077124,0.0648785457015038,0.0512282699346542,0.0414406880736351,0.0133747169747949
388,-0.0472599975764751,0.0143612250685692,0.0452976226806641,0.0345951095223427,0.0141004668548703,0.00516378972679377
389,-0.0521777532994747,0.0116230426356196,0.0201505087316036,0.0158429592847824,-0.0154047757387161,-0.00237002340145409
390,-0.0494972541928291,0.0154181737452745,0.000495256914291531,0.00285995448939502,-0.0334303975105286,-0.00610543321818113
391,-0.0423577949404716,0.0207721572369337,-0.0216690022498369,-0.0106518995016813,-0.045131079852581,-0.00855321995913982
392,-0.0383531115949154,0.0230771079659462,-0.053445465862751,-0.0304806269705296,-0.0575216263532639,-0.00991198141127825
393,-0.0428733229637146,0.0174078959971666,-0.0896976962685585,-0.057842131704092,-0.0735541135072708,-0.0143403131514788
394,-0.0516378879547119,0.00291175907477736,-0.113531321287155,-0.0835257470607758,-0.0892379432916641,-0.0244979448616505
395,-0.0559906326234341,-0.0130191296339035,-0.11527942866087,-0.0977148935198784,-0.095895990729332,-0.0375977866351604
396,-0.0557973943650723,-0.0218964330852032,-0.10501616448164,-0.104618944227695,-0.0897078812122345,-0.0480947718024254
397,-0.0519496090710163,-0.0201741643249989,-0.0965132787823677,-0.111136443912983,-0.0772088691592216,-0.048439733684063
398,-0.0410252027213573,-0.0130774667486548,-0.0919682309031487,-0.112288102507591,-0.0701715797185898,-0.0426578149199486
399,-0.0294007156044245,-0.0112581280991435,-0.0899455547332764,-0.102441541850567,-0.0751353651285172,-0.0495022237300873
400,-0.0247604250907898,-0.0153325796127319,-0.0865501016378403,-0.0809119120240211,-0.0844855755567551,-0.0716352835297585
401,-0.0165095124393702,-0.0173695180565119,-0.0675466284155846,-0.0449184253811836,-0.079911895096302,-0.0872032940387726
402,0.00525867799296975,-0.0183594841510057,-0.0262068249285221,0.000914818490855396,-0.0517170950770378,-0.0830549374222755
403,0.0286122616380453,-0.0228028409183025,0.0224088374525309,0.0413411930203438,-0.00855171680450439,-0.0667423009872437
404,0.0327014401555061,-0.0262325052171946,0.0543830767273903,0.0613745823502541,0.0265433676540852,-0.0482489019632339
405,0.0118444235995412,-0.0214508939534426,0.0546475052833557,0.0539244450628757,0.0310995280742645,-0.0282294321805239
406,-0.0185105446726084,-0.0110647510737181,0.0279505159705877,0.0260343011468649,0.00514000002294779,-0.00730211054906249
407,-0.0391553193330765,-0.0022787747438997,-0.00390434381552041,-0.00328793632797897,-0.0263788755983114,0.00842034351080656
408,-0.0427929386496544,0.00326941860839725,-0.022448992356658,-0.0190599616616964,-0.0399219840764999,0.0151680605486035
409,-0.0367074012756348,0.000611399300396442,-0.0270730685442686,-0.0221387892961502,-0.0343888849020004,0.0110181467607617
410,-0.0342116355895996,-0.0157149843871593,-0.0255193784832954,-0.0224767550826073,-0.0242045223712921,-0.000464710232336074
411,-0.0355641655623913,-0.0318309143185616,-0.0161115322262049,-0.0196185577660799,-0.0168054234236479,-0.000955702678766102
412,-0.0299923550337553,-0.0265097822993994,0.00573054142296314,-0.00478441826999187,-0.00621465127915144,0.0228881482034922
413,-0.018470348790288,-0.000562222441658378,0.0298497993499041,0.0169261172413826,0.00801633019000292,0.0551172755658627
414,-0.00572774279862642,0.0323081947863102,0.0464194230735302,0.0362891927361488,0.0228869505226612,0.0751947909593582
415,0.0127388723194599,0.0651325508952141,0.056445375084877,0.0540944077074528,0.0388901345431805,0.0801651403307915
416,0.0381295904517174,0.0928071141242981,0.0624879710376263,0.0728176459670067,0.0552030131220818,0.0739240944385529
417,0.062823586165905,0.103905655443668,0.0651078820228577,0.0886151418089867,0.0741673856973648,0.0619914531707764
418,0.0780178904533386,0.0891923010349274,0.0602516494691372,0.0901775360107422,0.0942244827747345,0.0463963709771633
419,0.0801827684044838,0.0553726926445961,0.0494374074041843,0.0751594677567482,0.107499197125435,0.0281160846352577
420,0.0712193548679352,0.0184859670698643,0.0422699637711048,0.0553734041750431,0.111282549798489,0.013427373021841
421,0.0595496110618114,-0.00998255982995033,0.0424112044274807,0.0420607477426529,0.10905733704567,0.00745579926297069
422,0.0508074499666691,-0.0284983273595572,0.0404886901378632,0.0355742312967777,0.101297199726105,0.00685625616461039
423,0.0388384312391281,-0.0392623916268349,0.0241035874933004,0.0252700820565224,0.0807715505361557,0.00460665719583631
424,0.0250273440033197,-0.0345809832215309,0.00356917874887586,0.00967896915972233,0.0522652715444565,0.0070568835362792
425,0.0188372395932674,-0.00884617865085602,-0.00122780643869191,-0.00198745168745518,0.034337691962719,0.0225589368492365
426,0.0187775734812021,0.0238393321633339,0.00709125818684697,-0.00854072161018848,0.0285578239709139,0.041483037173748
427,0.0195751879364252,0.0416675098240376,0.0185368061065674,-0.0101838167756796,0.023425355553627,0.0522094294428825
428,0.0237598605453968,0.0365503579378128,0.0306633990257978,-0.00237253331579268,0.0169687606394291,0.0538628473877907
429,0.0314645618200302,0.0177899375557899,0.0344448946416378,0.0126066943630576,0.00954188872128725,0.0478755235671997
430,0.0312593504786491,-0.0045896447263658,0.0184263568371534,0.0234655756503344,-0.000244974915403873,0.0334668159484863
431,0.0163269136101007,-0.0269111040979624,-0.00804245006293058,0.0226708427071571,-0.00722859287634492,0.0169597864151001
432,-0.0105285588651896,-0.0426810421049595,-0.0264625977724791,0.00913158990442753,-0.0122328326106071,0.0116086946800351
433,-0.0433400608599186,-0.0379664152860641,-0.0320395492017269,-0.0141165787354112,-0.0208028554916382,0.0205818135291338
434,-0.0678030923008919,-0.00620371382683516,-0.0268699377775192,-0.0350087992846966,-0.0261919628828764,0.0366991274058819
435,-0.0681590363383293,0.0373560525476933,-0.0159958824515343,-0.0428646728396416,-0.0224627237766981,0.0531650669872761
436,-0.0426849760115147,0.071238175034523,-0.00697093177586794,-0.0385199002921581,-0.015855560079217,0.0634598881006241
437,-0.0027626131195575,0.089376412332058,-0.00273725623264909,-0.0261529702693224,-0.0113270785659552,0.0676834285259247
438,0.03453578799963,0.0942850112915039,-0.00558972870931029,-0.0134126152843237,-0.0101452954113483,0.0691913068294525
439,0.0536350980401039,0.0887676104903221,-0.0144887361675501,-0.00790728069841862,-0.0123202325776219,0.0650211498141289
440,0.0543127581477165,0.0817644000053406,-0.0205058231949806,-0.00891427509486675,-0.0142962951213121,0.0545942261815071
441,0.0490418747067451,0.0743554905056953,-0.022201145067811,-0.0162723008543253,-0.017465204000473,0.0410416759550571
442,0.0429263561964035,0.0553041398525238,-0.0281875636428595,-0.0319747216999531,-0.0283844154328108,0.0263935774564743
443,0.0315946377813816,0.0296405516564846,-0.0438470244407654,-0.0541589744389057,-0.0502351596951485,0.015805222094059
444,0.0166964344680309,0.0216905064880848,-0.0661542043089867,-0.0790199786424637,-0.0793334916234016,0.0168969072401524
445,0.00357353244908154,0.0379970706999302,-0.0845364779233933,-0.101045951247215,-0.106309771537781,0.0261560678482056
446,-0.01206374168396,0.0508518256247044,-0.0939378812909126,-0.119343556463718,-0.12865723669529,0.026167856529355
447,-0.0331474356353283,0.0389508754014969,-0.0977149456739426,-0.134773969650269,-0.150005832314491,0.0130733735859394
448,-0.0465093180537224,0.0174820777028799,-0.0931524261832237,-0.136094123125076,-0.159169778227806,0.00594857102259994
449,-0.0356564112007618,0.00848100055009127,-0.0774006918072701,-0.114464998245239,-0.138331443071365,0.0141724329441786
450,-0.00333294691517949,0.0152611704543233,-0.0558420494198799,-0.0799238160252571,-0.09635940939188,0.0293945837765932
451,0.0252827703952789,0.0302440449595451,-0.0375822186470032,-0.0526566915214062,-0.0679939240217209,0.0465694218873978
452,0.0298111364245415,0.0481131635606289,-0.0303287114948034,-0.0457588322460651,-0.0719550624489784,0.0613837763667107
453,0.0174395851790905,0.0690644457936287,-0.0290697067975998,-0.0509124547243118,-0.0918275490403175,0.0686954855918884
454,0.0079628974199295,0.0937045142054558,-0.0176525432616472,-0.045403603464365,-0.1019337028265,0.0782551616430283
455,0.00642533786594868,0.114276334643364,0.00506382482126355,-0.0240341480821371,-0.0974821746349335,0.0960314571857452
456,0.00394123839214444,0.117867939174175,0.0228596832603216,-0.00605197623372078,-0.0929516553878784,0.108351714909077
457,0.00345961935818195,0.11323194950819,0.0337653756141663,0.00151958712376654,-0.0905017331242561,0.115655861794949
458,0.0123250558972359,0.123917013406754,0.0448412671685219,0.00482045812532306,-0.0825987011194229,0.126930624246597
459,0.0194745361804962,0.145479544997215,0.0466661192476749,-0.00291572557762265,-0.0762927755713463,0.129120588302612
460,0.0152538102120161,0.152841985225677,0.0297526065260172,-0.0250211469829082,-0.0778298899531364,0.11204020678997
461,0.00811066012829542,0.139149233698845,0.00314259435981512,-0.0481658205389977,-0.0804510340094566,0.0876112133264542
462,0.00987937860190868,0.114596791565418,-0.0218266230076551,-0.0645503550767899,-0.0818315446376801,0.0680518075823784
463,0.0214329343289137,0.0867789164185524,-0.0457352437078953,-0.082251250743866,-0.091793529689312,0.0513152666389942
464,0.0310232769697905,0.0619456954300404,-0.0694089233875275,-0.106353759765625,-0.116065129637718,0.0337558165192604
465,0.029308395460248,0.0474026538431644,-0.089022196829319,-0.129424542188644,-0.147220358252525,0.0203656125813723
466,0.0194334629923105,0.0407413505017757,-0.107445485889912,-0.14579938352108,-0.178827255964279,0.010874236933887
467,0.00525557855144143,0.0333720408380032,-0.12876258790493,-0.15525133907795,-0.209806263446808,0.000466405152110383
468,-0.0162548329681158,0.0203496087342501,-0.151561468839645,-0.160755544900894,-0.239607810974121,-0.00819081719964743
469,-0.0443975105881691,0.00604608561843634,-0.170955970883369,-0.167794764041901,-0.262700200080872,-0.00877026375383139
470,-0.0672756060957909,0.0111447684466839,-0.17469148337841,-0.17285792529583,-0.264306902885437,0.00593369593843818
471,-0.0772024542093277,0.0437289997935295,-0.15659736096859,-0.168476134538651,-0.241120561957359,0.0335659757256508
472,-0.0691265016794205,0.0850340351462364,-0.117363408207893,-0.144456893205643,-0.198167458176613,0.0691555663943291
473,-0.0359047688543797,0.120590001344681,-0.0568615682423115,-0.0924830734729767,-0.136836320161819,0.110168561339378
474,0.00823368225246668,0.14280004799366,0.00854827463626862,-0.0314227603375912,-0.0772996991872787,0.138880908489227
475,0.0423569008708,0.148190051317215,0.0582377910614014,0.0137044005095959,-0.0398637503385544,0.145108610391617
476,0.0646616742014885,0.145783677697182,0.0871455296874046,0.0392570048570633,-0.0195878576487303,0.141153782606125
477,0.0760715305805206,0.141271084547043,0.0921896696090698,0.0430918820202351,-0.0140086160972714,0.13563397526741
478,0.0714679807424545,0.130547076463699,0.0661015808582306,0.017887769266963,-0.0305510479956865,0.12392495572567
479,0.0469600670039654,0.111601926386356,0.00916013866662979,-0.0341761745512486,-0.0690204948186874,0.0958892479538918
480,0.0035542796831578,0.0898061469197273,-0.0580578856170177,-0.0945120379328728,-0.120873235166073,0.0529006235301495
481,-0.0457057282328606,0.0747859850525856,-0.105058111250401,-0.135860681533813,-0.169947355985641,0.0146419834345579
482,-0.080402784049511,0.0710751712322235,-0.117678634822369,-0.142385557293892,-0.197630181908607,-0.000502800743561238
483,-0.0890830904245377,0.0760051608085632,-0.0992763713002205,-0.115676820278168,-0.196755647659302,0.010724350810051
484,-0.0734422653913498,0.0867222100496292,-0.0590466298162937,-0.0670619904994965,-0.17413417994976,0.0399069152772427
485,-0.0430577173829079,0.0996882990002632,-0.0121358698233962,-0.0140685364603996,-0.140326872467995,0.0752927884459496
486,-0.0127958236262202,0.104014903306961,0.0199469570070505,0.0222206879407167,-0.106218092143536,0.104365915060043
487,0.00284004188142717,0.0875213593244553,0.0166005492210388,0.023466968908906,-0.0878001749515533,0.110918469727039
488,0.00740127358585596,0.061145830899477,-0.0214033909142017,-0.00872475281357765,-0.0924052447080612,0.0913999229669571
489,0.0143234860152006,0.0520272701978683,-0.0698327422142029,-0.0534598492085934,-0.109390921890736,0.0635823383927345
490,0.0184914972633123,0.0637256801128387,-0.108107671141624,-0.094988651573658,-0.127616107463837,0.0400414019823074
491,0.00437836768105626,0.0743965432047844,-0.127315893769264,-0.126370698213577,-0.144522622227669,0.0155047895386815
492,-0.0293159037828445,0.0673100501298904,-0.126373037695885,-0.142414286732674,-0.160270035266876,-0.014554088935256
493,-0.0642804875969887,0.0512364953756332,-0.110849738121033,-0.13934038579464,-0.170055374503136,-0.0384783335030079
494,-0.0862447991967201,0.0395234897732735,-0.0923379212617874,-0.122644662857056,-0.170914322137833,-0.0457899421453476
495,-0.0965765491127968,0.0287276897579432,-0.0801464095711708,-0.104082673788071,-0.166004464030266,-0.039830919355154
496,-0.0956923812627792,0.0153506165370345,-0.0719241723418236,-0.0869257152080536,-0.15617161989212,-0.0279847159981728
497,-0.0830300748348236,0.00147237069904804,-0.0640426725149155,-0.0698805972933769,-0.14272053539753,-0.0203984808176756
498,-0.0594839863479137,-0.00603429367765784,-0.0517244897782803,-0.0503165349364281,-0.125107333064079,-0.0188588313758373
499,-0.0253536161035299,0.00298693380318582,-0.0301076304167509,-0.0266804378479719,-0.0990007296204567,-0.0123314140364528
500,0.0139406286180019,0.0270023345947266,-0.00862972997128963,-0.00431817770004272,-0.068006344139576,0.00398878427222371
501,0.0444590486586094,0.0525868274271488,-0.00463003106415272,0.00880597159266472,-0.0467600263655186,0.020012266933918
502,0.054257970303297,0.0700121819972992,-0.0233428068459034,0.00701224571093917,-0.0453043356537819,0.0237112268805504
503,0.0503032803535461,0.0801134780049324,-0.0499441996216774,-0.00581672880798578,-0.0560293160378933,0.0174296703189611
504,0.0482624024152756,0.0897024869918823,-0.0631572306156158,-0.0155374882742763,-0.0638232454657555,0.0141527494415641
505,0.0495178177952766,0.101389199495316,-0.057348009198904,-0.0136639615520835,-0.0608524605631828,0.021693104878068
506,0.0445369407534599,0.110964119434357,-0.0414947532117367,-0.00501916976645589,-0.052059181034565,0.0371869765222073
507,0.029566552489996,0.116313688457012,-0.0251033119857311,0.000748459424357861,-0.0532466657459736,0.0501205250620842
508,0.0106827579438686,0.119719162583351,-0.018465057015419,-0.00242433045059443,-0.0755556002259254,0.0503360144793987
509,-0.0025402286555618,0.126084521412849,-0.0258638933300972,-0.0113363843411207,-0.110561698675156,0.0407585278153419
510,-0.00441712234169245,0.135249763727188,-0.0364314801990986,-0.016408758237958,-0.137949287891388,0.0328071750700474
511,0.00429698918014765,0.136440187692642,-0.040509358048439,-0.0132682379335165,-0.146524056792259,0.0281743835657835
512,0.0178059581667185,0.123611897230148,-0.0434598922729492,-0.00653803860768676,-0.142503529787064,0.0208259243518114
513,0.0307097546756268,0.106381349265575,-0.050007876008749,-0.000928694615140557,-0.13437058031559,0.0134851597249508
514,0.0421073883771896,0.0968284606933594,-0.0549301542341709,0.00256151054054499,-0.122239753603935,0.0137384021654725
515,0.0498171485960484,0.0921666771173477,-0.0587456300854683,-5.27869269717485E-05,-0.109710082411766,0.0165600627660751
516,0.0513498336076736,0.0792171061038971,-0.0738233849406242,-0.016608402132988,-0.107714116573334,0.00695280497893691
517,0.0502126514911652,0.0517948046326637,-0.109610259532928,-0.0518868491053581,-0.123979993164539,-0.0247180573642254
518,0.048978254199028,0.0172973405569792,-0.157098338007927,-0.099190428853035,-0.154892057180405,-0.0710131898522377
519,0.0404564514756203,-0.012203055433929,-0.197805762290955,-0.144961982965469,-0.188785672187805,-0.113887451589108
520,0.0204608663916588,-0.0236548203974962,-0.219203993678093,-0.17886084318161,-0.212159752845764,-0.140994638204575
521,0.00404880475252867,-0.00349879171699286,-0.2107163220644,-0.189020693302155,-0.21162560582161,-0.14042466878891
522,0.00425627175718546,0.0409149937331676,-0.172399893403053,-0.167069867253304,-0.187854051589966,-0.103411719202995
523,0.0118860397487879,0.0833813026547432,-0.123155355453491,-0.121484637260437,-0.156093016266823,-0.04348424077034
524,0.0159289762377739,0.107622422277927,-0.0832267701625824,-0.0735823437571526,-0.127467155456543,0.00934303272515535
525,0.0160385835915804,0.109894454479218,-0.0611762367188931,-0.042614508420229,-0.107683919370174,0.0332539603114128
526,0.0123640270903707,0.0949480682611465,-0.0524126254022121,-0.0332540087401867,-0.102025009691715,0.0288454126566648
527,0.00578356301411986,0.0749445632100105,-0.0471487231552601,-0.0375311970710754,-0.108791522681713,0.0107654295861721
528,0.0016224350547418,0.0555673018097878,-0.0442483238875866,-0.0466548390686512,-0.116017498075962,-0.00988702476024628
529,0.00465443963184953,0.0370076596736908,-0.0451279878616333,-0.0507867559790611,-0.112997576594353,-0.0267085507512093
530,0.0181836728006601,0.0288311410695314,-0.0387371331453323,-0.0368731133639812,-0.0991548597812653,-0.027990136295557
531,0.0425085760653019,0.0384255796670914,-0.0203729420900345,-0.00661504734307528,-0.0800730362534523,-0.0098787834867835
532,0.0694531574845314,0.0520584620535374,-0.00789111293852329,0.016987694427371,-0.064849466085434,0.0050891893915832
533,0.0868044272065163,0.0524515435099602,-0.00968842674046755,0.0204434022307396,-0.0589993372559547,-0.00247035711072385
534,0.0889380425214767,0.0407151915132999,-0.0145449163392186,0.0136135993525386,-0.0599384382367134,-0.022113274782896
535,0.0774620324373245,0.0240851622074842,-0.0206849463284016,0.00315184216015041,-0.0661062672734261,-0.0398268401622772
536,0.0565744638442993,0.00719904666766524,-0.0331829749047756,-0.0138697866350412,-0.0758807137608528,-0.0550171472132206
537,0.0329729281365871,-0.00171560421586037,-0.0464919656515121,-0.0329939275979996,-0.0811530351638794,-0.0676812157034874
538,0.0138061922043562,0.00118718412704766,-0.0490029565989971,-0.043193407356739,-0.0734161958098412,-0.0717076286673546
539,0.00535113550722599,0.00948750320822001,-0.0347516722977161,-0.0382403656840324,-0.052764680236578,-0.0606416240334511
540,0.00782623514533043,0.017358336597681,-0.00977993384003639,-0.0216060299426317,-0.0271456893533468,-0.035006295889616
541,0.0152347385883331,0.0264232866466045,0.0130281960591674,-0.00411500781774521,-0.00552140455693007,-0.00242609903216362
542,0.0250084586441517,0.0379311554133892,0.0252566821873188,0.00545231997966766,0.00610097777098417,0.0283565409481525
543,0.0318836383521557,0.0462256036698818,0.0266489423811436,0.00848474819213152,0.0103580430150032,0.0526596866548061
544,0.0244436394423246,0.0471499748528004,0.0198311321437359,0.00839472934603691,0.0131612997502089,0.0720931142568588
545,0.006648029666394,0.0422003045678139,0.00769799994304776,0.00267510092817247,0.0120782619342208,0.0881304144859314
546,0.00263138324953616,0.0314226225018501,-0.00452828826382756,-0.0061484151519835,0.00367891252972186,0.0927105844020844
547,0.0198125671595335,0.0132293319329619,-0.0162729881703854,-0.0120687372982502,-0.0118891717866063,0.0739926248788834
548,0.0348203741014004,-0.0126989269629121,-0.0307516008615494,-0.0159058198332787,-0.0311696715652943,0.033741295337677
549,0.0290912725031376,-0.0414974987506866,-0.0370678901672363,-0.014533662237227,-0.0410194210708141,-0.00650693429633975
550,0.0054488810710609,-0.0608121193945408,-0.0206003356724977,-0.000337915465934202,-0.0332345962524414,-0.0255157444626093
551,-0.0255433358252048,-0.0627335011959076,0.0120661780238152,0.0237040165811777,-0.0182960145175457,-0.0222363267093897
552,-0.0476290211081505,-0.052679855376482,0.0470825023949146,0.0509270131587982,-0.00315709831193089,-0.00377242849208415
553,-0.0476005300879478,-0.0410508997738361,0.0798433646559715,0.0791357681155205,0.0163556020706892,0.0229390356689692
554,-0.033134788274765,-0.0355646051466465,0.106072254478931,0.102821208536625,0.0371335297822952,0.0442737229168415
555,-0.0154466154053807,-0.0357514806091785,0.123931095004082,0.119447059929371,0.0562613420188427,0.0560654066503048
556,0.00683403015136719,-0.0336660742759705,0.134575948119164,0.131056249141693,0.0754991844296455,0.0689749345183373
557,0.0298844929784536,-0.0276423282921314,0.132627785205841,0.132789477705956,0.0903215110301971,0.0851545110344887
558,0.047191210091114,-0.0205763727426529,0.117913961410522,0.121540665626526,0.0999891385436058,0.0980454683303833
559,0.059311006218195,-0.0142639866098762,0.0954290255904198,0.10046574473381,0.105702698230743,0.101260758936405
560,0.0621366575360298,-0.0140875987708569,0.0645865276455879,0.0743864700198174,0.101109266281128,0.0899055302143097
561,0.0529595464468002,-0.0211711600422859,0.0337385348975658,0.0556513145565987,0.0886421278119087,0.0718005746603012
562,0.040904562920332,-0.0286204926669598,0.0175932347774506,0.05372703820467,0.0823938548564911,0.0606326945126057
563,0.0333354733884335,-0.0349504239857197,0.0194548442959785,0.0637287348508835,0.0908058807253838,0.0597345978021622
564,0.0259863622486591,-0.0458194091916084,0.0332968607544899,0.0763499662280083,0.107408247888088,0.0667815878987312
565,0.00678918557241559,-0.0570271611213684,0.0473433248698711,0.0829684361815453,0.111669801175594,0.0772225484251976
566,-0.0240468662232161,-0.0501117147505283,0.0558996945619583,0.0822638347744942,0.095908135175705,0.0893169343471527
567,-0.0453630238771439,-0.0148096065968275,0.0672956183552742,0.084518276154995,0.0803254991769791,0.109976373612881
568,-0.0479407049715519,0.0326172076165676,0.0881076082587242,0.0962446704506874,0.084146223962307,0.138251483440399
569,-0.0440201982855797,0.0629695802927017,0.118004597723484,0.114447005093098,0.106041103601456,0.159052699804306
570,-0.0407372899353504,0.0594276785850525,0.146262064576149,0.132165238261223,0.127316653728485,0.16118335723877
571,-0.0338524021208286,0.0301438253372908,0.157243147492409,0.145350739359856,0.133836686611176,0.150306820869446
572,-0.0250591579824686,-0.0064865336753428,0.150156944990158,0.153582274913788,0.128857910633087,0.138849467039108
573,-0.0246794540435076,-0.040603019297123,0.13603849709034,0.155384734272957,0.118614517152309,0.130985483527184
574,-0.0306277964264154,-0.0627404153347015,0.126948595046997,0.153912752866745,0.110694214701653,0.128025576472282
575,-0.0324162431061268,-0.0659769624471664,0.12488754093647,0.150773763656616,0.109944015741348,0.129365280270576
576,-0.0323346816003323,-0.0597920790314674,0.11946339905262,0.137881428003311,0.110138662159443,0.124849401414394
577,-0.0379086770117283,-0.0555953457951546,0.104228377342224,0.111954547464848,0.106510810554028,0.106983713805676
578,-0.0472738146781921,-0.0539642460644245,0.0837277844548225,0.0827338695526123,0.103218778967857,0.0809300914406776
579,-0.0516860038042068,-0.0514241680502892,0.0688349157571793,0.0626747086644173,0.108516372740269,0.0585911236703396
580,-0.0494167357683182,-0.0436747707426548,0.0644346848130226,0.0540162138640881,0.122100502252579,0.0484426952898502
581,-0.0493938773870468,-0.0321548618376255,0.0647466331720352,0.0519420318305492,0.131501093506813,0.0492102093994617
582,-0.0512448661029339,-0.025400361046195,0.0671427771449089,0.0576311759650707,0.133651897311211,0.0594597011804581
583,-0.0435507819056511,-0.0266524404287338,0.0766043588519096,0.073911041021347,0.140022531151772,0.081955723464489
584,-0.0255866795778275,-0.0319399647414684,0.0960754305124283,0.0966609194874763,0.157005861401558,0.111548244953156
585,-0.00568753760308027,-0.0377144254744053,0.120369598269463,0.119974255561829,0.177999064326286,0.133212566375732
586,0.00849771592766047,-0.0425057746469975,0.13781975209713,0.138973280787468,0.189418464899063,0.135536104440689
587,0.0115609439089894,-0.0450696647167206,0.140157759189606,0.149698689579964,0.184182867407799,0.122933968901634
588,0.00427262764424086,-0.0445115193724632,0.131646767258644,0.151141837239265,0.16875621676445,0.111452236771584
589,-0.00681879138574004,-0.0414552874863148,0.123218759894371,0.144515424966812,0.15430012345314,0.110360532999039
590,-0.0135653559118509,-0.0356721058487892,0.123114176094532,0.137104451656342,0.148512154817581,0.118278905749321
591,-0.0134594272822142,-0.0239226948469877,0.133314430713654,0.138937309384346,0.155601277947426,0.133240282535553
592,-0.00753708742558956,-0.00649310136213899,0.147642403841019,0.149218261241913,0.17639122903347,0.15229620039463
593,0.00565795321017504,0.00727067841216922,0.156302452087402,0.155692607164383,0.199431329965591,0.166793704032898
594,0.0215109586715698,0.0114862201735377,0.154454246163368,0.148754090070724,0.205372482538223,0.168231636285782
595,0.0211172513663769,0.0074445134960115,0.139808595180511,0.128341108560562,0.185596942901611,0.153122499585152
596,-0.00568713760003448,-0.00337880593724549,0.116790801286697,0.10377499461174,0.150495961308479,0.126204937696457
597,-0.0373176075518131,-0.0117040853947401,0.103894099593163,0.0908340439200401,0.124833039939404,0.10261645168066
598,-0.0449401624500752,-0.00631339848041534,0.113387145102024,0.0981657803058624,0.12742817401886,0.0957938730716705
599,-0.024271747097373,0.008365198969841,0.13466215133667,0.117942914366722,0.150563061237335,0.103044383227825
600,0.00563586270436645,0.0222197491675615,0.153294444084167,0.138125121593475,0.171605154871941,0.113405525684357
601,0.0277624968439341,0.0348508432507515,0.17313839495182,0.158935576677322,0.184253379702568,0.126070871949196
602,0.036438561975956,0.0439091846346855,0.198199868202209,0.181267857551575,0.193197056651115,0.141804739832878
603,0.031868401914835,0.043609194457531,0.217756703495979,0.197697252035141,0.197823256254196,0.154473230242729
604,0.02287239395082,0.0369441546499729,0.224312201142311,0.203711524605751,0.200981959700584,0.159387677907944
605,0.016677014529705,0.0321880206465721,0.217109769582748,0.197651892900467,0.203480154275894,0.152815997600555
606,0.0092523442581296,0.0313252210617065,0.19609597325325,0.179459810256958,0.19670295715332,0.133614614605904
607,-0.00341880670748651,0.0281391851603985,0.167865782976151,0.156037732958794,0.17978797852993,0.10895399004221
608,-0.0170442443341017,0.0212548952549696,0.145336538553238,0.137946784496307,0.167117789387703,0.0927757620811462
609,-0.025486683472991,0.0127399796620011,0.132989451289177,0.12994097173214,0.168509691953659,0.0909131541848183
610,-0.0268477089703083,-0.00522271869704127,0.117128416895866,0.123182572424412,0.173590481281281,0.0866608992218971
611,-0.0218630842864513,-0.0376790687441826,0.090547226369381,0.107416220009327,0.170286253094673,0.0661769807338715
612,-0.0131472237408161,-0.0672095865011215,0.0718378126621246,0.0898399651050568,0.163552463054657,0.0469908490777016
613,-0.00737915141507983,-0.0697443708777428,0.0743418410420418,0.0826175808906555,0.15948960185051,0.0511593222618103
614,-0.00739216944202781,-0.0428693220019341,0.0915116369724274,0.088934950530529,0.155354186892509,0.0770760253071785
615,-0.00353763136081398,-0.00134169205557555,0.119474589824677,0.11076083779335,0.154122486710548,0.112631864845753
616,0.0117241917178035,0.0402722842991352,0.155813321471214,0.145182609558105,0.163101837038994,0.146309807896614
617,0.0300099682062864,0.0701835975050926,0.181794255971909,0.173096641898155,0.173992365598679,0.163109168410301
618,0.0430695675313473,0.0824013650417328,0.178551331162453,0.177796602249146,0.172228083014488,0.156030565500259
619,0.0540180876851082,0.0827434286475182,0.159376963973045,0.170200854539871,0.164503633975983,0.138029798865318
620,0.0628129690885544,0.0820034593343735,0.155662342905998,0.171029895544052,0.166837453842163,0.123281560838223
621,0.059023305773735,0.0811419039964676,0.173350989818573,0.179983079433441,0.177314788103104,0.109768465161324
622,0.0367663502693176,0.0732313990592957,0.188500702381134,0.180680304765701,0.181364968419075,0.0916213020682335
623,0.00447801081463695,0.0542693436145782,0.179212063550949,0.163012906908989,0.168556705117226,0.069340743124485
624,-0.0236529689282179,0.0274484027177095,0.150789275765419,0.134677082300186,0.144251346588135,0.0470192842185497
625,-0.0412121117115021,0.00434419559314847,0.126029640436172,0.111014813184738,0.124981597065926,0.0298253055661917
626,-0.0500915348529816,-0.00570217380300164,0.117999911308289,0.100578993558884,0.118647456169128,0.0229655764997005
627,-0.0501034893095493,-0.00783842150121927,0.123435705900192,0.104455508291721,0.123142659664154,0.0276238210499287
628,-0.0385619774460793,-0.010385612025857,0.13079147040844,0.115274481475353,0.138633102178574,0.0360330007970333
629,-0.0163831599056721,-0.00994656328111887,0.131134152412415,0.122109979391098,0.165568232536316,0.0386054776608944
630,0.00723750796169043,-0.00387335591949523,0.122711800038815,0.119287267327309,0.190301328897476,0.0336672104895115
631,0.0220992732793093,0.00174938270356506,0.109822407364845,0.109950199723244,0.194198712706566,0.0308592431247234
632,0.0248925592750311,0.000802183581981808,0.0981522500514984,0.101907283067703,0.174316212534904,0.0382057726383209
633,0.0152415512129664,-0.0112802805379033,0.08786740899086,0.0975541323423386,0.139341667294502,0.0469287000596523
634,0.0012170672416687,-0.030465031042695,0.0825900658965111,0.0999052599072456,0.107501946389675,0.0503408052027225
635,-0.0044499565847218,-0.0447430238127708,0.0871606394648552,0.111738152801991,0.0966854691505432,0.0564141385257244
636,0.00241840025410056,-0.0471837371587753,0.0946417599916458,0.123979851603508,0.103759557008743,0.0727516934275627
637,0.0191569067537785,-0.0345776937901974,0.095582939684391,0.125509038567543,0.113507844507694,0.0988619327545166
638,0.0369140021502972,-0.0127235054969788,0.0843057483434677,0.111876651644707,0.114178568124771,0.118450403213501
639,0.0475357286632061,0.000603380554821342,0.0638187527656555,0.0885387137532234,0.106358356773853,0.10884128510952
640,0.0502081662416458,-0.00673201540485024,0.0464830510318279,0.0670580118894577,0.100939050316811,0.0677079111337662
641,0.0462687984108925,-0.0280563682317734,0.0433492325246334,0.057232491672039,0.103753007948399,0.0173766314983368
642,0.0347026325762272,-0.0477612800896168,0.0566910281777382,0.0641737654805183,0.10873007774353,-0.0183954127132893
643,0.0117766354233027,-0.0628366395831108,0.0755093619227409,0.0800733268260956,0.105977892875671,-0.0361116230487823
644,-0.0168488454073668,-0.0737932845950127,0.0931738018989563,0.0973655134439468,0.102133125066757,-0.0374417081475258
645,-0.0395412482321262,-0.0749650225043297,0.110463097691536,0.114379361271858,0.106526501476765,-0.0213751755654812
646,-0.0551925264298916,-0.0683815106749535,0.118608295917511,0.121938914060593,0.107345886528492,0.00112935644574463
647,-0.0617756620049477,-0.0553435310721397,0.113893687725067,0.117210015654564,0.0972116962075233,0.0200011376291513
648,-0.0559826605021954,-0.0340662635862827,0.098164439201355,0.101053781807423,0.0810184627771378,0.0294493120163679
649,-0.046809297055006,-0.0159633215516806,0.0663916170597076,0.0656522437930107,0.0578598752617836,0.015861239284277
650,-0.0410305969417095,-0.012308775447309,0.0264764297753572,0.0189740043133497,0.0326270163059235,-0.0212410259991884
651,-0.0348681956529617,-0.0187452211976051,0.00180844555143267,-0.0106834014877677,0.0223327092826366,-0.057881660759449
652,-0.020952470600605,-0.0240952633321285,0.00973460078239441,-0.00222874176688492,0.0415545552968979,-0.0702372863888741
653,0.00706413993611932,-0.0211281199008226,0.0494846031069756,0.041010394692421,0.0879378914833069,-0.0520642437040806
654,0.0459087044000626,-0.0108083169907331,0.1015265583992,0.0969549566507339,0.14038097858429,-0.0101267639547586
655,0.0803858861327171,0.00274921045638621,0.144798472523689,0.145216971635818,0.18011362850666,0.0423393659293652
656,0.0944464951753616,0.0153151862323284,0.171399503946304,0.175412148237228,0.205476671457291,0.08516825735569
657,0.085313007235527,0.0182241685688496,0.176367253065109,0.179200530052185,0.217696994543076,0.0961699187755585
658,0.0637663528323174,0.00365822459571064,0.151518747210503,0.151297718286514,0.208208620548248,0.0691393613815308
659,0.0417557209730148,-0.0238397009670734,0.102387584745884,0.102834239602089,0.176767721772194,0.0223425459116697
660,0.0284882187843323,-0.0497042797505856,0.0554431974887848,0.0609782561659813,0.145615771412849,-0.0169141516089439
661,0.0270836297422647,-0.0626569166779518,0.0354781411588192,0.044594582170248,0.130852907896042,-0.0331975184381008
662,0.0299255177378654,-0.0621571019291878,0.0437014922499657,0.0489671044051647,0.123888820409775,-0.0328968800604343
663,0.0300523731857538,-0.0513538829982281,0.065300889313221,0.0613842196762562,0.118229128420353,-0.0291622672230005
664,0.031188515946269,-0.0319760553538799,0.0865933895111084,0.0746352076530457,0.119491040706635,-0.0243792235851288
665,0.0392064340412617,-0.0143183879554272,0.0981966853141785,0.0826197788119316,0.125462546944618,-0.0187646206468344
666,0.0488886311650276,-0.0114960754290223,0.0970797166228294,0.0801318511366844,0.125870779156685,-0.0175271239131689
667,0.0525596216320992,-0.0196177624166012,0.0904180631041527,0.0713459774851799,0.119866035878658,-0.0211099274456501
668,0.0519533082842827,-0.0258020497858524,0.0845813080668449,0.064696379005909,0.114787422120571,-0.0258278604596853
669,0.0526046045124531,-0.0236875396221876,0.0770622864365578,0.0604911893606186,0.112744100391865,-0.0320157147943974
670,0.0597658753395081,-0.0105854105204344,0.0677388608455658,0.0573540031909943,0.11372546851635,-0.0396064780652523
671,0.0693507939577103,0.010274731554091,0.0630029290914536,0.0580678507685661,0.120733544230461,-0.0438984706997871
672,0.0697742849588394,0.0294259563088417,0.0680235773324966,0.0631633177399635,0.13466314971447,-0.0368329882621765
673,0.0636864900588989,0.047272052615881,0.0846864953637123,0.0727176815271378,0.153988435864449,-0.0122674452140927
674,0.0626373589038849,0.0655002295970917,0.107152156531811,0.086842492222786,0.173171550035477,0.0204261094331741
675,0.0658596381545067,0.0688151493668556,0.124630771577358,0.101574622094631,0.184619933366776,0.0424528308212757
676,0.0630885139107704,0.0482711046934128,0.131861120462418,0.111236020922661,0.185338065028191,0.04810456559062
677,0.0460483208298683,0.0157265085726976,0.125975921750069,0.107152126729488,0.172655820846558,0.0387602970004082
678,0.0181662794202566,-0.0112295374274254,0.107275567948818,0.0848205387592316,0.146955281496048,0.0136896790936589
679,-0.00801405683159828,-0.0295420624315739,0.0801291540265083,0.0531272105872631,0.113504976034164,-0.0242303442209959
680,-0.0272878352552652,-0.0567874610424042,0.0437803901731968,0.0201582610607147,0.0732636451721191,-0.0697910487651825
681,-0.0415687300264835,-0.0981710478663445,0.000853082281537354,-0.0121790189296007,0.0311315841972828,-0.10876389592886
682,-0.0471526272594929,-0.127457365393639,-0.0273215733468533,-0.031661581248045,0.00706928921863437,-0.117926709353924
683,-0.0396982990205288,-0.124559871852398,-0.0268308017402887,-0.0309261679649353,0.0132300546392798,-0.0983266457915306
684,-0.0188402645289898,-0.100636035203934,-0.0169116649776697,-0.026556458324194,0.0394001752138138,-0.0795415937900543
685,0.0138098923489451,-0.0744621902704239,-0.0202938187867403,-0.0333016030490398,0.0719683095812798,-0.0811423063278198
686,0.0419600121676922,-0.0592296123504639,-0.0361055620014668,-0.0483447574079037,0.0932354778051376,-0.10286071896553
687,0.0449623949825764,-0.0601484850049019,-0.0508921481668949,-0.0600454956293106,0.0846280604600906,-0.130155429244041
688,0.0249499026685953,-0.0655261054635048,-0.051359698176384,-0.0549675226211548,0.0554554238915443,-0.139567792415619
689,0.00215737614780664,-0.057043582201004,-0.0273562595248222,-0.0294851567596197,0.0379871539771557,-0.120965048670769
690,-0.0106248389929533,-0.0316817164421082,0.0168376471847296,0.00425230711698532,0.0512598901987076,-0.0867812633514404
691,-0.0116051202639937,-0.00182049698196352,0.0640137940645218,0.0358537100255489,0.0877183675765991,-0.0479818172752857
692,-0.000613269163295627,0.0199667401611805,0.100601203739643,0.0650001540780067,0.124174393713474,-0.00273847533389926
693,0.0142773548141122,0.0265789646655321,0.122458577156067,0.0890451893210411,0.140059366822243,0.0411739014089108
694,0.0223231166601181,0.0227718856185675,0.133681669831276,0.106820240616798,0.133654221892357,0.0672633200883865
695,0.0207719337195158,0.0173428524285555,0.136788547039032,0.118439391255379,0.117121867835522,0.0698647648096085
696,0.0150257330387831,0.0113143650814891,0.133002698421478,0.120553195476532,0.106871403753757,0.0573398545384407
697,0.0137844569981098,0.00565052218735218,0.127578914165497,0.114045307040215,0.114071846008301,0.0425019301474094
698,0.0169476997107267,0.00296382652595639,0.119330905377865,0.101031012833118,0.130632430315018,0.0264898799359798
699,0.0212385021150112,0.00656211283057928,0.108969889581203,0.0885764062404633,0.144446060061455,0.00731395138427615
700,0.0277252309024334,0.0158153045922518,0.106346137821674,0.0870637595653534,0.154433488845825,-0.00726423040032387
701,0.0360489375889301,0.0275980215519667,0.114911034703255,0.0955540239810944,0.159412205219269,-0.00989293586462736
702,0.0472597479820251,0.045071829110384,0.126584142446518,0.103303574025631,0.156132832169533,-0.000262095622019842
703,0.0605126097798347,0.0645118206739426,0.124266549944878,0.0941401273012161,0.143220946192741,0.0135146053507924
704,0.0711081326007843,0.0704386383295059,0.0981242507696152,0.0610053278505802,0.127434521913528,0.0199104193598032
705,0.0761591717600822,0.0551163852214813,0.0587172880768776,0.0161171574145556,0.116081587970257,0.00751070538535714
706,0.0680641233921051,0.0261182691901922,0.0176641009747982,-0.0273816231638193,0.0949167683720589,-0.0315707847476006
707,0.0415142886340618,-0.00703579187393188,-0.0235517788678408,-0.0654645338654518,0.0503468625247478,-0.0865352004766464
708,0.00867832638323307,-0.0367756001651287,-0.0589535646140575,-0.0935127437114716,0.00110273354221135,-0.131004169583321
709,-0.0120660346001387,-0.0559653267264366,-0.0767455026507378,-0.104777820408344,-0.0261506959795952,-0.150278896093369
710,-0.0160550456494093,-0.0657559707760811,-0.071076363325119,-0.0973664149641991,-0.0282893888652325,-0.149133056402206
711,-0.0103260334581137,-0.0685665011405945,-0.0443602167069912,-0.0741944909095764,-0.0170483477413654,-0.132401570677757
712,0.00181292113848031,-0.060053113847971,-0.00841642636805773,-0.0429256074130535,0.0015960787422955,-0.102690018713474
713,0.0147453779354692,-0.0422019548714161,0.0192266441881657,-0.0171309318393469,0.0237606856971979,-0.0741347074508667
714,0.0178905352950096,-0.025266669690609,0.0337534695863724,-0.00297689042054117,0.044246319681406,-0.0583253987133503
715,0.0106804696843028,-0.0162158869206905,0.0456277616322041,0.00781585276126862,0.0641284510493279,-0.0493050627410412
716,-0.000307453767163679,-0.01616220921278,0.0627171769738197,0.0237448643893003,0.0842494368553162,-0.037455178797245
717,-0.00609586387872696,-0.017722750082612,0.0860575214028358,0.0480723232030869,0.102576829493046,-0.0195550564676523
718,0.00158123706933111,-0.0122674740850925,0.111289277672768,0.078215554356575,0.117435745894909,0.000128400788526051
719,0.0238252207636833,0.0026650435756892,0.130449488759041,0.105894856154919,0.128082752227783,0.0179372206330299
720,0.056196853518486,0.0273609180003405,0.139780327677727,0.125260651111603,0.137601032853127,0.0372389405965805
721,0.0899327546358109,0.0553214028477669,0.140997812151909,0.134918928146362,0.150408759713173,0.0562651827931404
722,0.112800128757954,0.0711091905832291,0.132735624909401,0.130233243107796,0.166305273771286,0.0624034553766251
723,0.118343599140644,0.0669716000556946,0.109241224825382,0.103461295366287,0.176112681627274,0.0464891493320465
724,0.11450731754303,0.0543091669678688,0.070091113448143,0.0559576116502285,0.162830457091331,0.0137302381917834
725,0.108991026878357,0.0450285263359547,0.0199708938598633,-0.00265473942272365,0.117311596870422,-0.0244466960430145
726,0.0982035845518112,0.0381724946200848,-0.0300862155854702,-0.0551344864070416,0.0552511289715767,-0.0536362119019032
727,0.0788438767194748,0.0296080615371466,-0.0636430382728577,-0.0812515243887901,0.00187032320536673,-0.0629230514168739
728,0.0479602850973606,0.0175891574472189,-0.0735999196767807,-0.0807790756225586,-0.0363490656018257,-0.0622258596122265
729,0.00295230443589389,0.000876527628861368,-0.0667616873979568,-0.0715112313628197,-0.0653964579105377,-0.0687383189797401
730,-0.0397900938987732,-0.0172883179038763,-0.0486276298761368,-0.0585907362401485,-0.0770760327577591,-0.0765058919787407
731,-0.0549714006483555,-0.0278239492326975,-0.016050711274147,-0.0344559922814369,-0.057256393134594,-0.0708689019083977
732,-0.0447461642324924,-0.0325741805136204,0.0229613017290831,-0.00650187442079186,-0.0181364621967077,-0.0605528466403484
733,-0.0278239008039236,-0.0394910164177418,0.0510739646852016,0.0136922625824809,0.0170903503894806,-0.0580393858253956
734,-0.015779722481966,-0.0476475544273853,0.0582157596945763,0.0225537922233343,0.0403539910912514,-0.0636952221393585
735,-0.0149139007553458,-0.0523649081587791,0.0457040295004845,0.0178349204361439,0.0508268922567368,-0.0733339264988899
736,-0.0156972724944353,-0.0415892004966736,0.0308816730976105,0.00933356117457151,0.054184976965189,-0.0712240040302277
737,-0.00336361327208579,-0.00898346398025751,0.0245796423405409,0.00754618970677257,0.0578472130000591,-0.0487930066883564
738,0.0208992138504982,0.0287563893944025,0.0169242657721043,0.0076416190713644,0.0649518072605133,-0.0212865136563778
739,0.0466529093682766,0.047933217138052,-0.00374824809841812,-0.00239071249961853,0.0735341235995293,-0.010015326552093
740,0.0602257922291756,0.0390032865107059,-0.0375294499099255,-0.0296415258198977,0.0690902397036552,-0.0242417100816965
741,0.0553743503987789,0.0133678456768394,-0.0695082694292068,-0.0616139508783817,0.0412512272596359,-0.0517984963953495
742,0.0381104275584221,-0.012231164611876,-0.0861824005842209,-0.0787728875875473,-0.00343365990556777,-0.0717802420258522
743,0.0197922959923744,-0.0243946015834808,-0.0815718546509743,-0.0716255307197571,-0.0432214178144932,-0.0698947831988335
744,0.0120200114324689,-0.00958323571830988,-0.0488134063780308,-0.0369806066155434,-0.0500309057533741,-0.0413140393793583
745,0.0141060343012214,0.0284522343426943,0.0061029177159071,0.0150583824142814,-0.0195478089153767,0.00249614473432302
746,0.017742570489645,0.0707717761397362,0.0652484372258186,0.0664857625961304,0.0277883019298315,0.0464765354990959
747,0.018850889056921,0.107809774577618,0.111296512186527,0.103905484080315,0.0669863298535347,0.0841302648186684
748,0.0155724221840501,0.133944168686867,0.129733294248581,0.118710361421108,0.079798698425293,0.110441230237484
749,0.00839271675795317,0.135112732648849,0.115390874445438,0.106957845389843,0.0675620213150978,0.117757461965084
750,0.00114339764695615,0.107877336442471,0.0769567340612412,0.0712433680891991,0.0480206981301308,0.0956465601921082
751,-0.0025448405649513,0.0691201761364937,0.0323732979595661,0.0257161874324083,0.0367765054106712,0.0428422167897224
752,-0.000579356390517205,0.0359245389699936,-0.00113366881851107,-0.00990579184144735,0.0376853421330452,-0.0227655172348022
753,0.00925206672400236,0.0188582111150026,-0.0182231962680817,-0.0273697003722191,0.0451167114078999,-0.0768138840794563
754,0.0221403241157532,0.0130986571311951,-0.0300734043121338,-0.0368784517049789,0.0466202422976494,-0.110840871930122
755,0.02703907340765,-0.000424972124164924,-0.044258251786232,-0.0473364479839802,0.0344705767929554,-0.129343956708908
756,0.0272912532091141,-0.0209383126348257,-0.0531225092709064,-0.0541200786828995,0.0172346122562885,-0.134620383381844
757,0.0368558764457703,-0.0353916846215725,-0.060400377959013,-0.0610239244997501,0.00372399715706706,-0.138618782162666
758,0.0478144213557243,-0.0467828400433064,-0.0835729241371155,-0.0820785462856293,-0.0102411098778248,-0.157900854945183
759,0.0385183915495873,-0.0615274012088776,-0.119216345250607,-0.114613585174084,-0.0272213257849216,-0.184226244688034
760,0.01023243740201,-0.0723662823438644,-0.134535446763039,-0.13253790140152,-0.0390171967446804,-0.18866690993309
761,-0.022131584584713,-0.0709313452243805,-0.107714541256428,-0.117529764771461,-0.0405801460146904,-0.160517871379852
762,-0.0487970262765884,-0.0600790083408356,-0.0539742298424244,-0.0795926153659821,-0.0341870076954365,-0.117549583315849
763,-0.062473364174366,-0.0458540022373199,-0.00362778687849641,-0.0391227006912231,-0.0229627583175898,-0.0768613964319229
764,-0.0616072453558445,-0.0312353055924177,0.0240808092057705,-0.0101301465183496,-0.0114727960899472,-0.044353112578392
765,-0.0489692129194736,-0.0135380756109953,0.033524114638567,0.00661324989050627,-0.00342509686015546,-0.0203442759811878
766,-0.0293401777744293,0.0113025242462754,0.0399062559008598,0.0185130927711725,-0.00179410132113844,9.42290644161403E-05
767,-0.0107128582894802,0.0417421944439411,0.0473906323313713,0.0278453249484301,-0.00454651284962893,0.022125793620944
768,-0.00172971270512789,0.068388856947422,0.0460752956569195,0.0273937527090311,-0.00745820719748735,0.0393883772194386
769,-0.00577369658276439,0.0778572708368301,0.0252210628241301,0.00946258008480072,-0.0157395359128714,0.0369734168052673
770,-0.0185220949351788,0.0613718666136265,-0.0135586047545075,-0.0247098281979561,-0.0377436727285385,0.00849296152591705
771,-0.0333864130079746,0.0196302775293589,-0.0585822090506554,-0.065911553800106,-0.0705388113856316,-0.0392452627420425
772,-0.0455012433230877,-0.0365588217973709,-0.0967383235692978,-0.101322993636131,-0.100019857287407,-0.0954714193940163
773,-0.0499295592308044,-0.0864292234182358,-0.116131976246834,-0.117636896669865,-0.110831268131733,-0.144204512238503
774,-0.0438892468810081,-0.110238157212734,-0.113673478364944,-0.110598087310791,-0.0987006351351738,-0.165014624595642
775,-0.0296398587524891,-0.105247788131237,-0.101262971758842,-0.0932907685637474,-0.0761177241802216,-0.154092222452164
776,-0.0101894028484821,-0.0835743024945259,-0.0929889976978302,-0.0829790458083153,-0.0570422261953354,-0.127807572484016
777,0.00883757695555687,-0.0624195747077465,-0.0988819450139999,-0.0890435501933098,-0.0474863797426224,-0.109147876501083
778,0.0196752026677132,-0.0544239543378353,-0.118111066520214,-0.106404900550842,-0.0472130067646503,-0.108569726347923
779,0.018570140004158,-0.0624082460999489,-0.133299708366394,-0.117210566997528,-0.0489466153085232,-0.114722512662411
780,0.0105705186724663,-0.0733341798186302,-0.127040162682533,-0.108943656086922,-0.0428988821804523,-0.112134754657745
781,0.00416989903897047,-0.0695924907922745,-0.0981461629271507,-0.084854744374752,-0.0283538326621056,-0.0970994383096695
782,0.000506850308738649,-0.0546316765248775,-0.060757964849472,-0.0566413775086403,-0.0132935112342238,-0.0766666084527969
783,-0.000274765683570877,-0.0392418690025806,-0.0287539772689343,-0.0305641107261181,0.000341732986271381,-0.0557926744222641
784,-0.000872300355695188,-0.0244829207658768,-0.0095287011936307,-0.00990280695259571,0.00999436061829329,-0.0370228700339794
785,-0.0084731075912714,-0.0106798894703388,-0.00293684494681656,0.00216282531619072,0.00835190992802382,-0.0247269738465548
786,-0.021986935287714,0.00142718316055834,-0.00194017274770886,0.00607691938057542,-0.00510829780250788,-0.0192063301801682
787,-0.0347158685326576,0.0128750391304493,0.00028055437724106,0.00560593977570534,-0.0254843644797802,-0.0172972548753023
788,-0.0455544218420982,0.017806638032198,0.00430107349529862,0.00447532627731562,-0.0482282750308514,-0.018639050424099
789,-0.0574839748442173,0.0104816826060414,0.00440326565876603,0.00247631594538689,-0.0684422701597214,-0.0246730484068394
790,-0.0661792904138565,-0.00116312212776393,-0.00186861655674875,-0.00134757219348103,-0.0788594409823418,-0.0304910037666559
791,-0.0619773380458355,-0.0101027423515916,-0.0160191971808672,-0.0112131601199508,-0.0785742327570915,-0.0323961786925793
792,-0.0494686551392078,-0.0232767518609762,-0.0447785332798958,-0.0362210646271706,-0.0811094343662262,-0.0429627858102322
793,-0.0400227904319763,-0.0474956408143044,-0.0852236151695251,-0.0760669186711311,-0.0960979387164116,-0.071393646299839
794,-0.0293921120464802,-0.0735569298267365,-0.116084784269333,-0.11272544413805,-0.110270567238331,-0.100060358643532
795,-0.0186302401125431,-0.0876459777355194,-0.123005948960781,-0.131236881017685,-0.111887581646442,-0.112520843744278
796,-0.0228088423609734,-0.0864644125103951,-0.112621940672398,-0.131209909915924,-0.109623163938522,-0.110694386065006
797,-0.0441320836544037,-0.0733236148953438,-0.0940533950924873,-0.115992650389671,-0.111125320196152,-0.0949737876653671
798,-0.0706863179802895,-0.0513215325772762,-0.071865014731884,-0.092545211315155,-0.113772511482239,-0.0646837577223778
799,-0.0939047858119011,-0.0289842393249273,-0.0536731034517288,-0.0713642090559006,-0.114869847893715,-0.0303167980164289
800,-0.106303751468658,-0.0186863876879215,-0.0421118065714836,-0.0533690974116325,-0.109027191996574,-0.00356957991607487
801,-0.0985167473554611,-0.020487742498517,-0.0274993721395731,-0.027749503031373,-0.0887173861265183,0.0171420443803072
802,-0.0716193020343781,-0.0259320382028818,-0.00211995909921825,0.00971674080938101,-0.0562195666134357,0.037118423730135
803,-0.0345055237412453,-0.0304002929478884,0.0262443367391825,0.0478636920452118,-0.021285954862833,0.0530420579016209
804,0.00204760930500925,-0.0350308641791344,0.0420450456440449,0.0710130408406258,0.00428948318585753,0.0572795048356056
805,0.026189187541604,-0.0399201437830925,0.0440539680421352,0.0753389224410057,0.0110361725091934,0.0498571880161762
806,0.0330375693738461,-0.042171772569418,0.0428514704108238,0.0688851922750473,0.000666676030959934,0.0378441289067268
807,0.027320608496666,-0.0429531000554562,0.0413716398179531,0.0573314428329468,-0.0150218596681952,0.0244374144822359
808,0.015036728233099,-0.0438729636371136,0.0378426499664783,0.0420319959521294,-0.025487644597888,0.0106035005301237
809,-0.00261429091915488,-0.0422548055648804,0.0324455909430981,0.0249542947858572,-0.0307502448558807,0.000593500037211925
810,-0.0220192223787308,-0.0319164469838142,0.0274395477026701,0.0103171179071069,-0.0341602005064487,0.00178120622877032
811,-0.0356762856245041,-0.00724702747538686,0.0252060107886791,0.00121776619926095,-0.0355603322386742,0.0160084646195173
812,-0.0402076244354248,0.0275164190679789,0.0253341253846884,-0.00221700198017061,-0.034797940403223,0.033825870603323
813,-0.0391475968062878,0.0557677894830704,0.0225592311471701,-0.00287842773832381,-0.0354250259697437,0.0427821613848209
814,-0.0380403660237789,0.0579261220991611,0.0057288846001029,-0.00996491964906454,-0.0468588247895241,0.0329391434788704
815,-0.0362084209918976,0.0299707539379597,-0.0237330477684736,-0.0253097154200077,-0.0688039883971214,0.00702763069421053
816,-0.0326206833124161,-0.0109930541366339,-0.0468439124524593,-0.0365546867251396,-0.0858555436134338,-0.0174766685813665
817,-0.0329750739037991,-0.0477700233459473,-0.0557657368481159,-0.0390324108302593,-0.0911369994282722,-0.0316011235117912
818,-0.0402234010398388,-0.0735754892230034,-0.0570596903562546,-0.0385165773332119,-0.0895670279860497,-0.0378864295780659
819,-0.0500998497009277,-0.0852777808904648,-0.0546631403267384,-0.03677898645401,-0.083724819123745,-0.0365588553249836
820,-0.0599311105906963,-0.0841688588261604,-0.055124182254076,-0.0386271551251411,-0.0779232457280159,-0.0342646799981594
821,-0.0693743750452995,-0.0740530267357826,-0.0673077180981636,-0.0547874830663204,-0.0801232606172562,-0.044068418443203
822,-0.0769819468259811,-0.0588059090077877,-0.0888027921319008,-0.0845019146800041,-0.0915137976408005,-0.0666136890649796
823,-0.0832783281803131,-0.0450622104108334,-0.104728758335114,-0.10922510176897,-0.103296808898449,-0.0868013799190521
824,-0.0866180434823036,-0.0367667898535728,-0.0993458777666092,-0.108473964035511,-0.102203622460365,-0.0867351517081261
825,-0.0865283608436584,-0.0348528474569321,-0.0737897679209709,-0.0831917226314545,-0.0845995917916298,-0.0661172494292259
826,-0.0898549631237984,-0.0414311662316322,-0.0435831807553768,-0.0528151206672192,-0.0619680099189281,-0.0449144616723061
827,-0.0928733721375465,-0.0533067621290684,-0.0169744975864887,-0.0289697367697954,-0.042919248342514,-0.0366996303200722
828,-0.081447996199131,-0.0694778487086296,-0.00494488887488842,-0.0202233549207449,-0.0307413004338741,-0.0427058525383472
829,-0.0622979737818241,-0.101090140640736,-0.0288851987570524,-0.040153656154871,-0.037549264729023,-0.0651163905858994
830,-0.0586680620908737,-0.146070331335068,-0.0792328864336014,-0.079922579228878,-0.0679952576756477,-0.0930916517972946
831,-0.0730506256222725,-0.171515837311745,-0.110554814338684,-0.105091743171215,-0.102407731115818,-0.0963655486702919
832,-0.0915142297744751,-0.151819363236427,-0.100014813244343,-0.0968348160386086,-0.121917620301247,-0.0635568425059319
833,-0.107245899736881,-0.10086889564991,-0.0658216997981071,-0.0685717388987541,-0.125596255064011,-0.0193042941391468
834,-0.110085397958755,-0.0492515452206135,-0.0290184244513512,-0.0362973548471928,-0.115700498223305,0.0118597056716681
835,-0.0891325324773788,-0.0146463848650455,0.00612279027700424,-0.00319730606861413,-0.0928373411297798,0.0266057588160038
836,-0.0583971627056599,0.000836098683066666,0.0374039374291897,0.0255369190126657,-0.0668456926941872,0.0294624529778957
837,-0.0391356237232685,0.000762166862841696,0.0587617121636868,0.0420790016651154,-0.0499879270792007,0.0250663906335831
838,-0.0261883791536093,-0.00403097132220864,0.0729758888483047,0.0520476885139942,-0.0369093380868435,0.0247660931199789
839,-0.00948651321232319,-0.000893564487341791,0.0847264602780342,0.0651232749223709,-0.0185148250311613,0.0363038405776024
840,-0.00162097974680364,0.00384222343564034,0.0820444673299789,0.070630244910717,-0.00717126904055476,0.0443638861179352
841,-0.0128042446449399,0.000784388277679682,0.0575847290456295,0.054887443780899,-0.0145083479583263,0.0342555046081543
842,-0.0335592441260815,-0.00588967185467482,0.024571331217885,0.0236780177801847,-0.0333936884999275,0.0123924659565091
843,-0.0527454875409603,-0.0141003727912903,-0.00358225894160569,-0.00947873201221228,-0.0545601584017277,-0.0102021032944322
844,-0.0637499317526817,-0.0217921119183302,-0.0188332628458738,-0.0317124426364899,-0.068697527050972,-0.0226911194622517
845,-0.0649102777242661,-0.0246250387281179,-0.0194623488932848,-0.036825492978096,-0.0677438154816628,-0.0205334424972534
846,-0.059141855686903,-0.0227316580712795,-0.0108712678775191,-0.027533708140254,-0.0501834079623222,-0.0093099856749177
847,-0.0481057688593864,-0.0210563614964485,-0.00355802662670612,-0.0143419019877911,-0.0246948078274727,0.00160252884961665
848,-0.0310560371726751,-0.0201765764504671,-0.00600522756576538,-0.00928735639899969,-0.00549007486552,0.00851256027817726
849,-0.00586679996922612,-0.00795446150004864,-0.0117225628346205,-0.0132331401109695,0.00865236949175596,0.0190476849675179
850,0.0252938326448202,0.0174592491239309,-0.0170388836413622,-0.0234125629067421,0.0259692445397377,0.0301805380731821
851,0.0492215678095818,0.0305198561400175,-0.0369341187179089,-0.0423596166074276,0.03596056625247,0.0230306796729565
852,0.050991352647543,0.00914814602583647,-0.0725538656115532,-0.0680614933371544,0.0230725016444921,-0.00676083378493786
853,0.0283501110970974,-0.0371967367827892,-0.0942758768796921,-0.0878880098462105,-0.00995561107993126,-0.0398934856057167
854,-0.0116737512871623,-0.080069787800312,-0.0829201191663742,-0.0893540009856224,-0.0516321621835232,-0.0518673099577427
855,-0.0504283346235752,-0.0897688493132591,-0.0439145229756832,-0.063275620341301,-0.0849132984876633,-0.0229017119854689
856,-0.0686163976788521,-0.0591144450008869,0.00900400523096323,-0.0119315702468157,-0.0923444032669067,0.0412195138633251
857,-0.0670201554894447,-0.013249478302896,0.0550839714705944,0.0412501841783524,-0.0752648785710335,0.102480940520763
858,-0.0507292896509171,0.027065820991993,0.0843087807297707,0.0785589069128037,-0.0450319461524487,0.136260777711868
859,-0.0279064979404211,0.0582590363919735,0.099367544054985,0.09819695353508,-0.0163617599755526,0.145625978708267
860,-0.0193097908049822,0.0758701860904694,0.0946539789438248,0.0941549688577652,-0.0107041168957949,0.133698180317879
861,-0.0362836457788944,0.0771822556853294,0.0620048306882381,0.0593104623258114,-0.0381196923553944,0.0981266424059868
862,-0.0635652467608452,0.0670484900474548,0.0114866010844707,0.0060285939835012,-0.0789633765816689,0.0453382954001427
863,-0.0777657032012939,0.049926184117794,-0.035352248698473,-0.0420273877680302,-0.101737953722477,-0.00620861724019051
864,-0.0721085667610168,0.0275947265326977,-0.0656543970108032,-0.0734055638313293,-0.0941995978355408,-0.0391367599368095
865,-0.0510006695985794,0.00498381163924932,-0.0771768018603325,-0.0852467641234398,-0.0666607171297073,-0.0504330806434155
866,-0.0244945138692856,-0.0148223908618093,-0.0747646316885948,-0.0785070508718491,-0.0384279564023018,-0.051527313888073
867,-0.0051916753873229,-0.0305918082594872,-0.0619665496051311,-0.0574803724884987,-0.0198447089642286,-0.0472045354545116
868,0.0063006803393364,-0.0377553775906563,-0.0406789742410183,-0.0279549304395914,-0.00884270202368498,-0.0332139134407043
869,0.0167278330773115,-0.0341240167617798,-0.0137690529227257,0.00340657494962215,-0.000743221957236528,-0.0102593386545777
870,0.0262013766914606,-0.02161780372262,0.022503949701786,0.0368892662227154,0.01041772775352,0.020599277690053
871,0.029474375769496,-0.0083647882565856,0.0651528388261795,0.0701664537191391,0.0240565780550241,0.0515827275812626
872,0.0230474062263966,-0.00343928555957973,0.0970257297158241,0.0918459892272949,0.0300098154693842,0.0671924203634262
873,0.011531874537468,-0.00136383925564587,0.110558092594147,0.100589275360107,0.0241022240370512,0.0670568868517876
874,0.00302517763338983,0.0077901785261929,0.113103501498699,0.105927027761936,0.0120841218158603,0.0650139078497887
875,-0.00190655793994665,0.0209800936281681,0.111167281866074,0.11178757250309,0.00225848192349076,0.0700458809733391
876,-0.00496922945603728,0.0309470538049936,0.103465840220451,0.112760193645954,0.000401877623517066,0.0828284099698067
877,-0.00473886262625456,0.0396140664815903,0.0853824391961098,0.100672669708729,0.00357443746179342,0.0993889421224594
878,-0.00192272732965648,0.0526453107595444,0.0593911409378052,0.0747962519526482,0.00409667007625103,0.115628287196159
879,0.00256702955812216,0.0656540542840958,0.029007151722908,0.0408786088228226,-0.00179157021921128,0.125731781125069
880,0.00496282428503037,0.0624528527259827,-0.0119056003168225,0.000839133106637746,-0.0179298967123032,0.110350504517555
881,0.00345586845651269,0.0370765887200832,-0.058657132089138,-0.0382279492914677,-0.040235374122858,0.0572384297847748
882,0.00945234298706055,0.00518926838412881,-0.0923452377319336,-0.0634125620126724,-0.0546317584812641,-0.012551168911159
883,0.0214191433042288,-0.0216204039752483,-0.111812144517899,-0.0787159204483032,-0.0639919862151146,-0.0721661522984505
884,0.0155339417979121,-0.0413058996200562,-0.126654475927353,-0.0945661589503288,-0.0817905217409134,-0.110739588737488
885,-0.0190961919724941,-0.0456302240490913,-0.134217888116837,-0.10640274733305,-0.105235032737255,-0.124998398125172
886,-0.0661716535687447,-0.0307329725474119,-0.12750406563282,-0.104399226605892,-0.120581440627575,-0.115746974945068
887,-0.0994984805583954,-0.00908752996474504,-0.106279663741589,-0.0861954614520073,-0.12075087428093,-0.0899413600564003
888,-0.107224635779858,0.0006726382416673,-0.0784573778510094,-0.058690257370472,-0.111098945140839,-0.0627384781837463
889,-0.092691071331501,-0.00622508348897099,-0.0492845214903355,-0.0288234669715166,-0.0935178771615028,-0.0454293191432953
890,-0.0645215585827827,-0.017972182482481,-0.0210843216627836,-0.00115485512651503,-0.0634135007858276,-0.0377101302146912
891,-0.0359691865742207,-0.0234956443309784,-0.00104019686114043,0.0167770814150572,-0.030120437964797,-0.0360512882471085
892,-0.0137977339327335,-0.019757479429245,0.00982330366969109,0.0219840295612812,-0.00996559672057629,-0.0348035916686058
893,0.00471434090286493,-0.00808772444725037,0.0186143685132265,0.0196557696908712,-0.00621847715228796,-0.0253273397684097
894,0.0156631954014301,0.00767138740047812,0.0219113454222679,0.0103545850142837,-0.0166600961238146,-0.00671785371378064
895,0.0129803540185094,0.0251689478754997,0.0092106694355607,-0.0095864487811923,-0.0358347371220589,0.0109899956732988
896,0.00266405288130045,0.0457640439271927,-0.0155053669586778,-0.0341346859931946,-0.0494231283664703,0.0202273745089769
897,-0.0101891811937094,0.0637143850326538,-0.0411613881587982,-0.0544146336615086,-0.0558581911027431,0.0194900240749121
898,-0.0249950233846903,0.0673672929406166,-0.0606633648276329,-0.0643819198012352,-0.0655008777976036,0.0125844525173306
899,-0.035660196095705,0.0568978376686573,-0.0661503598093987,-0.0583785772323608,-0.0769805461168289,0.00820723362267017
900,-0.0332298204302788,0.0423770993947983,-0.0515303015708923,-0.0358192659914494,-0.0781403854489326,0.0121844401583076
901,-0.0148218097165227,0.0287847351282835,-0.0252318605780602,-0.00791442580521107,-0.0616581775248051,0.0177067797631025
902,0.0192264392971992,0.0206507984548807,-0.00316473888233304,0.011662669479847,-0.0296493824571371,0.014874218031764
903,0.064278781414032,0.0234345905482769,0.0103906178846955,0.0204826444387436,0.0104807056486607,0.00715296901762486
904,0.0945453494787216,0.0305387619882822,0.0138574996963143,0.016168188303709,0.0383503921329975,-0.00036851895856671
905,0.089708037674427,0.0354030728340149,0.00686409277841449,0.00128204945940524,0.0355334542691708,-0.00391783472150564
906,0.0658371224999428,0.0390523076057434,-0.000350697548128664,-0.00775475520640612,0.0112974271178246,0.000656323099974543
907,0.0447468496859074,0.0411450080573559,0.00402238639071584,0.000556600512936711,-0.00996732618659735,0.0101968329399824
908,0.0289120133966208,0.0399123728275299,0.0193075053393841,0.0208090767264366,-0.0188732873648405,0.0185827128589153
909,0.0155142368748784,0.0314770229160786,0.0308785289525986,0.0369429066777229,-0.0240862779319286,0.0188705921173096
910,0.00560011202469468,0.0162986628711224,0.0273661483079195,0.0383086688816547,-0.0294386260211468,0.00883360486477613
911,0.000178309710463509,0.0011381299700588,0.0104440618306398,0.0273037403821945,-0.0305053312331438,-0.00442945212125778
912,-0.00619242060929537,-0.0134854856878519,-0.0173698477447033,0.00638031400740147,-0.032042633742094,-0.020566051825881
913,-0.0225246027112007,-0.0294610410928726,-0.0558824874460697,-0.0268890876322985,-0.046253003180027,-0.0491644814610481
914,-0.0597200244665146,-0.0546821169555187,-0.107863567769527,-0.0801555514335632,-0.087252102792263,-0.1002506762743
915,-0.133438870310783,-0.1131511926651,-0.184307739138603,-0.166071712970734,-0.168099731206894,-0.182749390602112
916,-0.243417426943779,-0.211925402283669,-0.286036014556885,-0.279955059289932,-0.281125843524933,-0.286623924970627
917,-0.371134787797928,-0.329109340906143,-0.401224911212921,-0.404584884643555,-0.40628582239151,-0.390651196241379
918,-0.5,-0.444649577140808,-0.5,-0.5,-0.5,-0.49231806397438
919,-0.5,-0.5,-0.5,-0.5,-0.5,-0.5
920,-0.5,-0.5,-0.5,-0.5,-0.5,-0.5
921,-0.5,-0.5,-0.5,-0.5,-0.5,-0.5
922,-0.5,-0.5,-0.5,-0.5,-0.5,-0.5
923,-0.5,-0.5,-0.5,-0.5,-0.5,-0.5
924,-0.5,-0.5,-0.5,-0.5,-0.5,-0.5
925,-0.5,-0.5,-0.5,-0.5,-0.5,-0.5
926,-0.5,-0.5,-0.5,-0.5,-0.5,-0.5
927,-0.5,-0.5,-0.5,-0.5,-0.5,-0.5
928,-0.5,-0.5,-0.5,-0.5,-0.5,-0.5
929,-0.5,-0.5,-0.5,-0.5,-0.5,-0.5
930,-0.5,-0.5,-0.5,-0.5,-0.5,-0.5
931,-0.5,-0.5,-0.5,-0.5,-0.5,-0.5
932,-0.5,-0.5,-0.5,-0.5,-0.5,-0.5
933,-0.5,-0.5,-0.5,-0.5,-0.5,-0.5
934,-0.5,-0.5,-0.5,-0.5,-0.5,-0.5
935,-0.5,-0.5,-0.5,-0.5,-0.5,-0.5
936,-0.5,-0.5,-0.5,-0.5,-0.5,-0.5
937,-0.5,-0.5,-0.5,-0.5,-0.5,-0.5
938,-0.5,-0.5,-0.5,-0.5,-0.5,-0.5
939,-0.5,-0.5,-0.5,-0.5,-0.5,-0.5
940,-0.5,-0.5,-0.5,-0.5,-0.5,-0.5
941,-0.5,-0.490475475788116,-0.5,-0.5,-0.5,-0.5
942,-0.5,-0.481191158294678,-0.5,-0.5,-0.5,-0.5
943,-0.5,-0.470822632312775,-0.5,-0.5,-0.5,-0.5
944,-0.5,-0.453704178333282,-0.5,-0.5,-0.5,-0.5
945,-0.5,-0.447223633527756,-0.462824046611786,-0.499238222837448,-0.48080587387085,-0.482139855623245
946,-0.496320009231567,-0.459474980831146,-0.420560359954834,-0.442976206541061,-0.459610790014267,-0.465072989463806
947,-0.481194883584976,-0.473154246807098,-0.395381212234497,-0.403234660625458,-0.447591036558151,-0.456829130649567
948,-0.460022956132889,-0.473448753356934,-0.38085275888443,-0.377568244934082,-0.438799858093262,-0.449346363544464
949,-0.437365055084229,-0.461563587188721,-0.379845261573792,-0.369124323129654,-0.434862643480301,-0.4389568567276
950,-0.416505128145218,-0.445694327354431,-0.390677809715271,-0.377536505460739,-0.429626137018204,-0.421519309282303
951,-0.397794365882874,-0.43375688791275,-0.412487387657166,-0.401415765285492,-0.415428191423416,-0.402910768985748
952,-0.382361054420471,-0.429468810558319,-0.451165288686752,-0.442268252372742,-0.402260422706604,-0.400302171707153
953,-0.371067941188812,-0.425743699073792,-0.5,-0.493259608745575,-0.408728301525116,-0.413922190666199
954,-0.367690950632095,-0.413649827241898,-0.5,-0.5,-0.439939856529236,-0.432197719812393
955,-0.375041276216507,-0.401595026254654,-0.5,-0.5,-0.482255339622498,-0.46272674202919
956,-0.386912196874619,-0.410350143909454,-0.5,-0.5,-0.5,-0.5
957,-0.390904605388641,-0.443813502788544,-0.5,-0.5,-0.5,-0.5
958,-0.38173308968544,-0.477000266313553,-0.5,-0.5,-0.5,-0.5
959,-0.368167787790298,-0.479307055473328,-0.5,-0.5,-0.5,-0.5
960,-0.354594439268112,-0.434011816978455,-0.451827019453049,-0.414613336324692,-0.452769994735718,-0.464080929756165
961,-0.332970798015594,-0.349559992551804,-0.327495843172073,-0.300789684057236,-0.378147274255753,-0.351877003908157
962,-0.301674485206604,-0.2610924243927,-0.219595551490784,-0.206074103713036,-0.297635525465012,-0.251800179481506
963,-0.265909969806671,-0.197919726371765,-0.16134911775589,-0.154314637184143,-0.231788381934166,-0.188323944807053
964,-0.233141347765923,-0.164811998605728,-0.15371672809124,-0.147791773080826,-0.19250813126564,-0.16350993514061
965,-0.209779173135757,-0.148896142840385,-0.176690578460693,-0.173492178320885,-0.185084074735641,-0.166095077991486
966,-0.193101063370705,-0.134307131171227,-0.207211315631866,-0.206307798624039,-0.201542600989342,-0.180009365081787
967,-0.183172762393951,-0.122246250510216,-0.227574989199638,-0.223285272717476,-0.224398374557495,-0.194728821516037
968,-0.184833899140358,-0.11725839972496,-0.227589339017868,-0.217410951852798,-0.236862823367119,-0.203279435634613
969,-0.199099346995354,-0.118173107504845,-0.212544038891792,-0.201895579695702,-0.235852137207985,-0.205888822674751
970,-0.216397330164909,-0.129014477133751,-0.196011066436768,-0.19362835586071,-0.226324066519737,-0.211015477776527
971,-0.220708101987839,-0.149110585451126,-0.185681864619255,-0.194586724042892,-0.210723206400871,-0.222055926918983
972,-0.21254301071167,-0.171041369438171,-0.189421027898788,-0.203150629997253,-0.200611472129822,-0.239949703216553
973,-0.203735709190369,-0.190335109829903,-0.208837375044823,-0.219476893544197,-0.206026673316956,-0.262398511171341
974,-0.199253305792809,-0.206872045993805,-0.234291255474091,-0.24011854827404,-0.221349835395813,-0.280151903629303
975,-0.192456483840942,-0.213277950882912,-0.249888822436333,-0.252275943756104,-0.230091586709023,-0.276363044977188
976,-0.168479442596436,-0.194957762956619,-0.241635173559189,-0.238555893301964,-0.215575963258743,-0.233659356832504
977,-0.128011241555214,-0.160025626420975,-0.220354422926903,-0.207497358322144,-0.186010703444481,-0.169279500842094
978,-0.0886652693152428,-0.130361124873161,-0.206105217337608,-0.183911070227623,-0.160740837454796,-0.128009423613548
979,-0.0635937228798866,-0.110568061470985,-0.197817981243134,-0.171622440218925,-0.13873390853405,-0.128331661224365
980,-0.0585556104779243,-0.102145567536354,-0.188959836959839,-0.164290770888329,-0.11734613776207,-0.152744874358177
981,-0.0694679021835327,-0.106602683663368,-0.174647986888886,-0.156165406107903,-0.104481294751167,-0.169437095522881
982,-0.0842892751097679,-0.107438117265701,-0.146090164780617,-0.136943683028221,-0.103840753436089,-0.151271983981133
983,-0.092726469039917,-0.0799364224076271,-0.103564098477364,-0.104254566133022,-0.107893548905849,-0.0942133069038391
984,-0.0904608890414238,-0.0222966782748699,-0.0621994584798813,-0.0706119015812874,-0.106967262923718,-0.0262066591531038
985,-0.0774817913770676,0.0334907285869122,-0.0385334976017475,-0.0489129535853863,-0.0984328165650368,0.0154636297374964
986,-0.0524102821946144,0.0606173872947693,-0.0326467044651508,-0.0359456241130829,-0.0794192776083946,0.0271469820290804
987,-0.0196126699447632,0.0663758590817451,-0.0295274928212166,-0.0209754724055529,-0.0507463440299034,0.0324481651186943
988,0.00683327810838819,0.0658669397234917,-0.0209315959364176,-0.00407069083303213,-0.0236830748617649,0.0414075329899788
989,0.0228285528719425,0.0603814832866192,-0.01531714014709,0.00588261149823666,-0.00699972966685891,0.0448180921375752
990,0.0353075787425041,0.0427057035267353,-0.0206954386085272,0.00373293203301728,-0.00116398767568171,0.0319682545959949
991,0.0425008982419968,0.00969554018229246,-0.0322039723396301,-0.00611357623711228,-0.00283978902734816,0.0047196839004755
992,0.0404530987143517,-0.0269067082554102,-0.0388450101017952,-0.0126262046396732,-0.00586189841851592,-0.0206743404269218
993,0.0339340381324291,-0.0511604472994804,-0.0358618050813675,-0.00948081165552139,-0.00666723353788257,-0.0303242634981871
994,0.0272817499935627,-0.0569078959524632,-0.0277906786650419,-0.00038428115658462,-0.00724703399464488,-0.0245338287204504
995,0.0166726037859917,-0.0506433099508286,-0.019671369343996,0.00650444207713008,-0.0108751114457846,-0.0141267031431198
996,-0.000985664082691073,-0.0469728857278824,-0.0107345972210169,0.00730701861903071,-0.0147861465811729,-0.00953957065939903
997,-0.0102858962491155,-0.0473360270261765,0.00733647076413035,0.0119735458865762,-0.00553039647638798,-0.00491061992943287
998,0.00962977856397629,-0.0375311300158501,0.0376144051551819,0.0308518074452877,0.0247786045074463,0.0132417688146234
999,0.0517982728779316,-0.00987434852868319,0.0680272728204727,0.0568716786801815,0.0654744654893875,0.0433033779263496
1000,0.0847098678350449,0.0286737140268087,0.082479439675808,0.0739416778087616,0.0945613458752632,0.0711710155010223
1001,0.0846658796072006,0.0620609559118748,0.0721311941742897,0.070405513048172,0.0913794487714767,0.0872806459665298
1002,0.0566177666187286,0.0785198286175728,0.0422845259308815,0.0478185936808586,0.056430134922266,0.0926598384976387
1003,0.0241031534969807,0.0784392356872559,0.0099556865170598,0.0199899859726429,0.0111408308148384,0.0892257541418076
1004,0.00715902866795659,0.0709278285503387,-0.00714696710929275,0.00481823133304715,-0.0213135294616222,0.0821029916405678
1005,0.0127867721021175,0.0645590350031853,-0.00145365297794342,0.0138406185433269,-0.0261559877544641,0.0825309753417969
1006,0.0328187458217144,0.0570725947618485,0.0184748321771622,0.0405705086886883,-0.005839420016855,0.089022696018219
1007,0.0548620410263538,0.0449533313512802,0.0371028110384941,0.0675966367125511,0.0244521852582693,0.0895950272679329
1008,0.0729869455099106,0.0283106081187725,0.0393814630806446,0.0765839666128159,0.0490112118422985,0.0753756463527679
1009,0.0846864208579063,0.00736016873270273,0.0166321117430925,0.0555051751434803,0.0586592890322208,0.0440782941877842
1010,0.0905177891254425,-0.00614606728777289,-0.0157875251024961,0.0161273200064898,0.0609462074935436,0.0116960173472762
1011,0.0890268310904503,0.000827258743811399,-0.0327421836555004,-0.0175085123628378,0.0667637959122658,-0.00133699888829142
1012,0.0784313231706619,0.0244474690407515,-0.0294750109314919,-0.0327409766614437,0.0708009600639343,0.006147057749331
1013,0.067190408706665,0.0510703846812248,-0.014688877388835,-0.0250306315720081,0.0679562017321587,0.021822202950716
1014,0.0701608508825302,0.0751453042030334,0.0103856837376952,0.00685649923980236,0.0726369842886925,0.0379385463893414
1015,0.0882593840360641,0.100463293492794,0.043914008885622,0.0485588423907757,0.0927188768982887,0.0535547100007534
1016,0.103777259588242,0.122828237712383,0.0686380937695503,0.074616014957428,0.106812208890915,0.0623089224100113
1017,0.106112271547318,0.131828680634499,0.077407144010067,0.0813432857394218,0.0967919230461121,0.0622590146958828
1018,0.104314304888248,0.130418494343758,0.0888218954205513,0.0908152684569359,0.0746013149619102,0.0686054676771164
