,AF3,AF4,Fp1,Fp2,AF7,AF8
0,-0.0173291712999344,0.0128287728875875,0.0508111342787743,0.0386619009077549,0.0113924266770482,-0.328589141368866
1,-0.0140608120709658,0.0348456427454948,0.0574397407472134,0.0375038422644138,0.0117522701621056,-0.311798274517059
2,-0.000463712553028017,0.0670445933938026,0.0504898205399513,0.0232182126492262,0.0113963736221194,-0.298812508583069
3,0.0223147440701723,0.0870313122868538,0.0290941968560219,-0.00130990380421281,0.00469770887866616,-0.308211326599121
4,0.0375333428382874,0.0746668949723244,0.00432559801265597,-0.024673031643033,-0.00914958212524652,-0.335643470287323
5,0.0309369750320911,0.0391126424074173,-0.0117654744535685,-0.0349451974034309,-0.0238699857145548,-0.358396410942078
6,0.0130596114322543,0.00598432635888457,-0.0162642318755388,-0.0280675832182169,-0.0337954349815845,-0.362566977739334
7,0.00157821259927005,-0.0157172698527575,-0.0205856915563345,-0.0166753884404898,-0.0432768613100052,-0.352899581193924
8,0.00319954147562385,-0.0260839201509953,-0.0312469154596329,-0.0144203482195735,-0.0507154688239098,-0.339556008577347
9,0.016477445140481,-0.0276221800595522,-0.0437547527253628,-0.0221587605774403,-0.0483542568981647,-0.332712590694427
10,0.0306646935641766,-0.0322666466236115,-0.0573663450777531,-0.0353661142289639,-0.0412286706268787,-0.340803623199463
11,0.0327854827046394,-0.0435943566262722,-0.0691642463207245,-0.0477472357451916,-0.0376343950629234,-0.358551979064941
12,0.0223822891712189,-0.0424787513911724,-0.0687331259250641,-0.0518770962953568,-0.0345031134784222,-0.369314432144165
13,0.00728011224418879,-0.0118945017457008,-0.0509638153016567,-0.0435343571007252,-0.0268220547586679,-0.362134993076324
14,-0.00558454589918256,0.0325813218951225,-0.021465914323926,-0.0249829422682524,-0.017026849091053,-0.338001698255539
15,-0.0129399318248034,0.0616495944559574,0.00893335975706577,-0.00205023470334709,-0.00900103338062763,-0.308719366788864
16,-0.0150749478489161,0.0706921368837357,0.0384854450821877,0.0265520233660936,0.00116278056520969,-0.282883167266846
17,-0.0115692541003227,0.0748420432209969,0.0744247958064079,0.0642176419496536,0.0187958907335997,-0.252801328897476
18,-0.00173240120057017,0.0836300849914551,0.112390220165253,0.102231189608574,0.0399284698069096,-0.217039346694946
19,0.00899909436702728,0.0934405773878098,0.13360333442688,0.123558841645718,0.0522978492081165,-0.193633243441582
20,0.0166691262274981,0.0997290313243866,0.126278325915337,0.117724776268005,0.048433855175972,-0.192677199840546
21,0.0279759112745523,0.105329923331738,0.0969630181789398,0.0892887786030769,0.0344218425452709,-0.209138095378876
22,0.0432287491858006,0.105723276734352,0.0567422658205032,0.0487949699163437,0.0161578375846148,-0.239667788147926
23,0.051718957722187,0.0966175943613052,0.018477788195014,0.0107110207900405,-0.000923549756407738,-0.267155766487122
24,0.0471263565123081,0.083745114505291,-0.00639951834455132,-0.0137802036479115,-0.0107779996469617,-0.272000402212143
25,0.0271599926054478,0.0604596734046936,-0.0217329189181328,-0.0320844352245331,-0.0226367227733135,-0.271103352308273
26,-0.0054265852086246,0.0226531215012074,-0.0297025348991156,-0.0467506013810635,-0.0422033481299877,-0.28273731470108
27,-0.0373526066541672,-0.0078899459913373,-0.0178522206842899,-0.0411638766527176,-0.0534819662570953,-0.291590005159378
28,-0.0540971383452415,-0.011260237544775,0.0176752712577581,-0.0090138353407383,-0.0444618389010429,-0.283001720905304
29,-0.0501598194241524,0.00880099646747112,0.0598890595138073,0.0344567783176899,-0.0219894982874393,-0.262280106544495
30,-0.0303056910634041,0.037263173609972,0.0866143330931664,0.0685669183731079,-0.000869885727297515,-0.239299416542053
31,-0.00491346511989832,0.0599607639014721,0.0834888145327568,0.0760833323001862,0.0054032551124692,-0.223310619592667
32,0.0123653095215559,0.0674268081784248,0.0485953018069267,0.0517441518604755,-0.00685430318117142,-0.224021852016449
33,0.0136517342180014,0.0631896927952766,-0.000385514460504055,0.0118766240775585,-0.0260301809757948,-0.238598346710205
34,0.00279046269133687,0.0513992346823215,-0.0412287525832653,-0.0251678638160229,-0.0420110262930393,-0.25278103351593
35,-0.0157215148210526,0.0239469446241856,-0.0680027976632118,-0.0562417283654213,-0.055720292031765,-0.262300729751587
36,-0.0344671942293644,-0.0157077182084322,-0.0804395452141762,-0.0776007026433945,-0.0641041919589043,-0.270046055316925
37,-0.0377941280603409,-0.0415376871824265,-0.0738059356808662,-0.0801130086183548,-0.0578038580715656,-0.26832902431488
38,-0.0276216864585876,-0.03738684207201,-0.0566945932805538,-0.0703174024820328,-0.0420280657708645,-0.254055321216583
39,-0.0269218627363443,-0.0158897191286087,-0.0460189022123814,-0.0633960738778114,-0.0366680845618248,-0.235990330576897
40,-0.0432034097611904,0.0016105598770082,-0.0416024550795555,-0.0584684535861015,-0.0473158322274685,-0.220807909965515
41,-0.0647398605942726,0.000197363959159702,-0.0381135754287243,-0.0521934814751148,-0.06093754991889,-0.220410212874413
42,-0.0763849467039108,-0.0195921584963799,-0.0312187317758799,-0.0446574948728085,-0.0601498931646347,-0.237711921334267
43,-0.0675534531474113,-0.0379877388477325,-0.0143768107518554,-0.0312406308948994,-0.0397395566105843,-0.25144761800766
44,-0.0394005849957466,-0.0336859300732613,0.00680897012352943,-0.0123907821252942,-0.0134493885561824,-0.243486374616623
45,-0.00341967795975506,-0.00703816674649715,0.0216947421431541,0.00588674610480666,0.00295745604671538,-0.220279052853584
46,0.023995503783226,0.0197146199643612,0.0308306366205215,0.0200678203254938,0.00545227248221636,-0.20168699324131
47,0.0299976896494627,0.0269193537533283,0.03348358720541,0.0243556182831526,-0.0032685692422092,-0.199213713407516
48,0.0193464383482933,0.0197919514030218,0.025269253179431,0.0127858314663172,-0.0160832144320011,-0.201765179634094
49,0.0131572252139449,0.0182836391031742,0.00837636832147837,-0.0116232829168439,-0.0256002191454172,-0.195505678653717
50,0.0177140068262815,0.0251019336283207,-0.017583878710866,-0.0423092320561409,-0.0376055128872395,-0.190902650356293
51,0.0175562463700771,0.0304182264953852,-0.0434642881155014,-0.0643800050020218,-0.0547569952905178,-0.193215519189835
52,0.00487621407955885,0.0302886143326759,-0.0484027676284313,-0.0592769421637058,-0.0648954510688782,-0.189089626073837
53,-0.00946376100182533,0.0299279540777206,-0.0237056445330381,-0.023634847253561,-0.0567341074347496,-0.172142013907433
54,-0.014338742941618,0.0378355756402016,0.0193401463329792,0.0257024969905615,-0.0330470725893974,-0.148162171244621
55,-0.0135730719193816,0.0446494556963444,0.0547875836491585,0.0599640533328056,-0.0122223766520619,-0.133402854204178
56,-0.00969717558473349,0.0377283245325089,0.0722940415143967,0.071321152150631,0.00128914264496416,-0.134014621376991
57,0.00424190098419786,0.0271720327436924,0.0860476791858673,0.0773540660738945,0.0238688755780458,-0.133379861712456
58,0.0258310399949551,0.0237926356494427,0.0983035042881966,0.0826175734400749,0.0546731278300285,-0.125079229474068
59,0.0443091653287411,0.0219395719468594,0.0913905203342438,0.0722477063536644,0.0698949545621872,-0.124045588076115
60,0.0555411614477634,0.0200860276818275,0.0609357394278049,0.0419661924242973,0.0582169741392136,-0.134620532393456
61,0.0546110309660435,0.0237345602363348,0.0226871278136969,0.00538138812407851,0.0304713044315577,-0.149810999631882
62,0.0352845750749111,0.0278141666203737,-0.00573633471503854,-0.0209009330719709,0.00140429369639605,-0.163770422339439
63,0.00818349327892065,0.0267652925103903,-0.00807014014571905,-0.0234485976397991,-0.0148453824222088,-0.158765599131584
64,-0.0119831319898367,0.0221900623291731,0.0133508751168847,-0.00697663286700845,-0.0165651403367519,-0.129215717315674
65,-0.0194285269826651,0.0200975816696882,0.0372834093868732,0.0102672651410103,-0.0116728097200394,-0.0987851545214653
66,-0.00838029850274324,0.0323233157396317,0.0555291436612606,0.022552877664566,0.00481053162366152,-0.0815574824810028
67,0.0180267263203859,0.0587706826627254,0.0737118870019913,0.0344599299132824,0.0354910418391228,-0.0729044005274773
68,0.0433489829301834,0.0814717561006546,0.0939269959926605,0.0502160787582397,0.0651827231049538,-0.0675764456391335
69,0.0571414306759834,0.0891143977642059,0.113778695464134,0.0715448781847954,0.0814958810806274,-0.0589465461671352
70,0.065610833466053,0.0879875645041466,0.132054775953293,0.0963645800948143,0.0894480645656586,-0.0417294539511204
71,0.0716729462146759,0.0813827738165855,0.139647975564003,0.111395120620728,0.0924011170864105,-0.026489133015275
72,0.06733138859272,0.0618941225111485,0.12537494301796,0.103070661425591,0.0831793248653412,-0.0298356451094151
73,0.0538731515407562,0.0292938314378262,0.0980070382356644,0.0807275101542473,0.0633489266037941,-0.0478888005018234
74,0.0431387946009636,-0.000113486181362532,0.0775080919265747,0.0661484748125076,0.0465554036200047,-0.0586357191205025
75,0.0388114750385284,-0.0088114570826292,0.0711715519428253,0.0663990154862404,0.0407052226364613,-0.0496842078864574
76,0.0344568938016891,0.00378026301041245,0.0703191384673119,0.0674654245376587,0.0407042279839516,-0.0310969371348619
77,0.0277129001915455,0.0280880406498909,0.0638873800635338,0.0540679655969143,0.0406395718455315,-0.0186757445335388
78,0.024475920945406,0.0534351468086243,0.0468533337116241,0.0282908659428358,0.041347935795784,-0.0178797990083694
79,0.03135596960783,0.0634262338280678,0.0194165427237749,0.00166527170222253,0.0438198558986187,-0.025810556486249
80,0.0460834912955761,0.0449716709554195,-0.0167092364281416,-0.0228757932782173,0.0406690314412117,-0.0376108251512051
81,0.0525650680065155,0.00854700524359941,-0.0573314800858498,-0.0494807176291943,0.0223019775003195,-0.0476607978343964
82,0.035481158643961,-0.0227544195950031,-0.0900251716375351,-0.0743687301874161,-0.00679073249921203,-0.0582164637744427
83,0.00131925917230546,-0.0390469767153263,-0.0982049703598022,-0.0847849920392036,-0.0315986722707748,-0.0767107829451561
84,-0.0327158309519291,-0.0436369106173515,-0.0777875110507011,-0.0762743279337883,-0.0451262220740318,-0.0945612341165543
85,-0.0566167533397675,-0.038127239793539,-0.0406236723065376,-0.056632574647665,-0.0481183156371117,-0.0912216380238533
86,-0.0633545145392418,-0.0182288512587547,-0.0019687358289957,-0.0346308797597885,-0.0427801422774792,-0.0646949112415314
87,-0.0514503419399261,0.00846910942345858,0.0262658465653658,-0.0172310471534729,-0.0359019264578819,-0.0366290770471096
88,-0.0368091277778149,0.0197601709514856,0.0358380191028118,-0.0107016963884234,-0.0334236323833466,-0.0251108780503273
89,-0.0376297272741795,0.00473599089309573,0.0247403532266617,-0.0197966173291206,-0.0348509252071381,-0.0371520780026913
90,-0.0513170622289181,-0.0253828521817923,0.000209735240787268,-0.0416762828826904,-0.0368375964462757,-0.0684651210904121
91,-0.0623097904026508,-0.0513762906193733,-0.0214995499700308,-0.0607426501810551,-0.0352597311139107,-0.0954026877880096
92,-0.0588287189602852,-0.0603110864758492,-0.0210425313562155,-0.0578144490718842,-0.0267200395464897,-0.0919377580285072
93,-0.0383330099284649,-0.0467960014939308,0.00902013387531042,-0.0240724068135023,-0.00933912117034197,-0.0479216836392879
94,-0.00479943258687854,-0.0150359915569425,0.0540397018194199,0.0312837697565556,0.0158261340111494,0.0261454600840807
95,0.0297020245343447,0.0152661660686135,0.084625780582428,0.0796931460499763,0.0362555235624313,0.0978797376155853
96,0.0525700375437737,0.0296080056577921,0.0883410423994064,0.09902323782444,0.0409395806491375,0.142254799604416
97,0.0666432604193687,0.0401283428072929,0.0836160778999329,0.0980173200368881,0.0422633998095989,0.164925545454025
98,0.0820644125342369,0.0581670552492142,0.084151528775692,0.0927328690886498,0.0542774274945259,0.175392776727676
99,0.0957000479102135,0.0672922506928444,0.0788232684135437,0.0822948291897774,0.0658848658204079,0.165709346532822
100,0.0904142931103706,0.050054844468832,0.0560913346707821,0.0599252097308636,0.0577003583312035,0.131615653634071
101,0.0637992098927498,0.0257173869758844,0.0273348912596703,0.0307384673506022,0.0326722301542759,0.0944082960486412
102,0.0296120066195726,0.0181053839623928,0.00156261958181858,-0.0023265527561307,0.000612224685028195,0.0720219686627388
103,-0.00788168329745531,0.0147618995979428,-0.0327160879969597,-0.047603964805603,-0.0426558926701546,0.0508313663303852
104,-0.0463544875383377,0.00100813456811011,-0.0733171552419662,-0.0964765995740891,-0.0896789953112602,0.0151591459289193
105,-0.0736674293875694,-0.0135782575234771,-0.0961814746260643,-0.12168637663126,-0.117086827754974,-0.0235650390386581
106,-0.0794662311673164,-0.0148093001917005,-0.0839294418692589,-0.107538901269436,-0.112335972487926,-0.040172453969717
107,-0.0650138109922409,-0.00345819140784442,-0.0447964295744896,-0.0654075145721436,-0.0818979293107986,-0.022218469530344
108,-0.0438264459371567,0.00574535876512527,-0.00729637406766415,-0.0224108621478081,-0.0441530011594296,0.0170152094215155
109,-0.0265123099088669,0.0032551996409893,0.0143772456794977,0.00886057130992413,-0.0107594542205334,0.0521914549171925
110,-0.00460794754326344,-0.00461287330836058,0.0324385017156601,0.035920687019825,0.0202413573861122,0.0722279921174049
111,0.0285502262413502,-0.00584927992895246,0.0535857863724232,0.0617160387337208,0.0428255647420883,0.0844487622380257
112,0.0606570951640606,0.00873160362243652,0.0735328644514084,0.0846131443977356,0.0487326048314571,0.103440381586552
113,0.0781269073486328,0.0392636358737946,0.0935333445668221,0.107442088425159,0.0463156476616859,0.134131848812103
114,0.0816315934062004,0.0770602375268936,0.119104638695717,0.132259547710419,0.0490915849804878,0.168195784091949
115,0.079841636121273,0.113262735307217,0.148409456014633,0.15781643986702,0.0621692426502705,0.198158234357834
116,0.0728940516710281,0.138015761971474,0.161363616585732,0.170776307582855,0.0755305141210556,0.214353993535042
117,0.0491270385682583,0.138667374849319,0.132885083556175,0.146887108683586,0.0660859495401382,0.200262397527695
118,0.0062452657148242,0.108718641102314,0.0626576766371727,0.0807572677731514,0.0211963970214128,0.15262708067894
119,-0.038530308753252,0.0556161440908909,-0.0211727060377598,-0.00163488078396767,-0.0440214797854424,0.0852708369493485
120,-0.0684205889701843,-0.00315146986395121,-0.0842566192150116,-0.067046694457531,-0.101216867566109,0.0147626176476479
121,-0.079863041639328,-0.0499332994222641,-0.110618405044079,-0.0989160314202309,-0.131327122449875,-0.0391114577651024
122,-0.0723315700888634,-0.0742373839020729,-0.108445838093758,-0.101403087377548,-0.129522800445557,-0.0611860416829586
123,-0.0446779057383537,-0.0738949924707413,-0.0917883366346359,-0.0859837457537651,-0.103054530918598,-0.0534117929637432
124,-0.00921318959444761,-0.0554630383849144,-0.0655541568994522,-0.0595243982970715,-0.068601056933403,-0.0298068802803755
125,0.012956565245986,-0.026848878711462,-0.0250552855432034,-0.0241923499852419,-0.0387541241943836,0.00193922233302146
126,0.0123463133350015,0.0098620755597949,0.0278829447925091,0.0153565853834152,-0.0181973744183779,0.0425634607672691
127,-0.003134690457955,0.0520502477884293,0.0784729495644569,0.0510570369660854,-0.0072663938626647,0.086993046104908
128,-0.0197754241526127,0.0889071896672249,0.109723106026649,0.0743662938475609,-0.00192229065578431,0.120942354202271
129,-0.0281115584075451,0.105113603174686,0.104463748633862,0.0735208615660667,-0.00118804140947759,0.125580683350563
130,-0.0257389713078737,0.0954817980527878,0.0629156902432442,0.0456933192908764,-0.00479480810463429,0.0983698517084122
131,-0.0209248401224613,0.0737544149160385,0.0151633350178599,0.00979280285537243,-0.0106551740318537,0.0629403740167618
132,-0.0240905787795782,0.0637577623128891,-0.0118804341182113,-0.0134700797498226,-0.0218106079846621,0.0407054871320724
133,-0.0352198071777821,0.0690778121352196,-0.0225641559809446,-0.0244986657053232,-0.0387688316404819,0.0304427240043879
134,-0.0416676513850689,0.0629703402519226,-0.0336217731237412,-0.0333694480359554,-0.0535149835050106,0.023232314735651
135,-0.0307976566255093,0.0319287143647671,-0.0415482856333256,-0.0379634536802769,-0.057817667722702,0.0210169721394777
136,-0.00416124751791358,-0.00429915590211749,-0.0337190330028534,-0.0310476943850517,-0.048558633774519,0.0278620645403862
137,0.02488430775702,-0.0268816016614437,-0.0151842143386602,-0.0158486906439066,-0.0292243473231792,0.0386533550918102
138,0.0385146103799343,-0.0312535613775253,0.0053877760656178,0.00252861296758056,-0.00758280092850327,0.0525026097893715
139,0.0256356000900269,-0.0193869397044182,0.0281986761838198,0.0232658591121435,0.00643179705366492,0.0758995786309242
140,-0.00293430453166366,0.0036772983148694,0.0574042946100235,0.0495224557816982,0.0109407231211662,0.110468342900276
141,-0.0275332592427731,0.0301075410097837,0.0885463282465935,0.0800711214542389,0.0139040742069483,0.142659798264503
142,-0.0381338261067867,0.0488355532288551,0.108260028064251,0.104290455579758,0.020000921562314,0.154621571302414
143,-0.0288569647818804,0.0554969236254692,0.114943102002144,0.118612289428711,0.0302358847111464,0.148496881127357
144,-0.00819925591349602,0.0503869727253914,0.109546355903149,0.119818203151226,0.0401479452848434,0.131210833787918
145,0.00593399768695235,0.0367307551205158,0.0865791216492653,0.099755585193634,0.0419921875,0.100723624229431
146,0.00853462237864733,0.0218483116477728,0.044002465903759,0.0589126497507095,0.0291636548936367,0.0566293708980083
147,0.00183472014032304,0.00965328235179186,-0.00713308015838265,0.0103143649175763,0.00180689455009997,0.00964515656232834
148,-0.00973089691251516,0.00177355681080371,-0.0412654206156731,-0.0272435955703259,-0.0265748184174299,-0.0226231887936592
149,-0.0177227854728699,-0.00019406848878134,-0.0437262132763863,-0.0437754690647125,-0.0422295369207859,-0.0327669568359852
150,-0.0177518911659718,0.00346577609889209,-0.0312406588345766,-0.0453635491430759,-0.0475090928375721,-0.025101114064455
151,-0.00901337247341871,0.0105613954365253,-0.0249278396368027,-0.039908267557621,-0.0480517596006393,-0.00890656001865864
152,0.00581894908100367,0.0124515378847718,-0.0240710154175758,-0.0277504716068506,-0.0424724221229553,0.00594332814216614
153,0.0118113253265619,-0.0030358808580786,-0.0253687184303999,-0.0145631264895201,-0.0390233919024467,0.0151167213916779
154,0.00195698952302337,-0.0286683067679405,-0.0260434541851282,-0.00495206052437425,-0.0410937182605267,0.0246668681502342
155,-0.0185316074639559,-0.0506255589425564,-0.0242508985102177,-0.00174715113826096,-0.043342974036932,0.0317826941609383
156,-0.0465027280151844,-0.0696331858634949,-0.0303648319095373,-0.0118500553071499,-0.0503106266260147,0.0282142590731382
157,-0.0670818313956261,-0.0855179652571678,-0.0506894290447235,-0.0316672213375568,-0.0599343739449978,0.0220313556492329
158,-0.0690226033329964,-0.0975872278213501,-0.0801496952772141,-0.0556617602705956,-0.065024845302105,0.0116334343329072
159,-0.0669322982430458,-0.1033124178648,-0.105213962495327,-0.0796532034873962,-0.0683621913194656,-0.0106388051062822
160,-0.0739410668611526,-0.0917090624570847,-0.106125593185425,-0.087835393846035,-0.0704768151044846,-0.0278953593224287
161,-0.0843041092157364,-0.0581910684704781,-0.080174908041954,-0.0750622674822807,-0.068022109568119,-0.0230978596955538
162,-0.0837892293930054,-0.0112883243709803,-0.0438311621546745,-0.0539234094321728,-0.0569395087659359,0.00210862839594483
163,-0.0626064538955688,0.0322246477007866,-0.00622954871505499,-0.0287745501846075,-0.0297493264079094,0.0403094962239265
164,-0.030905693769455,0.0557869784533978,0.0314347073435783,0.00237727328203619,0.00865729432553053,0.0791698098182678
165,-0.0053477892652154,0.0574301332235336,0.0647360607981682,0.036628182977438,0.03957449644804,0.10590747743845
166,0.011768838390708,0.0505670942366123,0.0855252891778946,0.065208800137043,0.0516557954251766,0.119416818022728
167,0.022142531350255,0.0475360676646233,0.0850756540894508,0.0757421553134918,0.0458340682089329,0.125645399093628
168,0.0211892612278461,0.0478817448019981,0.0613203980028629,0.0623206198215485,0.0265636574476957,0.121809490025043
169,0.00874183792620897,0.0412761121988297,0.023369338363409,0.0313652716577053,0.00223025237210095,0.0978910103440285
170,-0.00396196497604251,0.0216390322893858,-0.0147051010280848,-0.00308453151956201,-0.0151279261335731,0.0567417182028294
171,-0.0072414050810039,0.000539711210876703,-0.040339071303606,-0.0251760631799698,-0.0195101853460073,0.0235542766749859
172,-0.00805159658193588,-0.00842345505952835,-0.0486978963017464,-0.0299314260482788,-0.0153343360871077,0.0153496051207185
173,-0.0154117830097675,-0.0059895496815443,-0.0432520322501659,-0.0262361858040094,-0.00817369949072599,0.0185557138174772
174,-0.025887681171298,-0.00203875126317143,-0.032105378806591,-0.0233192853629589,-0.00577931571751833,0.0134031251072884
175,-0.0394659377634525,-0.0115781519562006,-0.0280058160424232,-0.0257343500852585,-0.0224625840783119,-0.00236514746211469
176,-0.0560724325478077,-0.0336856879293919,-0.0304106213152409,-0.0271417982876301,-0.0529986545443535,-0.00896072667092085
177,-0.0651685297489166,-0.04226378723979,-0.0242665503174067,-0.0162349417805672,-0.0692967176437378,0.0095758056268096
178,-0.0604857616126537,-0.0205612108111382,-0.00783229526132345,0.00552492449060082,-0.0570990219712257,0.0434739217162132
179,-0.0464848354458809,0.0152421426028013,0.00633720867335796,0.0257521346211433,-0.0304889269173145,0.0755438357591629
180,-0.0304655432701111,0.0381739586591721,0.009678915143013,0.0329659022390842,-0.0123092271387577,0.0932675823569298
181,-0.0182354003190994,0.0399738177657127,0.0072517073713243,0.0283756144344807,-0.00849583745002747,0.0899049863219261
182,-0.0122919576242566,0.0284630451351404,0.0100471554324031,0.0247559193521738,-0.00805671513080597,0.0728332698345184
183,-0.00920673180371523,0.0173508767038584,0.0171198155730963,0.0273155625909567,-0.00348790478892624,0.0624157898128033
184,-0.00635351100936532,0.0167595483362675,0.0128471087664366,0.0238117687404156,0.000809286022558808,0.0691034197807312
185,-0.00795133784413338,0.0193712301552296,-0.015623277053237,-0.0012413194635883,-0.0022456836886704,0.0767918080091476
186,-0.0130091859027743,0.0138757610693574,-0.0553870052099228,-0.0402956046164036,-0.0105479015037417,0.0676384121179581
187,-0.011664779856801,0.00155220914166421,-0.073969803750515,-0.0638218596577644,-0.0138060841709375,0.0460367500782013
188,-0.00476804561913013,-0.0105771943926811,-0.0553056597709656,-0.0549080707132816,-0.00903130602091551,0.0282085239887238
189,-0.00899104401469231,-0.0188187565654516,-0.0184494163841009,-0.0270578600466251,-0.0083853779360652,0.0251893363893032
190,-0.0327679067850113,-0.0231095142662525,0.006956169847399,-0.00343444827012718,-0.0203595086932182,0.0385197103023529
191,-0.0656355917453766,-0.0261431355029345,0.00707455212250352,0.00241597439162433,-0.0406316258013248,0.0598367564380169
192,-0.094526007771492,-0.0314907617866993,-0.0174249019473791,-0.0147182950749993,-0.0661180168390274,0.068381167948246
193,-0.114997714757919,-0.0343569070100784,-0.0529637224972248,-0.0480284206569195,-0.0933632701635361,0.0496746487915516
194,-0.12873563170433,-0.0295177660882473,-0.0822833627462387,-0.0813695564866066,-0.115038432180882,0.0149213951081038
195,-0.140383809804916,-0.0273707918822765,-0.0990399792790413,-0.104497268795967,-0.126778036355972,-0.0147637976333499
196,-0.14314392209053,-0.0345470495522022,-0.100139640271664,-0.109448857605457,-0.121574819087982,-0.0233862902969122
197,-0.12088742852211,-0.0399425700306892,-0.084912583231926,-0.092385895550251,-0.0978676751255989,-0.00387630076147616
198,-0.0788557231426239,-0.0349339880049229,-0.0626234486699104,-0.0651039853692055,-0.0689132809638977,0.0341330841183662
199,-0.032428115606308,-0.0135651156306267,-0.0339753963053226,-0.0343141742050648,-0.0359160266816616,0.0795639753341675
200,0.014125544577837,0.0245834924280643,0.00549773825332522,0.00429943343624473,0.00833665300160646,0.129709988832474
201,0.0545803345739841,0.0562657974660397,0.0395316556096077,0.0420032627880573,0.0495371632277966,0.171539306640625
202,0.0813561677932739,0.0639991909265518,0.0510091595351696,0.0628308728337288,0.0722774192690849,0.188381984829903
203,0.0961438938975334,0.0590956546366215,0.046075701713562,0.0655639320611954,0.0820885971188545,0.181566566228867
204,0.102631337940693,0.0517128370702267,0.0332083255052567,0.0559908486902714,0.0836362764239311,0.159477606415749
205,0.0953108295798302,0.0354099348187447,0.00964119657874107,0.0343709290027618,0.0684578567743301,0.123917378485203
206,0.0693908855319023,0.00148398894816637,-0.0177218671888113,0.00893578119575977,0.0362679362297058,0.085363857448101
207,0.0242259707301855,-0.0494149066507816,-0.0365489087998867,-0.0113217383623123,-0.00448693800717592,0.0563655868172646
208,-0.0377131178975105,-0.100439630448818,-0.0458757244050503,-0.0274285823106766,-0.0462012551724911,0.035113263875246
209,-0.0947063714265823,-0.125054091215134,-0.0418117754161358,-0.0327533073723316,-0.0718168765306473,0.024780947715044
210,-0.117608293890953,-0.111426658928394,-0.0156572759151459,-0.0180430319160223,-0.0665881112217903,0.0396621897816658
211,-0.103425867855549,-0.0723734721541405,0.0236476622521877,0.0075436937622726,-0.0392726883292198,0.0827206745743752
212,-0.0757724791765213,-0.0280372854322195,0.0484261028468609,0.0209104456007481,-0.0155903548002243,0.134347543120384
213,-0.0561098717153072,0.00695964507758617,0.0444646626710892,0.0114431455731392,-0.0115118706598878,0.168194130063057
214,-0.0411134473979473,0.0248221084475517,0.0276682432740927,-0.00562364095821977,-0.0166182983666658,0.174785628914833
215,-0.0137658668681979,0.0278211645781994,0.0185504127293825,-0.0122516984120011,-0.0118975723162293,0.164029821753502
216,0.0290141794830561,0.0248076003044844,0.0203927233815193,-0.00641850894317031,0.00690187280997634,0.151210889220238
217,0.0723186880350113,0.0192959476262331,0.0261022392660379,0.0062770051881671,0.0289979726076126,0.14345321059227
218,0.092503733932972,0.00593216391280293,0.0267563126981258,0.0149945700541139,0.0371161438524723,0.132237732410431
219,0.0822140574455261,-0.0161466468125582,0.0202504526823759,0.0133845629170537,0.027129665017128,0.109370298683643
220,0.0632644072175026,-0.039116021245718,0.010004922747612,0.00884941779077053,0.0159792229533196,0.0842751413583755
221,0.0581921637058258,-0.0516781099140644,0.00104745349381119,0.0114931343123317,0.0204929206520319,0.0737854689359665
222,0.0676042437553406,-0.0487621240317822,0.00381181994453073,0.0251882914453745,0.0394973084330559,0.0814599692821503
223,0.0728561729192734,-0.0405981577932835,0.0212070811539888,0.0443524681031704,0.0559230595827103,0.0961133986711502
224,0.0652221590280533,-0.0293789189308882,0.0471157506108284,0.0648125484585762,0.0632971227169037,0.117626301944256
225,0.0601714998483658,-0.00244045164436102,0.075674369931221,0.0861172154545784,0.0717726424336433,0.153861239552498
226,0.0644440203905106,0.034766860306263,0.0987562462687492,0.0989462658762932,0.0808586850762367,0.191695332527161
227,0.0641341507434845,0.0601580403745174,0.107479088008404,0.0935181975364685,0.0803960189223289,0.208831012248993
228,0.0471042282879353,0.0603036098182201,0.0950767174363136,0.0705899894237518,0.0666200816631317,0.199781909584999
229,0.0174528248608112,0.0361096039414406,0.0671669021248817,0.0419372096657753,0.0453543178737164,0.178839340806007
230,-0.00848657358437777,0.000663747254293412,0.0403675958514214,0.0196669045835733,0.0263202451169491,0.165087044239044
231,-0.0190149545669556,-0.0295166727155447,0.0204695165157318,0.00130473880562931,0.0141628477722406,0.159111008048058
232,-0.0147566227242351,-0.0471841990947723,-0.00240957294590771,-0.024073975160718,0.00563185894861817,0.14361347258091
233,-0.00229177344590425,-0.0559076182544231,-0.0370136946439743,-0.0585573874413967,-0.00504607986658812,0.110647082328796
234,0.00986531935632229,-0.0618667453527451,-0.0720633268356323,-0.0871964618563652,-0.012792831286788,0.0737628415226936
235,0.0160472970455885,-0.0681071802973747,-0.0824322327971458,-0.0923703759908676,-0.00595844304189086,0.0523510500788689
236,0.0128840478137136,-0.077680878341198,-0.0671471729874611,-0.0805154964327812,0.00765954470261931,0.0496287159621716
237,-0.0015704013640061,-0.0865874662995338,-0.0516377836465836,-0.0716626420617104,0.00680755684152246,0.0525016076862812
238,-0.0197559222579002,-0.0779210925102234,-0.0492493622004986,-0.0711900889873505,-0.00889542791992426,0.0535041019320488
239,-0.0294920112937689,-0.0421521365642548,-0.0532698966562748,-0.0716020911931992,-0.0206709485501051,0.0604913718998432
240,-0.0241478588432074,0.0028572496958077,-0.0478127747774124,-0.0618894845247269,-0.0144431591033936,0.0794149339199066
241,-0.00505256280303001,0.0262994300574064,-0.0221251547336578,-0.0361215472221375,0.0101366555318236,0.10299950838089
242,0.0192589443176985,0.0179853718727827,0.0102542703971267,-0.00514349853619933,0.0360639579594135,0.119351051747799
243,0.0320857055485249,-0.0135322185233235,0.0234705340117216,0.00962927099317312,0.0386568903923035,0.118279382586479
244,0.0238348003476858,-0.0506259240210056,0.0174934957176447,0.0061927130445838,0.0160917695611715,0.108587667346001
245,0.00721979467198253,-0.0664254203438759,0.0158999916166067,0.00504653947427869,-0.00637494958937168,0.11665652692318
246,-0.00198490149341524,-0.0496499836444855,0.030466366559267,0.0181430261582136,-0.0080529386177659,0.147941946983337
247,0.0018146907677874,-0.0106469923630357,0.0563041791319847,0.0422855727374554,0.0143433753401041,0.184443935751915
248,0.0228423979133368,0.0396788492798805,0.0853787362575531,0.0703463852405548,0.053730383515358,0.21278977394104
249,0.0573896877467632,0.0869778990745544,0.105966247618198,0.0885505303740501,0.0919092819094658,0.223413065075874
250,0.0858113169670105,0.109643414616585,0.102588877081871,0.0797333791851997,0.107113569974899,0.207102209329605
251,0.092188835144043,0.100320547819138,0.0773913487792015,0.0469014868140221,0.096223846077919,0.173178866505623
252,0.0782352611422539,0.0744435712695122,0.051311943680048,0.0140794152393937,0.0734172984957695,0.14270231127739
253,0.0525832995772362,0.0484048686921597,0.0321358665823936,-0.00373872346244752,0.0476842224597931,0.123591378331184
254,0.0262911505997181,0.0255112908780575,0.0132485497742891,-0.00907968729734421,0.0206506047397852,0.116524323821068
255,0.0128382109105587,0.00456792116165161,-0.00694990623742342,-0.010112670250237,-0.00477652717381716,0.118755981326103
256,0.0161066632717848,-0.0137505847960711,-0.02589619345963,-0.0135350944474339,-0.0239441134035587,0.119596675038338
257,0.0280349832028151,-0.0250805150717497,-0.039962537586689,-0.0190922319889069,-0.0310069769620895,0.116286285221577
258,0.03552520647645,-0.0266351047903299,-0.0482853874564171,-0.025428244844079,-0.026431106030941,0.114160872995853
259,0.0244833175092936,-0.0242047570645809,-0.056928712874651,-0.039365753531456,-0.0237662866711617,0.110503546893597
260,-0.00639946386218071,-0.020950872451067,-0.0675335824489594,-0.0646894723176956,-0.0350910723209381,0.0985349416732788
261,-0.0399780236184597,-0.0180300921201706,-0.0762507170438766,-0.0936210155487061,-0.0579574219882488,0.0782258361577988
262,-0.0592198558151722,-0.0263226721435785,-0.0859553888440132,-0.118252880871296,-0.0803707093000412,0.0543330572545528
263,-0.0658215209841728,-0.0512666702270508,-0.100564114749432,-0.135382875800133,-0.0914486795663834,0.0282227136194706
264,-0.0666017085313797,-0.0796820893883705,-0.109127417206764,-0.1370979398489,-0.0870646759867668,0.000620687322225422
265,-0.058679822832346,-0.0956161767244339,-0.0963940024375916,-0.116782627999783,-0.0720501840114594,-0.0185536351054907
266,-0.0438537150621414,-0.0910956636071205,-0.0658293887972832,-0.0829279273748398,-0.0552721358835697,-0.0112643064931035
267,-0.0318428166210651,-0.0704653635621071,-0.0371642969548702,-0.0519402250647545,-0.0422768481075764,0.0280937422066927
268,-0.0267440769821405,-0.051500927656889,-0.0264679677784443,-0.032798457890749,-0.0371446348726749,0.0763625130057335
269,-0.0210052747279406,-0.041134636849165,-0.0278982259333134,-0.0214161965996027,-0.036041833460331,0.107312738895416
270,-0.00531368749216199,-0.0290863215923309,-0.0209499094635248,-0.00850889459252357,-0.0253036879003048,0.12101474404335
271,0.014439788646996,-0.0115695269778371,0.000883091881405562,0.00678716925904155,-0.00238730804994702,0.128854796290398
272,0.0286678951233625,0.00818741694092751,0.0293907467275858,0.0216764807701111,0.021339600905776,0.137897133827209
273,0.0393040291965008,0.0285358466207981,0.057753399014473,0.0392435938119888,0.0394124947488308,0.15044866502285
274,0.0447993353009224,0.0424119606614113,0.0764380544424057,0.0554520674049854,0.0503960028290749,0.15588341653347
275,0.0426656529307365,0.044760175049305,0.076302282512188,0.0583398938179016,0.052075307816267,0.145363882184029
276,0.0375599004328251,0.0391721427440643,0.054856214672327,0.0413540042936802,0.041768804192543,0.126886308193207
277,0.0282083600759506,0.0312259159982204,0.0137959197163582,0.00475269136950374,0.01823097653687,0.111614845693111
278,0.00778799038380384,0.0228574275970459,-0.0371984988451004,-0.0439344123005867,-0.0143629722297192,0.100395791232586
279,-0.021733982488513,0.0101575637236238,-0.0839921906590462,-0.091265469789505,-0.048757903277874,0.0848933160305023
280,-0.0465928725898266,-0.00949052721261978,-0.118240535259247,-0.124750360846519,-0.0792883783578873,0.0603001713752747
281,-0.0559519417583942,-0.0330594554543495,-0.137219190597534,-0.137702226638794,-0.0999541357159615,0.0318866670131683
282,-0.0537514090538025,-0.0543212555348873,-0.142640501260757,-0.134138718247414,-0.109689131379128,0.00804614182561636
283,-0.0445157513022423,-0.0639275461435318,-0.135723322629929,-0.12179259210825,-0.110902339220047,-0.00241382699459791
284,-0.0267494414001703,-0.053961955010891,-0.117433182895184,-0.105196505784988,-0.100964412093163,0.00596107915043831
285,-0.0102104488760233,-0.0294398795813322,-0.0973263010382652,-0.0915317460894585,-0.0818320736289024,0.0277230571955442
286,-0.00917691923677921,-0.00454076798632741,-0.0799808129668236,-0.0821638703346252,-0.0602775439620018,0.0566058680415154
287,-0.0223466455936432,0.0123062049970031,-0.0584404356777668,-0.0680012330412865,-0.0393906496465206,0.0865814909338951
288,-0.0339004956185818,0.0205185115337372,-0.0305398143827915,-0.0425632819533348,-0.0198490973562002,0.107119977474213
289,-0.0327524431049824,0.020193986594677,-0.00736998906359077,-0.0135963410139084,-0.00686521548777819,0.111777670681477
290,-0.021433824673295,0.0133815258741379,0.00359153654426336,0.00757617177441716,-0.00105720723513514,0.104924686253071
291,-0.00614795694127679,0.00801447220146656,0.0114395543932915,0.0215513128787279,0.00914212316274643,0.100546315312386
292,0.00465937703847885,0.00952811446040869,0.016936682164669,0.0268315281718969,0.0213631223887205,0.103055715560913
293,0.00684654619544744,0.0199435967952013,0.0107917468994856,0.0207575000822544,0.0231328271329403,0.110827557742596
294,0.00894937664270401,0.0396977961063385,0.00159816327504814,0.0149874845519662,0.0199342295527458,0.132784783840179
295,0.0118495216593146,0.0549380891025066,0.000880500592757016,0.0146887479349971,0.0167038012295961,0.159917950630188
296,0.00372497318312526,0.047899030148983,0.00377915962599218,0.0112449340522289,0.00732350582256913,0.165025249123573
297,-0.0132631221786141,0.0212386790663004,0.00436935806646943,0.00470959255471826,-0.00557675631716847,0.144826039671898
298,-0.0311092138290405,-0.0136763239279389,-0.00367416720837355,-0.00690826028585434,-0.0221410617232323,0.109975166618824
299,-0.0501505471765995,-0.0464162304997444,-0.0219455119222403,-0.0296578630805016,-0.0448971390724182,0.0695925280451775
300,-0.064563937485218,-0.0631271228194237,-0.0376306101679802,-0.0535366497933865,-0.0615029819309711,0.0387861728668213
301,-0.0660791248083115,-0.0601506792008877,-0.0430284328758717,-0.0654229149222374,-0.0636637434363365,0.0271872971206903
302,-0.0525506697595119,-0.044562004506588,-0.0387612991034985,-0.0598108507692814,-0.054630845785141,0.0362941324710846
303,-0.0284196082502604,-0.0237496197223663,-0.0253134816884995,-0.0374100804328918,-0.0378247946500778,0.058791596442461
304,-0.00411837175488472,-0.00317152286879718,-0.00648006424307823,-0.00786522310227156,-0.0179024934768677,0.0813044905662537
305,0.0114364549517632,0.0129803624004126,0.0093420622870326,0.0138646764680743,-0.00289787817746401,0.0971819832921028
306,0.0140151595696807,0.0213905982673168,0.0120470132678747,0.0158852580934763,-0.00126335257664323,0.106323651969433
307,0.00520848296582699,0.0232879724353552,-0.000824395567178726,-0.000532745325472206,-0.0146389165893197,0.111183352768421
308,-0.00766587723046541,0.0233425907790661,-0.021930780261755,-0.02263511903584,-0.0359832756221294,0.11212657392025
309,-0.0108578400686383,0.0303020942956209,-0.0343144647777081,-0.0303896721452475,-0.0485862009227276,0.113703228533268
310,0.00890924222767353,0.0516976453363895,-0.0217400807887316,-0.0105454381555319,-0.0355972796678543,0.125395998358727
311,0.041223555803299,0.0789195746183395,0.00162344798445702,0.0147577095776796,-0.00812993291765451,0.136727675795555
312,0.0566325187683105,0.0929827988147736,0.000957432494033128,0.00716591300442815,0.00231406581588089,0.124592483043671
313,0.039800513535738,0.0829046666622162,-0.0375221706926823,-0.0421848185360432,-0.0207637622952461,0.086759589612484
314,0.00832343753427267,0.0550616681575775,-0.0908060669898987,-0.104809537529945,-0.0634088665246964,0.0477282479405403
315,-0.00608541583642364,0.0231506563723087,-0.121089287102222,-0.14159382879734,-0.0939114019274712,0.0343435704708099
316,-0.000176305882632732,-0.00614453479647636,-0.119020313024521,-0.14183235168457,-0.0991417020559311,0.0446473769843578
317,0.00649735471233726,-0.0280562862753868,-0.104586698114872,-0.121259249746799,-0.0903347656130791,0.0554968863725662
318,0.00399411749094725,-0.0420912429690361,-0.0936663821339607,-0.0942987278103828,-0.0808765739202499,0.0491183064877987
319,-0.00634336285293102,-0.0537912659347057,-0.088256798684597,-0.0710805654525757,-0.0780946761369705,0.0238455273211002
320,-0.0188185833394527,-0.0611840672791004,-0.0850903242826462,-0.0593808256089687,-0.0820223912596703,-0.00219138246029615
321,-0.0302681848406792,-0.0573222190141678,-0.0875996500253677,-0.0638385638594627,-0.0909440070390701,-0.00685468036681414
322,-0.0404382981359959,-0.0439974516630173,-0.100264705717564,-0.0833128020167351,-0.102245286107063,0.0117015298455954
323,-0.044308714568615,-0.0252097062766552,-0.111865669488907,-0.103523440659046,-0.103169344365597,0.0384656600654125
324,-0.0358197167515755,0.000703571364283562,-0.104968287050724,-0.106621026992798,-0.0802687406539917,0.0604161620140076
325,-0.0225921105593443,0.0230300985276699,-0.08028244972229,-0.0914907157421112,-0.0470336005091667,0.0725818201899529
326,-0.0188280381262302,0.0240395702421665,-0.0497837588191032,-0.067002460360527,-0.0295813009142876,0.0784088000655174
327,-0.0263248886913061,0.00608668802306056,-0.0191903319209814,-0.0391718111932278,-0.0296467486768961,0.0820587351918221
328,-0.036905687302351,-0.011862725019455,0.00477599538862705,-0.0171513725072145,-0.0336332768201828,0.0846680402755737
329,-0.04267842695117,-0.015971053391695,0.00838996190577745,-0.0139614101499319,-0.0382787771522999,0.0883828550577164
330,-0.0390111394226551,-0.00782566331326962,-0.0137386554852128,-0.032683614641428,-0.0492132566869259,0.0939471274614334
331,-0.0287338756024837,0.000940129102673382,-0.0480730943381786,-0.0622100047767162,-0.0700661614537239,0.0961503311991692
332,-0.0229502581059933,-0.0002153237874154,-0.0773715525865555,-0.0902457013726234,-0.0967505648732185,0.0832653418183327
333,-0.0281268805265427,-0.00986365601420403,-0.0943992212414742,-0.109525114297867,-0.117366090416908,0.0531152859330177
334,-0.043301597237587,-0.0200622174888849,-0.100483953952789,-0.120299853384495,-0.125730246305466,0.0185114201158285
335,-0.0579966194927692,-0.0251920763403177,-0.0938533917069435,-0.121715486049652,-0.118955336511135,-0.00515799829736352
336,-0.0571016520261765,-0.0217054914683104,-0.0728726759552956,-0.109495736658573,-0.0967484414577484,-0.0109246494248509
337,-0.0454220287501812,-0.0151682011783123,-0.0562762692570686,-0.0947524085640907,-0.0799093842506409,-0.00816007610410452
338,-0.0394126288592815,-0.0181266702711582,-0.0621224902570248,-0.0899189114570618,-0.0860755443572998,-0.00789571739733219
339,-0.045181080698967,-0.0357684046030045,-0.080121174454689,-0.0890862494707108,-0.10209783911705,-0.00601843558251858
340,-0.0581184588372707,-0.0598950535058975,-0.0935985743999481,-0.0850343704223633,-0.111636660993099,0.00724015571177006
341,-0.0632489547133446,-0.0699641481041908,-0.092885285615921,-0.0740895345807076,-0.111572310328484,0.035158209502697
342,-0.0527887046337128,-0.0516675524413586,-0.0728466436266899,-0.0535097569227219,-0.102147154510021,0.0674641951918602
343,-0.0378427617251873,-0.0145372049883008,-0.0386789180338383,-0.028142686933279,-0.0822805464267731,0.088164895772934
344,-0.0260200351476669,0.0207403860986233,-0.00286418222822249,-0.00585215631872416,-0.0501450002193451,0.0964174941182137
345,-0.0111992927268147,0.043914370238781,0.0217729639261961,0.00889740977436304,-0.0126865273341537,0.104984126985073
346,0.0136659825220704,0.0632112324237823,0.0255109816789627,0.0124592101201415,0.0134644759818912,0.116256274282932
347,0.0392822176218033,0.0809867307543755,-0.00364514393731952,-0.00887587666511536,0.0117770982906222,0.107921719551086
348,0.0460639260709286,0.0820213183760643,-0.059808149933815,-0.0591236352920532,-0.014933000318706,0.0680498629808426
349,0.0311704557389021,0.0607942454516888,-0.103351168334484,-0.110203586518765,-0.0432785674929619,0.0211938451975584
350,0.00780506059527397,0.0268361959606409,-0.10490657389164,-0.13029944896698,-0.0602581165730953,-0.00398862501606345
351,-0.0155195035040379,-0.00730272941291332,-0.0733096599578857,-0.111246764659882,-0.0702997893095016,0.00146029447205365
352,-0.0388731621205807,-0.0314821377396584,-0.0320906490087509,-0.0682707130908966,-0.0797489881515503,0.0272710826247931
353,-0.0596482194960117,-0.0402273647487164,0.00551222311332822,-0.0229875911027193,-0.0875168442726135,0.0592566281557083
354,-0.0715402215719223,-0.0343949198722839,0.0362223535776138,0.0134350685402751,-0.0861163586378098,0.0937570407986641
355,-0.0694211423397064,-0.0216301213949919,0.0595125965774059,0.0433586090803146,-0.0703661888837814,0.131833270192146
356,-0.0517628602683544,-0.00836229044944048,0.073133572936058,0.0675331875681877,-0.0445155017077923,0.162783712148666
357,-0.026803569868207,0.00647494709119201,0.0713921934366226,0.0747585892677307,-0.0189091507345438,0.165375769138336
358,-0.00342408148571849,0.0246564857661724,0.0569367073476315,0.0619603618979454,0.00568734761327505,0.140462055802345
359,0.0206198897212744,0.0413020066916943,0.041199266910553,0.0441130958497524,0.0320962779223919,0.114879347383976
360,0.046111099421978,0.0508211031556129,0.0320188999176025,0.0364809669554234,0.0506017617881298,0.10812521725893
361,0.0639393925666809,0.0559053048491478,0.0323983766138554,0.041608203202486,0.0538244694471359,0.120377637445927
362,0.0704419985413551,0.0654420107603073,0.0416311919689178,0.0512319505214691,0.0501365251839161,0.138575598597527
363,0.0663890540599823,0.0784880295395851,0.0463796965777874,0.0472737587988377,0.0427612252533436,0.139877825975418
364,0.0500199124217033,0.0930962860584259,0.035934966057539,0.0238313432782888,0.0280911345034838,0.123762272298336
365,0.0248926188796759,0.107185035943985,0.0173148848116398,-0.00271177641116083,0.0094213867560029,0.112545199692249
366,-0.000267834722762927,0.098588302731514,-0.00398437678813934,-0.0221428964287043,-0.0120908888056874,0.104095287621021
367,-0.0145065458491445,0.0529346950352192,-0.0287662465125322,-0.0345316343009472,-0.0338178314268589,0.0875817760825157
368,-0.00992537476122379,-0.0103146806359291,-0.0494334846735001,-0.0362659096717834,-0.0437202602624893,0.0776620209217072
369,0.013343314640224,-0.0507146455347538,-0.0472675040364265,-0.0193049032241106,-0.0280975606292486,0.0933495238423347
370,0.0387370400130749,-0.0485453940927982,-0.023276237770915,0.00645097251981497,0.00520993489772081,0.120274372398853
371,0.0462861433625221,-0.0266369227319956,0.00119941844604909,0.0184885375201702,0.0292262844741344,0.129592940211296
372,0.0400968603789806,-0.00718446634709835,0.0208726953715086,0.0191047322005033,0.0333082117140293,0.121905855834484
373,0.0363248996436596,0.0115566430613399,0.03819265589118,0.0253555215895176,0.0281549394130707,0.11539052426815
374,0.0389287769794464,0.03085807710886,0.0468458086252213,0.0382093265652657,0.0209154989570379,0.118452109396458
375,0.038133978843689,0.039762869477272,0.0377961955964565,0.0406716875731945,0.00250189332291484,0.122322961688042
376,0.0282831899821758,0.0315838791429996,0.0112010119482875,0.0225322730839252,-0.0278956517577171,0.121156193315983
377,0.0198539663106203,0.0148835377767682,-0.0194448865950108,-0.00714214472100139,-0.049408096820116,0.120774835348129
378,0.0215270686894655,0.00124590832274407,-0.0401294194161892,-0.0350611284375191,-0.0489113852381706,0.113538287580013
379,0.0183280594646931,-0.00788569636642933,-0.0491364076733589,-0.0580668672919273,-0.0403835140168667,0.0869713574647903
380,-0.00777844386175275,-0.0153609784319997,-0.0514719933271408,-0.0766520947217941,-0.0440334193408489,0.0514412187039852
381,-0.0427559576928616,-0.0143544524908066,-0.0404390580952168,-0.0759421661496162,-0.0544597469270229,0.0344655402004719
382,-0.0606483146548271,-0.00259579229168594,-0.0100151728838682,-0.0460717864334583,-0.0536481812596321,0.0479011088609695
383,-0.0544146336615086,0.0132665224373341,0.0296926721930504,-0.00149540673010051,-0.0359598770737648,0.0810201615095139
384,-0.0293397102504969,0.0333205088973045,0.0647203102707863,0.0406666658818722,-0.00574596039950848,0.124159105122089
385,0.00482291262596846,0.0543404780328274,0.0835902988910675,0.0700144618749619,0.0252099074423313,0.169160276651382
386,0.0344626344740391,0.0653494447469711,0.0815603658556938,0.081379123032093,0.0457668229937553,0.200950995087624
387,0.0482183285057545,0.055248387157917,0.0610839985311031,0.0750190392136574,0.0515523627400398,0.204997554421425
388,0.0463078655302525,0.0263226125389338,0.0298384353518486,0.0563763156533241,0.0434759519994259,0.181923225522041
389,0.0383544713258743,-0.00220604287460446,0.000383460195735097,0.0343894995748997,0.0267261192202568,0.146838992834091
390,0.0346265286207199,-0.0164440851658583,-0.0147780450060964,0.0175631660968065,0.0109564606100321,0.112928278744221
391,0.0403895042836666,-0.0173690561205149,-0.0109581630676985,0.0117250652983785,0.0106617594137788,0.0874199941754341
392,0.0466063357889652,-0.0157374255359173,-0.00486741401255131,0.00693659391254187,0.0231393780559301,0.0704294592142105
393,0.0415054485201836,-0.0102372467517853,-0.0166130214929581,-0.0115200458094478,0.0259866323322058,0.057295560836792
394,0.0369623601436615,0.0150621747598052,-0.0415240749716759,-0.037651889026165,0.0139683727174997,0.0460704453289509
395,0.0505784451961517,0.0494813583791256,-0.0714939534664154,-0.0624233335256577,-0.00387844117358327,0.029689833521843
396,0.0673109367489815,0.0565377324819565,-0.105733223259449,-0.0852493271231651,-0.0282650738954544,0.00201061298139393
397,0.058683555573225,0.0254114754498005,-0.121887125074863,-0.0912874415516853,-0.0519337803125381,-0.0162413232028484
398,0.0293642841279507,-0.0113298874348402,-0.0863176509737968,-0.0550983026623726,-0.0531459078192711,0.00949633214622736
399,0.00557120610028505,-0.0212433598935604,-0.00458546448498964,0.0187305919826031,-0.0271952897310257,0.0770167708396912
400,-0.00194734055548906,-0.00355899916030467,0.0795895755290985,0.0920035690069199,0.00932603050023317,0.14740663766861
401,-0.000666116189677268,0.023105850443244,0.129367858171463,0.132653102278709,0.0390120930969715,0.187946692109108
402,0.00252904067747295,0.0403315499424934,0.137854978442192,0.137482166290283,0.0564892627298832,0.190916180610657
403,0.00947771035134792,0.0446719601750374,0.123649187386036,0.125543966889381,0.069570392370224,0.173610404133797
404,0.0204398613423109,0.0420447923243046,0.110440008342266,0.115978114306927,0.0856092795729637,0.157459184527397
405,0.0306629780679941,0.0318948179483414,0.102278672158718,0.109776586294174,0.0986901149153709,0.141493067145348
406,0.0353533998131752,0.00959617458283901,0.0815192461013794,0.0923036709427834,0.091000460088253,0.111124306917191
407,0.0315473452210426,-0.0151872951537371,0.040838073939085,0.0575235709547997,0.0564820282161236,0.0679729282855988
408,0.0138689102604985,-0.026416664943099,-0.00796935707330704,0.0113877188414335,0.00656927190721035,0.02524633705616
409,-0.0189235135912895,-0.0233792196959257,-0.0528969876468182,-0.0372253134846687,-0.0457674078643322,-0.00828515458852053
410,-0.0467359200119972,-0.0148509135469794,-0.0775696635246277,-0.0663658529520035,-0.080936960875988,-0.0178183242678642
411,-0.0444503091275692,-0.0129250781610608,-0.0675113573670387,-0.0593242049217224,-0.0808421075344086,0.00226888316683471
412,-0.0112128937616944,-0.0156828816980124,-0.0269037391990423,-0.0238189939409494,-0.0456286333501339,0.0391620472073555
413,0.0298405922949314,0.000896876736078411,0.0248392019420862,0.0205423962324858,0.00574036315083504,0.0815584063529968
414,0.0539094917476177,0.0368382297456265,0.062762625515461,0.0527804903686047,0.0421482250094414,0.110510237514973
415,0.0577203966677189,0.0566870607435703,0.071141205728054,0.065009668469429,0.0476850010454655,0.107930153608322
416,0.0571197867393494,0.0457031950354576,0.0566736981272697,0.0675846412777901,0.0389150008559227,0.0875422954559326
417,0.0617688000202179,0.0198135655373335,0.0360699631273746,0.0692436844110489,0.036559633910656,0.0717805325984955
418,0.0676822364330292,-0.00618428131565452,0.0175196882337332,0.0694722384214401,0.0397081486880779,0.0631990507245064
419,0.0699678212404251,-0.0237727779895067,0.0055584623478353,0.0669928267598152,0.0402007587254047,0.0546625442802906
420,0.0658938810229301,-0.0304270144551992,0.00297793792560697,0.0601048767566681,0.0401643104851246,0.0405901931226254
421,0.05202716588974,-0.0300531852990389,0.00428444473072886,0.0464475341141224,0.0434862934052944,0.0210154298692942
422,0.0287742596119642,-0.0272825751453638,0.00478779058903456,0.02742656506598,0.0460704937577248,0.0006622273940593
423,0.0095723494887352,-0.0143078630790114,0.00829209107905626,0.0123704643920064,0.0467624068260193,-0.00873892195522785
424,0.00390988402068615,0.0113061312586069,0.00922600831836462,0.00247757462784648,0.041761290282011,-0.00266401539556682
425,-0.00212297053076327,0.0234790667891502,-0.00453425664454699,-0.0138542540371418,0.0181554481387138,0.00352834980003536
426,-0.0161751378327608,0.0129488157108426,-0.0194559823721647,-0.029430877417326,-0.0149027165025473,0.0102237081155181
427,-0.0248422492295504,-0.000447458151029423,-0.0170936398208141,-0.0263750553131104,-0.0323413461446762,0.0336825326085091
428,-0.023471537977457,-0.0102791944518685,-0.00511107128113508,-0.00690660998225212,-0.033541165292263,0.0628197267651558
429,-0.0190708916634321,-0.0179534871131182,0.00899685919284821,0.0188892763108015,-0.030541280284524,0.0762371122837067
430,-0.0127941220998764,-0.0154256019741297,0.0310556590557098,0.0469185262918472,-0.0224914904683828,0.0771225020289421
431,-0.00560437282547355,0.00123930745758116,0.0598329305648804,0.0722474232316017,-0.00814503896981478,0.0781954899430275
432,-0.0052896342240274,0.017207084223628,0.0786939561367035,0.0851959586143494,0.000212998755159788,0.0776548385620117
433,-0.0128005007281899,0.0172411184757948,0.0762132257223129,0.081946387887001,-0.00421896949410439,0.068896695971489
434,-0.0223157424479723,0.00650110980495811,0.0565616898238659,0.065930113196373,-0.0157816428691149,0.0514452047646046
435,-0.0304542481899261,0.000958294956944883,0.032850407063961,0.0454781502485275,-0.0266691390424967,0.0356168821454048
436,-0.0327033810317516,0.0107274251058698,0.0218973662704229,0.0346114449203014,-0.0273312944918871,0.0344172827899456
437,-0.0292156226933002,0.0273325573652983,0.0254389494657516,0.0344850346446037,-0.0164389386773109,0.0362640284001827
438,-0.030055720359087,0.0309949722141027,0.0244817789644003,0.0291277077049017,-0.00643084058538079,0.0201805215328932
439,-0.0402491986751556,0.0168164372444153,0.00576493144035339,0.0094972038641572,-0.0079147070646286,-0.00842470768839121
440,-0.0519929751753807,-0.0034232665784657,-0.028392756357789,-0.0225148815661669,-0.0237634144723415,-0.0345642492175102
441,-0.0570718199014664,-0.023294486105442,-0.075067937374115,-0.0640173926949501,-0.0549583844840527,-0.0596859306097031
442,-0.0527467541396618,-0.0455032140016556,-0.124619290232658,-0.102870263159275,-0.091316781938076,-0.0850958228111267
443,-0.0441314205527306,-0.0746394023299217,-0.158724129199982,-0.124752670526505,-0.115323595702648,-0.105808071792126
444,-0.0364472009241581,-0.105717584490776,-0.160159811377525,-0.121137745678425,-0.112227566540241,-0.112867616117001
445,-0.0263076648116112,-0.124042205512524,-0.124615453183651,-0.0887757614254951,-0.0788005068898201,-0.0954237580299377
446,-0.0145858954638243,-0.122024826705456,-0.0680603981018066,-0.038386769592762,-0.0346886962652206,-0.0575153678655624
447,-0.00523220747709274,-0.0987157225608826,-0.00742403464391828,0.0164966806769371,-0.000485744356410578,-0.00981548056006432
448,0.00146622792817652,-0.0617503374814987,0.0395955592393875,0.0609123259782791,0.016826068982482,0.0377286225557327
449,-0.000419725809479132,-0.0286379028111696,0.0547170303761959,0.0768086761236191,0.0141596905887127,0.0715231522917748
450,-0.0172595009207726,-0.0100792786106467,0.0441275537014008,0.0663209930062294,-0.00475785974413157,0.0819554179906845
451,-0.0415432713925838,-0.00115044764243066,0.0299885272979736,0.049604520201683,-0.0264047756791115,0.0707286968827248
452,-0.0558027550578117,0.0114651694893837,0.0248316135257483,0.0395749881863594,-0.0358286276459694,0.051466092467308
453,-0.0497551038861275,0.0324856005609035,0.0280034560710192,0.0365440025925636,-0.0271874964237213,0.0367283374071121
454,-0.0292912367731333,0.0505290068686008,0.0326367802917957,0.0382391288876534,-0.00875198561698198,0.0293923262506723
455,-0.00541501399129629,0.0574078224599361,0.0366875119507313,0.0435539223253727,0.00746381795033813,0.0318066105246544
456,0.0153897311538458,0.0636085048317909,0.0441753230988979,0.0490188300609589,0.0194285660982132,0.0484022311866283
457,0.0296912733465433,0.0769766941666603,0.0530336126685143,0.0503217130899429,0.0322477445006371,0.073864258825779
458,0.0400227345526218,0.0894329622387886,0.0555144585669041,0.0473379455506802,0.0468578301370144,0.0911187902092934
459,0.0464861877262592,0.0885983780026436,0.0445256978273392,0.0377085208892822,0.0493291206657887,0.0856690406799316
460,0.0411522202193737,0.0633595734834671,0.0226606074720621,0.0202945042401552,0.0267696678638458,0.0608186051249504
461,0.027111480012536,0.017499715089798,0.00750022660940886,0.00716836750507355,-0.00620638020336628,0.0360140316188335
462,0.021540155634284,-0.0219159219413996,0.0123329041525722,0.00951489619910717,-0.021634928882122,0.0293747298419476
463,0.0311836842447519,-0.0331442877650261,0.0278228707611561,0.02024264074862,-0.010650672018528,0.0415913388133049
464,0.0447686053812504,-0.0227970741689205,0.0362876728177071,0.0277455504983664,0.0132358614355326,0.0585223250091076
465,0.0502060726284981,-0.00709658488631248,0.0374717377126217,0.0349882356822491,0.034045435488224,0.070505291223526
466,0.043860200792551,0.00144481274764985,0.0392920821905136,0.0464175008237362,0.0421438217163086,0.0738071501255035
467,0.0286691281944513,-0.00429848907515407,0.040243573486805,0.0559836700558662,0.0367875248193741,0.0660314410924912
468,0.00995355658233166,-0.0165303554385901,0.038614347577095,0.0578546598553658,0.0267586596310139,0.0527961663901806
469,-0.0124756209552288,-0.0260763876140118,0.0333594866096973,0.0476711206138134,0.0153890941292048,0.0403984040021896
470,-0.0363596715033054,-0.0323547311127186,0.0213980339467525,0.0250507481396198,-0.000838706502690911,0.0295072440057993
471,-0.0539356432855129,-0.0404669158160686,-0.000555292819626629,-0.00739034917205572,-0.0246831066906452,0.0143076200038195
472,-0.0619248896837235,-0.0521278269588947,-0.0278481766581535,-0.0412168800830841,-0.0515330396592617,-0.00379600236192346
473,-0.0527686662971973,-0.0513907335698605,-0.0424239262938499,-0.0551136769354343,-0.0609778650105,-0.00483834277838469
474,-0.0209678877145052,-0.0275827553123236,-0.0354135483503342,-0.0419481508433819,-0.0398991927504539,0.0186357405036688
475,0.0203423574566841,0.0106351561844349,-0.0113704027608037,-0.015926418825984,0.000501550326589495,0.0526605919003487
476,0.0495142415165901,0.0504265166819096,0.0172283500432968,0.00708773825317621,0.0372675731778145,0.0818110778927803
477,0.058192890137434,0.0739488303661346,0.0314506590366364,0.0157626289874315,0.0512148402631283,0.094268225133419
478,0.0569134950637817,0.069275788962841,0.0287868101149797,0.0123925050720572,0.0430349968373775,0.0909315869212151
479,0.0561977811157703,0.0455850064754486,0.0219834167510271,0.00867342296987772,0.0269739311188459,0.0848762467503548
480,0.0588149800896645,0.0214778184890747,0.0192791242152452,0.00880824122577906,0.0163572058081627,0.0914816632866859
481,0.0617377273738384,0.0124387489631772,0.0225591920316219,0.00655068689957261,0.0201116260141134,0.116562552750111
482,0.0589250884950161,0.0220763068646193,0.031137989833951,-0.00112641474697739,0.0345724113285542,0.144462212920189
483,0.0554503910243511,0.0383881367743015,0.0427003689110279,-0.00516857393085957,0.0469752363860607,0.15757355093956
484,0.0566142424941063,0.0460294373333454,0.0524760484695435,0.000986928702332079,0.0476162731647491,0.15140737593174
485,0.0543107949197292,0.0450242310762405,0.05979248508811,0.0147113734856248,0.036955937743187,0.131582081317902
486,0.0432660058140755,0.0442480593919754,0.069224551320076,0.0325697101652622,0.0248778089880943,0.113841131329536
487,0.0267975348979235,0.0414889976382256,0.0774680078029633,0.0493343695998192,0.0156603679060936,0.107384257018566
488,0.00998451188206673,0.032971665263176,0.0749305337667465,0.0571302659809589,0.00400740979239345,0.106829017400742
489,0.0038789480458945,0.0279679112136364,0.0660048872232437,0.056774090975523,-0.0050087864510715,0.110281430184841
490,0.0152075430378318,0.0353305898606777,0.0598957650363445,0.0536212511360645,0.000320509949233383,0.120233245193958
491,0.0284042060375214,0.0400420427322388,0.0419771149754524,0.0383608527481556,0.0108567522838712,0.125124365091324
492,0.0273579936474562,0.0187612995505333,-0.0054161618463695,0.000129462758195587,0.00906826090067625,0.109397284686565
493,0.0183139871805906,-0.0226108897477388,-0.0628289207816124,-0.045728862285614,-0.00280872592702508,0.0828095749020576
494,0.00824210699647665,-0.0592469163239002,-0.093626894056797,-0.0742475986480713,-0.0155053585767746,0.0652864277362823
495,-0.00422279769554734,-0.0764422044157982,-0.0857490226626396,-0.0781011879444122,-0.0266275443136692,0.0601509399712086
496,-0.0174058489501476,-0.0712319537997246,-0.053505253046751,-0.0629769042134285,-0.0337223410606384,0.0685499757528305
497,-0.0308422073721886,-0.0473488457500935,-0.0187725462019444,-0.0391799136996269,-0.0334455147385597,0.0935260877013206
498,-0.0446953475475311,-0.0187202952802181,0.00122310745064169,-0.0205479897558689,-0.0278903432190418,0.124500215053558
499,-0.0561601631343365,0.000726743834093213,0.000145821497426368,-0.0200108960270882,-0.0256442222744226,0.142667770385742
500,-0.0592586174607277,0.0141214989125729,-0.0131283616647124,-0.0354401916265488,-0.0284057594835758,0.142150357365608
501,-0.0535312183201313,0.018587501719594,-0.028322970494628,-0.0540809743106365,-0.0321754105389118,0.127915278077126
502,-0.0433925502002239,0.00754937063902617,-0.0338496044278145,-0.0621801353991032,-0.0288816411048174,0.112912937998772
503,-0.0302084051072598,-0.0014153067022562,-0.0166763179004192,-0.050098929554224,-0.00890965480357409,0.115110956132412
504,-0.0200850199908018,0.00322744646109641,0.0140562616288662,-0.0268375147134066,0.0182358827441931,0.132240816950798
505,-0.0103416051715612,0.0149895865470171,0.0434774979948998,-0.00153926713392138,0.0412074364721775,0.154240518808365
506,0.0116719854995608,0.0290282592177391,0.0679766461253166,0.0259970892220736,0.0609451532363892,0.179475292563438
507,0.043489933013916,0.0386401154100895,0.084144338965416,0.0491954684257507,0.0778226405382156,0.202223226428032
508,0.0730909183621407,0.0354479514062405,0.0915185660123825,0.0633736923336983,0.0946841984987259,0.216251581907272
509,0.092123307287693,0.0225722454488277,0.0937066227197647,0.0743112340569496,0.111812517046928,0.224077820777893
510,0.0932103171944618,0.0147654116153717,0.0927930101752281,0.0876815542578697,0.119023963809013,0.233791813254356
511,0.070385068655014,0.0139042036607862,0.0853668376803398,0.0941145569086075,0.103390350937843,0.246036618947983
512,0.0316765829920769,0.00740962103009224,0.0695186853408813,0.0814594104886055,0.0683599263429642,0.254499286413193
513,-0.00179904641117901,-0.00380712607875466,0.0490854158997536,0.054282832890749,0.0339555628597736,0.255259722471237
514,-0.023022199049592,-0.00668979110196233,0.0242413431406021,0.0209310427308083,0.00895985681563616,0.248573243618011
515,-0.0414493717253208,-0.00225434126332402,-0.00535414321348071,-0.016343018040061,-0.0137786353006959,0.240052074193954
516,-0.0587319582700729,-0.00257043587043881,-0.0322470180690289,-0.0507713779807091,-0.0372125841677189,0.231814488768578
517,-0.0697037801146507,-0.0114273894578218,-0.0482978262007236,-0.0726064816117287,-0.0544939525425434,0.214048013091087
518,-0.07528205960989,-0.0249115414917469,-0.0544466301798821,-0.0812167525291443,-0.0618607141077518,0.182265162467957
519,-0.0809522196650505,-0.0379629395902157,-0.0607596784830093,-0.084153413772583,-0.0689192190766335,0.149187088012695
520,-0.0834471881389618,-0.0470671616494656,-0.0757514759898186,-0.0883938446640968,-0.0830800458788872,0.127508491277695
521,-0.0722245275974274,-0.0543062053620815,-0.0998527109622955,-0.0983913913369179,-0.0959619283676147,0.117100976407528
522,-0.0482526980340481,-0.0658260881900787,-0.122500389814377,-0.109490178525448,-0.0940283462405205,0.115818493068218
523,-0.0210781693458557,-0.0854983627796173,-0.124562509357929,-0.107439942657948,-0.0723835006356239,0.124981909990311
524,-0.00110950518865138,-0.110182121396065,-0.100323840975761,-0.0889913886785507,-0.0422111637890339,0.143579408526421
525,0.00431011617183685,-0.125470250844955,-0.0623324811458588,-0.0631845518946648,-0.0174533929675817,0.175640776753426
526,0.000561942637432367,-0.117193542420864,-0.0237595364451408,-0.0367545410990715,0.000976083218120039,0.224560901522636
527,-0.000500230526085943,-0.0888717919588089,0.00691413786262274,-0.0130119519308209,0.0180937256664038,0.273158699274063
528,0.00761308148503304,-0.0557132326066494,0.0254565645009279,0.00448847375810146,0.0332579202950001,0.295857220888138
529,0.0209338683634996,-0.0257221832871437,0.0375100523233414,0.0151101555675268,0.0430195815861225,0.292757362127304
530,0.0238551758229733,-0.00168058334384114,0.0504663847386837,0.0224495399743319,0.0463470593094826,0.28358668088913
531,0.00947969779372215,0.0142372902482748,0.0655626058578491,0.0322332717478275,0.0467340797185898,0.276663482189178
532,-0.00111493701115251,0.0307626333087683,0.0878717973828316,0.0529741384088993,0.0537963770329952,0.273676514625549
533,0.0114759895950556,0.0551448054611683,0.115850657224655,0.0815363302826881,0.069291964173317,0.276924073696136
534,0.0348910018801689,0.0767360776662827,0.130451336503029,0.0982478857040405,0.080767922103405,0.279254615306854
535,0.0435156635940075,0.0782162919640541,0.11575997620821,0.0879141315817833,0.0759342014789581,0.269437044858933
536,0.0293613504618406,0.0574419461190701,0.0785142928361893,0.0559016950428486,0.0565913580358028,0.246639788150787
537,0.0104536470025778,0.037402268499136,0.0452960804104805,0.0274085830897093,0.0427012033760548,0.220954313874245
538,0.00208007451146841,0.0329347290098667,0.0265310909599066,0.0120513346046209,0.0423563234508038,0.189998745918274
539,0.00283495453186333,0.0272866375744343,0.00512444879859686,-0.00862224213778973,0.0395110547542572,0.14670404791832
540,0.0130757121369243,0.00737584242597222,-0.026038208976388,-0.0387607924640179,0.0251312907785177,0.107002906501293
541,0.0322209149599075,-0.016700092703104,-0.051983118057251,-0.0580479502677917,0.00482034729793668,0.0883118063211441
542,0.0487913675606251,-0.0339324660599232,-0.0586060397326946,-0.05481843277812,-0.0132145844399929,0.0866103321313858
543,0.0525734089314938,-0.0385398752987385,-0.0455260314047337,-0.0369236133992672,-0.0208515338599682,0.0896666795015335
544,0.0491456314921379,-0.0197981726378202,-0.0148696433752775,-0.00938515923917294,-0.00557042099535465,0.0992224961519241
545,0.045612920075655,0.0141788935288787,0.0214228723198175,0.0239444877952337,0.0320451818406582,0.121210418641567
546,0.0386763997375965,0.0323609001934528,0.0387837626039982,0.0478635020554066,0.0671383291482925,0.14286245405674
547,0.0273510850965977,0.0209671668708324,0.0310221873223782,0.0498916991055012,0.0780002996325493,0.146565392613411
548,0.0144661208614707,-0.00855663046240807,0.0162081718444824,0.0341301746666431,0.0638587698340416,0.127439096570015
549,0.00454398710280657,-0.0344904288649559,0.0153603591024876,0.0230821333825588,0.0443300977349281,0.0916302278637886
550,0.00666109239682555,-0.0379760526120663,0.0369393080472946,0.0360483527183533,0.0434675142168999,0.056902252137661
551,0.0218154266476631,-0.0176253020763397,0.0741683170199394,0.0665885880589485,0.0626360923051834,0.044712632894516
552,0.0386751741170883,0.0131361875683069,0.11509408056736,0.0991989001631737,0.0860345363616943,0.064410574734211
553,0.0525366812944412,0.0465893372893333,0.151233300566673,0.129965409636498,0.106583632528782,0.109910450875759
554,0.0653950721025467,0.0786050260066986,0.172055691480637,0.15384179353714,0.122076012194157,0.153974145650864
555,0.0768824070692062,0.0935493111610413,0.167013794183731,0.161123260855675,0.128168299794197,0.163634046912193
556,0.0909898281097412,0.0836839452385902,0.140983417630196,0.152925819158554,0.130957946181297,0.13786917924881
557,0.105116993188858,0.060842040926218,0.10841703414917,0.133179485797882,0.13567641377449,0.0978866219520569
558,0.105419732630253,0.0397764518857002,0.078278549015522,0.102017931640148,0.133161127567291,0.057109110057354
559,0.0876466557383537,0.0267117489129305,0.0546803586184978,0.0683223977684975,0.117252670228481,0.0236180499196053
560,0.0634944513440132,0.0203241501003504,0.0419384129345417,0.0504253543913364,0.0959510505199432,0.00704235909506679
561,0.050779402256012,0.0216808561235666,0.042375922203064,0.0585623234510422,0.079478807747364,0.0100811384618282
562,0.053118821233511,0.0314609669148922,0.0470830276608467,0.0784390568733215,0.0657740756869316,0.0201260950416327
563,0.0567177422344685,0.0455682873725891,0.0445305779576302,0.0876234546303749,0.0520295090973377,0.0268939658999443
564,0.0557946003973484,0.0604749694466591,0.0408167913556099,0.0861301720142365,0.0490190349519253,0.0364115908741951
565,0.0541397109627724,0.0702114403247833,0.0499441400170326,0.0877476632595062,0.0606035143136978,0.0523000657558441
566,0.0532949566841125,0.0734592154622078,0.0747747719287872,0.0993154495954514,0.0762068182229996,0.0724499076604843
567,0.0559392683207989,0.0781076177954674,0.106872826814651,0.119242951273918,0.0919579789042473,0.0916739404201508
568,0.0626338422298431,0.0877531319856644,0.13309046626091,0.138086065649986,0.109049133956432,0.0961353555321693
569,0.0654448121786118,0.0974455699324608,0.141606017947197,0.143313810229301,0.121265150606632,0.0777068585157394
570,0.0573618337512016,0.0979960709810257,0.125860407948494,0.127727374434471,0.119438022375107,0.0431278236210346
571,0.0403292030096054,0.0756695345044136,0.0823486521840096,0.0879312604665756,0.0925586447119713,-0.00289601553231478
572,0.0227067526429892,0.0250177457928658,0.01241400744766,0.0257810931652784,0.040972538292408,-0.0654301717877388
573,0.0132938520982862,-0.0384285636246204,-0.0665375590324402,-0.0444357097148895,-0.0118550267070532,-0.14038197696209
574,0.00655592605471611,-0.0934015512466431,-0.126058265566826,-0.103061996400356,-0.0478494837880135,-0.205435559153557
575,-0.00679045775905252,-0.120081543922424,-0.143824487924576,-0.12896403670311,-0.0607648603618145,-0.229079321026802
576,-0.0214807838201523,-0.10711544752121,-0.121384099125862,-0.114556759595871,-0.0496420450508595,-0.201408386230469
577,-0.0281174536794424,-0.0616624131798744,-0.0823643803596497,-0.0784082189202309,-0.0281666032969952,-0.14572049677372
578,-0.0251555312424898,-0.00361928530037403,-0.0452153161168098,-0.0394399985671043,-0.011386550962925,-0.0888579711318016
579,-0.0243067964911461,0.038144689053297,-0.0111270770430565,-0.0021343941334635,-0.00526201957836747,-0.0482293665409088
580,-0.0270797032862902,0.0514502637088299,0.0322510525584221,0.0409075021743774,-0.00053525430848822,-0.0210761744529009
581,-0.0147867100313306,0.0530298575758934,0.0911010354757309,0.0961366891860962,0.0215805117040873,0.0067405728623271
582,0.0169291086494923,0.0599982999265194,0.152735933661461,0.155950352549553,0.0648349747061729,0.0349942706525326
583,0.0509777627885342,0.0700657069683075,0.194826781749725,0.201523035764694,0.10960590839386,0.0507966428995132
584,0.0678072869777679,0.0646602511405945,0.193333804607391,0.206529662013054,0.127576738595963,0.0361081995069981
585,0.0621742345392704,0.0383161902427673,0.149012953042984,0.164546087384224,0.112347610294819,-0.00801609735935926
586,0.0454930476844311,0.0104360170662403,0.092236652970314,0.10348816215992,0.0808879658579826,-0.054391473531723
587,0.0276173669844866,-0.00364368921145797,0.0458118766546249,0.0516109354794025,0.0457084439694881,-0.0858709737658501
588,0.0104427328333259,-0.00219290237873793,0.011721508577466,0.015961391851306,0.00979143474251032,-0.105488665401936
589,-0.00585390673950315,0.0125694591552019,-0.0152375139296055,-0.00769907655194402,-0.0256628151983023,-0.115583688020706
590,-0.0246213208884001,0.0320921912789345,-0.0414019897580147,-0.029469208791852,-0.060381218791008,-0.117084868252277
591,-0.0395489260554314,0.0526736229658127,-0.0613990388810635,-0.0485453717410564,-0.082014799118042,-0.107798300683498
592,-0.0322325825691223,0.0730889737606049,-0.0610913410782814,-0.0489277839660645,-0.0730598121881485,-0.0833699554204941
593,-0.00556541001424193,0.0776709169149399,-0.0458364374935627,-0.0325820222496986,-0.0420981794595718,-0.0561183020472527
594,0.0202898383140564,0.0622853524982929,-0.0267182476818562,-0.0122161386534572,-0.00803930964320898,-0.0394829660654068
595,0.037907563149929,0.0474217683076859,-0.00166419369634241,0.0135133964940906,0.0237910691648722,-0.0279210954904556
596,0.0507260039448738,0.0460649505257607,0.0283316485583782,0.0460943095386028,0.0517756380140781,-0.0179591029882431
597,0.0584016554057598,0.0474246665835381,0.0506151355803013,0.0735883563756943,0.0715142488479614,-0.0203663315623999
598,0.0497149527072906,0.0305990613996983,0.0451197400689125,0.0736071690917015,0.0716856420040131,-0.0461165942251682
599,0.0176196340471506,-0.00723311770707369,0.00738029228523374,0.0367754772305489,0.0454914793372154,-0.0900455489754677
600,-0.0227703470736742,-0.0430753268301487,-0.0408665612339973,-0.0177492182701826,0.00871758908033371,-0.130991160869598
601,-0.0507738292217255,-0.0642760917544365,-0.0833915993571281,-0.0705892890691757,-0.0228530094027519,-0.160209193825722
602,-0.0585803538560867,-0.0747415199875832,-0.115395046770573,-0.111475557088852,-0.0469941310584545,-0.179047733545303
603,-0.0519242435693741,-0.0710899531841278,-0.12901371717453,-0.129452630877495,-0.0598536878824234,-0.181841790676117
604,-0.0430243946611881,-0.0533949844539166,-0.118691362440586,-0.122532367706299,-0.0607594437897205,-0.171189457178116
605,-0.0380402207374573,-0.0318603031337261,-0.0859143659472466,-0.0948197171092033,-0.0563000440597534,-0.15672467648983
606,-0.0407943837344646,-0.0155072007328272,-0.0474846102297306,-0.0581391640007496,-0.0565355755388737,-0.150186285376549
607,-0.0511219091713429,-0.00555016892030835,-0.0192689839750528,-0.0261020194739103,-0.0639352425932884,-0.155336126685143
608,-0.0536209680140018,0.00670053157955408,0.00736905680969357,0.00529098138213158,-0.0613494850695133,-0.153768226504326
609,-0.0350542441010475,0.0284832585602999,0.0401937030255795,0.0401564985513687,-0.0359716303646564,-0.132994905114174
610,-0.0040611089207232,0.0554532371461391,0.0663756653666496,0.0659415274858475,-0.000106058840174228,-0.102215558290482
611,0.0207414124161005,0.0799652263522148,0.0752453282475472,0.0725750923156738,0.027656452730298,-0.0702124759554863
612,0.0307871419936419,0.0978818535804749,0.0736340135335922,0.0656238198280334,0.0415822044014931,-0.0384390316903591
613,0.0311276093125343,0.108940362930298,0.0760566964745522,0.0612961538136005,0.0468916296958923,-0.00912124570459127
614,0.0301942564547062,0.113924652338028,0.0880817994475365,0.0728134736418724,0.050173856317997,0.0141006410121918
615,0.0285592991858721,0.102795645594597,0.0968928039073944,0.0905283540487289,0.0521093383431435,0.0272997785359621
616,0.0187539029866457,0.0628508776426315,0.081462025642395,0.0870119109749794,0.0459037907421589,0.0188966803252697
617,0.00137081986758858,0.00208580517210066,0.0368900522589684,0.0508362203836441,0.0271699167788029,-0.0233447011560202
618,-0.0112752988934517,-0.0551304407417774,-0.0186773911118507,-0.00157498009502888,0.00309537397697568,-0.0895462110638618
619,-0.0088726207613945,-0.0866300612688065,-0.0596176832914352,-0.0432138592004776,-0.0100365234538913,-0.148997813463211
620,0.00617593666538596,-0.0900546684861183,-0.072037972509861,-0.0598927102982998,-0.00686795311048627,-0.18059429526329
621,0.0168370753526688,-0.0815616399049759,-0.0613338723778725,-0.0581779964268208,-0.00321370945312083,-0.185845389962196
622,0.0150232398882508,-0.0653243213891983,-0.0355719141662121,-0.0412673279643059,-0.00299206795170903,-0.164428204298019
623,0.0101385693997145,-0.0353997647762299,-0.00221193488687277,-0.00875131785869598,0.00644503440707922,-0.119091846048832
624,0.00901615433394909,-0.00292500201612711,0.0234606768935919,0.019779259338975,0.0222285259515047,-0.0782318785786629
625,0.00728262541815639,0.0124356029555202,0.0310044623911381,0.0235565397888422,0.0305976700037718,-0.0683332458138466
626,-0.00112889090087265,0.0077861612662673,0.0227204542607069,0.00638243090361357,0.0284094922244549,-0.0849883407354355
627,-0.0102626625448465,-0.00153256999328732,0.00632318295538425,-0.0184239279478788,0.0208148285746574,-0.108475215733051
628,-0.0127063291147351,0.00250728754326701,-0.0119933076202869,-0.0447149202227592,0.00912810489535332,-0.125413402915001
629,-0.0151013527065516,0.0211319271475077,-0.0254422910511494,-0.06667809933424,-0.00772706512361765,-0.127934515476227
630,-0.0228533409535885,0.0349574983119965,-0.0262238066643476,-0.0731108039617538,-0.0253040883690119,-0.111266084015369
631,-0.0287085920572281,0.0306498035788536,-0.0137155232951045,-0.0548922680318356,-0.0333687551319599,-0.0790043920278549
632,-0.0256926361471415,0.012782453559339,0.00577105302363634,-0.015795823186636,-0.0241613481193781,-0.0408228784799576
633,-0.0111416084691882,-0.00565511407330632,0.028388436883688,0.0321769006550312,0.00131789338774979,-0.00381211400963366
634,0.0104739861562848,-0.011588073335588,0.0512268058955669,0.0741856694221497,0.0302584134042263,0.0223647691309452
635,0.0206296276301146,-0.00626541208475828,0.0618431866168976,0.0871207043528557,0.0410052388906479,0.0200270190834999
636,0.00380728021264076,-0.00685637770220637,0.0466483160853386,0.0574653632938862,0.0217647030949593,-0.0175798106938601
637,-0.0301567129790783,-0.0254215486347675,0.010854160413146,0.00407207803800702,-0.0173399709165096,-0.0748320519924164
638,-0.056671179831028,-0.0551881454885006,-0.0271666441112757,-0.0429457500576973,-0.0555355697870255,-0.129530876874924
639,-0.055451076477766,-0.0768561288714409,-0.0520532839000225,-0.0672589391469955,-0.0726620107889175,-0.163434639573097
640,-0.0248460900038481,-0.0794603750109673,-0.0605638958513737,-0.0682619214057922,-0.0635677129030228,-0.170384109020233
641,0.0151537014171481,-0.0666285678744316,-0.0597422942519188,-0.0556032769382,-0.0427079275250435,-0.158274605870247
642,0.0477965176105499,-0.0437549017369747,-0.0555799417197704,-0.0391620434820652,-0.0269993115216494,-0.136030942201614
643,0.0619807094335556,-0.0189361106604338,-0.0535903088748455,-0.0307886451482773,-0.029115054756403,-0.113037601113319
644,0.0492047034204006,0.000874454155564308,-0.0565360523760319,-0.0368048548698425,-0.050101138651371,-0.0977606028318405
645,0.0165183432400227,0.0110245430842042,-0.0655594766139984,-0.054575901478529,-0.0785559490323067,-0.0966716408729553
646,-0.0167645011097193,0.0150905009359121,-0.0763600543141365,-0.0747882202267647,-0.0964948982000351,-0.105765670537949
647,-0.0380652248859406,0.0242732614278793,-0.0759919136762619,-0.0796612277626991,-0.093599408864975,-0.11050046980381
648,-0.0529245734214783,0.0317026525735855,-0.0606956966221333,-0.0613459087908268,-0.0823932588100433,-0.106470003724098
649,-0.065168596804142,0.0257208086550236,-0.0384075343608856,-0.0289756860584021,-0.075796440243721,-0.096455529332161
650,-0.0708857551217079,0.0111560309305787,-0.0208204686641693,0.000122612167615443,-0.0748355612158775,-0.0846563875675201
651,-0.0659403800964355,-0.00113104796037078,-0.00994458422064781,0.0164256412535906,-0.0728739127516747,-0.0721878409385681
652,-0.0430581085383892,-0.00216193287633359,0.00466934079304338,0.028733167797327,-0.0590756759047508,-0.0537701211869717
653,-0.00275476463139057,0.0085079176351428,0.0273460615426302,0.0491145998239517,-0.0318065881729126,-0.0303949080407619
654,0.0395922400057316,0.0182541608810425,0.0509622767567635,0.0757720842957497,0.00124762859195471,-0.0110865691676736
655,0.0633134096860886,0.0155757861211896,0.0625786483287811,0.0926776006817818,0.028892932459712,-0.003856195602566
656,0.0558230318129063,0.00395470811054111,0.0498836413025856,0.0822209119796753,0.0356420949101448,-0.0136487344279885
657,0.0273000858724117,-0.00205660378560424,0.0201220344752073,0.0477920770645142,0.0147024812176824,-0.0350371114909649
658,0.00302202627062798,0.0074242758564651,-0.00263442378491163,0.0138701777905226,-0.0190141852945089,-0.0509413294494152
659,0.000470281462185085,0.0287197846919298,-0.0109952501952648,-0.00341904815286398,-0.0441264994442463,-0.0506063103675842
660,0.0173700731247664,0.0478483736515045,-0.0173461250960827,-0.00783737655729055,-0.05278480052948,-0.0392260514199734
661,0.0345916077494621,0.0478261113166809,-0.0303541906177998,-0.0124440249055624,-0.0525157675147057,-0.0341874994337559
662,0.0396853685379028,0.0297507606446743,-0.0421822071075439,-0.019838061183691,-0.050116740167141,-0.0451765283942223
663,0.0325653776526451,0.0101565979421139,-0.0395155251026154,-0.0197631977498531,-0.0459869652986526,-0.0611080080270767
664,0.0202696193009615,0.000677746022120118,-0.0176030453294516,-0.00473171006888151,-0.0392794571816921,-0.0660037398338318
665,0.0125563833862543,0.00392667762935162,0.0158624034374952,0.0227798633277416,-0.0294295102357864,-0.057874608784914
666,0.00801606941968203,0.00927501078695059,0.0416587442159653,0.0486494489014149,-0.0203955452889204,-0.0488580241799355
667,0.00419867597520351,0.0115641849115491,0.0513157099485397,0.0610442534089088,-0.0117582874372602,-0.0425714217126369
668,0.00417686859145761,0.0213367622345686,0.0523910112679005,0.0588746182620525,-0.00113425427116454,-0.0302257053554058
669,0.00446897931396961,0.0375072509050369,0.0441716872155666,0.0418032929301262,0.00206753122620285,-0.0177593249827623
670,0.00384824466891587,0.0477857254445553,0.0223616845905781,0.0160476062446833,-0.00617323024198413,-0.0219726394861937
671,0.0133331976830959,0.047684121876955,-0.00127125123981386,-0.0010921461507678,-0.0108831524848938,-0.0386925153434277
672,0.035270731896162,0.0365256182849407,-0.0114160962402821,0.00092257879441604,-0.000599755614530295,-0.0487065613269806
673,0.0531778894364834,0.0195399671792984,-0.00585826998576522,0.0174273326992989,0.0177158806473017,-0.0445372276008129
674,0.0522272698581219,0.00828892178833485,0.00871552899479866,0.035361759364605,0.0291180834174156,-0.0326647013425827
675,0.031660333275795,0.00541237555444241,0.0228211656212807,0.0426928922533989,0.0227850247174501,-0.0250965505838394
676,0.00200951239094138,0.0038644983433187,0.0273634735494852,0.0363755635917187,0.000714363937731832,-0.0268720183521509
677,-0.0224439930170774,0.000848512514494359,0.0163325201719999,0.0213854014873505,-0.0227457750588655,-0.0295721124857664
678,-0.0366504676640034,-0.00607470469549298,-0.017687788233161,-0.00365895894356072,-0.042308147996664,-0.0384330041706562
679,-0.0488150268793106,-0.0263851620256901,-0.0735678598284721,-0.0465251728892326,-0.0667326599359512,-0.074405699968338
680,-0.0638604387640953,-0.0581676438450813,-0.12518273293972,-0.0954711437225342,-0.0901973620057106,-0.128279700875282
681,-0.0764370486140251,-0.0838376730680466,-0.146444395184517,-0.12487068772316,-0.0971001014113426,-0.166261196136475
682,-0.0859257057309151,-0.0940301343798637,-0.137023076415062,-0.126136496663094,-0.0900910571217537,-0.176695838570595
683,-0.0975241884589195,-0.0919273793697357,-0.108517743647099,-0.106601044535637,-0.0805424898862839,-0.169487938284874
684,-0.105857416987419,-0.0785445719957352,-0.0702776685357094,-0.0728394538164139,-0.0710306093096733,-0.149519726634026
685,-0.0981581658124924,-0.0559247694909573,-0.0289331749081612,-0.0301566403359175,-0.0597276985645294,-0.115938439965248
686,-0.0747043415904045,-0.0306502599269152,0.010011225938797,0.012951897457242,-0.0455786511301994,-0.0719300284981728
687,-0.0451795980334282,-0.00430883606895804,0.0437636822462082,0.050267118960619,-0.0249815061688423,-0.0219745542854071
688,-0.0118646947667003,0.0262705497443676,0.0745312795042992,0.0813761353492737,0.00518514076247811,0.0287980698049068
689,0.0208815950900316,0.0595443099737167,0.0982980132102966,0.100640289485455,0.0359298326075077,0.0685694813728333
690,0.0413247831165791,0.0864429920911789,0.104491516947746,0.0989001840353012,0.052899282425642,0.0875294432044029
691,0.0442994721233845,0.0960786417126656,0.0902543067932129,0.0775020867586136,0.0528611093759537,0.0839985981583595
692,0.033760666847229,0.0838050022721291,0.058397114276886,0.0445967577397823,0.0401618629693985,0.0588389597833157
693,0.0165970083326101,0.0495885126292706,0.0122043984010816,0.00485834060236812,0.0165723655372858,0.017051799222827
694,0.00379987922497094,0.00230872724205256,-0.0352058559656143,-0.0337319523096085,-0.0111941508948803,-0.0289765540510416
695,0.0108922384679317,-0.0308502111583948,-0.0592383481562138,-0.0543434284627438,-0.024198466911912,-0.0624590031802654
696,0.0396787784993649,-0.0325445234775543,-0.0566657669842243,-0.0567817464470863,-0.0179369263350964,-0.0776385962963104
697,0.0674584656953812,-0.0156489200890064,-0.0556982196867466,-0.0644011497497559,-0.0144275324419141,-0.0844975933432579
698,0.0638603568077087,-0.00164612592197955,-0.0725636035203934,-0.0910011902451515,-0.0287274774163961,-0.0929378792643547
699,0.025206383317709,0.0073691220022738,-0.0837066620588303,-0.115766569972038,-0.0451505184173584,-0.0951175764203072
700,-0.0184696707874537,0.0256229322403669,-0.0595535859465599,-0.105597704648972,-0.040425106883049,-0.0759579241275787
701,-0.0459778495132923,0.046742856502533,-0.00973927043378353,-0.0624659098684788,-0.0186955127865076,-0.0418020114302635
702,-0.0624914616346359,0.0455469340085983,0.0328687317669392,-0.0165766626596451,-3.01026466331678E-05,-0.012728282250464
703,-0.0723471641540527,0.0195039715617895,0.0548483729362488,0.0177529845386744,0.0123141156509519,0.00165000301785767
704,-0.0697253495454788,-0.00664683151990175,0.0652913376688957,0.0444165617227554,0.0285347942262888,0.00404717959463596
705,-0.0538978390395641,-0.0147967431694269,0.0673794001340866,0.0573509223759174,0.0462483614683151,0.000865955953486264
706,-0.028124937787652,-0.00498788012191653,0.0579316318035126,0.050710953772068,0.057851929217577,0.00138496165163815
707,0.00413622800260782,0.0148441167548299,0.0452973246574402,0.0355539582669735,0.0665720477700233,0.00897937081754208
708,0.0301329419016838,0.031648688018322,0.0380051545798779,0.0194298531860113,0.0700102895498276,0.0138389589264989
709,0.0406543873250484,0.0411273837089539,0.0392915010452271,0.00470245070755482,0.064298078417778,0.0143708661198616
710,0.0424010753631592,0.0489896908402443,0.0497747138142586,-0.0030058566480875,0.0580728724598885,0.0191222950816154
711,0.0419241115450859,0.0528728030622005,0.0612526684999466,-0.00217369874008,0.0587405078113079,0.028709726408124
712,0.0399301759898663,0.0526753254234791,0.0673402771353722,0.0055938852019608,0.0651058927178383,0.0423980765044689
713,0.0324695557355881,0.0548143163323402,0.0636163800954819,0.00906535424292088,0.062903955578804,0.0536008328199387
714,0.0152786588296294,0.0577518120408058,0.0460961572825909,-0.00471998751163483,0.037907138466835,0.0514624081552029
715,-0.00140786007978022,0.0599231161177158,0.0218198616057634,-0.0288387965410948,0.000468311976874247,0.0396839566528797
716,-0.00714521110057831,0.0595321245491505,-0.00308512593619525,-0.0509642101824284,-0.0283820424228907,0.024707717821002
717,-0.00262286327779293,0.0533735044300556,-0.0207191836088896,-0.0613364279270172,-0.0309372767806053,0.00967355631291866
718,0.0129820927977562,0.0453475117683411,-0.0134176136925817,-0.045751690864563,0.000666325737256557,0.00202501472085714
719,0.032213881611824,0.0332039892673492,0.0196089074015617,-0.00477758841589093,0.0467397011816502,0.00521512562409043
720,0.0422027781605721,0.0175151005387306,0.0628304034471512,0.0465833134949207,0.0816517472267151,0.0204803012311459
721,0.0473401919007301,0.0147213879972696,0.108451500535011,0.100449338555336,0.104817636311054,0.0503147579729557
722,0.0589969046413898,0.0280630234628916,0.146685138344765,0.146532118320465,0.123375080525875,0.0832538902759552
723,0.0767938122153282,0.0415936857461929,0.161321863532066,0.167081236839294,0.135206580162048,0.0970062091946602
724,0.0913312360644341,0.0465589687228203,0.147486940026283,0.156509548425674,0.135772496461868,0.0837099775671959
725,0.0954888164997101,0.0478601269423962,0.118181496858597,0.127185434103012,0.124712742865086,0.0570089556276798
726,0.0856514722108841,0.0480380058288574,0.0876784846186638,0.0927774235606194,0.10435363650322,0.0324395447969437
727,0.0634600818157196,0.0411630906164646,0.0575774200260639,0.0581896565854549,0.0784186869859695,0.0153334746137261
728,0.0365232042968273,0.0212663747370243,0.0228024031966925,0.0214807540178299,0.0497263222932816,0.0024161038454622
729,0.0110543267801404,-0.00120604317635298,-0.012532209046185,-0.0154658146202564,0.0222876965999603,-0.00731609016656876
730,-0.0119809051975608,-0.000354213698301464,-0.0370512902736664,-0.0458962246775627,0.00302773783914745,-0.0100279822945595
731,-0.0323824696242809,0.0318960100412369,-0.0496660284698009,-0.0715798139572144,-0.00867842976003885,-0.00963190104812384
732,-0.0417147949337959,0.070652149617672,-0.0554380305111408,-0.0935937538743019,-0.0185756664723158,-0.0133100291714072
733,-0.0360832214355469,0.0865714251995087,-0.0573951862752438,-0.104170098900795,-0.0293689835816622,-0.0245676897466183
734,-0.0270601827651262,0.0732203349471092,-0.056995689868927,-0.0996586084365845,-0.037814449518919,-0.0431660190224648
735,-0.0274455081671476,0.0338394120335579,-0.0528287030756474,-0.0841949954628944,-0.0385263711214066,-0.0643091648817062
736,-0.0379810035228729,-0.021836968138814,-0.0407096557319164,-0.0589899756014347,-0.0330206193029881,-0.0772446841001511
737,-0.0525874271988869,-0.074918158352375,-0.021135251969099,-0.0257804486900568,-0.0276129078119993,-0.0762855932116508
738,-0.0652993097901344,-0.112136259675026,0.00272721354849637,0.00921246036887169,-0.0216776672750711,-0.0639591440558434
739,-0.0679373666644096,-0.121802411973476,0.0292221792042255,0.0411050729453564,-0.00968081783503294,-0.040967270731926
740,-0.0560282208025455,-0.0972570404410362,0.0514535866677761,0.0634663701057434,0.0075401053763926,-0.0147127863019705
741,-0.0356625840067863,-0.0483737252652645,0.061953242868185,0.0694483295083046,0.0261523853987455,0.00105084164533764
742,-0.0140800643712282,0.00470550823956728,0.0619382560253143,0.0617739893496037,0.0453808382153511,0.00516593316569924
743,0.00884939543902874,0.0364808216691017,0.0506915301084518,0.0474077276885509,0.0589287467300892,0.00410872092470527
744,0.0312537625432014,0.0308240596204996,0.0238319486379623,0.0281861256808043,0.056023146957159,-0.00275524752214551
745,0.0473308637738228,0.00143132416997105,-0.00417227344587445,0.0118835885077715,0.0428059883415699,-0.0117242289707065
746,0.0529256984591484,-0.0273961406201124,-0.013239816762507,0.00680909398943186,0.0351664051413536,-0.0150096267461777
747,0.043994914740324,-0.0485594719648361,-0.00879924837499857,0.00534688774496317,0.0319470353424549,-0.0171951204538345
748,0.0255628414452076,-0.0595308765769005,-0.00241355109028518,0.00251659820787609,0.0257816575467587,-0.0203010961413383
749,0.00641572987660766,-0.057164128869772,0.005466238129884,0.00316995987668633,0.01672981120646,-0.0140632083639503
750,-0.0125593347474933,-0.0468559190630913,0.0101722264662385,0.00370388338342309,0.00544287683442235,-0.000249652977799997
751,-0.0282536242157221,-0.0346747413277626,0.00310870795510709,-0.00451265275478363,-0.00854431465268135,0.00400034245103598
752,-0.0369819849729538,-0.0248808171600103,-0.0213727820664644,-0.0278662126511335,-0.0290312208235264,-0.0102542992681265
753,-0.0374002009630203,-0.0163697246462107,-0.0576312988996506,-0.0628828108310699,-0.0517967380583286,-0.0313397794961929
754,-0.0265313629060984,-0.00437108613550663,-0.0832707956433296,-0.0903275609016418,-0.0601332299411297,-0.0382424630224705
755,-0.0130391828715801,0.00251581170596182,-0.0875556915998459,-0.100047022104263,-0.053176075220108,-0.0282040908932686
756,-0.0125853335484862,-0.00656220270320773,-0.0821174457669258,-0.101275727152824,-0.0479664094746113,-0.0175174791365862
757,-0.0240485761314631,-0.0250758677721024,-0.0701021254062653,-0.0967522338032722,-0.0489016026258469,-0.0146218091249466
758,-0.0379241071641445,-0.0472580045461655,-0.0508656725287437,-0.0825515165925026,-0.0504346154630184,-0.0200150348246098
759,-0.0418249703943729,-0.0698385015130043,-0.029258431866765,-0.0573450848460197,-0.0465726815164089,-0.0273011494427919
760,-0.0293720308691263,-0.0839493349194527,-0.00998409558087587,-0.0276215467602015,-0.0357001312077045,-0.0285979621112347
761,-0.0166145842522383,-0.0882186591625214,-0.00125851482152939,-0.00880923960357904,-0.0278372000902891,-0.0286298003047705
762,-0.015564645640552,-0.0871531441807747,0.000620636332314461,-0.000535815546754748,-0.0250602699816227,-0.0265144854784012
763,-0.0233134161680937,-0.0875261202454567,0.00388766173273325,0.00680244015529752,-0.0245652720332146,-0.0142780859023333
764,-0.0352818667888641,-0.0922431126236916,0.00494243297725916,0.0118127865716815,-0.0300312675535679,0.00710264500230551
765,-0.0461687780916691,-0.0930762514472008,0.000489425787236542,0.0121376439929008,-0.0369783826172352,0.0307352244853973
766,-0.0551238656044006,-0.0865276008844376,-0.0115284072235227,0.00470400927588344,-0.0403069593012333,0.0458909869194031
767,-0.060593631118536,-0.0730640962719917,-0.0281080231070518,-0.0115644568577409,-0.0401589088141918,0.0477881729602814
768,-0.0523216240108013,-0.0472116470336914,-0.0371780879795551,-0.0274219792336226,-0.0329729132354259,0.0441931337118149
769,-0.0242756847292185,-0.0160718709230423,-0.0348538495600224,-0.0350820757448673,-0.019520366564393,0.0393297113478184
770,0.0123707177117467,0.00293748290278018,-0.0264599435031414,-0.0336398296058178,-0.00608572689816356,0.0293297749012709
771,0.037771288305521,0.00185282912570983,-0.0188815668225288,-0.0269898101687431,0.000246284616878256,0.0151062859222293
772,0.0417438149452209,-0.0143623920157552,-0.0190282445400953,-0.021895807236433,-0.00730229308828712,0.00692909676581621
773,0.024321224540472,-0.0328008532524109,-0.0288272686302662,-0.0244033969938755,-0.0284043345600367,0.00777729647234082
774,-0.00443091290071607,-0.0383753925561905,-0.0404345877468586,-0.0346094071865082,-0.0490624792873859,0.0097222039476037
775,-0.0230693202465773,-0.0273376815021038,-0.0449650473892689,-0.0457164198160172,-0.0548345781862736,0.0106764370575547
776,-0.0213752649724483,-0.0168898813426495,-0.0460689924657345,-0.053753387182951,-0.0510886050760746,0.010684116743505
777,-0.0091389138251543,-0.0180134084075689,-0.0449884533882141,-0.0540645197033882,-0.0473323054611683,0.00998007692396641
778,0.00392305571585894,-0.0188142713159323,-0.0317123048007488,-0.0391165539622307,-0.0378611050546169,0.0158054120838642
779,0.0142342345789075,-0.0092536685988307,-0.0099215330556035,-0.0162734277546406,-0.0205442663282156,0.0308936331421137
780,0.0175410844385624,0.00597297865897417,0.00207122298888862,-0.00325977429747581,-0.00912189763039351,0.0484096296131611
781,0.0144069641828537,0.0170353185385466,-0.000307978189084679,-0.00209980527870357,-0.01125867664814,0.0598919838666916
782,0.0114457942545414,0.015665216371417,-0.0114941503852606,-0.00544934626668692,-0.0195439476519823,0.0587438866496086
783,0.0117358034476638,0.00565469777211547,-0.0242646746337414,-0.0100529547780752,-0.0249672718346119,0.052791889756918
784,0.00946762226521969,-4.8358881031163E-05,-0.0245803650468588,-0.010736096650362,-0.0263984780758619,0.0579753704369068
785,0.00322702736593783,0.00507939420640469,-0.00622606789693236,-0.000494643987622112,-0.0238148719072342,0.0764275565743446
786,0.00302744377404451,0.0208376813679934,0.0227999798953533,0.0209252834320068,-0.00950230285525322,0.0970340445637703
787,0.0139101222157478,0.0415688492357731,0.0544514805078506,0.0458434857428074,0.0218014530837536,0.108349338173866
788,0.0332073569297791,0.0567040331661701,0.0846775323152542,0.0671528875827789,0.0638334602117538,0.110899806022644
789,0.0570000633597374,0.0580513067543507,0.107549048960209,0.0816679149866104,0.10257113724947,0.11285836994648
790,0.0790661498904228,0.0503604114055634,0.118964143097401,0.0921487808227539,0.125670105218887,0.119721345603466
791,0.0922658145427704,0.0475877933204174,0.116527698934078,0.0995812267065048,0.127123147249222,0.128943905234337
792,0.0917918682098389,0.0518468096852303,0.0955455601215363,0.0934019461274147,0.105284728109837,0.128865167498589
793,0.0779725387692451,0.0525515116751194,0.0607530251145363,0.0686293840408325,0.0697129964828491,0.116069577634335
794,0.0611545741558075,0.0502814427018166,0.0312591455876827,0.0402119643986225,0.0431508682668209,0.105914160609245
795,0.0515063144266605,0.0499017126858234,0.0155281219631433,0.019311161711812,0.0358111374080181,0.105384185910225
796,0.052522037178278,0.0485729575157166,0.00556175131350756,0.00331111857667565,0.0388504192233086,0.107119403779507
797,0.0678982809185982,0.0486558005213737,0.000724583398550749,-0.00434322794899344,0.0455630905926228,0.114468477666378
798,0.0902095511555672,0.0497670136392117,0.00661709951236844,0.0016596206696704,0.0514991171658039,0.129983589053154
799,0.098733939230442,0.0431605651974678,0.0210505034774542,0.0149067565798759,0.0508967451751232,0.139883980154991
800,0.0812080428004265,0.0238661374896765,0.0328767895698547,0.02149847894907,0.0429711602628231,0.13213212788105
801,0.0473841018974781,8.8287539256271E-05,0.0345082655549049,0.0169133078306913,0.0346293076872826,0.116800308227539
802,0.0179079715162516,-0.00619435217231512,0.0352436378598213,0.0155423982068896,0.0343603603541851,0.121213965117931
803,-0.000202850278583355,0.015148039907217,0.0419569052755833,0.0238872058689594,0.0363427549600601,0.152432128787041
804,-0.0118690514937043,0.0516655966639519,0.0459178611636162,0.0264106169342995,0.0280232653021812,0.183754235506058
805,-0.0133969178423285,0.0872942060232162,0.0430458150804043,0.0170915722846985,0.0152169307693839,0.193039014935493
806,-0.00441995030269027,0.10203094035387,0.0320515036582947,0.00357414386235178,0.00839279592037201,0.178576678037643
807,0.00647439807653427,0.0855147540569305,0.0139447953552008,-0.00932867918163538,0.00748353684321046,0.14897795021534
808,0.0154509609565139,0.0466210208833218,-0.00430897809565067,-0.0206837989389896,0.00995654240250587,0.114193044602871
809,0.0186498612165451,-0.00411392329260707,-0.0197564661502838,-0.0312211513519287,0.0108413184061646,0.0776742026209831
810,0.0157647486776114,-0.045759666711092,-0.0243758577853441,-0.0344617776572704,0.0103438934311271,0.0480694733560085
811,0.00883602723479271,-0.0595549903810024,-0.0180850513279438,-0.0287213809788227,0.00850618071854115,0.0333670303225517
812,-0.00964369997382164,-0.0610602088272572,-0.0242124367505312,-0.0333953164517879,-0.00945945549756289,0.0238941218703985
813,-0.0389893837273121,-0.0714023932814598,-0.0497134365141392,-0.0584385246038437,-0.0445117838680744,0.0137696582823992
814,-0.0595685429871082,-0.0854860842227936,-0.0697396397590637,-0.0818669125437737,-0.0682646036148071,0.0133801782503724
815,-0.0577196180820465,-0.0916941538453102,-0.0682967081665993,-0.0829981341958046,-0.0662290006875992,0.0278543755412102
816,-0.0372161082923412,-0.0876709446310997,-0.0519602373242378,-0.0638484582304955,-0.0513051189482212,0.0509129464626312
817,-0.00647273333743215,-0.0723207965493202,-0.026859613135457,-0.0308779589831829,-0.0291493851691484,0.0783039107918739
818,0.0306669473648071,-0.0406867749989033,0.00987584795802832,0.0130550740286708,0.00686679594218731,0.114067897200584
819,0.0678363367915154,0.00264832889661193,0.0500822030007839,0.0549506470561028,0.0482742227613926,0.156442657113075
820,0.0914406031370163,0.041959136724472,0.0725999400019646,0.0757614448666573,0.073805920779705,0.190848037600517
821,0.0936138108372688,0.0681648999452591,0.0698358565568924,0.0696873664855957,0.0738407969474792,0.204535260796547
822,0.0815968662500381,0.0800749734044075,0.0521551407873631,0.0458232052624226,0.053522203117609,0.192235767841339
823,0.07242801040411,0.0801933705806732,0.0298529528081417,0.0177220273762941,0.0248647872358561,0.156156867742538
824,0.0773763805627823,0.0758273750543594,0.0112490858882666,-0.00081726920325309,0.00176417070906609,0.114531837403774
825,0.083203949034214,0.0684666857123375,0.00748150097206235,0.00173180422279984,-0.00875495094805956,0.0933418571949005
826,0.0675399452447891,0.0553877949714661,0.0217841658741236,0.0269982200115919,-0.0100905187427998,0.103033736348152
827,0.0369542054831982,0.0436043664813042,0.0498810075223446,0.0671069547533989,-0.00315238279290497,0.135601192712784
828,0.0127157811075449,0.0370248220860958,0.0805548653006554,0.104547828435898,0.010535174049437,0.169520065188408
829,0.00154132093302906,0.0326407700777054,0.0969496294856071,0.122095242142677,0.0230475533753634,0.186741456389427
830,0.000866954273078591,0.0306253172457218,0.0924223735928535,0.118829481303692,0.0321122594177723,0.190413236618042
831,0.00446022860705853,0.026809461414814,0.0707040578126907,0.100543305277824,0.0356433689594269,0.184516832232475
832,0.00725181913003325,0.0170928854495287,0.0407786592841148,0.0718616098165512,0.0286207776516676,0.16427955031395
833,0.00583903817459941,-0.000255132734309882,0.00771788880228996,0.03618273884058,0.0100995441898704,0.132733464241028
834,-0.00553827546536922,-0.0301212668418884,-0.0328926518559456,-0.00621400633826852,-0.0189162455499172,0.100554116070271
835,-0.0245845708996058,-0.0649077296257019,-0.0751572176814079,-0.0477990210056305,-0.0479651279747486,0.0780088976025581
836,-0.0392980650067329,-0.0885549336671829,-0.10191085934639,-0.0760183557868004,-0.0600324720144272,0.0683990865945816
837,-0.0385996475815773,-0.0933766737580299,-0.10382229834795,-0.0839473307132721,-0.0505264028906822,0.0709183216094971
838,-0.0207274407148361,-0.0802244916558266,-0.0851273983716965,-0.0724183470010757,-0.0287941936403513,0.0802934914827347
839,-0.000489379512146115,-0.0598900802433491,-0.0655363500118256,-0.0583318769931793,-0.0117176044732332,0.0816446170210838
840,0.00747643550857902,-0.0413689315319061,-0.0641233623027802,-0.0598491653800011,-0.0138507504016161,0.0704873949289322
841,0.00450777495279908,-0.025904506444931,-0.0759942904114723,-0.0705506876111031,-0.0322490818798542,0.0579209625720978
842,-0.00453942827880383,-0.0166874844580889,-0.0801236554980278,-0.0701284930109978,-0.0467621050775051,0.052730705589056
843,-0.0231008939445019,-0.021038955077529,-0.0725713148713112,-0.0585247538983822,-0.0503789708018303,0.0482025593519211
844,-0.053083773702383,-0.0386429317295551,-0.0656828805804253,-0.0514348708093166,-0.0571820847690105,0.0320204272866249
845,-0.0783531740307808,-0.0524282343685627,-0.0544358007609844,-0.0420950837433338,-0.0655954331159592,0.0162531547248363
846,-0.0806881636381149,-0.0499683022499084,-0.0268770083785057,-0.0149205857887864,-0.0578640624880791,0.0246315971016884
847,-0.061327837407589,-0.0375495553016663,0.0142209157347679,0.0274172965437174,-0.0281048342585564,0.0601975060999393
848,-0.0245903171598911,-0.0175697579979897,0.0612711310386658,0.079194150865078,0.0190190635621548,0.112519957125187
849,0.0253663640469313,0.0130704529583454,0.101657293736935,0.130223840475082,0.0700700208544731,0.16502633690834
850,0.0645962357521057,0.0422639213502407,0.117220386862755,0.15538863837719,0.100401498377323,0.192510262131691
851,0.071797288954258,0.0553152821958065,0.101176872849464,0.138888701796532,0.0952895656228065,0.182869613170624
852,0.0585542730987072,0.0562207438051701,0.067279614508152,0.095002718269825,0.0666535943746567,0.154060319066048
853,0.0471010431647301,0.0553184896707535,0.0361352637410164,0.0507620014250278,0.0370287746191025,0.131628602743149
854,0.0411810018122196,0.0508489198982716,0.0143136270344257,0.0210101120173931,0.01790233515203,0.118773154914379
855,0.0349645875394344,0.046236053109169,0.00512662623077631,0.0122873401269317,0.0136709408834577,0.113592565059662
856,0.0225676819682121,0.0507333315908909,0.0129901068285108,0.0220817979425192,0.0205596350133419,0.121253944933414
857,0.00226935348473489,0.0558624975383282,0.0267449636012316,0.0336350128054619,0.0264286436140537,0.133520573377609
858,-0.0139151280745864,0.0543965920805931,0.0332335121929646,0.0377480834722519,0.02714410610497,0.138573333621025
859,-0.0181395225226879,0.0511077046394348,0.029439540579915,0.0374701023101807,0.0202778726816177,0.132964566349983
860,-0.0171522367745638,0.0470681376755238,0.0186845194548368,0.0350421741604805,0.00482726888731122,0.121224604547024
861,-0.0122119439765811,0.0407113507390022,0.0121177257969975,0.0343004278838634,-0.00433968752622604,0.110903486609459
862,0.00473849941045046,0.029327355325222,0.021835420280695,0.0432468950748444,0.00916357431560755,0.098282516002655
863,0.0293921213597059,0.0114780785515904,0.0428432039916515,0.0605961121618748,0.0367729030549526,0.0755763277411461
864,0.0418515577912331,-0.0118400491774082,0.0548304468393326,0.0685207694768906,0.0538826026022434,0.0444851443171501
865,0.0335807576775551,-0.0373775064945221,0.0508566647768021,0.0572921000421047,0.0540148206055164,0.0182370077818632
866,0.013700807467103,-0.0542786158621311,0.0399565659463406,0.037239532917738,0.0455800369381905,0.0119447754696012
867,-0.00844692718237638,-0.0499410331249237,0.026178827509284,0.0179037135094404,0.0296237822622061,0.0267061870545149
868,-0.0245609171688557,-0.0188762489706278,0.0124784521758556,0.00346915447153151,0.00965156499296427,0.0563758537173271
869,-0.0314736440777779,0.0302014108747244,-0.000286338647129014,-0.00788983050733805,-0.00778520572930574,0.0932259559631348
870,-0.0383070483803749,0.0750538781285286,-0.0195342898368835,-0.0240055229514837,-0.0252055041491985,0.117179460823536
871,-0.0458903759717941,0.0993701964616776,-0.0392810329794884,-0.0380432605743408,-0.0389712080359459,0.114892974495888
872,-0.0410637557506561,0.101166814565659,-0.0437293685972691,-0.0382033251225948,-0.0359340943396091,0.0990093573927879
873,-0.0216091349720955,0.0816561728715897,-0.0340793691575527,-0.0303255114704371,-0.0159226357936859,0.0854639932513237
874,-0.00205661472864449,0.0436185374855995,-0.0213736649602652,-0.0202323012053967,0.00604315940290689,0.0810080915689468
875,0.00620909640565515,0.00185334449633956,-0.00566339073702693,-0.000131941167637706,0.0191538091748953,0.0909105390310287
876,0.00786916073411703,-0.0203586332499981,0.0207694135606289,0.033485472202301,0.0247716326266527,0.111208759248257
877,0.0102246003225446,-0.013670239597559,0.0517099536955357,0.0657466873526573,0.0284562036395073,0.124159552156925
878,0.0133254779502749,0.00818907748907804,0.0698924586176872,0.0782977715134621,0.0337641537189484,0.117339543998241
879,0.0172401890158653,0.0275963675230742,0.0704003125429153,0.0710903704166412,0.0386359579861164,0.0969410240650177
880,0.0201524067670107,0.0389547646045685,0.0600138120353222,0.0583534054458141,0.0363764949142933,0.0748236402869225
881,0.0159188061952591,0.0416450910270214,0.0454296842217445,0.0493919216096401,0.0244074203073978,0.0572446398437023
882,0.00349015556275845,0.0365431345999241,0.031667847186327,0.0406032167375088,0.00932138785719872,0.046286329627037
883,-0.0101614193990827,0.0238248500972986,0.0161912124603987,0.0218336246907711,-0.00199621962383389,0.0352939888834953
884,-0.0221912991255522,0.00118934269994497,-0.00987110286951065,-0.0121008269488811,-0.0128961410373449,0.0126584060490131
885,-0.0355070978403091,-0.0218621883541346,-0.0413552969694138,-0.0504273101687431,-0.0264465771615505,-0.01786102168262
886,-0.0498047769069672,-0.0296798255294561,-0.059146586805582,-0.0690861493349075,-0.0366808883845806,-0.0373259782791138
887,-0.0631590709090233,-0.0211030263453722,-0.0546441115438938,-0.0570568218827248,-0.0394442602992058,-0.0347019694745541
888,-0.07307980209589,-0.00592653499916196,-0.0355088971555233,-0.0299998708069324,-0.0367745533585548,-0.0111309858039021
889,-0.0750024393200874,0.00849765166640282,-0.0108353225514293,-0.00229407637380064,-0.0299176964908838,0.0310859438031912
890,-0.0636033117771149,0.0212052203714848,0.0177874807268381,0.0298441667109728,-0.0144145106896758,0.082625187933445
891,-0.0388210043311119,0.0348096899688244,0.0491360053420067,0.0663032457232475,0.0135494116693735,0.123979546129704
892,-0.00617061695083976,0.0542485415935516,0.0822207108139992,0.0998015776276588,0.0511731542646885,0.146854370832443
893,0.0307621844112873,0.079081229865551,0.120024919509888,0.130949944257736,0.0912512689828873,0.158734381198883
894,0.0625182390213013,0.0951715856790543,0.154130950570107,0.156049773097038,0.120237976312637,0.161505594849586
895,0.0773059651255608,0.0895984172821045,0.167476966977119,0.163665011525154,0.126770928502083,0.151176586747169
896,0.075618602335453,0.0648161992430687,0.15296882390976,0.148688212037086,0.111402183771133,0.126928403973579
897,0.0614626817405224,0.0289879031479359,0.112942285835743,0.112131729722023,0.0809762999415398,0.0910868048667908
898,0.0373935364186764,-0.00977309886366129,0.0581791289150715,0.0625772029161453,0.0463461764156818,0.0593409724533558
899,0.0109424628317356,-0.037110798060894,0.00678509892895818,0.0171453729271889,0.0200183242559433,0.0550336390733719
900,-0.00897225085645914,-0.0413203500211239,-0.027820248156786,-0.0105876848101616,0.00695923203602433,0.075546607375145
901,-0.0209271013736725,-0.0296747647225857,-0.0442049391567707,-0.0230745244771242,0.000858125160448253,0.0884649306535721
902,-0.0313980206847191,-0.0215751174837351,-0.0518128648400307,-0.0333851985633373,-0.00945264101028442,0.0718792602419853
903,-0.0393116101622581,-0.023366266861558,-0.0567880384624004,-0.0430653057992458,-0.0242932084947824,0.039712630212307
904,-0.0389436669647694,-0.0302963312715292,-0.0561422146856785,-0.0455511920154095,-0.0348696745932102,0.0116645572707057
905,-0.0358299277722836,-0.0453485623002052,-0.0506078861653805,-0.0423824414610863,-0.0405522212386131,-0.0148574458435178
906,-0.0337544344365597,-0.0650186017155647,-0.0410665422677994,-0.0320161134004593,-0.0408558025956154,-0.0384086333215237
907,-0.0310589410364628,-0.069647029042244,-0.0256459135562181,-0.0107446480542421,-0.0296773333102465,-0.0429839193820953
908,-0.0263934191316366,-0.0473200529813766,-0.00423051416873932,0.0178235545754433,-0.00541610224172473,-0.0235813837498426
909,-0.0183504894375801,-0.013742309063673,0.016552759334445,0.0445417426526546,0.0203686226159334,0.00362626858986914
910,-0.012753564864397,0.00578975910320878,0.0237520448863506,0.0560205429792404,0.0291240438818932,0.0170112606137991
911,-0.0137345474213362,0.00814640335738659,0.0152265960350633,0.0459784008562565,0.0199668109416962,0.0133858919143677
912,-0.017150042578578,0.00341643393039703,-0.0029403252992779,0.0193935055285692,0.00616616848856211,0.00777989672496915
913,-0.0178105272352695,0.00127852824516594,-0.0250034146010876,-0.00985359400510788,-0.00395967345684767,0.016018683090806
914,-0.0141651453450322,0.00804828107357025,-0.0425497069954872,-0.0267943795770407,-0.00935088284313679,0.0345856547355652
915,-0.00668035354465246,0.0149169089272618,-0.0476852618157864,-0.026614286005497,-0.00974208768457174,0.0426553077995777
916,0.00489011313766241,0.012545476667583,-0.0382811427116394,-0.0129788937047124,-0.00270393793471158,0.0347101762890816
917,0.00945719890296459,-0.000729554449208081,-0.0291595105081797,-0.00448545347899199,0.00459793675690889,0.0190172623842955
918,-0.00479550240561366,-0.0255696028470993,-0.0369762666523457,-0.019528117030859,0.00232822587713599,-0.00108409207314253
919,-0.0292024202644825,-0.0524311326444149,-0.0520806200802326,-0.0453180335462093,-0.00619996339082718,-0.0218081250786781
920,-0.047530647367239,-0.065675862133503,-0.0523936226963997,-0.0544518269598484,-0.0102571723982692,-0.0345012173056602
921,-0.0511508919298649,-0.0604313872754574,-0.029358871281147,-0.0349490754306316,-0.000420927215600386,-0.0231015775352716
922,-0.0456066131591797,-0.0434264056384563,0.00935969222337008,0.00509647512808442,0.0188246238976717,0.0212872922420502
923,-0.0435216799378395,-0.0202938243746758,0.0479419864714146,0.045261200517416,0.0301785599440336,0.0822780281305313
924,-0.0453159362077713,0.00304070929996669,0.0696615949273109,0.0682314857840538,0.0274710897356272,0.135425731539726
925,-0.0415430590510368,0.0162687581032515,0.0694739371538162,0.073524110019207,0.0201328061521053,0.172535285353661
926,-0.0291260480880737,0.0200817082077265,0.0569425337016582,0.0709216520190239,0.0154315931722522,0.20287911593914
927,-0.0106181846931577,0.0259984135627747,0.0452523529529572,0.0674804672598839,0.0162104517221451,0.236805617809296
928,0.00956608820706606,0.0318066664040089,0.0404945500195026,0.0631630271673203,0.0230533536523581,0.266698330640793
929,0.0182035397738218,0.0236185602843761,0.0304400119930506,0.0458173677325249,0.0239155981689692,0.271292179822922
930,0.000517372449394315,-0.00059428415261209,-0.00411133514717221,0.00383123732171953,0.00363812316209078,0.243604242801666
931,-0.0355085246264935,-0.0279253516346216,-0.0579880848526955,-0.049808818846941,-0.0299540944397449,0.204897418618202
932,-0.0588805861771107,-0.0393803827464581,-0.101077191531658,-0.0854957848787308,-0.0522920973598957,0.186156809329987
933,-0.0545032173395157,-0.0286685153841972,-0.112647250294685,-0.0906510874629021,-0.0545970909297466,0.193342715501785
934,-0.0377207249403,-0.0138165596872568,-0.0969704017043114,-0.0752598345279694,-0.0477423518896103,0.206821337342262
935,-0.0241081975400448,-0.0124057922512293,-0.0674825385212898,-0.0482372604310513,-0.0397770814597607,0.216574430465698
936,-0.014502857811749,-0.0229054745286703,-0.037783969193697,-0.0155455749481916,-0.0297398362308741,0.226592123508453
937,-0.00691482378169894,-0.0362932048738003,-0.0182015299797058,0.0117023130878806,-0.0172324404120445,0.236585587263107
938,-0.00523687619715929,-0.0454623885452747,-0.00977351423352957,0.0240343902260065,-0.00742446584627032,0.242627829313278
939,-0.0116561455652118,-0.0461532138288021,-0.00805353000760078,0.020425371825695,-0.00573618849739432,0.244774341583252
940,-0.0182009600102901,-0.0340481624007225,-0.0035290434025228,0.0127691589295864,-0.00668637501075864,0.25092625617981
941,-0.0197340473532677,-0.00666033010929823,0.010212984867394,0.0143408300355077,-0.00211118650622666,0.270993590354919
942,-0.0236067678779364,0.0219549052417278,0.0221339873969555,0.0211937557905912,0.000906874018255621,0.296399295330048
943,-0.0297760497778654,0.0331891514360905,0.0221664682030678,0.0254566557705402,-0.00293124979361892,0.301683872938156
944,-0.0281965974718332,0.0241465512663126,0.015084401704371,0.0261481627821922,-0.00591505551710725,0.272209167480469
945,-0.0211214385926723,0.00114237680099905,0.00853979680687189,0.0232532061636448,-0.00445436639711261,0.220143109560013
946,-0.0180710442364216,-0.0193554274737835,0.00849099736660719,0.0233054645359516,-0.00043233745964244,0.175478026270866
947,-0.0154231889173388,-0.0160598028451204,0.0161588322371244,0.0327416844666004,0.00629910593852401,0.157411068677902
948,-0.00317987753078341,0.0117675326764584,0.0217671543359756,0.039905309677124,0.0144326388835907,0.158711194992065
949,0.0153362862765789,0.042634766548872,0.0126096587628126,0.0274300612509251,0.0177952758967876,0.158698990941048
950,0.0300416555255651,0.0655818805098534,-0.004081841558218,0.00612114975228906,0.0175917949527502,0.147343277931213
951,0.0402033627033234,0.0843903943896294,-0.00674190558493137,0.00277598854154348,0.0224018488079309,0.130179196596146
952,0.0464428961277008,0.0885503068566322,0.00338508700951934,0.0145687200129032,0.0264311488717794,0.106445915997028
953,0.0383045263588429,0.0621859841048718,0.00296180020086467,0.0171042699366808,0.0132439788430929,0.0683011263608933
954,0.0120222400873899,0.0136326439678669,-0.00994723662734032,0.00996940210461617,-0.014055865816772,0.0270048063248396
955,-0.0190119445323944,-0.0354326255619526,-0.0155744673684239,0.0107715046033263,-0.0359469950199127,0.0023911960888654
956,-0.0418293178081512,-0.0739483684301376,-0.00791146792471409,0.0232772752642632,-0.0433253049850464,-0.00857734400779009
957,-0.0479798018932343,-0.0951030477881432,0.00862461049109697,0.0430859103798866,-0.035011000931263,-0.0196856912225485
958,-0.0374777726829052,-0.0941317453980446,0.0298782102763653,0.0641763135790825,-0.0136371357366443,-0.0341351255774498
959,-0.021187961101532,-0.0767995864152908,0.0460163317620754,0.0773942619562149,0.00963373575359583,-0.0466083288192749
960,7.64452706789598E-05,-0.0482264943420887,0.0524957962334156,0.0834645479917526,0.0280970297753811,-0.048793900758028
961,0.0312517546117306,-0.0129145737737417,0.0525089763104916,0.0860035344958305,0.0431230142712593,-0.0457567013800144
962,0.0579927153885365,0.0172853134572506,0.0430745184421539,0.0761719420552254,0.0522690303623676,-0.0571335069835186
963,0.0616930760443211,0.0319990180432796,0.0218544341623783,0.0488780438899994,0.0521942190825939,-0.0884058624505997
964,0.0449240580201149,0.0296132639050484,-0.00186630012467504,0.0157025717198849,0.0470510274171829,-0.12444531917572
965,0.0226934421807528,0.0170850958675146,-0.0194994863122702,-0.0108792232349515,0.0391214266419411,-0.150397747755051
966,0.00173590530175716,-0.00511264894157648,-0.0379282683134079,-0.033506203442812,0.0205505415797234,-0.167263880372047
967,-0.0201151557266712,-0.039515670388937,-0.0679898709058762,-0.0615099370479584,-0.0114154228940606,-0.185701757669449
968,-0.0384523048996925,-0.0688784345984459,-0.102369323372841,-0.0913387462496758,-0.0460442788898945,-0.204717397689819
969,-0.0490140952169895,-0.0820493027567863,-0.123672246932983,-0.111818760633469,-0.0749984681606293,-0.215706080198288
970,-0.0585102997720242,-0.0902488082647324,-0.124136745929718,-0.116084896028042,-0.0964057296514511,-0.21751706302166
971,-0.0622955225408077,-0.0932620465755463,-0.102723866701126,-0.0964589044451714,-0.101014919579029,-0.207239970564842
972,-0.0507488399744034,-0.0881509259343147,-0.069613128900528,-0.0592422634363174,-0.0845550298690796,-0.189942449331284
973,-0.0397253148257732,-0.0846782475709915,-0.0473058894276619,-0.032494992017746,-0.0617264397442341,-0.189851939678192
974,-0.0447447076439857,-0.0830164775252342,-0.0449158549308777,-0.0305403918027878,-0.0428418889641762,-0.214270249009132
975,-0.053731270134449,-0.0779715478420258,-0.0519790202379227,-0.0398572646081448,-0.0277719516307116,-0.240739122033119
976,-0.0527149811387062,-0.0712322592735291,-0.0547394007444382,-0.0435865297913551,-0.0201505869626999,-0.251904040575027
977,-0.0430320575833321,-0.064972847700119,-0.0445874221622944,-0.0347344130277634,-0.0188208892941475,-0.244820550084114
978,-0.0306090526282787,-0.0612417794764042,-0.0264747347682714,-0.0189922284334898,-0.0162804946303368,-0.221975609660149
979,-0.0201099701225758,-0.0610756985843182,-0.0144970370456576,-0.00872246269136667,-0.0108344219624996,-0.197972074151039
980,-0.0127478148788214,-0.0582812242209911,-0.00915852375328541,-0.00242171483114362,-0.00289381761103868,-0.188491702079773
981,-0.00732414377853274,-0.0469668172299862,0.00155289005488157,0.0106832822784781,0.00787368882447481,-0.191146790981293
982,-0.00722827948629856,-0.032103817909956,0.0193663369864225,0.0271851737052202,0.0158250033855438,-0.195439621806145
983,-0.0115696145221591,-0.0167771149426699,0.0378926582634449,0.0383664481341839,0.0181980729103088,-0.190348044037819
984,-0.0113331275060773,0.0053673516958952,0.0524042882025242,0.0440800562500954,0.0201148334890604,-0.168911129236221
985,-0.00410892954096198,0.036546528339386,0.0568696819245815,0.0452007316052914,0.0233441013842821,-0.137396201491356
986,0.0119899213314056,0.0654029622673988,0.0517746470868587,0.0444842949509621,0.0298931133002043,-0.109076112508774
987,0.036447960883379,0.0726001709699631,0.0387362949550152,0.0422990843653679,0.0402355566620827,-0.102719187736511
988,0.0529194884002209,0.0526714660227299,0.0139213008806109,0.0313731729984283,0.0444298088550568,-0.128842875361443
989,0.0514884553849697,0.0181842986494303,-0.0162554960697889,0.00939195323735476,0.0351491682231426,-0.173501089215279
990,0.0422847270965576,-0.0213560611009598,-0.0406635589897633,-0.0150703685358167,0.015164390206337,-0.216728344559669
991,0.0320427641272545,-0.0614638216793537,-0.0584334693849087,-0.0327856577932835,-0.0101748080924153,-0.250230818986893
992,0.0206972677260637,-0.0867475122213364,-0.0663108825683594,-0.0393574200570583,-0.0277243796736002,-0.268568128347397
993,0.00803618784993887,-0.0870357900857925,-0.0634640529751778,-0.0403178222477436,-0.0297197494655848,-0.269097656011581
994,-0.0105441864579916,-0.0730862095952034,-0.0617163218557835,-0.0459408611059189,-0.0272931028157473,-0.259034067392349
995,-0.0315969735383987,-0.0567347034811974,-0.0635172575712204,-0.0535100288689137,-0.0261905416846275,-0.247124642133713
996,-0.0481075905263424,-0.0439904369413853,-0.0662258416414261,-0.0611053854227066,-0.0287287384271622,-0.237226933240891
997,-0.0631203949451447,-0.0335262604057789,-0.0732969343662262,-0.0720134600996971,-0.0422968976199627,-0.219982355833054
