,AF3,AF4,Fp1,Fp2,AF7,AF8
0,0.00647117802873254,-0.0470233708620071,0.0136869559064507,0.0213151052594185,-0.00323788309469819,0.00221422221511602
1,0.00543233659118414,-0.048589576035738,0.0100552942603827,0.0174907892942429,-0.00345273246057332,-0.00320321833714843
2,0.00682250410318375,-0.0478332936763763,0.00991504639387131,0.0161131732165813,0.00165842613205314,-0.0070871259085834
3,0.00946131348609924,-0.0459115095436573,0.0112511990591884,0.0172962509095669,0.00817765668034554,-0.00886746309697628
4,0.013516653329134,-0.0430823639035225,0.014061295427382,0.0212528686970472,0.0143638011068106,-0.0073184329085052
5,0.0195422451943159,-0.0393173880875111,0.0188592057675123,0.0275819059461355,0.0213261060416698,-0.00290070590563118
6,0.0261874459683895,-0.0350313186645508,0.0250375419855118,0.0350389964878559,0.0292485319077969,0.00299827288836241
7,0.0294796302914619,-0.0329167246818542,0.0297891069203615,0.0400787405669689,0.0344830043613911,0.00680794706568122
8,0.028508247807622,-0.0350563526153564,0.0313190296292305,0.0407832637429237,0.0340916179120541,0.00573239754885435
9,0.0270254611968994,-0.0395639203488827,0.0309727862477303,0.0391961932182312,0.0294916331768036,0.00157824077177793
10,0.027688417583704,-0.0424574837088585,0.0305722542107105,0.0377351455390453,0.0237153917551041,-0.00200217263773084
11,0.028708204627037,-0.0426030419766903,0.0295705702155828,0.0361990891396999,0.017245190218091,-0.00444256374612451
12,0.0268090274184942,-0.0429547093808651,0.0264704953879118,0.0325026996433735,0.0086107524111867,-0.00784148275852203
13,0.022566694766283,-0.0447186417877674,0.0229080393910408,0.0272587705403566,-0.000515906023792923,-0.0115862190723419
14,0.0187115091830492,-0.0464105755090714,0.0212470982223749,0.0232614781707525,-0.00675372406840324,-0.0137091754004359
15,0.0162938591092825,-0.0473376996815205,0.0209898520261049,0.0216227229684591,-0.00967610254883766,-0.0146271958947182
16,0.0137412184849381,-0.0486259460449219,0.0195595398545265,0.0203576702624559,-0.0125609319657087,-0.0160528644919395
17,0.00847008731216192,-0.0520330034196377,0.0154246492311358,0.0165410153567791,-0.018695667386055,-0.018015319481492
18,0.00186051696073264,-0.0559146478772163,0.011007827706635,0.0115777431055903,-0.0258528701961041,-0.0168106406927109
19,-0.00151606579311192,-0.0563883259892464,0.00942420493811369,0.00939895492047071,-0.028777414932847,-0.00999015849083662
20,-0.000460241368273273,-0.0530498512089252,0.00932275783270597,0.00984449964016676,-0.0270949732512236,-0.00074935972224921
21,0.00304710655473173,-0.0475035533308983,0.00860963016748428,0.0103780245408416,-0.0236905422061682,0.00663482723757625
22,0.00648573832586408,-0.0415085405111313,0.00787902623414993,0.00942025799304247,-0.0200724583119154,0.00902946479618549
23,0.00699177011847496,-0.0379008315503597,0.00690220762044191,0.00599207589402795,-0.0174791496247053,0.00490321358665824
24,0.00455192243680358,-0.037196908146143,0.00560880778357387,0.00137083197478205,-0.0159497410058975,-0.00258966255933046
25,0.00155603117309511,-0.037346962839365,0.00544237997382879,-0.00225453008897603,-0.0142579730600119,-0.00846565142273903
26,-0.00147320947144181,-0.03705994784832,0.00620455341413617,-0.00464056152850389,-0.0124027850106359,-0.0103257605805993
27,-0.00446233712136745,-0.0355061180889606,0.00683107413351536,-0.00562497694045305,-0.0103466650471091,-0.00761412689462304
28,-0.0061934576369822,-0.0324418321251869,0.00777614442631602,-0.00454938504844904,-0.00713572232052684,-0.000986783416010439
29,-0.00717009510844946,-0.0299720503389835,0.00930986180901527,-0.00271276594139636,-0.0035448013804853,0.00688175624236465
30,-0.00960312690585852,-0.0308950711041689,0.0101344017311931,-0.0026301636826247,-0.0017527777235955,0.0123716006055474
31,-0.014288186095655,-0.0349544994533062,0.00951090175658464,-0.00442106137052178,-0.0021159672178328,0.0144619736820459
32,-0.0190855078399181,-0.0392389856278896,0.00856606662273407,-0.00549110863357782,-0.00230038305744529,0.0152591234073043
33,-0.0217428859323263,-0.0423819199204445,0.00793879106640816,-0.0048919809050858,-0.000962892430834472,0.0158333890140057
34,-0.0220941267907619,-0.0443319976329803,0.00828771758824587,-0.0036183251067996,0.00144513475243002,0.0161096286028624
35,-0.0219470672309399,-0.0456805862486362,0.00987580604851246,-0.00266259955242276,0.00467772502452135,0.0154896834865212
36,-0.0238472130149603,-0.0478552281856537,0.01029381621629,-0.00334143359214067,0.0074844597838819,0.0130201801657677
37,-0.0266788192093372,-0.0495825968682766,0.00888195633888245,-0.00479405699297786,0.00925207044929266,0.0106203826144338
38,-0.0281227622181177,-0.0490695275366306,0.0074245729483664,-0.00515403784811497,0.0101028410717845,0.0105871679261327
39,-0.0292815789580345,-0.0476886630058289,0.00646716915071011,-0.00490709114819765,0.00923518370836973,0.012064871378243
40,-0.0310297403484583,-0.046674832701683,0.00621581170707941,-0.00475290277972817,0.00712457345798612,0.0137645751237869
41,-0.0320397578179836,-0.0457704439759254,0.00715120742097497,-0.00413432018831372,0.00531928287819028,0.015597864985466
42,-0.0309388879686594,-0.0450074709951878,0.00905786082148552,-0.0029779220931232,0.00430872663855553,0.0174073986709118
43,-0.0268885344266891,-0.044070802628994,0.0117782112210989,-0.00162470818031579,0.00493104429915547,0.0186392366886139
44,-0.0205070395022631,-0.0425284281373024,0.016077296808362,0.000816712214145809,0.00947401020675898,0.0192687623202801
45,-0.0148390801623464,-0.0417254827916622,0.0214745905250311,0.00464106304571033,0.0177450943738222,0.0189428851008415
46,-0.0122006796300411,-0.04259979352355,0.0245537869632244,0.00853602029383183,0.0247879698872566,0.0164363943040371
47,-0.0122128566727042,-0.0436245054006577,0.0218960419297218,0.0115944743156433,0.0249083526432514,0.0117583218961954
48,-0.0132760889828205,-0.0436731651425362,0.0145721817389131,0.0120048653334379,0.0184115953743458,0.0057257367298007
49,-0.0127724343910813,-0.0422263368964195,0.00702774943783879,0.00832610391080379,0.0119718573987484,0.000216733766137622
50,-0.00937236193567514,-0.0383548960089684,0.00151190476026386,0.00364825990982354,0.00909092929214239,-0.00162119953893125
51,-0.00622888095676899,-0.0337837934494019,-0.00344838760793209,0.00127385533414781,0.00582981435582042,-2.1518624635064E-05
52,-0.00675902375951409,-0.0316216684877872,-0.00981402397155762,0.00142286624759436,-0.00117363594472408,0.00211847224272788
53,-0.00974706187844276,-0.031832754611969,-0.0177450813353062,0.00289206183515489,-0.00905088242143393,0.00378068117424846
54,-0.0115549825131893,-0.0322799757122993,-0.024915998801589,0.00310769048519433,-0.0125679410994053,0.00521343853324652
55,-0.00929760094732046,-0.0313592553138733,-0.0269356817007065,0.00115846854168922,-0.00985115114599466,0.00652024243026972
56,-0.0042895027436316,-0.0293663013726473,-0.0238931868225336,-0.00206885696388781,-0.00465229712426662,0.00674951542168856
57,-0.00134522852022201,-0.0277165714651346,-0.021198695525527,-0.00557905808091164,-0.00280484743416309,0.0050392528064549
58,-0.00126580696087331,-0.0255897901952267,-0.0201836712658405,-0.00643004616722465,-0.00533471908420324,0.00358623499050736
59,-0.00162744184490293,-0.0215691309422255,-0.0193282067775726,-0.00340980407781899,-0.00910146348178387,0.00452441954985261
60,-0.00312453904189169,-0.0171812567859888,-0.0200720429420471,-0.000419886433519423,-0.0132248178124428,0.00625098450109363
61,-0.00715776858851314,-0.0146464789286256,-0.023954514414072,-0.00131578138098121,-0.0190822314471006,0.00596399279311299
62,-0.00993173941969872,-0.0139673491939902,-0.02947380207479,-0.00544018018990755,-0.0259486753493547,0.00292668794281781
63,-0.00712938047945499,-0.013802170753479,-0.0336713120341301,-0.00953565444797277,-0.0314034409821033,-0.000873123237397522
64,-0.00188144750427455,-0.0131764486432076,-0.0349196046590805,-0.011276894249022,-0.0339779406785965,-0.00245335162617266
65,0.00109352625440806,-0.0112611064687371,-0.0330518893897533,-0.0100659066811204,-0.0333228372037411,-0.000248003518208861
66,0.0013215959770605,-0.00799319893121719,-0.0293189957737923,-0.00664540566504002,-0.0306788422167301,0.00366485468111932
67,-0.000533443468157202,-0.00487460568547249,-0.0262177344411612,-0.00334475748240948,-0.0281446594744921,0.00516194198280573
68,-0.00359622412361205,-0.00292855245061219,-0.0248886551707983,-0.00332660786807537,-0.0266636647284031,0.00325791398063302
69,-0.00695904763415456,-0.00175797089468688,-0.0253656506538391,-0.00793190859258175,-0.0271960292011499,0.000558714556973428
70,-0.0108719561249018,-0.00114576716441661,-0.0289201177656651,-0.0152807496488094,-0.0308410748839378,-0.0012388793984428
71,-0.0156808290630579,-0.000908045098185539,-0.0355856493115425,-0.0217893421649933,-0.0364665575325489,-0.00242763618007302
72,-0.0203685667365789,-0.000619872123934329,-0.0409570075571537,-0.0253008138388395,-0.0409798696637154,-0.00314366724342108
73,-0.0231721419841051,-0.000759434537030756,-0.0407351888716221,-0.0268108248710632,-0.0406280681490898,-0.00441020540893078
74,-0.0238196086138487,-0.00116451759822667,-0.0366179309785366,-0.0278514623641968,-0.0350478999316692,-0.00688435044139624
75,-0.0229711104184389,0.00071138225030154,-0.0320576243102551,-0.0269413813948631,-0.029555419459939,-0.00673542637377977
76,-0.0201048776507378,0.00683724414557219,-0.0273933168500662,-0.0222261678427458,-0.0280927494168282,-0.000133315174025483
77,-0.0151190869510174,0.0149939870461822,-0.0218098871409893,-0.0157789066433907,-0.0288994703441858,0.00957542192190886
78,-0.0103377746418118,0.0207208041101694,-0.015486785210669,-0.0104727391153574,-0.0287878885865211,0.0159214455634356
79,-0.00914143025875092,0.0214696601033211,-0.0100267650559545,-0.00709919724613428,-0.0268908999860287,0.0174850095063448
80,-0.011638792231679,0.0189268514513969,-0.0062217004597187,-0.00592929357662797,-0.0246854908764362,0.0180284399539232
81,-0.0129269100725651,0.0178712047636509,-0.00227034138515592,-0.00535538326948881,-0.0234172586351633,0.0217801742255688
82,-0.00934989843517542,0.0200617909431458,0.00318361725658178,-0.000787946919444948,-0.0222878139466047,0.0307926125824451
83,-0.00288478145375848,0.0228376667946577,0.00891683902591467,0.00875643920153379,-0.0195336379110813,0.0430900938808918
84,0.00182148243766278,0.0244513675570488,0.0118613317608833,0.0155004160478711,-0.0148393781855702,0.051191121339798
85,0.00287892553023994,0.0261377971619368,0.010036869905889,0.012330780737102,-0.00979168526828289,0.0486158579587936
86,0.00412565562874079,0.0298475623130798,0.00608871737495065,0.00192172301467508,-0.00536504201591015,0.0381136983633041
87,0.00906363967806101,0.0355991460382938,0.00431900145485997,-0.00788037572056055,-0.00162897654809058,0.0287653412669897
88,0.0155302854254842,0.0414037816226482,0.00605950178578496,-0.0119276903569698,0.0008096614619717,0.0249279905110598
89,0.0182667300105095,0.0440577790141106,0.00887109898030758,-0.0123316692188382,0.000905131688341498,0.0215998813509941
90,0.0148560097441077,0.04198132827878,0.00982874445617199,-0.0138246743008494,-0.00111197796650231,0.0148348668590188
91,0.00835009943693876,0.0390344150364399,0.00891796872019768,-0.0147966891527176,-0.0060649961233139,0.0107235526666045
92,0.00279324874281883,0.0394768565893173,0.00774881057441235,-0.0112167866900563,-0.014851720072329,0.0154679976403713
93,-5.02334296470508E-05,0.0418572053313255,0.00754436058923602,-0.00477122282609344,-0.0233157221227884,0.0247351676225662
94,-0.000247097224928439,0.0426150895655155,0.00830746348947287,0.00050134229240939,-0.0264767743647099,0.0306188333779573
95,0.00107403087895364,0.041028194129467,0.00956645328551531,0.00395585643127561,-0.023031422868371,0.0307857412844896
96,0.00189539312850684,0.0395241416990757,0.0112142190337181,0.00667114742100239,-0.015208070166409,0.028930002823472
97,0.00130789983086288,0.0402849912643433,0.0132277542725205,0.00846599880605936,-0.00595320761203766,0.0291681215167046
98,0.000892701966222376,0.042886346578598,0.0154824024066329,0.0100734541192651,0.00260374695062637,0.0325794108211994
99,0.0027629011310637,0.045587744563818,0.0184109285473824,0.0128120016306639,0.0097845857962966,0.0381432399153709
100,0.00773920863866806,0.0474084205925465,0.0225878674536943,0.015469110570848,0.0166804511100054,0.0436988137662411
101,0.0136591428890824,0.0483624190092087,0.0265655759721994,0.0163394175469875,0.0212306696921587,0.047970037907362
102,0.0171223916113377,0.0485948957502842,0.0282077323645353,0.0155177293345332,0.0207230523228645,0.0510719008743763
103,0.0181892979890108,0.0498395673930645,0.0281797051429749,0.0154961152002215,0.0181964784860611,0.0551328547298908
104,0.019462876021862,0.0540853105485439,0.0287145636975765,0.0191024281084538,0.0174535289406776,0.0627783536911011
105,0.0227322559803724,0.0601693578064442,0.0310020036995411,0.0256297942250967,0.0191162917762995,0.0727774798870087
106,0.0282894130796194,0.0656114891171455,0.0343149416148663,0.0315356031060219,0.0222214106470346,0.0806295871734619
107,0.0344865098595619,0.0694368332624435,0.0363443493843079,0.0338330380618572,0.025073915719986,0.0826245024800301
108,0.0389072857797146,0.0714559927582741,0.0354766696691513,0.0315235778689384,0.0275461096316576,0.0778995081782341
109,0.0406067669391632,0.0711160078644753,0.0315859094262123,0.0253972336649895,0.0302850641310215,0.0677698850631714
110,0.0410445667803288,0.0687855333089828,0.0259120035916567,0.0178720783442259,0.0333543010056019,0.0556454658508301
111,0.043585866689682,0.0653994902968407,0.0194534584879875,0.0108966175466776,0.0361882448196411,0.0454184748232365
112,0.0491595007479191,0.0611038468778133,0.0115228705108166,0.00451954081654549,0.0370845124125481,0.0382532998919487
113,0.0531748756766319,0.0567148700356483,0.00277830800041556,-0.00117411569226533,0.0365627259016037,0.0328708104789257
114,0.0515123382210732,0.0539755001664162,-0.00433082366362214,-0.00540963048115373,0.0373227000236511,0.0276932250708342
115,0.0455156564712524,0.0541261024773121,-0.00866165105253458,-0.00770524190738797,0.0393054112792015,0.0222538653761148
116,0.0382380187511444,0.0557556748390198,-0.0112987589091063,-0.0090874545276165,0.0398352518677711,0.0157000180333853
117,0.0320435725152493,0.0562872849404812,-0.0132473856210709,-0.0100036468356848,0.0378085970878601,0.00910588353872299
118,0.0284324195235968,0.0547965988516808,-0.0140051636844873,-0.00926885008811951,0.0342738516628742,0.00617249356582761
119,0.0259927753359079,0.0495301224291325,-0.0145691158249974,-0.0087260352447629,0.0294672697782516,0.00542505504563451
120,0.0229529328644276,0.0404166430234909,-0.0167032945901155,-0.0105242971330881,0.023106575012207,0.00380116887390614
121,0.0198458693921566,0.0324737019836903,-0.0198364946991205,-0.0122064789757133,0.0151082621887326,0.00406546797603369
122,0.0178725719451904,0.0297766923904419,-0.0232564825564623,-0.011523119173944,0.00534267025068402,0.00852025859057903
123,0.016971530392766,0.0301782377064228,-0.0279967654496431,-0.0111410198733211,-0.00470202136784792,0.0131018180400133
124,0.0153995463624597,0.0280298925936222,-0.0345282107591629,-0.0153284454718232,-0.0119108762592077,0.0114837568253279
125,0.0127441044896841,0.0218840353190899,-0.0410398654639721,-0.0235770922154188,-0.0141427405178547,0.00450135348364711
126,0.0111827198415995,0.0152956172823906,-0.0449599958956242,-0.0314052402973175,-0.01088497787714,-0.00195933668874204
127,0.0122412675991654,0.0101483631879091,-0.0462519489228725,-0.0367163568735123,-0.00451701739802957,-0.00735902646556497
128,0.015009269118309,0.00636831298470497,-0.0475114583969116,-0.0406479127705097,1.33981548060547E-05,-0.0131298024207354
129,0.0172774419188499,0.00408130744472146,-0.050196073949337,-0.0441098138689995,0.0010389348026365,-0.0182604677975178
130,0.0164773315191269,0.00254786014556885,-0.054145447909832,-0.0473867952823639,-0.000651618873234838,-0.022325748577714
131,0.0123366788029671,0.000757850881200284,-0.0579537115991116,-0.0503809452056885,-0.00431023072451353,-0.0253657214343548
132,0.00871239509433508,-0.000524958362802863,-0.0583881735801697,-0.0514970831573009,-0.00710489274933934,-0.026172885671258
133,0.00838539283722639,0.000294250639853999,-0.0541594214737415,-0.0495985075831413,-0.00687234429642558,-0.0232977475970984
134,0.0103974295780063,0.00388261768966913,-0.0468281842768192,-0.0448622442781925,-0.00442606583237648,-0.0163046400994062
135,0.0134273348376155,0.00905930623412132,-0.0382658429443836,-0.0383716858923435,-0.00122054724488407,-0.00792331155389547
136,0.0152596803382039,0.0121798450127244,-0.031600758433342,-0.0334763079881668,0.000971587549429387,-0.00368278147652745
137,0.0140528157353401,0.0117897223681211,-0.0287457592785358,-0.0320649780333042,0.000804612587671727,-0.00447790883481503
138,0.0111724007874727,0.0105494912713766,-0.0288041308522224,-0.032478254288435,-0.00114669359754771,-0.00657466892153025
139,0.00983987469226122,0.0114154033362865,-0.0304107833653688,-0.0326174907386303,-0.00328649999573827,-0.00718784984201193
140,0.0128992581740022,0.0158989243209362,-0.0318976603448391,-0.0312388222664595,-0.00424166396260262,-0.00492243049666286
141,0.020005252212286,0.0224683843553066,-0.032279446721077,-0.0294567253440619,-0.0033102473244071,-0.00169272103812546
142,0.0275257155299187,0.0278290156275034,-0.0319923870265484,-0.0295355971902609,-0.0010223095305264,-0.000757829868234694
143,0.0313946530222893,0.0305151585489511,-0.0317871160805225,-0.0313246734440327,0.000261862413026392,-0.00163077062461525
144,0.0305940918624401,0.0312180388718843,-0.0312237646430731,-0.0329660624265671,-0.000713264453224838,-0.00188635813537985
145,0.0273000746965408,0.0311344303190708,-0.0301853995770216,-0.0342512689530849,-0.00257169315591455,-0.000871836964506656
146,0.0237861853092909,0.0300803557038307,-0.030591893941164,-0.0369083844125271,-0.00400197459384799,-0.00109437364153564
147,0.0226912051439285,0.0280842818319798,-0.0318743549287319,-0.039773628115654,-0.00403948919847608,-0.00298405741341412
148,0.0255495589226484,0.0267872083932161,-0.0312386117875576,-0.0393097698688507,-0.00301557150669396,-0.00316139706410468
149,0.0302746817469597,0.0268429983407259,-0.0290792062878609,-0.0357727892696857,-0.00304673961363733,-0.00116173306014389
150,0.0347105674445629,0.02808110229671,-0.0264936629682779,-0.0315249487757683,-0.00344545813277364,0.00138450472149998
151,0.0388372726738453,0.0314797647297382,-0.0223855338990688,-0.0268088895827532,-0.000681824516505003,0.00449599185958505
152,0.0435568578541279,0.0388845056295395,-0.0150650534778833,-0.0204540062695742,0.00719683989882469,0.0096557755023241
153,0.0490658171474934,0.0504073463380337,-0.00479698088020086,-0.0126580474898219,0.0178768076002598,0.0173103883862495
154,0.0536655783653259,0.0618808679282665,0.00484382594004273,-0.00643283315002918,0.0256672389805317,0.0239475164562464
155,0.0558753572404385,0.0685020238161087,0.0103253135457635,-0.00419223587960005,0.0274198986589909,0.0257019363343716
156,0.0552964396774769,0.0694954991340637,0.0105732986703515,-0.00557776773348451,0.0237834025174379,0.0219140816479921
157,0.0524914748966694,0.0673768222332001,0.0070031969808042,-0.00900759361684322,0.0173026062548161,0.013850056566298
158,0.0497705899178982,0.065503217279911,0.00301420106552541,-0.0124084930866957,0.0123906638473272,0.0041123959235847
159,0.0480530150234699,0.0646579712629318,0.000186669640243053,-0.0150719787925482,0.0104452464729548,-0.00540191493928432
160,0.0457613840699196,0.0626775920391083,-0.00251458259299397,-0.0179519318044186,0.00794990174472332,-0.0151232834905386
161,0.0434568487107754,0.0592328831553459,-0.004188965074718,-0.0201409198343754,0.0039060648996383,-0.0243039224296808
162,0.0425377786159515,0.0557537004351616,-0.00384145835414529,-0.0202946271747351,0.000302503380225971,-0.0306408908218145
163,0.0405785292387009,0.0511986762285233,-0.00499070156365633,-0.0209741797298193,-0.00432484643533826,-0.0351376906037331
164,0.0362853780388832,0.045370738953352,-0.0099193612113595,-0.0240068938583136,-0.0104888016358018,-0.0392817035317421
165,0.0323874838650227,0.0415503717958927,-0.0159172024577856,-0.0268621481955051,-0.0150978974997997,-0.041427981108427
166,0.0305171012878418,0.0408535860478878,-0.020241791382432,-0.0279846414923668,-0.0177897326648235,-0.0414682142436504
167,0.0309583451598883,0.0415501147508621,-0.0215269513428211,-0.0281846392899752,-0.0199345294386148,-0.0405919551849365
168,0.033711664378643,0.0432250872254372,-0.0195029117166996,-0.0277344044297934,-0.0222226362675428,-0.0380088537931442
169,0.0366724990308285,0.0457464791834354,-0.0164446756243706,-0.026892201974988,-0.0266160480678082,-0.0333688035607338
170,0.0373485907912254,0.0479120537638664,-0.0157063826918602,-0.0268865488469601,-0.0347555689513683,-0.0285355821251869
171,0.0360105037689209,0.0494095981121063,-0.0176223665475845,-0.0277256350964308,-0.0448792576789856,-0.0258266720920801
172,0.0346615426242352,0.0509864389896393,-0.0192591920495033,-0.0274002347141504,-0.0528954900801182,-0.0257113110274076
173,0.0337473377585411,0.0525997802615166,-0.0193313825875521,-0.0249837525188923,-0.0569682084023952,-0.0263669285923243
174,0.032731868326664,0.0538698546588421,-0.0186238065361977,-0.0210673697292805,-0.058196097612381,-0.0255147591233253
175,0.0317158252000809,0.0545053742825985,-0.018178241327405,-0.0167625863105059,-0.0579965189099312,-0.0234789960086346
176,0.0301883369684219,0.0536943227052689,-0.0193456988781691,-0.0137440357357264,-0.0573060475289822,-0.0224065389484167
177,0.0272730812430382,0.0520363003015518,-0.021563982591033,-0.0119943460449576,-0.0560848861932755,-0.0216367896646261
178,0.0241122730076313,0.0516218245029449,-0.0225395280867815,-0.00975801981985569,-0.0529666915535927,-0.0191473308950663
179,0.0237573496997356,0.053543571382761,-0.020909646525979,-0.00632081180810928,-0.046725332736969,-0.0151415541768074
180,0.0273333787918091,0.058348573744297,-0.0166338533163071,-0.00198613316752017,-0.0379815958440304,-0.00947945844382048
181,0.0325180068612099,0.0658233761787415,-0.0105399889871478,0.00268761883489788,-0.0282766707241535,-0.00194656476378441
182,0.0366749055683613,0.0732430890202522,-0.00415297318249941,0.00642067147418857,-0.0187656302005053,0.00509934779256582
183,0.0384329184889793,0.077836200594902,0.000514820800162852,0.00795563589781523,-0.0113433068618178,0.0102000692859292
184,0.0383598208427429,0.0796856507658958,0.00291011994704604,0.00775302993133664,-0.00730526586994529,0.0139377005398273
185,0.0400348603725433,0.0809585228562355,0.00551994144916534,0.00829797144979239,-0.00458228820934892,0.0171045698225498
186,0.0450618602335453,0.0832750573754311,0.00945290829986334,0.0105540920048952,-0.00188264530152082,0.0195928867906332
187,0.0503733940422535,0.0862642452120781,0.0125688472762704,0.0127050094306469,-0.000513040984515101,0.0197676867246628
188,0.0530528947710991,0.0881909728050232,0.0135916024446487,0.0133714014664292,-0.000404490769142285,0.0174657516181469
189,0.0522663965821266,0.0869346782565117,0.0121047794818878,0.0117536187171936,-0.00146410055458546,0.0139664923772216
190,0.0499559715390205,0.0834518447518349,0.00880718789994717,0.00857028923928738,-0.00371759478002787,0.0116353882476687
191,0.049683328717947,0.0815397873520851,0.00640792166814208,0.00586718088015914,-0.00484152510762215,0.0127984546124935
192,0.0522601827979088,0.0828751400113106,0.0064129214733839,0.00398765597492456,-0.00342603446915746,0.0163061358034611
193,0.0561832897365093,0.0875910595059395,0.00858595781028271,0.00374336051754653,-0.00105218321550637,0.0216765441000462
194,0.059449091553688,0.0943028032779694,0.0114471549168229,0.00569383008405566,-0.000187630706932396,0.0291545242071152
195,0.0610394477844238,0.100048236548901,0.0130841070786119,0.00806681253015995,-0.0021012385841459,0.0366667360067368
196,0.0611931122839451,0.103197164833546,0.0128652257844806,0.00949210394173861,-0.00671401340514421,0.0426094084978104
197,0.0597653687000275,0.102982766926289,0.0106961950659752,0.00930492393672466,-0.012901178561151,0.0463567189872265
198,0.0577982254326344,0.0999026596546173,0.00689769256860018,0.00757716502994299,-0.0188009478151798,0.0487917512655258
199,0.0564840398728848,0.0955069735646248,0.00191334413830191,0.00543767772614956,-0.0236246231943369,0.0517155639827251
200,0.0549726374447346,0.0905695110559464,-0.00327003304846585,0.00414988817647099,-0.0268953796476126,0.0551399104297161
201,0.0520426146686077,0.0859373137354851,-0.00676514953374863,0.00440040789544582,-0.027648912742734,0.0575097762048244
202,0.0471930913627148,0.0822008550167084,-0.00829383078962564,0.00514016626402736,-0.0262002386152744,0.057270810008049
203,0.0409531146287918,0.0786573216319084,-0.0096438592299819,0.00468515232205391,-0.0245924387127161,0.0545694641768932
204,0.0339385382831097,0.0741178914904594,-0.0126768629997969,0.00250472128391266,-0.025657644495368,0.0507752820849419
205,0.0270953942090273,0.068487361073494,-0.0172739215195179,-0.000991692300885916,-0.0296981632709503,0.0464749373495579
206,0.0227218084037304,0.0632706955075264,-0.0213103350251913,-0.0046376227401197,-0.0333622582256794,0.0418014451861382
207,0.023044403642416,0.0604836866259575,-0.0223164055496454,-0.00622404180467129,-0.0330128371715546,0.0377802103757858
208,0.0290289223194122,0.0610324703156948,-0.0182989947497845,-0.00385060394182801,-0.0263563897460699,0.0346881784498692
209,0.0382427349686623,0.0630018413066864,-0.0105805359780788,0.00113430200144649,-0.0150697976350784,0.0303893331438303
210,0.045503992587328,0.0635966211557388,-0.00379618559964001,0.00554936751723289,-0.00514294067397714,0.0244776997715235
211,0.0477790348231792,0.06211768835783,-0.000376757903723046,0.00849631708115339,-0.000458860828075558,0.019890358671546
212,0.045925360172987,0.0599249638617039,0.000639421748928726,0.0114744063466787,-8.3964885561727E-05,0.0194005016237497
213,0.0423504635691643,0.0590697079896927,0.000173909254954197,0.0154471872374415,-0.00206164782866836,0.0229748673737049
214,0.0388952158391476,0.0600361898541451,-0.00203643273562193,0.0193030685186386,-0.00561509886756539,0.0278585348278284
215,0.0367915518581867,0.0614734478294849,-0.00541076902300119,0.0220233947038651,-0.00990884006023407,0.032697755843401
216,0.0370894409716129,0.0621588490903378,-0.00742652220651507,0.024242989718914,-0.0129166133701801,0.037851594388485
217,0.0390513464808464,0.0614721886813641,-0.00692553538829088,0.0259927157312632,-0.0131724374368787,0.0408778116106987
218,0.0394969098269939,0.0598681978881359,-0.00623258808627725,0.026276558637619,-0.0120791280642152,0.0399927273392677
219,0.0372324027121067,0.0593750849366188,-0.00663164583966136,0.0257180035114288,-0.0110939862206578,0.0386467687785625
220,0.0339472033083439,0.0603487379848957,-0.00649307481944561,0.0251897647976875,-0.0094697754830122,0.0390370413661003
221,0.0300533082336187,0.0605808831751347,-0.00566549599170685,0.0241629388183355,-0.00760760670527816,0.0404398776590824
222,0.0246104672551155,0.0590410381555557,-0.00602306332439184,0.0229719467461109,-0.00803603790700436,0.0438622198998928
223,0.0195989981293678,0.0579333044588566,-0.0060293348506093,0.0247935615479946,-0.0100777633488178,0.051088735461235
224,0.0189912430942059,0.0598522201180458,-0.00225716340355575,0.0314857587218285,-0.0100912619382143,0.0608118325471878
225,0.0219362135976553,0.0626100152730942,0.0028087655082345,0.0375382862985134,-0.00868745055049658,0.066291019320488
226,0.0249236430972815,0.0624859631061554,0.00445783091709018,0.0367384925484657,-0.00860161241143942,0.0620617680251598
227,0.0277868639677763,0.0603073798120022,0.00241209310479462,0.0302121080458164,-0.00957085005939007,0.05043975263834
228,0.0315913781523705,0.0585501752793789,-0.000961193291004747,0.02244639582932,-0.00960875395685434,0.0364149138331413
229,0.0355959013104439,0.0571175776422024,-0.00352359190583229,0.016179446130991,-0.00748146744444966,0.0224995352327824
230,0.0391464121639729,0.0550404228270054,-0.00419002631679177,0.01267393771559,-0.00379908015020192,0.0106371743604541
231,0.0437450632452965,0.0535852164030075,-0.00200138008221984,0.0133834024891257,0.000829668948426843,0.00432743411511183
232,0.0510117039084435,0.0554191432893276,0.00393470004200935,0.0193914622068405,0.00696180760860443,0.00632616179063916
233,0.0598482675850391,0.0609725713729858,0.0125243468210101,0.0294604171067476,0.0147116454318166,0.0147090367972851
234,0.0668317452073097,0.0674163326621056,0.0203224457800388,0.0394748412072659,0.0224539637565613,0.0235505811870098
235,0.0699135586619377,0.0724961832165718,0.0249195825308561,0.0459048226475716,0.0278493836522102,0.0294227749109268
236,0.070503756403923,0.0767133757472038,0.0271833781152964,0.0489632077515125,0.0300871804356575,0.0335921980440617
237,0.0713671371340752,0.080870196223259,0.0290495418012142,0.0503639318048954,0.0304289516061544,0.0379441529512405
238,0.0734087750315666,0.0841071158647537,0.0307462122291327,0.05022843927145,0.0303546357899904,0.042322862893343
239,0.0752741396427155,0.0856431946158409,0.0317728593945503,0.0485393106937408,0.0309187788516283,0.0453171283006668
240,0.0754789263010025,0.0862162187695503,0.0324506089091301,0.0464861132204533,0.0319015309214592,0.0463422313332558
241,0.0722764357924461,0.0858810544013977,0.031574510037899,0.0439279489219189,0.0298388730734587,0.0457775741815567
242,0.0646834746003151,0.0838069692254066,0.0277420170605183,0.0403858199715614,0.0228833798319101,0.0443475022912025
243,0.0557274296879768,0.0806702449917793,0.023240165784955,0.0379147417843342,0.0152043458074331,0.0431157276034355
244,0.0489146560430527,0.0771365836262703,0.0209191087633371,0.0377904139459133,0.0106235705316067,0.0415495745837688
245,0.0445282720029354,0.0726054012775421,0.021229013800621,0.0388116277754307,0.00866521708667278,0.0377416834235191
246,0.0419976711273193,0.0674599856138229,0.0232419986277819,0.0400116108357906,0.00826306827366352,0.0313344672322273
247,0.040273018181324,0.0627526640892029,0.0251879803836346,0.0406923182308674,0.00888823624700308,0.0227553471922874
248,0.0383645407855511,0.0597458705306053,0.0256597772240639,0.0403759218752384,0.0102062420919538,0.0127416206523776
249,0.0371076539158821,0.0596774034202099,0.0243788622319698,0.0391620695590973,0.012714721262455,0.00280775642022491
250,0.0364940464496613,0.0607126988470554,0.0210271347314119,0.0363285392522812,0.0151086607947946,-0.00683506717905402
251,0.0342770330607891,0.0595991834998131,0.0153431184589863,0.0318507626652718,0.0145246516913176,-0.0158084612339735
252,0.0294068716466427,0.0560471378266811,0.00914406031370163,0.0283257905393839,0.0117031522095203,-0.0215225350111723
253,0.0224170293658972,0.0510330088436604,0.00474658748134971,0.0273316409438849,0.00976411812007427,-0.0231549888849258
254,0.0150233563035727,0.0457143932580948,0.0034349171910435,0.0284090116620064,0.0111555773764849,-0.0222226083278656
255,0.0105246528983116,0.0421085432171822,0.00573141360655427,0.0309657864272594,0.0174664855003357,-0.0203696005046368
256,0.00946224201470613,0.0397425629198551,0.00926017574965954,0.0323761999607086,0.0261342693120241,-0.020282244309783
257,0.00857802201062441,0.0356517434120178,0.0100838961079717,0.0292013827711344,0.0313389897346497,-0.0239731911569834
258,0.00638913176953793,0.0291362311691046,0.0069321901537478,0.0221444424241781,0.0307508558034897,-0.0299318786710501
259,0.00409911992028356,0.0218906290829182,0.0012729347217828,0.0150189977139235,0.0259958039969206,-0.0346785373985767
260,0.00214418466202915,0.0151925561949611,-0.00499827601015568,0.0100749284029007,0.0188966728746891,-0.0362662449479103
261,-5.02085567859467E-05,0.00944053940474987,-0.0107228057458997,0.00724635412916541,0.0110430885106325,-0.0348089970648289
262,-0.00219317292794585,0.00534496130421758,-0.0151451854035258,0.00602711597457528,0.00416163448244333,-0.0306932423263788
263,-0.00258924998342991,0.00432951143011451,-0.0165880750864744,0.00679417885839939,0.000594281475059688,-0.0251312758773565
264,-0.000568793097045273,0.00655678426846862,-0.0142140705138445,0.00953727494925261,0.00131031079217792,-0.0201261285692453
265,0.00196029734797776,0.00991378631442785,-0.0107162483036518,0.0124154267832637,0.00356593751348555,-0.0163527317345142
266,0.00369310867972672,0.0125550804659724,-0.00857569091022015,0.0141053469851613,0.00542527250945568,-0.0138430381193757
267,0.005108751822263,0.0151275638490915,-0.00718786893412471,0.0153953088447452,0.00793592259287834,-0.0119213946163654
268,0.00541978236287832,0.0185381211340427,-0.00632457388564944,0.0169561039656401,0.0106423199176788,-0.00953020714223385
269,0.00404780684038997,0.0221949368715286,-0.00643359310925007,0.018893901258707,0.0119350682944059,-0.00679513160139322
270,0.00255501153878868,0.0254200752824545,-0.00674189254641533,0.0213262438774109,0.0118068708106875,-0.00358074065297842
271,0.00258205365389585,0.028599239885807,-0.00574062904343009,0.0242555066943169,0.0116763692349195,0.00136492343153805
272,0.00478807231411338,0.032282829284668,-0.00250285537913442,0.0273237191140652,0.0137864090502262,0.00813284981995821
273,0.00780142238363624,0.0353578925132751,0.000970161112491041,0.028747770935297,0.0182463228702545,0.0142096998170018
274,0.00987510848790407,0.0369579009711742,0.00194555649068207,0.0276976525783539,0.0230519101023674,0.0172799117863178
275,0.0117347231134772,0.0380578674376011,0.0011965436860919,0.0259769074618816,0.0277367569506168,0.0178665425628424
276,0.0148557955399156,0.0387333929538727,0.000208687531994656,0.0245149005204439,0.0316997952759266,0.0174553170800209
277,0.0206494778394699,0.0381295494735241,-0.00154028285760432,0.0226277858018875,0.0326488725841045,0.0171488169580698
278,0.0271493475884199,0.0354691259562969,-0.00527574168518186,0.0193873774260283,0.0284670889377594,0.016911830753088
279,0.0286326073110104,0.0313423797488213,-0.00976624339818954,0.0155937792733312,0.0204156637191772,0.0162541009485722
280,0.024431960657239,0.0287328194826841,-0.010939228348434,0.014246872626245,0.0137609615921974,0.0164017323404551
281,0.017794705927372,0.0283312648534775,-0.00854775682091713,0.0153293833136559,0.0112898200750351,0.0179818999022245
282,0.0109660811722279,0.0285144653171301,-0.00566241145133972,0.0169211104512215,0.012060172855854,0.0216167028993368
283,0.00656191352754831,0.0288729090243578,-0.00272863381542265,0.0193021968007088,0.0152987251058221,0.0273474119603634
284,0.00547762122005224,0.0291532762348652,0.000220480578718707,0.0225485563278198,0.0192136745899916,0.0322253666818142
285,0.00531458063051105,0.0291859712451696,0.00150732370093465,0.0254140440374613,0.0210622176527977,0.0344379022717476
286,0.00484985299408436,0.0301241464912891,0.00210579973645508,0.0276751592755318,0.0217974334955215,0.0348456464707851
287,0.00507212802767754,0.0324958674609661,0.0050620106048882,0.0301752667874098,0.0246001929044724,0.0342359766364098
288,0.00612778682261705,0.035207487642765,0.0106162643060088,0.0332439281046391,0.0296858511865139,0.0331985242664814
289,0.00829045474529266,0.0382329002022743,0.0172803625464439,0.0368760302662849,0.0358249060809612,0.0336392745375633
290,0.0116726979613304,0.0421640463173389,0.0234835408627987,0.0404059551656246,0.0417939648032188,0.0370729751884937
291,0.0146057894453406,0.0463527366518974,0.0271316114813089,0.0424908846616745,0.0455713532865047,0.0424977913498878
292,0.0147801274433732,0.0481509827077389,0.0268417000770569,0.041783407330513,0.0458749756217003,0.0455817207694054
293,0.0123609323054552,0.0459637008607388,0.0242371112108231,0.0391123630106449,0.0443119257688522,0.0440717302262783
294,0.0104969330132008,0.0425351969897747,0.0226795915514231,0.0374716855585575,0.0440645888447762,0.0423162877559662
295,0.0112180085852742,0.0401982069015503,0.0228717997670174,0.0375943146646023,0.0462319441139698,0.0429950170218945
296,0.0145441303029656,0.0388233549892902,0.0235337689518929,0.0384279750287533,0.0500301010906696,0.0440765842795372
297,0.0194329470396042,0.0385102778673172,0.0239183325320482,0.0392361842095852,0.0542759373784065,0.0437108799815178
298,0.0230999290943146,0.0387544296681881,0.0233987178653479,0.0387342534959316,0.0566423088312149,0.0410149469971657
299,0.0243008453398943,0.0385579615831375,0.022179838269949,0.0368271470069885,0.0558381788432598,0.037038829177618
300,0.0248580314218998,0.0372072272002697,0.020815521478653,0.0342852286994457,0.0540868118405342,0.0333666913211346
301,0.0260816719383001,0.0343915037810802,0.0193194188177586,0.0310779213905334,0.0540828257799149,0.0295615456998348
302,0.0280231460928917,0.0311553105711937,0.0186197869479656,0.028254484757781,0.0558942221105099,0.0258438549935818
303,0.0296290758997202,0.0276917051523924,0.0192159675061703,0.0269022714346647,0.0581996999680996,0.023143520578742
304,0.0296043120324612,0.0234386287629604,0.0202485974878073,0.0269710384309292,0.0607046373188496,0.0221036560833454
305,0.0281075835227966,0.0193269290030003,0.0212835595011711,0.0282609537243843,0.0633467361330986,0.0232309494167566
306,0.0259208641946316,0.0165735557675362,0.0222265589982271,0.0300454311072826,0.0650034546852112,0.0252103749662638
307,0.0239769257605076,0.0159283261746168,0.0227016694843769,0.0313709527254105,0.0651541203260422,0.0259356871247292
308,0.0223151631653309,0.0167603343725204,0.02145622856915,0.0309724919497967,0.0637549534440041,0.023710809648037
309,0.0204986333847046,0.0179258584976196,0.0184400472790003,0.0290362592786551,0.0611503608524799,0.0190705712884665
310,0.019704470410943,0.0193878021091223,0.0165916997939348,0.02815917506814,0.0595087744295597,0.0153103554621339
311,0.0210339371114969,0.0204831995069981,0.0177778229117393,0.0296105183660984,0.0605066530406475,0.014151319861412
312,0.0241369791328907,0.0200639199465513,0.0211699120700359,0.0322448946535587,0.0638544335961342,0.0137772429734468
313,0.0280577279627323,0.0189695674926043,0.0250490736216307,0.0348726473748684,0.0679372623562813,0.0125914430245757
314,0.0313799493014812,0.0188220534473658,0.0273822154849768,0.0367501489818096,0.0697805881500244,0.0113085526973009
315,0.033057875931263,0.019362760707736,0.027426790446043,0.0372294299304485,0.0679007396101952,0.0101286228746176
316,0.0338687896728516,0.0199583359062672,0.0265114232897758,0.0370233729481697,0.0642812326550484,0.00845232699066401
317,0.0344591215252876,0.0206813160330057,0.0261776261031628,0.037436094135046,0.0610160417854786,0.00624577281996608
318,0.0317854434251785,0.0205529537051916,0.0256445780396461,0.0374087356030941,0.0567520037293434,0.00288606761023402
319,0.0232040900737047,0.0184767972677946,0.0231090877205133,0.0344738662242889,0.0504795610904694,-0.00311433663591743
320,0.0119599755853415,0.0157307349145412,0.0192962419241667,0.0285938084125519,0.0450745038688183,-0.0119012417271733
321,0.0035989151801914,0.014837427996099,0.0167929232120514,0.0231847036629915,0.0433717891573906,-0.0203919038176537
322,-5.89132032473572E-05,0.015723779797554,0.0163071062415838,0.0210090205073357,0.044984970241785,-0.0256043989211321
323,-0.0020496032666415,0.0158795807510614,0.015183630399406,0.020542960613966,0.04612897336483,-0.0279048196971416
324,-0.00563936261460185,0.0144017413258553,0.0115291820839047,0.0195130277425051,0.0430190116167068,-0.0279792603105307
325,-0.0106195649132133,0.0122121479362249,0.00671371864154935,0.017680311575532,0.0357615016400814,-0.0260700471699238
326,-0.0153654562309384,0.00968703906983137,0.00247158785350621,0.0148880034685135,0.0269332006573677,-0.024105004966259
327,-0.0182060822844505,0.00722312275320292,0.000731515174265951,0.0123034473508596,0.0204489007592201,-0.0232359617948532
328,-0.0187306869775057,0.00482573453336954,0.00167057500220835,0.0114815002307296,0.0185978133231401,-0.023031260818243
329,-0.0190351754426956,0.00100893946364522,0.00160124164540321,0.0112107824534178,0.0186824109405279,-0.0239215642213821
330,-0.0208724979311228,-0.00461500510573387,-0.00145698804408312,0.0102134924381971,0.0175575669854879,-0.0258837714791298
331,-0.0238140635192394,-0.0101242633536458,-0.00546042621135712,0.00912454444915056,0.0153558943420649,-0.0271455906331539
332,-0.0267064683139324,-0.0137474378570914,-0.00833512097597122,0.00843117199838161,0.0130451386794448,-0.026766499504447
333,-0.0302229169756174,-0.0161792747676373,-0.0109609346836805,0.00704721082001925,0.00957127753645182,-0.0263855699449778
334,-0.0345616862177849,-0.0180412884801626,-0.0142560778185725,0.00496761268004775,0.00449473783373833,-0.0266452487558126
335,-0.0376073531806469,-0.0181584190577269,-0.0162444859743118,0.00385527452453971,-0.000237106156419031,-0.026808388531208
336,-0.0400863662362099,-0.017830727621913,-0.0166113395243883,0.00281499652191997,-0.00474316999316216,-0.02901266887784
337,-0.0433775037527084,-0.0188202876597643,-0.0166682153940201,0.000496168038807809,-0.00950451660901308,-0.0342821590602398
338,-0.0451724976301193,-0.0195058416575193,-0.0157641712576151,-0.00179379805922508,-0.0126913106068969,-0.039512112736702
339,-0.0454645976424217,-0.0204323381185532,-0.0154227139428258,-0.0042664110660553,-0.0158087555319071,-0.0438548177480698
340,-0.0458127558231354,-0.0238399747759104,-0.0180791616439819,-0.00779117131605744,-0.0209389310330153,-0.0478505007922649
341,-0.0439220853149891,-0.0277594830840826,-0.0211448688060045,-0.00979694444686174,-0.0250752475112677,-0.0479706600308418
342,-0.038137711584568,-0.029230372980237,-0.0206744372844696,-0.00812076218426228,-0.025145361199975,-0.0418780334293842
343,-0.0309420842677355,-0.0294823292642832,-0.0169451627880335,-0.00539839826524258,-0.0210483372211456,-0.0355363823473454
344,-0.0256615094840527,-0.0310439951717854,-0.013578524813056,-0.00498319277539849,-0.0151441590860486,-0.0350744090974331
345,-0.0232214871793985,-0.0330038629472256,-0.0130998194217682,-0.00611081393435597,-0.0105997696518898,-0.0375011339783669
346,-0.0218756925314665,-0.0332449562847614,-0.0142363393679261,-0.00611567357555032,-0.00711646489799023,-0.0385915488004684
347,-0.0196239352226257,-0.0312802530825138,-0.014263859950006,-0.00380340614356101,-0.00287974718958139,-0.0390368066728115
348,-0.0170828215777874,-0.0287131182849407,-0.0134461736306548,-0.000765158620197326,0.000145797879667953,-0.0414758697152138
349,-0.0166327059268951,-0.0280325300991535,-0.014464944601059,0.000405680184485391,-0.00115006789565086,-0.0476333312690258
350,-0.0190968848764896,-0.0295850150287151,-0.018370708450675,-0.00067519152071327,-0.00560465315356851,-0.0570376552641392
351,-0.0226623304188252,-0.0327594205737114,-0.0243592336773872,-0.00353974103927612,-0.00940531399101019,-0.0688642784953117
352,-0.0231689922511578,-0.0376974083483219,-0.0312340576201677,-0.00832250714302063,-0.0107086505740881,-0.0817900002002716
353,-0.0187475029379129,-0.0429903231561184,-0.0371308065950871,-0.0135717066004872,-0.0101173846051097,-0.0921368896961212
354,-0.0140602262690663,-0.0461119599640369,-0.0399719327688217,-0.0166208613663912,-0.00887228175997734,-0.097059577703476
355,-0.0143105741590261,-0.0471416935324669,-0.0389954745769501,-0.0168767347931862,-0.00807689502835274,-0.0975253880023956
356,-0.020115377381444,-0.0489668920636177,-0.0357067584991455,-0.0161538254469633,-0.00857030786573887,-0.0964211821556091
357,-0.0278334002941847,-0.0526469610631466,-0.031494066119194,-0.0152128748595715,-0.00954535696655512,-0.0952287688851357
358,-0.0323869548738003,-0.055741760879755,-0.0258910842239857,-0.0128105022013187,-0.0089450478553772,-0.0934156179428101
359,-0.0330185145139694,-0.0571123920381069,-0.0198035538196564,-0.00899627059698105,-0.0069632763043046,-0.0921033844351768
360,-0.0321466997265816,-0.0578853115439415,-0.0150366695597768,-0.00537657551467419,-0.00520945666357875,-0.0943460687994957
361,-0.030326422303915,-0.0582099966704845,-0.0114800268784165,-0.00263907504267991,-0.00316312396898866,-0.100578114390373
362,-0.027264965698123,-0.0579687394201756,-0.00872800499200821,-0.00075635826215148,0.000259152962826192,-0.10790154337883
363,-0.0237639006227255,-0.0582980997860432,-0.00740454066544771,-0.000135934125864878,0.00384257477708161,-0.113504074513912
364,-0.0204719435423613,-0.0599633380770683,-0.00783705711364746,-0.000731729553081095,0.00638088444247842,-0.11678446829319
365,-0.0171496700495481,-0.0624344386160374,-0.00880687218159437,-0.00183573842514306,0.00871063116937876,-0.118911147117615
366,-0.0144182806834579,-0.0649018511176109,-0.00938862655311823,-0.00319094210863113,0.0104347635060549,-0.120082058012486
367,-0.0136494832113385,-0.0659260526299477,-0.00973570346832275,-0.00380325666628778,0.0094007533043623,-0.117918528616428
368,-0.0153867183253169,-0.0653493255376816,-0.0105620687827468,-0.0033003157004714,0.00435838848352432,-0.112201243638992
369,-0.0187998749315739,-0.0650670304894447,-0.0130941076204181,-0.0037323203869164,-0.00348243885673583,-0.106750801205635
370,-0.0206806100904942,-0.0649002715945244,-0.0159265659749508,-0.00531768472865224,-0.00945490784943104,-0.103615306317806
371,-0.0180315561592579,-0.0630482733249664,-0.0161749925464392,-0.00587832275778055,-0.00910158362239599,-0.101321943104267
372,-0.0123151419684291,-0.0602803938090801,-0.015027878805995,-0.0058131031692028,-0.00413920357823372,-0.0990190282464027
373,-0.00776580674573779,-0.0589872375130653,-0.0160415526479483,-0.00742283323779702,-0.000878476479556412,-0.0976202413439751
374,-0.00616771448403597,-0.0587833039462566,-0.0189830772578716,-0.00983698014169931,-0.00175519392360002,-0.0964584648609161
375,-0.00627911556512117,-0.0572788529098034,-0.020527632907033,-0.0101794879883528,-0.00398987857624888,-0.0933771431446075
376,-0.00613422179594636,-0.0534855797886848,-0.0189934782683849,-0.00743765430524945,-0.0043351105414331,-0.086810790002346
377,-0.00438466807827353,-0.0484886430203915,-0.0160937886685133,-0.0027186160441488,-0.00103582185693085,-0.0761413797736168
378,-0.00157204864080995,-0.0440477058291435,-0.0146048506721854,0.00203295238316059,0.00496812351047993,-0.0626977607607841
379,0.000578677223529667,-0.0402782596647739,-0.0151467118412256,0.00589732499793172,0.00942009408026934,-0.0488833263516426
380,0.00137965381145477,-0.0371181704103947,-0.0168808996677399,0.00863683223724365,0.00837102718651295,-0.0379969589412212
381,0.00208363658748567,-0.0357510708272457,-0.0184263233095407,0.00993150472640991,0.00305086234584451,-0.033246960490942
382,0.00414682179689407,-0.0354928821325302,-0.0177864208817482,0.0104414205998182,-0.00214351038448513,-0.0328132510185242
383,0.00718057435005903,-0.0342689156532288,-0.0140042966231704,0.0111817540600896,-0.00435582222416997,-0.0331555977463722
384,0.00838225521147251,-0.0329508818686008,-0.00893961451947689,0.0110909445211291,-0.00467586098238826,-0.0359051674604416
385,0.00641557713970542,-0.0332612954080105,-0.00438691442832351,0.00950255338102579,-0.00563239492475986,-0.0414596647024155
386,0.00347601505927742,-0.0344140715897083,-0.00017531291814521,0.00823594722896814,-0.0077393758110702,-0.0447602458298206
387,0.00173896248452365,-0.0349758081138134,0.0035673682577908,0.00820468831807375,-0.00968527048826218,-0.0433839708566666
388,0.00223422539420426,-0.0346365235745907,0.00666120368987322,0.00901645515114069,-0.00952948909252882,-0.0403634458780289
389,0.00410209503024817,-0.0347456261515617,0.00843124929815531,0.00982926320284605,-0.00795063190162182,-0.0394035093486309
390,0.00518159940838814,-0.0366706028580666,0.00784789118915796,0.00968038756400347,-0.00695079891011119,-0.0414255149662495
391,0.00495146494358778,-0.0401365868747234,0.00582425808534026,0.00874283164739609,-0.00544025609269738,-0.044331680983305
392,0.0048959287814796,-0.0430072583258152,0.0050986697897315,0.00927890744060278,-0.000384547631256282,-0.0436358861625195
393,0.0069469828158617,-0.0424342751502991,0.00783675350248814,0.0136080104857683,0.00953169167041779,-0.036004301160574
394,0.0111449481919408,-0.0379586964845657,0.01296441629529,0.0201366767287254,0.0217710137367249,-0.0242447927594185
395,0.0141241485252976,-0.0326509438455105,0.0161401201039553,0.0242545772343874,0.0304614938795567,-0.0156238041818142
396,0.0132597358897328,-0.0296746585518122,0.0156466122716665,0.0241192132234573,0.0323066897690296,-0.0142445918172598
397,0.00974808540195227,-0.0301376096904278,0.0143222976475954,0.0216585658490658,0.0294022671878338,-0.0185544285923243
398,0.00600922154262662,-0.033366397023201,0.0141270440071821,0.0185593981295824,0.0253474656492472,-0.0247575454413891
399,0.00507326796650887,-0.036770548671484,0.0142558626830578,0.0153722204267979,0.0216760020703077,-0.0289752073585987
400,0.00802336260676384,-0.0389437861740589,0.0123374871909618,0.0117364693433046,0.0166992638260126,-0.0302950982004404
401,0.0104147074744105,-0.0406733900308609,0.00729173561558127,0.0073503409512341,0.00939610786736012,-0.0312995836138725
402,0.00692379055544734,-0.0422882623970509,0.00106262182816863,0.00297387386672199,0.000209942823858,-0.0339646935462952
403,-0.000794529682025313,-0.0418669767677784,-0.00262768240645528,0.000659493263810873,-0.00960135087370873,-0.036227885633707
404,-0.00684035615995526,-0.0374928563833237,-0.00142560177482665,0.00217595160938799,-0.0165768153965473,-0.0345525294542313
405,-0.00953296944499016,-0.0321907214820385,0.00206373818218708,0.00533725880086422,-0.0190477389842272,-0.0305139999836683
406,-0.0102096376940608,-0.030639635398984,0.00365525693632662,0.00637346552684903,-0.0191858075559139,-0.0291031636297703
407,-0.00913726817816496,-0.0321566052734852,0.00323497853241861,0.00531702022999525,-0.0195466820150614,-0.0311008747667074
408,-0.00741784181445837,-0.0333505757153034,0.00250742607749999,0.00412099761888385,-0.0212379954755306,-0.0346647538244724
409,-0.00695296516641974,-0.0329369865357876,0.00196463824249804,0.00340538821183145,-0.0236390344798565,-0.039692860096693
410,-0.0069057191722095,-0.0301935952156782,0.00275613670237362,0.00436899438500404,-0.024196645244956,-0.0442202650010586
411,-0.00491299200803041,-0.0245019681751728,0.00619809702038765,0.00856617279350758,-0.0209524761885405,-0.0443562790751457
412,0.000154397246660665,-0.0165007468312979,0.0119514521211386,0.015407171100378,-0.0140479914844036,-0.0397100187838078
413,0.00716134114190936,-0.00790965277701616,0.0182716250419617,0.0222364831715822,-0.00550637533888221,-0.0336573645472527
414,0.0132901733741164,-0.000960959820076823,0.023059843108058,0.0264379065483809,0.00160374236293137,-0.0293835178017616
415,0.017442112788558,0.00373589969240129,0.0263685174286366,0.0278786532580853,0.00680160010233521,-0.0276750791817904
416,0.0197706464678049,0.00678549660369754,0.029796339571476,0.0282416883856058,0.0117626087740064,-0.0281627457588911
417,0.0200785864144564,0.00764673110097647,0.03314308822155,0.0284651350229979,0.0164732579141855,-0.0304483845829964
418,0.0201299842447042,0.00601564301177859,0.0356157310307026,0.0285210087895393,0.0198865290731192,-0.0335312969982624
419,0.0227336939424276,0.00339603680185974,0.0377988405525684,0.0286613944917917,0.0220099519938231,-0.0358363278210163
420,0.0272116269916296,0.00064445921452716,0.0392468310892582,0.0287222005426884,0.0232171602547169,-0.0366175659000874
421,0.0301025975495577,-0.00304359174333513,0.038549829274416,0.0275534521788359,0.0235549081116915,-0.036589227616787
422,0.0289648491889238,-0.00903250277042389,0.0351919420063496,0.023797407746315,0.0224456023424864,-0.038126528263092
423,0.0234727635979652,-0.0179313309490681,0.0292474143207073,0.0170785319060087,0.0189942847937346,-0.0438225939869881
424,0.015719810500741,-0.0278282929211855,0.0218613371253014,0.00925311539322138,0.0136896762996912,-0.0527747310698032
425,0.00908559560775757,-0.0361809954047203,0.0150690190494061,0.00299083907157183,0.00853465404361486,-0.0612825825810432
426,0.00485585955902934,-0.0420171953737736,0.00985582452267408,-0.000940211291890591,0.00435829162597656,-0.0664563849568367
427,0.00187108491081744,-0.0450972691178322,0.00638533383607864,-0.00296262488700449,0.000569608877412975,-0.0672649294137955
428,-0.000227798009291291,-0.0449840612709522,0.00602527661249042,-0.00249896547757089,-0.00158402964007109,-0.0639266297221184
429,-0.00238751457072794,-0.0433929748833179,0.00794520694762468,-0.0010371224489063,-0.00246196100488305,-0.0595269948244095
430,-0.00635411264374852,-0.0433024354279041,0.00872086361050606,-0.00168580235913396,-0.00535372691228986,-0.0582718253135681
431,-0.0111237298697233,-0.0445592813193798,0.00782586541026831,-0.00392194697633386,-0.00977248791605234,-0.0597510673105717
432,-0.0147751336917281,-0.0456516481935978,0.00649957405403256,-0.00585591094568372,-0.0121955368667841,-0.0608102306723595
433,-0.0167540255934,-0.0454895235598087,0.0050914497114718,-0.0068878848105669,-0.0121530406177044,-0.0596568509936333
434,-0.0164304673671722,-0.0435445606708527,0.00424815714359283,-0.00669001042842865,-0.0117687117308378,-0.0568266808986664
435,-0.013450731523335,-0.041011743247509,0.00460537895560265,-0.00577585538849235,-0.0119593180716038,-0.0545666255056858
436,-0.00916137360036373,-0.0385221727192402,0.00585025735199451,-0.00473700137808919,-0.0124832978472114,-0.0531406290829182
437,-0.00625046296045184,-0.0358593836426735,0.00660296576097608,-0.00429207924753428,-0.0139740845188499,-0.0521691702306271
438,-0.0058727222494781,-0.0333507880568504,0.00598620576784015,-0.00549682695418596,-0.0166351981461048,-0.0528537593781948
439,-0.00560853118076921,-0.0298206731677055,0.00551264826208353,-0.00728111481294036,-0.0181935373693705,-0.0539531484246254
440,-0.00363298645243049,-0.0233023352921009,0.00700810691341758,-0.0074089989066124,-0.0169731769710779,-0.0523398071527481
441,-0.00101897190324962,-0.0144767034798861,0.0106900529935956,-0.00518127158284187,-0.0137201054021716,-0.0473013445734978
442,0.00098269188310951,-0.0060611255466938,0.0157049857079983,-0.0012210322311148,-0.00920799374580383,-0.0402480959892273
443,0.0010355586418882,-0.000818656873889267,0.019557636231184,0.00244372198358178,-0.00456287944689393,-0.0337615236639977
444,-0.00134368566796184,4.09425556426868E-05,0.0199238266795874,0.00378958531655371,-0.00167391798458993,-0.0302457734942436
445,-0.00318136718124151,-0.000927589775528759,0.0186485610902309,0.00403385981917381,-0.000934562704060227,-0.0287814121693373
446,-0.00221144501119852,-0.000482160074170679,0.0186852589249611,0.00537776527926326,-0.0025821637827903,-0.0272584520280361
447,0.000206802811590023,0.00173677364364266,0.0200305730104446,0.00770929409191012,-0.00714269373565912,-0.0261799059808254
448,0.00194750516675413,0.00439597945660353,0.0209271926432848,0.00903423875570297,-0.0134115805849433,-0.0280273612588644
449,0.00216184183955193,0.00590950530022383,0.019258065149188,0.00749712157994509,-0.0197570044547319,-0.0342880710959435
450,0.00193995155859739,0.00618627527728677,0.0146982753649354,0.00375817785970867,-0.0250653401017189,-0.0424842722713947
451,0.00106987345498055,0.00764338439330459,0.00998005550354719,0.000236921492614783,-0.0277645047754049,-0.0477585569024086
452,-0.00290397880598903,0.0117936413735151,0.00742746517062187,-0.00217790505848825,-0.0269285552203655,-0.0486035905778408
453,-0.0101899318397045,0.016563905403018,0.00592812011018395,-0.00522434897720814,-0.0244120657444,-0.0481206849217415
454,-0.0175572279840708,0.019470477476716,0.00360825378447771,-0.0103096077218652,-0.0228293966501951,-0.0488890185952187
455,-0.0210287105292082,0.0207693204283714,0.00119151291437447,-0.0157459322363138,-0.0218633357435465,-0.0495967827737331
456,-0.0187796987593174,0.0225451122969389,0.000711123459041119,-0.0181935336440802,-0.0191761441528797,-0.0471865423023701
457,-0.0135547276586294,0.0250524282455444,0.00219123903661966,-0.0166366025805473,-0.0151901701465249,-0.0416450425982475
458,-0.00956560485064983,0.0258120223879814,0.00425490597262979,-0.0131182465702295,-0.0125775886699557,-0.0355821549892426
459,-0.00705389957875013,0.023248577490449,0.00597072765231133,-0.00980378594249487,-0.0117995142936707,-0.0304508730769157
460,-0.003233005059883,0.0195438787341118,0.00695010321214795,-0.00709360418841243,-0.0105863893404603,-0.0262930374592543
461,0.00351520907133818,0.0182451866567135,0.00720322132110596,-0.00468346243724227,-0.0067813191562891,-0.0221959110349417
462,0.0117765432223678,0.0197812095284462,0.00657860282808542,-0.00319619756191969,-0.00146326934918761,-0.018319820985198
463,0.0199689194560051,0.0228633526712656,0.00606161169707775,-0.00285272975452244,0.00283954292535782,-0.0158484019339085
464,0.0269371476024389,0.0262675434350967,0.00679372996091843,-0.00334796332754195,0.00475891260430217,-0.0152318738400936
465,0.030290650203824,0.0284244697540998,0.00794130191206932,-0.00468672858551145,0.0043913503177464,-0.0166544429957867
466,0.0292669851332903,0.0289924591779709,0.00852466560900211,-0.00625451793894172,0.00279322685673833,-0.0190024748444557
467,0.0263846181333065,0.0293843653053045,0.00900372210890055,-0.00688841287046671,0.00082732125883922,-0.0196064300835133
468,0.0244020279496908,0.0306222774088383,0.0105460230261087,-0.00585643108934164,-0.000230606819968671,-0.0176067370921373
469,0.023439908400178,0.0311421770602465,0.0132205886766315,-0.00457344530150294,0.000509533332660794,-0.016238909214735
470,0.0223469082266092,0.0290181785821915,0.0166766401380301,-0.00522888544946909,0.00324458698742092,-0.0187496729195118
471,0.0208548959344625,0.0246872026473284,0.0215276312083006,-0.00718740001320839,0.00827589444816113,-0.0244837235659361
472,0.0189637970179319,0.0196223706007004,0.0275760479271412,-0.00796439312398434,0.0144959911704063,-0.0310986433178186
473,0.0172845125198364,0.0163847524672747,0.0335194803774357,-0.00524692796170712,0.0198610927909613,-0.0353131927549839
474,0.0170640423893929,0.0177028644829988,0.0373402684926987,0.000886147608980536,0.0223820637911558,-0.034377533942461
475,0.0182921718806028,0.0227956399321556,0.0368034727871418,0.00664672162383795,0.0206187609583139,-0.0299460291862488
476,0.0209889709949493,0.0293253101408482,0.0326835103332996,0.00932394526898861,0.0160791259258986,-0.0246511213481426
477,0.0253222063183784,0.0361168757081032,0.0277470350265503,0.00921757519245148,0.0122093660756946,-0.019313108175993
478,0.0304505508393049,0.043041318655014,0.0242359228432179,0.00840128865092993,0.0112227508798242,-0.0135478740558028
479,0.0354680307209492,0.050812054425478,0.0239907130599022,0.0100213158875704,0.0124343084171414,-0.00572226289659739
480,0.0388124026358128,0.0587345398962498,0.0267412774264812,0.0141745926812291,0.0127970166504383,0.0034140890929848
481,0.0394623726606369,0.0650295242667198,0.0303689949214458,0.017976351082325,0.0109784658998251,0.0105622569099069
482,0.0392163656651974,0.0694441944360733,0.034108929336071,0.0204831548035145,0.00913046579807997,0.01459492277354
483,0.0405055060982704,0.0723225027322769,0.0389283522963524,0.0227368604391813,0.00971224624663591,0.0166663341224194
484,0.0434365384280682,0.0732794031500816,0.0449646338820457,0.024913027882576,0.0128872878849506,0.0174534916877747
485,0.0467162877321243,0.0725670680403709,0.0508197695016861,0.0266588944941759,0.017739973962307,0.0171868242323399
486,0.048572264611721,0.0705812051892281,0.0540563650429249,0.0276329163461924,0.0221570376306772,0.0154634062200785
487,0.0475028641521931,0.0667900070548058,0.0525104217231274,0.0270658526569605,0.0231200754642487,0.011550179682672
488,0.0444982163608074,0.0618799403309822,0.047234795987606,0.0250716004520655,0.0215188208967447,0.00712034991011024
489,0.0414643883705139,0.0572981685400009,0.0409587025642395,0.0226506348699331,0.0207500532269478,0.00493794120848179
490,0.0388773828744888,0.0530457086861134,0.034703504294157,0.0204304810613394,0.0213323775678873,0.00554558588191867
491,0.0368383005261421,0.0488206371665001,0.0293378233909607,0.0193240307271481,0.0221260357648134,0.00788146443665028
492,0.0350958034396172,0.0450846962630749,0.0265590809285641,0.0202785115689039,0.0224277898669243,0.0114204110577703
493,0.0330598093569279,0.0425318852066994,0.0265670958906412,0.0231414213776588,0.0215560365468264,0.0171912163496017
494,0.0303589049726725,0.0406008809804916,0.027100620791316,0.0258984807878733,0.0190535858273506,0.0242157988250256
495,0.0271642245352268,0.0387567728757858,0.0262977797538042,0.0262921880930662,0.0154023030772805,0.0292669273912907
496,0.0242716930806637,0.0376793444156647,0.0241898726671934,0.0240069795399904,0.0117163816466928,0.0313096717000008
497,0.0220077577978373,0.0367787107825279,0.0208760630339384,0.0193948075175285,0.00891093723475933,0.0303706098347902
498,0.0202986281365156,0.0356246344745159,0.0170816835016012,0.0138389058411121,0.00718500418588519,0.0273397918790579
499,0.0191914737224579,0.0348948463797569,0.014430726878345,0.00918306782841682,0.00603266200050712,0.0233005695044994
500,0.0180802941322327,0.0336673557758331,0.0129123693332076,0.00510211149230599,0.00480889342725277,0.0170273706316948
501,0.0162970926612616,0.0312656834721565,0.0109839169308543,0.00125453458167613,0.00366892153397202,0.00920451711863279
502,0.0147880874574184,0.0292935688048601,0.00798605009913445,-0.00106333941221237,0.00383452675305307,0.00320234731771052
503,0.0143582876771688,0.0284502822905779,0.0037330484483391,-0.0018304301192984,0.00484876660630107,-0.000202169903786853
504,0.0143696507439017,0.027495825663209,-0.00128136074636132,-0.00209831655956805,0.00425237929448485,-0.00186613772530109
505,0.0137684103101492,0.0251698102802038,-0.0050058146007359,-0.00234500435180962,0.000865373818669468,-0.00225402507930994
506,0.0122892912477255,0.0220303814858198,-0.00556765217334032,-0.00230577262118459,-0.00375130423344672,-0.00186436751391739
507,0.0106935612857342,0.0199283342808485,-0.0029822438955307,-0.00105317076668143,-0.00745166325941682,-0.00114277307875454
508,0.00984052289277315,0.0188608784228563,0.00141928647644818,0.00126246479339898,-0.0098612867295742,-0.000657675496768206
509,0.0105433585122228,0.0176538359373808,0.0066261226311326,0.00388478650711477,-0.0117517439648509,-8.11713907751255E-05
510,0.01272068079561,0.0161224976181984,0.0114780534058809,0.00615357840433717,-0.0146565940231085,0.000599124934524298
511,0.0150846699252725,0.0145232854411006,0.0144308321177959,0.0071456735022366,-0.0203991997987032,2.01350394490873E-05
512,0.017028545960784,0.0137543333694339,0.0154372351244092,0.00739408098161221,-0.0280684735625982,-0.00102048635017127
513,0.0185431204736233,0.0151311159133911,0.0154817635193467,0.00780782615765929,-0.0336970314383507,-6.32749215583317E-05
514,0.0183847229927778,0.0188178401440382,0.0143404230475426,0.00750638823956251,-0.0358749330043793,0.00296709942631423
515,0.0157952401787043,0.0238776188343763,0.0119941821321845,0.00601379573345184,-0.0363536216318607,0.0066809831187129
516,0.011082636192441,0.0281663183122873,0.010064166970551,0.00439231842756271,-0.0358809530735016,0.00921793002635241
517,0.00491534639149904,0.0298557598143816,0.00962553173303604,0.00377450790256262,-0.0346889458596706,0.00937034003436565
518,-0.000376678799511865,0.0294665414839983,0.00952564924955368,0.00400152523070574,-0.0337294302880764,0.00824067927896976
519,-0.00321967294439673,0.027747081592679,0.00732509000226855,0.00340908276848495,-0.0352367535233498,0.00655273394659162
520,-0.00369548797607422,0.0256790015846491,0.00319784390740097,0.00289396662265062,-0.0408092141151428,0.00468534603714943
521,-0.00183523655869067,0.0245950445532799,-0.000459861534181982,0.00487018749117851,-0.047757163643837,0.00391065608710051
522,0.00174884533043951,0.0246336348354816,-0.0035286764614284,0.00762370927259326,-0.0509742461144924,0.00490675773471594
523,0.0060492092743516,0.026089770719409,-0.00683591607958078,0.00885259360074997,-0.0486449338495731,0.00851622689515352
524,0.00917568523436785,0.0280577801167965,-0.00969975255429745,0.00862732250243425,-0.0445178896188736,0.0141330668702722
525,0.00938132312148809,0.0285307820886374,-0.0108873629942536,0.00789183471351862,-0.0426672697067261,0.0191461071372032
526,0.00712511083111167,0.0277091767638922,-0.0106898741796613,0.00814290903508663,-0.0433450564742088,0.0233143530786037
527,0.00403822166845202,0.0270010717213154,-0.0107979401946068,0.00956851243972778,-0.0454556010663509,0.0286230556666851
528,0.00205540098249912,0.0273142494261265,-0.0118415700271726,0.0117727881297469,-0.0480595789849758,0.0359032675623894
529,0.00186009041499346,0.0280651617795229,-0.0137390717864037,0.0149099491536617,-0.0508959889411926,0.0435890294611454
530,0.00225462089292705,0.0271226596087217,-0.0168710425496101,0.0174455847591162,-0.0543830096721649,0.0482893027365208
531,0.00340194837190211,0.0245306827127934,-0.0201509539037943,0.0174020919948816,-0.0561838336288929,0.0472386963665485
532,0.00552428420633078,0.0216163489967585,-0.0224836990237236,0.0136693650856614,-0.0536800697445869,0.0386052802205086
533,0.00637319078668952,0.0179686229676008,-0.0258337799459696,0.00508678937330842,-0.0494979284703732,0.0224921554327011
534,0.00364198326133192,0.0131347421556711,-0.032647367566824,-0.0076554287225008,-0.0490844137966633,0.00307171023450792
535,-0.00275309011340141,0.00792146939784288,-0.0418328456580639,-0.0207326710224152,-0.0548339635133743,-0.0138999139890075
536,-0.00965453032404184,0.004640718922019,-0.0488421730697155,-0.0293342992663383,-0.0630159601569176,-0.0249684974551201
537,-0.0128069696947932,0.00498477090150118,-0.0501761808991432,-0.0312117654830217,-0.0671109110116959,-0.0303918942809105
538,-0.0110551277175546,0.00745643256232142,-0.0468990616500378,-0.0285363737493753,-0.064740888774395,-0.0327410250902176
539,-0.00641715247184038,0.0096658393740654,-0.0426727272570133,-0.025341572239995,-0.0589678734540939,-0.0344840213656425
540,-0.00101484695915133,0.0113778058439493,-0.0399908944964409,-0.0234097260981798,-0.0531469359993935,-0.0359562411904335
541,0.00339401862584054,0.012454186566174,-0.0399005115032196,-0.0230192709714174,-0.0487348698079586,-0.0376489870250225
542,0.00560226058587432,0.0116948848590255,-0.0425225906074047,-0.0243852566927671,-0.0462733134627342,-0.0420735105872154
543,0.00602458324283361,0.00901063159108162,-0.0471827052533627,-0.0269341580569744,-0.0447691343724728,-0.0500390529632568
544,0.00655769370496273,0.00578792067244649,-0.0522591881453991,-0.0292718391865492,-0.0415899455547333,-0.059573620557785
545,0.0081567345187068,0.00296054244972765,-0.0562713928520679,-0.0303668901324272,-0.0356606543064117,-0.0691180005669594
546,0.0088949128985405,-0.000563476060051471,-0.0601666457951069,-0.0314623229205608,-0.0305643882602453,-0.0784295871853828
547,0.007193255238235,-0.00532241212204099,-0.0648583769798279,-0.033693965524435,-0.0304333511739969,-0.085793249309063
548,0.0040464187040925,-0.00953109655529261,-0.0690986812114716,-0.035763718187809,-0.0342018827795982,-0.0887303426861763
549,0.00227557681500912,-0.0108085498213768,-0.0711105912923813,-0.035826250910759,-0.0368382520973682,-0.0862359702587128
550,0.00470340345054865,-0.00753309251740575,-0.0695121586322784,-0.0326075255870819,-0.03370551019907,-0.077850267291069
551,0.00971608981490135,-0.00180011475458741,-0.0657943934202194,-0.027753658592701,-0.0255082305520773,-0.0665716379880905
552,0.0129871061071754,0.00167958787642419,-0.0637307688593864,-0.0249538905918598,-0.0176730081439018,-0.0584197901189327
553,0.0134229464456439,0.0007946842815727,-0.0649722069501877,-0.0256508532911539,-0.0130469659343362,-0.0564254857599735
554,0.0119937295094132,-0.0035495818592608,-0.0687092766165733,-0.0291655566543341,-0.0107774203643203,-0.0595339573919773
555,0.0085514634847641,-0.00938689615577459,-0.0734572112560272,-0.0339758805930614,-0.0109036779031157,-0.0643673688173294
556,0.0029413637239486,-0.0148426303640008,-0.0781124159693718,-0.0386608466506004,-0.0140724927186966,-0.0679644867777824
557,-0.00367134041152895,-0.0190192461013794,-0.081980936229229,-0.0428213365375996,-0.0185499917715788,-0.0695752054452896
558,-0.00900159403681755,-0.0219650994986296,-0.084277018904686,-0.0462330356240273,-0.0215229075402021,-0.0690667405724525
559,-0.010170241817832,-0.0231725033372641,-0.0842385590076447,-0.0475896000862122,-0.0212647300213575,-0.0650989860296249
560,-0.00714645395055413,-0.0228130836039782,-0.0830089002847672,-0.0473131947219372,-0.018415305763483,-0.058497354388237
561,-0.00176165602169931,-0.0221376437693834,-0.082620806992054,-0.0477009080350399,-0.0140439867973328,-0.0528149269521236
562,0.00559283420443535,-0.0215359050780535,-0.0832904502749443,-0.0487208142876625,-0.00747227901592851,-0.0492067411541939
563,0.0135595798492432,-0.0212657786905766,-0.0843526870012283,-0.0488864630460739,0.00144029688090086,-0.0464739464223385
564,0.0201625600457191,-0.0208915416151285,-0.0848239883780479,-0.0468990691006184,0.0116081386804581,-0.0428384952247143
565,0.0255630817264318,-0.0186692718416452,-0.0831922292709351,-0.041266318410635,0.02257383428514,-0.0361493416130543
566,0.0312455799430609,-0.0136482305824757,-0.0794284269213676,-0.031866017729044,0.0342665910720825,-0.0257292035967112
567,0.0371182560920715,-0.00753870746120811,-0.0766400396823883,-0.0218203235417604,0.0441192016005516,-0.0146806295961142
568,0.0407827235758305,-0.003397929482162,-0.0780712366104126,-0.0151441525667906,0.0487323179841042,-0.00796205829828978
569,0.0425633117556572,-0.00182247662451118,-0.0831179767847061,-0.012166328728199,0.0483257882297039,-0.00639081839472055
570,0.0464048683643341,-0.00122674636077136,-0.0887709781527519,-0.0103207407519221,0.0461070686578751,-0.0067443260923028
571,0.0510875582695007,-0.00147232157178223,-0.0937367081642151,-0.00910007022321224,0.0446961410343647,-0.00780747458338737
572,0.0502232201397419,-0.00293265446089208,-0.0990027636289597,-0.010378641076386,0.0431517846882343,-0.00978787243366241
573,0.0418564043939114,-0.00503475544974208,-0.105874568223953,-0.0147676458582282,0.0391633398830891,-0.0120360087603331
574,0.0301020443439484,-0.00746365822851658,-0.113925419747829,-0.0203049648553133,0.033979669213295,-0.015001779422164
575,0.0204555094242096,-0.00897178519517183,-0.120135277509689,-0.0232370067387819,0.0313082151114941,-0.0181655399501324
576,0.0156254786998034,-0.00803450774401426,-0.121828973293304,-0.0214325953274965,0.0330396704375744,-0.0194968692958355
577,0.0150806494057179,-0.00449113827198744,-0.118415422737598,-0.0158500168472528,0.0390367917716503,-0.0183536987751722
578,0.0190861150622368,0.0026275955606252,-0.108992181718349,-0.00642983615398407,0.0491484440863132,-0.0143887512385845
579,0.0291818287223578,0.0146492095664144,-0.0936765372753143,0.00772254727780819,0.0623706243932247,-0.00723063293844461
580,0.0454516522586346,0.0311688371002674,-0.0754067897796631,0.0258108414709568,0.0764551162719727,0.00307404273189604
581,0.0680024176836014,0.0521656535565853,-0.0549761168658733,0.0476396046578884,0.0925810933113098,0.0174010265618563
582,0.09665147960186,0.0789497345685959,-0.0297949947416782,0.0733501687645912,0.115178167819977,0.036520890891552
583,0.128984898328781,0.111864127218723,0.00146367202978581,0.101883880794048,0.144943624734879,0.0608166195452213
584,0.162863403558731,0.149566560983658,0.0379958860576153,0.132611900568008,0.178551033139229,0.0910190418362617
585,0.196356356143951,0.188944756984711,0.0773559063673019,0.16453018784523,0.211982309818268,0.125756025314331
586,0.226993784308434,0.225967571139336,0.115636400878429,0.195313334465027,0.2419323772192,0.16145358979702
587,0.253737330436707,0.258152991533279,0.149084344506264,0.22305266559124,0.266364961862564,0.194994956254959
588,0.276933580636978,0.285499930381775,0.176723599433899,0.247769936919212,0.285115987062454,0.224814936518669
589,0.297872066497803,0.309348791837692,0.201083078980446,0.271001160144806,0.301488816738129,0.251175254583359
590,0.318033248186111,0.33034810423851,0.224745243787766,0.293593347072601,0.319678574800491,0.27434453368187
591,0.337210446596146,0.347755551338196,0.247648611664772,0.314396351575851,0.34025377035141,0.29330775141716
592,0.355103760957718,0.362658739089966,0.269259631633759,0.332801640033722,0.361153841018677,0.30942103266716
593,0.373186320066452,0.378989279270172,0.290819436311722,0.35076317191124,0.380487531423569,0.326786309480667
594,0.391239821910858,0.398032933473587,0.311865985393524,0.368919521570206,0.395717769861221,0.346464693546295
595,0.406598269939423,0.417115479707718,0.329749435186386,0.385278791189194,0.405077695846558,0.365783095359802
596,0.41814199090004,0.434018194675446,0.34393972158432,0.398872852325439,0.410607010126114,0.382597655057907
597,0.426932662725449,0.447725474834442,0.355474859476089,0.410468935966492,0.415245026350021,0.396623253822327
598,0.433116614818573,0.456516742706299,0.364163458347321,0.420118153095245,0.418339222669601,0.407405763864517
599,0.435115575790405,0.459579795598984,0.368917346000671,0.426421850919724,0.416644215583801,0.414590746164322
600,0.43327859044075,0.45951572060585,0.370969921350479,0.429412484169006,0.410074591636658,0.419678598642349
601,0.429820984601974,0.459053426980972,0.373282074928284,0.430543333292007,0.402774930000305,0.423302918672562
602,0.426146000623703,0.458260893821716,0.377463102340698,0.430655121803284,0.39850053191185,0.424224078655243
603,0.42348039150238,0.456677138805389,0.383600324392319,0.4304458796978,0.398145616054535,0.421858102083206
604,0.422318667173386,0.454809099435806,0.390179216861725,0.430086612701416,0.399850636720657,0.417436391115189
605,0.421556740999222,0.453329622745514,0.39436873793602,0.42867985367775,0.400911509990692,0.413482338190079
606,0.419697850942612,0.45224803686142,0.394174367189407,0.425957292318344,0.400096863508224,0.41191241145134
607,0.41665643453598,0.451990574598312,0.391033738851547,0.423343569040298,0.398024350404739,0.41303339600563
608,0.413212716579437,0.452809572219849,0.387409687042236,0.421213805675507,0.394738346338272,0.415851056575775
609,0.409108489751816,0.453586876392365,0.383209973573685,0.418191462755203,0.389304131269455,0.419264137744904
610,0.40456423163414,0.453900068998337,0.378634303808212,0.414587140083313,0.383429437875748,0.422813951969147
611,0.400685727596283,0.454483896493912,0.375403255224228,0.411925166845322,0.380522280931473,0.425762742757797
612,0.397195309400558,0.455199420452118,0.373772084712982,0.409920692443848,0.380636125802994,0.425943464040756
613,0.392623633146286,0.454691380262375,0.372196108102798,0.406738638877869,0.37961620092392,0.420804977416992
614,0.385675877332687,0.452189117670059,0.368712842464447,0.401162683963776,0.373103439807892,0.410873472690582
615,0.376535207033157,0.448126524686813,0.362083673477173,0.393573641777039,0.360436052083969,0.399828732013702
616,0.366815596818924,0.442397266626358,0.35273489356041,0.384673058986664,0.34424239397049,0.389745354652405
617,0.357057124376297,0.434588581323624,0.342521071434021,0.375031799077988,0.326649010181427,0.379888206720352
618,0.347930282354355,0.425788074731827,0.333531498908997,0.365805774927139,0.308722347021103,0.370228737592697
619,0.343484610319138,0.418150395154953,0.327365547418594,0.358086407184601,0.293645828962326,0.362455368041992
620,0.345147222280502,0.412591934204102,0.324147880077362,0.351975709199905,0.283857077360153,0.357464879751205
621,0.346223741769791,0.407527297735214,0.321547865867615,0.346158742904663,0.276080250740051,0.353601723909378
622,0.339520692825317,0.399984121322632,0.316375702619553,0.338332444429398,0.265871405601501,0.347100794315338
623,0.325421154499054,0.38854256272316,0.307889074087143,0.327800989151001,0.253981858491898,0.335927784442902
624,0.310228139162064,0.375267088413239,0.2982317507267,0.316784530878067,0.243693947792053,0.32312935590744
625,0.2997707426548,0.363054066896439,0.28938615322113,0.307585954666138,0.236245468258858,0.312842726707459
626,0.294263124465942,0.351620644330978,0.28074836730957,0.299923717975616,0.230060070753098,0.30475839972496
627,0.289099782705307,0.338641107082367,0.270469605922699,0.291820734739304,0.222448140382767,0.296125948429108
628,0.281848400831223,0.324632793664932,0.259894758462906,0.283478736877441,0.213973164558411,0.287908494472504
629,0.27396833896637,0.311906695365906,0.252471804618835,0.277173668146133,0.207531899213791,0.283366322517395
630,0.267357856035233,0.300846487283707,0.249256134033203,0.273753106594086,0.204216033220291,0.283220708370209
631,0.263670176267624,0.291631758213043,0.249365642666817,0.272773325443268,0.203451484441757,0.286470502614975
632,0.263153225183487,0.285004734992981,0.250670969486237,0.272484719753265,0.203781425952911,0.29206120967865
633,0.263865023851395,0.280985444784164,0.251154512166977,0.270777463912964,0.204240709543228,0.298971921205521
634,0.26290175318718,0.278374373912811,0.250807344913483,0.267364174127579,0.205038234591484,0.305057436227798
635,0.257761180400848,0.274740308523178,0.24915911257267,0.262115210294724,0.2046839594841,0.307211697101593
636,0.248183533549309,0.269346952438354,0.245091781020164,0.254861205816269,0.20031563937664,0.304678738117218
637,0.23651085793972,0.263672292232513,0.239237323403358,0.246627271175385,0.192192941904068,0.298990428447723
638,0.225376412272453,0.258149683475494,0.232813194394112,0.23822283744812,0.183084040880203,0.29106268286705
639,0.215872079133987,0.252218276262283,0.226007774472237,0.229847759008408,0.174614816904068,0.281723409891129
640,0.20742492377758,0.245495066046715,0.218394592404366,0.22192919254303,0.167108774185181,0.27263081073761
641,0.199836850166321,0.23809988796711,0.210730835795403,0.215278297662735,0.161298125982285,0.265734106302261
642,0.193958252668381,0.231110259890556,0.204331502318382,0.210423156619072,0.157785177230835,0.262775629758835
643,0.188247799873352,0.22499692440033,0.198406204581261,0.206491410732269,0.154797896742821,0.262980490922928
644,0.180075943470001,0.219458758831024,0.191891953349113,0.202447831630707,0.150235503911972,0.263378173112869
645,0.170311331748962,0.214750856161118,0.185806691646576,0.198362737894058,0.145538508892059,0.26244929432869
646,0.160808861255646,0.209357365965843,0.180439651012421,0.193357467651367,0.142908304929733,0.259363293647766
647,0.1523317694664,0.201390504837036,0.17473141849041,0.187072724103928,0.141634359955788,0.254156053066254
648,0.146370306611061,0.192990005016327,0.168790921568871,0.18204602599144,0.140028238296509,0.249529823660851
649,0.143207296729088,0.186354905366898,0.162965431809425,0.179345548152924,0.13677217066288,0.246252626180649
650,0.141104191541672,0.180258005857468,0.157396584749222,0.17700357735157,0.131237760186195,0.2422796189785
651,0.137850359082222,0.172184064984322,0.151453346014023,0.17280638217926,0.123530209064484,0.236731514334679
652,0.131416350603104,0.159817308187485,0.142817482352257,0.164883002638817,0.113106109201908,0.22895559668541
653,0.121995352208614,0.143642991781235,0.131029665470123,0.153344094753265,0.100069597363472,0.218672052025795
654,0.111810088157654,0.127335488796234,0.118633434176445,0.140784382820129,0.0860217213630676,0.207807540893555
655,0.102679759263992,0.114110611379147,0.108269013464451,0.129548788070679,0.0728748515248299,0.198363855481148
656,0.0951386615633965,0.104911312460899,0.100992694497108,0.120389893651009,0.0624054484069347,0.19066259264946
657,0.088354304432869,0.0985977277159691,0.0960010215640068,0.11298879981041,0.0545388832688332,0.183857992291451
658,0.0807449221611023,0.0926504507660866,0.0915370061993599,0.106371149420738,0.0473699867725372,0.175886645913124
659,0.0725938230752945,0.0865301713347435,0.0876380205154419,0.100783355534077,0.04124391451478,0.166523903608322
660,0.0655446499586105,0.0823325365781784,0.0864518508315086,0.0979239717125893,0.0386945195496082,0.158873781561852
661,0.0601404681801796,0.080631747841835,0.0886462703347206,0.0978166535496712,0.0402721241116524,0.154890075325966
662,0.0559886991977692,0.0791843309998512,0.0915048271417618,0.0976036638021469,0.0432118140161037,0.152812123298645
663,0.0516195707023144,0.0758963748812675,0.0911484658718109,0.0944136530160904,0.0431872308254242,0.149815753102303
664,0.0460869632661343,0.070497564971447,0.0858609452843666,0.088020421564579,0.0381027571856976,0.144644916057587
665,0.0401235781610012,0.062813326716423,0.0769025459885597,0.0798041671514511,0.0294743366539478,0.136577963829041
666,0.035156637430191,0.0532638430595398,0.0678386390209198,0.072275310754776,0.0205378085374832,0.126218557357788
667,0.0308289546519518,0.0426676198840141,0.0605406798422337,0.0666901543736458,0.0126206986606121,0.115316942334175
668,0.0244152471423149,0.0301828756928444,0.0531297251582146,0.0609601922333241,0.00464533222839236,0.104091331362724
669,0.0150462230667472,0.0161073580384254,0.0443724989891052,0.0535896457731724,-0.00338173494674265,0.0928125977516174
670,0.00408416241407394,0.00264561153016984,0.0344760529696941,0.0447629317641258,-0.0118892937898636,0.0826291590929031
671,-0.00623209262266755,-0.00805989652872086,0.0246975142508745,0.035657063126564,-0.021437581628561,0.0752827674150467
672,-0.0142330890521407,-0.0148338610306382,0.0170175619423389,0.0280221477150917,-0.0299282558262348,0.0719680041074753
673,-0.0207508448511362,-0.0186370369046927,0.0118453847244382,0.0221864823251963,-0.035379447042942,0.0706437975168228
674,-0.0255802422761917,-0.0201264508068562,0.00995331816375256,0.0185222644358873,-0.0369608774781227,0.0692414939403534
675,-0.0283224526792765,-0.019550982862711,0.011358380317688,0.0166928581893444,-0.035370834171772,0.0669504925608635
676,-0.0306585840880871,-0.0181903764605522,0.0136859407648444,0.0147011484950781,-0.0329888127744198,0.0621982626616955
677,-0.0331346578896046,-0.0167935881763697,0.0152635807171464,0.0116739990189672,-0.0316786244511604,0.0543645955622196
678,-0.0348115749657154,-0.0159002393484116,0.0155361192300916,0.00806194450706244,-0.0320831462740898,0.0448237806558609
679,-0.0346627980470657,-0.0164473205804825,0.0136615559458733,0.00405992707237601,-0.0346496030688286,0.035234309732914
680,-0.0342774838209152,-0.0190397910773754,0.00892961025238037,-0.000947167631238699,-0.0401098653674126,0.0258149597793818
681,-0.0379422269761562,-0.0228339843451977,0.00289962231181562,-0.0066602174192667,-0.0470069423317909,0.0170842707157135
682,-0.0473580397665501,-0.0263218712061644,-0.00257547455839813,-0.0120637258514762,-0.0527315996587276,0.0106579354032874
683,-0.0608453080058098,-0.0300381556153297,-0.00808064360171556,-0.0178373288363218,-0.0574038662016392,0.00612845225259662
684,-0.0760336518287659,-0.0357940532267094,-0.0141022289171815,-0.0248845331370831,-0.0625902637839317,0.00103680475149304
685,-0.0898148640990257,-0.0429866313934326,-0.0196361728012562,-0.0316810496151447,-0.0681827515363693,-0.00472083315253258
686,-0.0996454358100891,-0.0493358783423901,-0.0238160286098719,-0.0364646539092064,-0.0728813633322716,-0.00946756545454264
687,-0.105390124022961,-0.0539933107793331,-0.0270794443786144,-0.0403087250888348,-0.0763520076870918,-0.0133840776979923
688,-0.107439637184143,-0.0574320144951344,-0.0300376061350107,-0.0447334498167038,-0.0791928321123123,-0.0170717854052782
689,-0.104866690933704,-0.0598033256828785,-0.0316196791827679,-0.0485921874642372,-0.0809856206178665,-0.0202675294131041
690,-0.098157100379467,-0.0614018589258194,-0.0314544998109341,-0.0507719144225121,-0.0806281864643097,-0.0230694450438023
691,-0.090325616300106,-0.0628218501806259,-0.0309307482093573,-0.0517899729311466,-0.0778220817446709,-0.0249553974717855
692,-0.0842596516013145,-0.063944898545742,-0.0307559166103601,-0.0517797060310841,-0.073991447687149,-0.0253194849938154
693,-0.0823962837457657,-0.0657679438591003,-0.0318962708115578,-0.0519944429397583,-0.0721443369984627,-0.0265048686414957
694,-0.0845815986394882,-0.068577915430069,-0.0343179032206535,-0.0533680617809296,-0.0726743638515472,-0.0299489572644234
695,-0.0878161191940308,-0.0701488852500916,-0.0358708016574383,-0.0542558506131172,-0.0736954510211945,-0.0332285389304161
696,-0.0909652858972549,-0.0701912045478821,-0.0356721952557564,-0.0540987886488438,-0.0751455947756767,-0.0351256132125854
697,-0.0947591066360474,-0.0711795166134834,-0.0348698496818542,-0.0548152662813663,-0.0775027647614479,-0.0375215671956539
698,-0.0992503464221954,-0.0742583870887756,-0.0351937301456928,-0.0579377524554729,-0.0808218121528625,-0.0418264903128147
699,-0.103502221405506,-0.0773321539163589,-0.0373481996357441,-0.0624482296407223,-0.0851380005478859,-0.0470448546111584
700,-0.10657275468111,-0.0781792998313904,-0.0410593152046204,-0.0665751770138741,-0.0902572125196457,-0.0521935224533081
701,-0.109510838985443,-0.0783792063593864,-0.0467353537678719,-0.0706523656845093,-0.096912793815136,-0.0583757758140564
702,-0.113630048930645,-0.0802209675312042,-0.0538572184741497,-0.0753232389688492,-0.105173856019974,-0.0652508661150932
703,-0.117640309035778,-0.0825609862804413,-0.0597702004015446,-0.0795131996273994,-0.111990965902805,-0.0695068538188934
704,-0.119885198771954,-0.084025003015995,-0.0625082105398178,-0.0824116095900536,-0.114168860018253,-0.0701045468449593
705,-0.119569651782513,-0.0848153904080391,-0.0617865025997162,-0.084005169570446,-0.111331038177013,-0.0685580521821976
706,-0.116360694169998,-0.0846992060542107,-0.0580842830240726,-0.0840215384960175,-0.104903638362885,-0.0653664469718933
707,-0.111707285046577,-0.0834081992506981,-0.0531656332314014,-0.0828013867139816,-0.0971572920680046,-0.0606727749109268
708,-0.108466051518917,-0.0822712779045105,-0.0496473275125027,-0.081996314227581,-0.0915653184056282,-0.0555986575782299
709,-0.107460163533688,-0.0825384482741356,-0.048317164182663,-0.0824621170759201,-0.0904949158430099,-0.0507275238633156
710,-0.106821477413177,-0.0834871381521225,-0.04772137850523,-0.0831756964325905,-0.0920535176992416,-0.0456419326364994
711,-0.106147818267345,-0.0843871086835861,-0.0466981008648872,-0.0837083533406258,-0.0922450125217438,-0.041501022875309
712,-0.106710530817509,-0.0850883424282074,-0.0451232343912125,-0.0845455676317215,-0.0889831483364105,-0.0398297607898712
713,-0.108698189258575,-0.0854974240064621,-0.0435672141611576,-0.0853550881147385,-0.0842633843421936,-0.0399008803069592
714,-0.111488245427608,-0.0869781151413918,-0.0432606674730778,-0.0858228579163551,-0.0822660103440285,-0.0409235432744026
715,-0.11446949839592,-0.091485857963562,-0.0447245351970196,-0.0866169109940529,-0.0843906924128532,-0.0435169748961926
716,-0.116906814277172,-0.0984702929854393,-0.0466746054589748,-0.0876814275979996,-0.0881946906447411,-0.047138050198555
717,-0.11867119371891,-0.104980491101742,-0.0477706231176853,-0.087817557156086,-0.090587392449379,-0.0498013235628605
718,-0.120771877467632,-0.108712434768677,-0.047834862023592,-0.08693727850914,-0.0901628062129021,-0.0515941604971886
719,-0.123043432831764,-0.109230533242226,-0.0466043762862682,-0.0858242735266685,-0.0866564959287643,-0.0540760457515717
720,-0.124455563724041,-0.108165182173252,-0.0446652695536613,-0.0855050832033157,-0.0815344676375389,-0.0579600520431995
721,-0.124978758394718,-0.107942998409271,-0.0435645505785942,-0.0869278758764267,-0.0775426998734474,-0.0632164776325226
722,-0.124723233282566,-0.109587468206882,-0.04369992390275,-0.0895489379763603,-0.0759109258651733,-0.0690287500619888
723,-0.123933956027031,-0.112800516188145,-0.0446482188999653,-0.0920626074075699,-0.076099120080471,-0.0740426108241081
724,-0.124188549816608,-0.117531791329384,-0.0469706393778324,-0.0944729894399643,-0.0779804587364197,-0.0780577957630157
725,-0.126562163233757,-0.123343758285046,-0.0510831102728844,-0.0972408279776573,-0.0815943852066994,-0.0821659341454506
726,-0.128571018576622,-0.127687007188797,-0.0552857108414173,-0.0990498885512352,-0.085191547870636,-0.0858330875635147
727,-0.126596823334694,-0.128313839435577,-0.057689256966114,-0.097843311727047,-0.086563415825367,-0.0873757749795914
728,-0.120342381298542,-0.125411376357079,-0.0578895024955273,-0.0929489955306053,-0.0857696160674095,-0.0866513848304749
729,-0.114399798214436,-0.121790759265423,-0.0575563088059425,-0.0868381932377815,-0.0860250815749168,-0.0851787924766541
730,-0.11363510042429,-0.120523005723953,-0.0590325370430946,-0.0830884948372841,-0.0897460579872131,-0.0837197676301003
731,-0.118047311902046,-0.121940359473228,-0.0629679039120674,-0.08303052932024,-0.0959338843822479,-0.0817984044551849
732,-0.124211922287941,-0.124177023768425,-0.0682989060878754,-0.0859056040644646,-0.101846478879452,-0.0792881324887276
733,-0.129869237542152,-0.12566140294075,-0.0741262659430504,-0.0907405912876129,-0.106180787086487,-0.0771495774388313
734,-0.136135965585709,-0.127251103520393,-0.0814944431185722,-0.0979735180735588,-0.111087508499622,-0.0776512250304222
735,-0.144307047128677,-0.130553662776947,-0.0910689532756805,-0.107698813080788,-0.117960713803768,-0.0823948979377747
736,-0.152916207909584,-0.135195165872574,-0.100274190306664,-0.117211073637009,-0.124555855989456,-0.089992493391037
737,-0.159015595912933,-0.138403415679932,-0.105097323656082,-0.122278489172459,-0.12818206846714,-0.0954609885811806
738,-0.162391856312752,-0.138528689742088,-0.105343677103519,-0.121959358453751,-0.129652485251427,-0.0948078781366348
739,-0.164394646883011,-0.136597290635109,-0.10373692959547,-0.117940381169319,-0.130687683820724,-0.0885925143957138
740,-0.163161665201187,-0.133128136396408,-0.100848622620106,-0.110574297606945,-0.129359751939774,-0.079615980386734
741,-0.15813273191452,-0.12936706840992,-0.0986967980861664,-0.103189662098885,-0.12499962002039,-0.0729538202285767
742,-0.152834981679916,-0.127474665641785,-0.101687110960484,-0.101499006152153,-0.121133327484131,-0.0725855305790901
743,-0.150504142045975,-0.127608135342598,-0.111004292964935,-0.106259346008301,-0.121570989489555,-0.0763670355081558
744,-0.152025476098061,-0.12861804664135,-0.124057523906231,-0.113585494458675,-0.127767190337181,-0.0791597440838814
745,-0.156488955020905,-0.130334556102753,-0.136707782745361,-0.119868636131287,-0.138000503182411,-0.078567773103714
746,-0.163151025772095,-0.134443163871765,-0.146736949682236,-0.124947920441628,-0.150120735168457,-0.0766692906618118
747,-0.169672071933746,-0.140369191765785,-0.153552815318108,-0.128976687788963,-0.161222115159035,-0.0750706121325493
748,-0.172885254025459,-0.145399168133736,-0.156439989805222,-0.130788177251816,-0.167507469654083,-0.0733854547142982
749,-0.173091322183609,-0.149102002382278,-0.155615672469139,-0.13030743598938,-0.168517842888832,-0.0727147832512856
750,-0.171671971678734,-0.151445135474205,-0.150685176253319,-0.126922905445099,-0.166425675153732,-0.0741198286414146
751,-0.168185651302338,-0.151214212179184,-0.141322553157806,-0.119662992656231,-0.162610247731209,-0.0757340863347054
752,-0.162347987294197,-0.148130759596825,-0.130881920456886,-0.11115600913763,-0.157913789153099,-0.0749096646904945
753,-0.156499460339546,-0.143902942538261,-0.124760672450066,-0.106524564325809,-0.15437938272953,-0.0722609907388687
754,-0.153001740574837,-0.140215575695038,-0.12358795106411,-0.106613859534264,-0.153168439865112,-0.0707289054989815
755,-0.151964738965034,-0.138110637664795,-0.123758815228939,-0.108141534030437,-0.153765454888344,-0.0725203603506088
756,-0.153212934732437,-0.138515412807465,-0.123283989727497,-0.109234482049942,-0.15614815056324,-0.0775354951620102
757,-0.155716344714165,-0.140708222985268,-0.12240694463253,-0.109701193869114,-0.160114929080009,-0.0831943526864052
758,-0.157578244805336,-0.143290132284164,-0.123238615691662,-0.109895974397659,-0.164555072784424,-0.0866665914654732
759,-0.158149167895317,-0.145819798111916,-0.12767918407917,-0.111801758408546,-0.167677998542786,-0.0876654088497162
760,-0.157533243298531,-0.14693945646286,-0.134726628661156,-0.116704672574997,-0.167626604437828,-0.0870368629693985
761,-0.155457317829132,-0.145458444952965,-0.142276376485825,-0.122714504599571,-0.16471891105175,-0.0855293869972229
762,-0.150834605097771,-0.142278760671616,-0.148414105176926,-0.127243921160698,-0.160442560911179,-0.0843117535114288
763,-0.142217412590981,-0.137367203831673,-0.15030175447464,-0.127960845828056,-0.154053494334221,-0.0822054445743561
764,-0.129595592617989,-0.12968285381794,-0.145382046699524,-0.122880406677723,-0.144654706120491,-0.0768119618296623
765,-0.115457639098167,-0.120759189128876,-0.134869873523712,-0.113047562539577,-0.135508954524994,-0.0698389634490013
766,-0.102884881198406,-0.113642148673534,-0.12298833578825,-0.1026221960783,-0.131168052554131,-0.0658932030200958
767,-0.0930444151163101,-0.10907819122076,-0.112684234976768,-0.0949776396155357,-0.13167279958725,-0.0669186860322952
768,-0.0854927375912666,-0.105924755334854,-0.10473271459341,-0.0907666757702827,-0.133317604660988,-0.0719769224524498
769,-0.0805471912026405,-0.104416541755199,-0.0994590073823929,-0.0894723385572433,-0.134496316313744,-0.0803169161081314
770,-0.0785532370209694,-0.104778133332729,-0.0966650545597076,-0.0897017493844032,-0.135956093668938,-0.0905255302786827
771,-0.0775614082813263,-0.103970415890217,-0.0956370010972023,-0.089307114481926,-0.136463463306427,-0.0990618467330933
772,-0.074461854994297,-0.0983532816171646,-0.0955774411559105,-0.0871192365884781,-0.133222356438637,-0.103228524327278
773,-0.0675273910164833,-0.0879469886422157,-0.0951981469988823,-0.0832121446728706,-0.125461518764496,-0.10386073589325
774,-0.0587927177548409,-0.076132521033287,-0.0940205678343773,-0.0785921066999435,-0.116806752979755,-0.103481069207191
775,-0.0524461604654789,-0.0667555630207062,-0.0932154580950737,-0.0754619315266609,-0.11274491995573,-0.104087315499783
776,-0.0497680529952049,-0.0611051730811596,-0.0935579538345337,-0.0753115117549896,-0.114876054227352,-0.106533877551556
777,-0.0498711653053761,-0.0591360181570053,-0.0951397493481636,-0.078055664896965,-0.120426341891289,-0.111492171883583
778,-0.0520325005054474,-0.0614733509719372,-0.0984361693263054,-0.0831726118922234,-0.126111686229706,-0.119146980345249
779,-0.0536762215197086,-0.066279761493206,-0.102433197200298,-0.0887957215309143,-0.129746288061142,-0.126792922616005
780,-0.0528206340968609,-0.070963978767395,-0.105730220675468,-0.0932622998952866,-0.131362855434418,-0.132356882095337
781,-0.0497331656515598,-0.0743129029870033,-0.107762463390827,-0.0959806367754936,-0.131486281752586,-0.13625080883503
782,-0.0442338846623898,-0.0743114799261093,-0.106995537877083,-0.096016064286232,-0.128784701228142,-0.138460755348206
783,-0.038106806576252,-0.0711778551340103,-0.103449493646622,-0.0941142365336418,-0.124210730195045,-0.139463931322098
784,-0.0358789339661598,-0.0689292773604393,-0.100535184144974,-0.092988483607769,-0.122105844318867,-0.140877828001976
785,-0.0393899641931057,-0.0704787597060204,-0.101016156375408,-0.0941595882177353,-0.123992554843426,-0.144085615873337
786,-0.0454749725759029,-0.0737418159842491,-0.103347599506378,-0.0958317294716835,-0.12640418112278,-0.14800401031971
787,-0.0508985072374344,-0.0753883197903633,-0.105301335453987,-0.0963887199759483,-0.126985862851143,-0.150873467326164
788,-0.0558111555874348,-0.075777679681778,-0.107451394200325,-0.0975148230791092,-0.127559676766396,-0.153910651803017
789,-0.0606082640588284,-0.0764901712536812,-0.110501527786255,-0.100516252219677,-0.12915176153183,-0.158270746469498
790,-0.0636532083153725,-0.0774998366832733,-0.113826394081116,-0.104691252112389,-0.12960210442543,-0.162579134106636
791,-0.0630701035261154,-0.0777514651417732,-0.116243809461594,-0.108473837375641,-0.127309545874596,-0.164572134613991
792,-0.0588157922029495,-0.0773704499006271,-0.117506772279739,-0.110423304140568,-0.123656049370766,-0.163434401154518
793,-0.0507981181144714,-0.0774040445685387,-0.117527365684509,-0.10956134647131,-0.119620285928249,-0.159450456500053
794,-0.0407082624733448,-0.0780661776661873,-0.115797139704227,-0.105824634432793,-0.114841520786285,-0.152592584490776
795,-0.0351362153887749,-0.0799319371581078,-0.11308629065752,-0.101440660655499,-0.110352292656899,-0.144719198346138
796,-0.0375120528042316,-0.0830585286021233,-0.110168419778347,-0.099112257361412,-0.107560142874718,-0.139255777001381
797,-0.0432213097810745,-0.0856600478291512,-0.107068836688995,-0.0993324518203735,-0.106494076550007,-0.137307748198509
798,-0.0463161394000053,-0.0859499797224998,-0.104013413190842,-0.10054586827755,-0.104994311928749,-0.136726036667824
799,-0.0459827333688736,-0.084053561091423,-0.101059980690479,-0.10137614607811,-0.101088099181652,-0.1351388245821
800,-0.0464275181293488,-0.0820160955190659,-0.0985259190201759,-0.102187477052212,-0.0980059802532196,-0.13278628885746
801,-0.0509850531816483,-0.0810140892863274,-0.0970785692334175,-0.1034245043993,-0.100526697933674,-0.130760669708252
802,-0.0587836280465126,-0.0809317827224731,-0.0969312787055969,-0.104531049728394,-0.107733987271786,-0.12897215783596
803,-0.0671472549438477,-0.082404837012291,-0.0981087237596512,-0.105168513953686,-0.11519617587328,-0.127884551882744
804,-0.0732693672180176,-0.0853159874677658,-0.0998438224196434,-0.104794785380363,-0.119379602372646,-0.128152415156364
805,-0.0753443539142609,-0.0885158106684685,-0.100895218551159,-0.103023827075958,-0.11886965483427,-0.129096493124962
806,-0.0744043365120888,-0.0916153714060783,-0.101265460252762,-0.100727930665016,-0.115199163556099,-0.129770845174789
807,-0.072923980653286,-0.0944384187459946,-0.100990280508995,-0.098508708178997,-0.111254341900349,-0.129572808742523
808,-0.0723238885402679,-0.0967490971088409,-0.0994135588407516,-0.0965593755245209,-0.108451470732689,-0.128315061330795
809,-0.0725349709391594,-0.0985267460346222,-0.0965173989534378,-0.0953738316893578,-0.105780951678753,-0.126187324523926
810,-0.0728828907012939,-0.099596343934536,-0.0922867059707642,-0.0944634526968002,-0.101264491677284,-0.123468779027462
811,-0.0741509944200516,-0.100179776549339,-0.086904302239418,-0.0934331640601158,-0.0944640710949898,-0.121246233582497
812,-0.0778904184699059,-0.100778564810753,-0.0813514739274979,-0.0928757190704346,-0.0864412933588028,-0.120538324117661
813,-0.082543283700943,-0.100156702101231,-0.0752298086881638,-0.0916095823049545,-0.0773754641413689,-0.120525009930134
814,-0.0847114771604538,-0.0963039696216583,-0.0677251592278481,-0.0876186713576317,-0.0670676231384277,-0.119649939239025
815,-0.0843399688601494,-0.0904998481273651,-0.0614730343222618,-0.0825128778815269,-0.0580773614346981,-0.117980435490608
816,-0.0832282826304436,-0.0862926542758942,-0.0598167926073074,-0.0800280347466469,-0.0535651445388794,-0.117081686854362
817,-0.0809989348053932,-0.0845392644405365,-0.062195360660553,-0.0807268247008324,-0.0527960360050201,-0.116440780460835
818,-0.078414298593998,-0.0844425857067108,-0.0672882720828056,-0.0831023827195168,-0.0539504401385784,-0.114251717925072
819,-0.0770677030086517,-0.0851530805230141,-0.0737023055553436,-0.0853651836514473,-0.0551192089915276,-0.110477402806282
820,-0.0756592825055122,-0.0844009220600128,-0.0783191919326782,-0.0851223915815353,-0.0537217333912849,-0.105649039149284
821,-0.0746897608041763,-0.0817309990525246,-0.0810742601752281,-0.0833722874522209,-0.0514586456120014,-0.101921580731869
822,-0.0756536871194839,-0.0787550806999207,-0.0835172608494759,-0.0828233510255814,-0.0504286177456379,-0.102220349013805
823,-0.076812669634819,-0.0761094391345978,-0.0846671983599663,-0.0831706672906876,-0.0489621087908745,-0.105985559523106
824,-0.0779677852988243,-0.0753096789121628,-0.0849098265171051,-0.0844238623976707,-0.0476950407028198,-0.110949456691742
825,-0.0802285894751549,-0.0776977762579918,-0.0856256410479546,-0.0872618705034256,-0.0481046475470066,-0.115109093487263
826,-0.0804649144411087,-0.0810614228248596,-0.085756242275238,-0.0897239819169044,-0.0484300144016743,-0.115343764424324
827,-0.0764204561710358,-0.083154134452343,-0.0844543352723122,-0.0904804393649101,-0.0476923994719982,-0.110530942678452
828,-0.0721934139728546,-0.0840161144733429,-0.0819121301174164,-0.0904660373926163,-0.046357236802578,-0.103257790207863
829,-0.071472555398941,-0.0831879004836082,-0.077670581638813,-0.0896586552262306,-0.0434229783713818,-0.0954044312238693
830,-0.074172131717205,-0.0808127745985985,-0.0722840800881386,-0.088071845471859,-0.0387776009738445,-0.0875823274254799
831,-0.0802657827734947,-0.079174816608429,-0.0681352317333221,-0.0874340161681175,-0.035690363496542,-0.0815774872899055
832,-0.0888832584023476,-0.079406701028347,-0.0666680410504341,-0.0886511728167534,-0.0365344993770123,-0.0789118185639381
833,-0.0965431407094002,-0.0802813470363617,-0.0670121759176254,-0.0904945805668831,-0.0394383482635021,-0.0787303522229195
834,-0.0998324900865555,-0.0799421668052673,-0.0675088614225388,-0.0907295644283295,-0.0415899157524109,-0.0779120698571205
835,-0.0966634601354599,-0.0761525332927704,-0.0656628757715225,-0.0871187746524811,-0.0406473129987717,-0.0730614811182022
836,-0.0870975628495216,-0.0691247060894966,-0.0599332340061665,-0.0800315141677856,-0.0353201664984226,-0.0643694773316383
837,-0.0757907405495644,-0.0633924752473831,-0.0535335652530193,-0.0735867917537689,-0.029424237087369,-0.056106936186552
838,-0.0678828284144402,-0.0627467483282089,-0.050747811794281,-0.0715137869119644,-0.0283665228635073,-0.0515805594623089
839,-0.0638330727815628,-0.0667563378810883,-0.0514939501881599,-0.0738862454891205,-0.0316925942897797,-0.0500367805361748
840,-0.0619346052408218,-0.0720745325088501,-0.0530660375952721,-0.0780013352632523,-0.0351370833814144,-0.0480053275823593
841,-0.0617871545255184,-0.0758098736405373,-0.0544621758162975,-0.0814400091767311,-0.0371874682605267,-0.0437520444393158
842,-0.0639931187033653,-0.0781329497694969,-0.0566941797733307,-0.0841157808899879,-0.039688304066658,-0.039668258279562
843,-0.0683833137154579,-0.0799604654312134,-0.0594202727079391,-0.0856888145208359,-0.0435753613710403,-0.0379969850182533
844,-0.0741260126233101,-0.0821009054780006,-0.0611804537475109,-0.0851315185427666,-0.0482693463563919,-0.0386542156338692
845,-0.080292783677578,-0.0863952934741974,-0.0619369633495808,-0.0835245028138161,-0.0533348843455315,-0.0407961867749691
846,-0.0853582695126534,-0.0929728820919991,-0.0622653588652611,-0.0822810307145119,-0.0578263886272907,-0.0430125743150711
847,-0.0881509929895401,-0.099496878683567,-0.0624016523361206,-0.0814108625054359,-0.0604505427181721,-0.0441148765385151
848,-0.0893150418996811,-0.104312911629677,-0.0627934187650681,-0.080816425383091,-0.0608905740082264,-0.0441857129335403
849,-0.0901514366269112,-0.107575722038746,-0.0634465590119362,-0.0803388729691505,-0.059639859944582,-0.0444129221141338
850,-0.0913185551762581,-0.110011324286461,-0.0634718611836433,-0.0797664597630501,-0.0579156838357449,-0.04520108923316
851,-0.0936347246170044,-0.112967424094677,-0.0632398128509521,-0.0801449716091156,-0.0576481223106384,-0.0464574694633484
852,-0.0974446758627892,-0.117804370820522,-0.0648646578192711,-0.0825077816843987,-0.0599564276635647,-0.0479732826352119
853,-0.101632781326771,-0.123728863894939,-0.0692818313837051,-0.0857080668210983,-0.0645895972847939,-0.0475497022271156
854,-0.104926347732544,-0.129028216004372,-0.0752499476075172,-0.0881301537156105,-0.0700144395232201,-0.0440359264612198
855,-0.107412233948708,-0.133269995450974,-0.0812868252396584,-0.089584194123745,-0.0746061652898788,-0.0397955402731895
856,-0.109781816601753,-0.136061906814575,-0.0862690359354019,-0.090241365134716,-0.0778172761201859,-0.0369437076151371
857,-0.112487159669399,-0.136425048112869,-0.089322417974472,-0.0901389941573143,-0.0794745236635208,-0.0357204601168633
858,-0.116378545761108,-0.134632095694542,-0.0906314924359322,-0.0901447609066963,-0.0800663977861404,-0.0365476869046688
859,-0.122056804597378,-0.133447661995888,-0.0915294885635376,-0.0919301807880402,-0.0811451822519302,-0.0400999113917351
860,-0.128024309873581,-0.135073229670525,-0.0926001071929932,-0.0955217033624649,-0.0832188650965691,-0.0453420504927635
861,-0.130341187119484,-0.137157529592514,-0.0914666727185249,-0.0977388247847557,-0.0835592225193977,-0.0493576675653458
862,-0.126275360584259,-0.136302530765533,-0.0862503126263618,-0.096129409968853,-0.0799379721283913,-0.0503386408090591
863,-0.117877878248692,-0.132789194583893,-0.0798090994358063,-0.0919032022356987,-0.0747179463505745,-0.0486958585679531
864,-0.110054209828377,-0.129072710871696,-0.0763600915670395,-0.087941125035286,-0.0715330988168716,-0.0456508547067642
865,-0.106555752456188,-0.127238556742668,-0.0767646357417107,-0.086602546274662,-0.0711178928613663,-0.0435592122375965
866,-0.108043394982815,-0.127770140767097,-0.078688882291317,-0.0879076570272446,-0.0717885717749596,-0.0442813485860825
867,-0.112108066678047,-0.129306733608246,-0.0792208537459373,-0.089460477232933,-0.0715059563517571,-0.046186488121748
868,-0.115839295089245,-0.130328372120857,-0.0775481536984444,-0.089773528277874,-0.0697022378444672,-0.0465209037065506
869,-0.118484191596508,-0.130774602293968,-0.0747798383235931,-0.0899835675954819,-0.067309558391571,-0.0453359968960285
870,-0.120741456747055,-0.131090581417084,-0.0716333761811256,-0.0911448150873184,-0.0652784183621407,-0.0437564440071583
871,-0.12373460829258,-0.131110563874245,-0.068835012614727,-0.093145877122879,-0.0653656348586082,-0.0422275885939598
872,-0.128355517983437,-0.130879551172256,-0.0675512254238129,-0.0959321558475494,-0.0693506151437759,-0.042001124471426
873,-0.133649721741676,-0.13010174036026,-0.067509800195694,-0.0985389575362206,-0.0757786557078362,-0.0429052859544754
874,-0.138106971979141,-0.128015667200089,-0.0678977072238922,-0.0998222231864929,-0.081994391977787,-0.0434181578457356
875,-0.14025105535984,-0.12384794652462,-0.0676137655973434,-0.099103219807148,-0.0862923786044121,-0.0427423380315304
876,-0.139482215046883,-0.118843272328377,-0.0658860877156258,-0.0966616794466972,-0.0880434140563011,-0.0417715422809124
877,-0.138080939650536,-0.117007359862328,-0.0647070407867432,-0.0946187451481819,-0.0887695029377937,-0.0433408468961716
878,-0.136385232210159,-0.118467099964619,-0.0644221231341362,-0.0930780917406082,-0.0884943678975105,-0.0468120463192463
879,-0.132313653826714,-0.11986318975687,-0.0625733509659767,-0.0907402336597443,-0.0857429131865501,-0.0493292845785618
880,-0.125614255666733,-0.119916073977947,-0.0582719743251801,-0.0875794142484665,-0.0805878043174744,-0.0507193766534328
881,-0.116758801043034,-0.118431247770786,-0.0529837124049664,-0.0838299542665482,-0.0737085118889809,-0.0515268668532372
882,-0.106045827269554,-0.115942291915417,-0.0496877580881119,-0.0806138068437576,-0.0671366974711418,-0.0523459650576115
883,-0.0948138684034348,-0.113205045461655,-0.049187708646059,-0.0785936042666435,-0.0617746263742447,-0.0533827468752861
884,-0.0862526148557663,-0.109933592379093,-0.0486773364245892,-0.0766275003552437,-0.0553118623793125,-0.0527913123369217
885,-0.0829775482416153,-0.106291517615318,-0.0467125810682774,-0.0738325342535973,-0.0481095649302006,-0.0488074794411659
886,-0.0839589089155197,-0.102830179035664,-0.0446115769445896,-0.0705744922161102,-0.0437339767813683,-0.0423093847930431
887,-0.0860911831259727,-0.0993875488638878,-0.0434849746525288,-0.0679605901241302,-0.0436736457049847,-0.0354428328573704
888,-0.087474912405014,-0.0962782949209213,-0.0438817292451859,-0.0673105418682098,-0.047660481184721,-0.0303667169064283
889,-0.0880106985569,-0.0942511484026909,-0.0458330810070038,-0.0688086003065109,-0.0544843599200249,-0.0285358987748623
890,-0.0888648554682732,-0.0932135358452797,-0.0484138056635857,-0.0710419490933418,-0.0614094994962215,-0.0291087087243795
891,-0.0912955850362778,-0.0929264202713966,-0.0507816262543201,-0.0729378685355186,-0.0662407130002975,-0.0304404031485319
892,-0.0950094237923622,-0.0938928797841072,-0.0527672246098518,-0.0746432691812515,-0.0690140426158905,-0.0321634560823441
893,-0.0985876470804214,-0.0967180132865906,-0.0548466145992279,-0.0766735523939133,-0.0712994486093521,-0.0347942300140858
894,-0.100348681211472,-0.1000816822052,-0.0571389421820641,-0.0787276551127434,-0.0732840746641159,-0.0379579365253448
895,-0.0998998805880547,-0.102287732064724,-0.059233982115984,-0.0799942165613174,-0.0739182680845261,-0.0412254817783833
896,-0.0987784937024117,-0.104582138359547,-0.0619063638150692,-0.0809633284807205,-0.0731292888522148,-0.0461453273892403
897,-0.097412571310997,-0.107924543321133,-0.0651818215847015,-0.0816566050052643,-0.0696348771452904,-0.0525586940348148
898,-0.0959490016102791,-0.110996097326279,-0.0673000738024712,-0.0807027667760849,-0.0620539709925652,-0.0579218938946724
899,-0.0952535718679428,-0.112533949315548,-0.066432848572731,-0.0776130259037018,-0.0519499816000462,-0.0612919367849827
900,-0.093807227909565,-0.111630119383335,-0.0617811493575573,-0.0731024667620659,-0.0417606718838215,-0.0632066279649735
901,-0.0901721715927124,-0.108212150633335,-0.0553396157920361,-0.068328008055687,-0.0337188951671124,-0.0644514411687851
902,-0.085039310157299,-0.102563254535198,-0.0491265803575516,-0.0636775568127632,-0.0285934023559093,-0.0650037229061127
903,-0.0792139321565628,-0.0949487015604973,-0.0428260192275047,-0.0588938407599926,-0.0250625945627689,-0.0637431740760803
904,-0.073365144431591,-0.0868471711874008,-0.0366869382560253,-0.0541914142668247,-0.0225177742540836,-0.0596197992563248
905,-0.067542627453804,-0.0802710354328156,-0.0318749733269215,-0.0500628240406513,-0.0212327037006617,-0.0528057888150215
906,-0.0629113242030144,-0.0773484781384468,-0.0299710407853127,-0.0480373501777649,-0.0223758220672607,-0.0464311949908733
907,-0.061555840075016,-0.0785616859793663,-0.0311949532479048,-0.0489921942353249,-0.0259894914925098,-0.0445905774831772
908,-0.0636828392744064,-0.0821535140275955,-0.0329090394079685,-0.0513668954372406,-0.0292699411511421,-0.0488759838044643
909,-0.0683141499757767,-0.0871359705924988,-0.0336252152919769,-0.0535888262093067,-0.0309440158307552,-0.0577932223677635
910,-0.071925587952137,-0.0920594930648804,-0.0331767797470093,-0.054061446338892,-0.0318349152803421,-0.066261850297451
911,-0.0710327327251434,-0.094692699611187,-0.0313042029738426,-0.052102092653513,-0.0329969897866249,-0.0699091628193855
912,-0.0675147622823715,-0.0947816669940948,-0.029280137270689,-0.0493676848709583,-0.0352309793233871,-0.0689789578318596
913,-0.0643083676695824,-0.0929136723279953,-0.0282471776008606,-0.0466096736490726,-0.0378607474267483,-0.0646849349141121
914,-0.0618825368583202,-0.089765265583992,-0.0279909148812294,-0.0435273237526417,-0.0398714579641819,-0.0574659332633018
915,-0.0597504638135433,-0.0860817655920982,-0.0273729525506496,-0.0403995402157307,-0.0401521176099777,-0.0481796786189079
916,-0.0578699111938477,-0.0830126255750656,-0.0260522272437811,-0.0383693538606167,-0.0382183603942394,-0.0401232987642288
917,-0.0565743930637836,-0.082146979868412,-0.025436045601964,-0.038849014788866,-0.0355993509292603,-0.0376960895955563
918,-0.0549966208636761,-0.0826125964522362,-0.025514742359519,-0.0406595207750797,-0.0329940058290958,-0.0400720126926899
919,-0.052879523485899,-0.0818489864468575,-0.0248855762183666,-0.041309654712677,-0.0298997070640326,-0.0423528999090195
920,-0.0518799796700478,-0.0793804079294205,-0.023972874507308,-0.0406884215772152,-0.0274917539209127,-0.0420673340559006
921,-0.0534816570580006,-0.0773125886917114,-0.0245963390916586,-0.0406470708549023,-0.028252562507987,-0.0402438156306744
922,-0.0566632747650146,-0.0771994143724442,-0.026641221717,-0.042058739811182,-0.0320408195257187,-0.0384518653154373
923,-0.0589740201830864,-0.0780067667365074,-0.0283423196524382,-0.0442212410271168,-0.0354584977030754,-0.0371040292084217
924,-0.0586546063423157,-0.0770828798413277,-0.0280957762151957,-0.0456982553005219,-0.0349069982767105,-0.0350485108792782
925,-0.0545129589736462,-0.0725563168525696,-0.0247204825282097,-0.0445283390581608,-0.0288321692496538,-0.0307424925267696
926,-0.047125268727541,-0.0647908672690392,-0.0189576521515846,-0.040044479072094,-0.0196616053581238,-0.0245173946022987
927,-0.0395878590643406,-0.0556134767830372,-0.0132713550701737,-0.0342503450810909,-0.0124143827706575,-0.0186900496482849
928,-0.0339361131191254,-0.046681821346283,-0.00883690174669027,-0.0293554160743952,-0.00920971762388945,-0.0150249488651752
929,-0.0289992764592171,-0.038371816277504,-0.00477695791050792,-0.0253613851964474,-0.00759053090587258,-0.0124226175248623
930,-0.0242672692984343,-0.0314080752432346,-0.00113854021765292,-0.0217053238302469,-0.00574510963633657,-0.00869252905249596
931,-0.0204125232994556,-0.0269521400332451,0.00139989284798503,-0.0178352650254965,-0.00411436893045902,-0.00263665872626007
932,-0.0173898879438639,-0.0250191949307919,0.00278966035693884,-0.0139187118038535,-0.00252919085323811,0.00463533541187644
933,-0.015408132225275,-0.0249323584139347,0.00284160138107836,-0.0115080466493964,-0.000366868596756831,0.0104240588843822
934,-0.0143926404416561,-0.0260396711528301,0.00203251419588923,-0.0110240988433361,0.00131516368128359,0.0136165395379066
935,-0.0141058871522546,-0.0282259937375784,0.000675002986099571,-0.011888425797224,1.00663955890923E-05,0.0145170474424958
936,-0.0154903214424849,-0.0314239971339703,-0.00201572082005441,-0.0143586788326502,-0.00481829373165965,0.0139584066346288
937,-0.0182805825024843,-0.0340964868664742,-0.00558730354532599,-0.0179901383817196,-0.0100111290812492,0.0133768441155553
938,-0.0198303572833538,-0.0345760732889175,-0.00828466657549143,-0.0211710594594479,-0.0123798483982682,0.013034007512033
939,-0.0175586491823196,-0.0332223996520042,-0.00984355248510838,-0.0228594820946455,-0.0125277694314718,0.0128058865666389
940,-0.0109438942745328,-0.031201109290123,-0.0101873837411404,-0.0219856258481741,-0.0122573627158999,0.0142119927331805
941,-0.00454721879214048,-0.029889265075326,-0.00891568139195442,-0.0190711934119463,-0.0122923022136092,0.0170784238725901
942,-0.00395915331318974,-0.0303049180656672,-0.00728557957336307,-0.0169317442923784,-0.0132920918986201,0.0186865255236626
943,-0.00781965814530849,-0.0312498211860657,-0.00591012695804238,-0.0163394380360842,-0.0148601252585649,0.0182036105543375
944,-0.0117087140679359,-0.0306995902210474,-0.00376448663882911,-0.0158136859536171,-0.015640065073967,0.0169611349701881
945,-0.0141259599477053,-0.028318652883172,-0.000423705321736634,-0.0146531881764531,-0.0153463957831264,0.0152315739542246
946,-0.0157101489603519,-0.0254091899842024,0.00289913779124618,-0.0139277344569564,-0.0149868857115507,0.0121608171612024
947,-0.0169502813369036,-0.0222123302519321,0.00541401281952858,-0.0139056835323572,-0.0148010449483991,0.0090862987563014
948,-0.0176654327660799,-0.0178410187363625,0.007496930193156,-0.0130369225516915,-0.0144267547875643,0.0085743386298418
949,-0.0180932506918907,-0.0133627355098724,0.00857628788799047,-0.0113723296672106,-0.0138178924098611,0.0103000905364752
950,-0.0190398152917624,-0.0107757076621056,0.0078212721273303,-0.0102496547624469,-0.0130108119919896,0.0121768554672599
951,-0.0217238459736109,-0.0113378744572401,0.00421294942498207,-0.0109046176075935,-0.0139812007546425,0.0125402603298426
952,-0.0248980466276407,-0.0139483520761132,-0.00171414366923273,-0.012772848829627,-0.0174948088824749,0.0121101047843695
953,-0.0250073596835136,-0.0151404682546854,-0.00667819753289223,-0.0133224735036492,-0.0201611686497927,0.0135946990922093
954,-0.0227589439600706,-0.0145711312070489,-0.00990092288702726,-0.0132852233946323,-0.0207058638334274,0.0162415485829115
955,-0.0227222740650177,-0.0154499486088753,-0.01394088473171,-0.0157573688775301,-0.0224331002682447,0.0166152659803629
956,-0.026523120701313,-0.0191839877516031,-0.0195214152336121,-0.0206905901432037,-0.0272526554763317,0.0139755606651306
957,-0.0316095910966396,-0.024308567866683,-0.0244916304945946,-0.0253583639860153,-0.0329447202384472,0.0100840786471963
958,-0.0344082415103912,-0.0285148471593857,-0.0268768705427647,-0.0277657192200422,-0.0364294201135635,0.00624758517369628
959,-0.033653374761343,-0.0306394621729851,-0.027098661288619,-0.0283546335995197,-0.0371175818145275,0.00238887500017881
960,-0.0306428093463182,-0.0305444691330194,-0.0262808725237846,-0.0281205773353577,-0.0354049168527126,-0.00139191781636328
961,-0.0268966276198626,-0.0278948936611414,-0.0243602730333805,-0.0269455388188362,-0.0307749509811401,-0.00438368180766702
962,-0.0243274718523026,-0.0238779336214066,-0.0223677381873131,-0.0256367772817612,-0.0242230128496885,-0.007313740439713
963,-0.0238206703215837,-0.0202825553715229,-0.0214581303298473,-0.024734003469348,-0.0177951585501432,-0.0103320563212037
964,-0.0244549233466387,-0.0177701469510794,-0.021487832069397,-0.0233485046774149,-0.0132119813933969,-0.0119332764297724
965,-0.0247559174895287,-0.0164509397000074,-0.0217069201171398,-0.0212624426931143,-0.0111481687054038,-0.0123037276789546
966,-0.0223021898418665,-0.0148863978683949,-0.019714180380106,-0.0178829953074455,-0.00920245237648487,-0.0117406463250518
967,-0.016610149294138,-0.0115147968754172,-0.0142852291464806,-0.0127636631950736,-0.00476323813199997,-0.00950095523148775
968,-0.0102442866191268,-0.00669951131567359,-0.00725163286551833,-0.00748005788773298,0.00219416571781039,-0.00661266408860683
969,-0.00602541817352176,-0.00224946159869432,-0.00182156579103321,-0.00430238386616111,0.00913769286125898,-0.00593530898913741
970,-0.00481391791254282,0.000920025689993054,0.000232585225603543,-0.00368275749497116,0.0131851946935058,-0.00883969571441412
971,-0.00447778077796102,0.00446306122466922,0.00100236595608294,-0.00365906860679388,0.015380104072392,-0.0131197972223163
972,-0.00297460402362049,0.00937771517783403,0.00294094975106418,-0.00281792692840099,0.018277870491147,-0.0164003968238831
973,-0.00149891502223909,0.0133151663467288,0.00497599504888058,-0.00236096419394016,0.0210853833705187,-0.0193917583674192
974,-0.00144612928852439,0.0145922303199768,0.00570024456828833,-0.00322629441507161,0.0228240769356489,-0.0221813973039389
975,-0.00111965427640826,0.0151817230507731,0.0067665851674974,-0.00364510668441653,0.0262228939682245,-0.0221895389258862
976,0.00138775119557977,0.0171705968677998,0.00975721143186092,-0.00203362642787397,0.0335110723972321,-0.0182900615036488
977,0.00556990830227733,0.0210671164095402,0.014273215085268,0.00126371544320136,0.0430623106658459,-0.0122400149703026
978,0.00877270102500916,0.0255943648517132,0.0186139978468418,0.00420904904603958,0.0511910766363144,-0.00821668282151222
979,0.00940943695604801,0.0287402085959911,0.0214628744870424,0.00539799500256777,0.0553255453705788,-0.00934547837823629
980,0.00925286486744881,0.0307182837277651,0.0236016735434532,0.00604901881888509,0.0560624413192272,-0.0135690746828914
981,0.00875751301646233,0.0323006138205528,0.0247190352529287,0.00603245059028268,0.0545099377632141,-0.0176863223314285
982,0.00679955864325166,0.0344030894339085,0.0236795730888844,0.00457315938547254,0.0514176674187183,-0.0198341347277164
983,0.00617819791659713,0.0397640690207481,0.0231076572090387,0.00461800862103701,0.0497681871056557,-0.0173944607377052
984,0.0103953890502453,0.0491617172956467,0.0260636489838362,0.00837963540107012,0.0519623942673206,-0.010052296333015
985,0.0182679537683725,0.059219017624855,0.0312390569597483,0.0134638575837016,0.0568688735365868,-0.0019592004828155
986,0.025994224473834,0.0659875795245171,0.0353184230625629,0.0165041405707598,0.0620109289884567,0.00263642007485032
987,0.0310252700001001,0.0685587003827095,0.0368062406778336,0.0166592206805944,0.0656523853540421,0.00347001245245337
988,0.03345762565732,0.068801261484623,0.0369494520127773,0.0159989576786757,0.0673302710056305,0.00257500866428018
989,0.0340963266789913,0.0681153610348701,0.0372006930410862,0.0163246989250183,0.0669765770435333,0.000695361581165344
990,0.0337683707475662,0.067478135228157,0.038026437163353,0.0177760422229767,0.0651284903287888,-0.00136152864433825
991,0.0336105786263943,0.0681100711226463,0.0398765057325363,0.0204076636582613,0.0634844079613686,-0.00223427335731685
