,AF3,AF4,Fp1,Fp2,AF7,AF8
0,-0.00399936968460679,0.0125310737639666,-0.0171607993543148,0.00742699531838298,-0.0205840729176998,0.02904755435884
1,-0.00474511831998825,0.00830315425992012,-0.017481591552496,0.00586031749844551,-0.0228958837687969,0.0314919948577881
2,-0.00471619144082069,0.00528640020638704,-0.0176488161087036,0.00563926761969924,-0.0252556800842285,0.0356584824621677
3,-0.00454591540619731,0.00374609022401273,-0.0180720333009958,0.00611786311492324,-0.0260306168347597,0.0400006882846355
4,-0.00493395468220115,0.00345458905212581,-0.0188260935246944,0.00673494301736355,-0.0244438927620649,0.0430588498711586
5,-0.00513735879212618,0.00457527348771691,-0.0186903402209282,0.00813052151352167,-0.0204862505197525,0.045205432921648
6,-0.00337374745868146,0.00785793364048004,-0.0163969751447439,0.0116074308753014,-0.0147197730839252,0.0478666052222252
7,-0.000482258794363588,0.0120979333296418,-0.0132452333346009,0.016078045591712,-0.00947267562150955,0.0498499386012554
8,0.00176848494447768,0.0149547662585974,-0.0115884263068438,0.0187773145735264,-0.0065798475407064,0.0492261834442616
9,0.00259548565372825,0.0145245725288987,-0.0124219059944153,0.0179966259747744,-0.00612641265615821,0.0455974489450455
10,0.0014068839373067,0.010440637357533,-0.0153152430430055,0.0137454075738788,-0.00818400364369154,0.0395182818174362
11,-0.000763759191613644,0.00570771796628833,-0.0182638615369797,0.00841595977544785,-0.0122185787186027,0.0336027406156063
12,-0.00258882599882782,0.00379001791588962,-0.019570441916585,0.00496125128120184,-0.0172878298908472,0.0305714067071676
13,-0.00308682583272457,0.00590583449229598,-0.0186915304511786,0.00452254340052605,-0.0209087822586298,0.0309364702552557
14,-0.00112621323205531,0.0109825637191534,-0.0152516337111592,0.00670419726520777,-0.0196592062711716,0.0335355997085571
15,0.00301837618462741,0.0168658308684826,-0.00996158458292484,0.0109903709962964,-0.0144508983939886,0.0370192490518093
16,0.00789061933755875,0.0223559271544218,-0.0049420571886003,0.0163191612809896,-0.0097241597250104,0.0402587242424488
17,0.0123218381777406,0.026421932503581,-0.00155106082092971,0.0202064719051123,-0.00686836196109653,0.041159026324749
18,0.0164420288056135,0.0278742499649525,0.000881799263879657,0.0214884020388126,-0.0030639017932117,0.0386846289038658
19,0.0202445201575756,0.0264137946069241,0.00253666052594781,0.0214604362845421,0.00310987536795437,0.0348303206264973
20,0.022468414157629,0.0227715335786343,0.00231066928245127,0.0220208428800106,0.00962707027792931,0.0327946580946445
21,0.022736944258213,0.0187414698302746,0.000544621027074754,0.024435106664896,0.0141241867095232,0.0347873419523239
22,0.0216766819357872,0.015250401571393,-0.00173747597727925,0.0276325680315495,0.0153146497905254,0.039532158523798
23,0.0192804802209139,0.0109387123957276,-0.00493851071223617,0.0287052728235722,0.0128861060366035,0.0425184145569801
24,0.0159402117133141,0.0059637650847435,-0.00889317691326141,0.0272341184318066,0.00825241673737764,0.0421020351350307
25,0.0126895047724247,0.00277667166665196,-0.012553246691823,0.025077398866415,0.00362632563337684,0.0407411903142929
26,0.00975423399358988,0.00173405604436994,-0.0155526902526617,0.0229935627430677,-0.000637950492091477,0.0399839729070663
27,0.0072803576476872,0.00102946616243571,-0.0172188468277454,0.0210453923791647,-0.00453899148851633,0.0395800210535526
28,0.00645472761243582,0.000270651711616665,-0.0165704227983952,0.0198611840605736,-0.00602083886042237,0.0395209081470966
29,0.00796266179531813,0.000356748874764889,-0.0134891560301185,0.0203558467328548,-0.00409785145893693,0.0401693694293499
30,0.0113740991801023,0.00156363670248538,-0.00820459797978401,0.0228968467563391,0.0002306606475031,0.0421082228422165
31,0.0157543979585171,0.00377136748284101,-0.00127155450172722,0.0270598158240318,0.00567729910835624,0.0455512814223766
32,0.0198893956840038,0.0069230729714036,0.00619758805260062,0.0323621034622192,0.0100668929517269,0.0495890006422997
33,0.0232168603688478,0.0106552569195628,0.0125545123592019,0.0375117547810078,0.0121764298528433,0.0529657788574696
34,0.0257316380739212,0.0139746014028788,0.016324145719409,0.0402442663908005,0.0134340822696686,0.0546090081334114
35,0.0273963455110788,0.0169951301068068,0.0178661271929741,0.0407317318022251,0.0144826862961054,0.0553248077630997
36,0.0282290857285261,0.0206684377044439,0.0180996805429459,0.0410266257822514,0.0139196589589119,0.0572237186133862
37,0.0278080627322197,0.0237250905483961,0.0166021063923836,0.041210725903511,0.0109618045389652,0.0594239979982376
38,0.0257387086749077,0.0239603202790022,0.0130138639360666,0.0402609668672085,0.006392742972821,0.05928910151124
39,0.0228484384715557,0.0215725246816874,0.00817093998193741,0.0385691300034523,0.00198623165488243,0.0571437403559685
40,0.0205111391842365,0.0188760589808226,0.00370400655083358,0.0374953933060169,-0.000802533817477524,0.05528624355793
41,0.0200762990862131,0.01815783418715,0.00271357223391533,0.0379295870661736,-0.000840504420921206,0.0545997247099876
42,0.0215094275772572,0.0197710040956736,0.00668891752138734,0.0396053828299046,0.00156425207387656,0.0542675517499447
43,0.0227349158376455,0.0221191309392452,0.0122964773327112,0.041149914264679,0.00413795374333858,0.0532799139618874
44,0.022027974948287,0.0238148253411055,0.0154792554676533,0.0408303029835224,0.00526788365095854,0.0509668439626694
45,0.019675062969327,0.0254037007689476,0.0156347826123238,0.0385861210525036,0.00454244296997786,0.0483087040483952
46,0.0167584046721458,0.0275135058909655,0.0145162418484688,0.0363453030586243,0.00205734651535749,0.0469526238739491
47,0.0133623145520687,0.0291012637317181,0.0130481580272317,0.0350483804941177,-0.00230364594608545,0.0461443215608597
48,0.0096800634637475,0.0301439538598061,0.0113425403833389,0.0342491380870342,-0.0084808487445116,0.0452083609998226
49,0.0077454368583858,0.031932819634676,0.0106916846707463,0.0335799679160118,-0.0134154986590147,0.044621717184782
50,0.00901702139526606,0.0340152308344841,0.0120916813611984,0.0325516760349274,-0.013455243781209,0.0434590876102448
51,0.0127719193696976,0.0360629856586456,0.0157621521502733,0.0322881378233433,-0.00861071608960629,0.0418907515704632
52,0.0178339928388596,0.0396816655993462,0.0217329394072294,0.0346924252808094,-0.00111502117943019,0.0425928384065628
53,0.0224075019359589,0.0443418063223362,0.0280367899686098,0.0383560582995415,0.00608429638668895,0.0457928478717804
54,0.0242945235222578,0.0468300320208073,0.0321405120193958,0.0408061742782593,0.0101933563128114,0.0482384040951729
55,0.0238819364458323,0.0463931262493134,0.0338277034461498,0.0421858392655849,0.0113639570772648,0.0483605153858662
56,0.0238902606070042,0.0454376228153706,0.0342050530016422,0.0436767153441906,0.0122615657746792,0.0476862192153931
57,0.0245195869356394,0.0445761829614639,0.03358119353652,0.0451478697359562,0.0129232658073306,0.0466782189905643
58,0.0246553290635347,0.043012909591198,0.0330015122890472,0.0467761754989624,0.0115597071126103,0.0450558140873909
59,0.0255908817052841,0.0414563454687595,0.0344338156282902,0.0495714321732521,0.00984972342848778,0.0443369969725609
60,0.0277677718549967,0.0392162427306175,0.0378588922321796,0.0521420538425446,0.0115092992782593,0.0445924066007137
61,0.0299852471798658,0.0344175025820732,0.043359998613596,0.0526997931301594,0.0177548173815012,0.0437710881233215
62,0.032318502664566,0.0285885874181986,0.0521142892539501,0.0528935603797436,0.0262594167143106,0.041674118489027
63,0.0343931503593922,0.0255434419959784,0.0605415366590023,0.0545183010399342,0.0314967408776283,0.0403256304562092
64,0.0345944613218308,0.0265563856810331,0.0612045861780643,0.0553126223385334,0.0283338855952024,0.0396647676825523
65,0.0330693535506725,0.030284471809864,0.0530906543135643,0.0529423616826534,0.0183507986366749,0.0383730493485928
66,0.0315568335354328,0.0356253385543823,0.0426100119948387,0.0497742742300034,0.00740076415240765,0.0386304520070553
67,0.0311775915324688,0.0416705906391144,0.0355458743870258,0.0492063611745834,-0.000897990656085312,0.0423468388617039
68,0.0322739891707897,0.0467744693160057,0.0339406728744507,0.0515030585229397,-0.00500097358599305,0.0472129359841347
69,0.0349604375660419,0.0495672486722469,0.036390345543623,0.054047092795372,-0.00414283340796828,0.0498180091381073
70,0.0391120836138725,0.0500625148415565,0.0404459722340107,0.0543246492743492,0.00161195616237819,0.0483756326138973
71,0.0439848229289055,0.0491439141333103,0.0442878678441048,0.0518901385366917,0.0104620754718781,0.0430447496473789
72,0.0484534092247486,0.0481752716004848,0.0460579209029675,0.0472311824560165,0.0185456611216068,0.0360675677657127
73,0.0517491139471531,0.0481923632323742,0.0454159788787365,0.0412927456200123,0.0232217963784933,0.0299845989793539
74,0.053469005972147,0.0487052612006664,0.0438970550894737,0.0355856493115425,0.024958711117506,0.0253500044345856
75,0.0541128367185593,0.0492623336613178,0.0433193296194077,0.0322902724146843,0.0255467854440212,0.0226604603230953
76,0.0550367049872875,0.0501624047756195,0.0444420166313648,0.0326420739293098,0.0257109869271517,0.0228730142116547
77,0.0565931685268879,0.0508058853447437,0.0462556891143322,0.0350382886826992,0.0245753098279238,0.025217467918992
78,0.0592282861471176,0.0510733239352703,0.0482868365943432,0.0377731770277023,0.0232619252055883,0.0282020270824432
79,0.0632650852203369,0.0517874509096146,0.0507772192358971,0.040487177670002,0.024126635864377,0.0310490932315588
80,0.0670563876628876,0.0525749921798706,0.052843052893877,0.0423260703682899,0.0264445673674345,0.0335639230906963
81,0.0694859176874161,0.0522634573280811,0.054227776825428,0.0422092936933041,0.0293675716966391,0.0346977561712265
82,0.0702943727374077,0.0500718131661415,0.0555460453033447,0.0400647670030594,0.0331772975623608,0.033047292381525
83,0.0689294412732124,0.0464709289371967,0.056196503341198,0.036918256431818,0.0360684841871262,0.0299868155270815
84,0.0655335411429405,0.0431293062865734,0.0550103224813938,0.0342172831296921,0.0353734605014324,0.0284246988594532
85,0.0601710565388203,0.0406992696225643,0.051507331430912,0.0326782837510109,0.0297463182359934,0.0291900802403688
86,0.0520784072577953,0.0374414026737213,0.0456282645463943,0.0305347461253405,0.0196109898388386,0.030128575861454
87,0.0424044914543629,0.032092273235321,0.039025966078043,0.0262237470597029,0.00855619087815285,0.0294672604650259
88,0.0347477570176125,0.0258538071066141,0.0354191772639751,0.0222511664032936,0.00212413887493312,0.0282429438084364
89,0.031529426574707,0.0202044807374477,0.0371745526790619,0.0215610396116972,0.00369085627608001,0.0277282316237688
90,0.0321287289261818,0.015608630143106,0.0428044311702251,0.0232917089015245,0.0120220920071006,0.0274094752967358
91,0.0335849225521088,0.0122197577729821,0.0482254400849342,0.0247439760714769,0.0215330943465233,0.026548407971859
92,0.0335077419877052,0.0107477409765124,0.0506067126989365,0.0252353902906179,0.026650981977582,0.0263747777789831
93,0.0317321047186852,0.0111847296357155,0.0494679771363735,0.0252145603299141,0.0261391252279282,0.0274870973080397
94,0.0292109940201044,0.0119174169376493,0.04444445297122,0.0232782252132893,0.0219305101782084,0.0279401894658804
95,0.0271432660520077,0.0112836854532361,0.0367633923888206,0.0184638276696205,0.0163362193852663,0.0260438267141581
96,0.0249434933066368,0.00774934235960245,0.0294246207922697,0.0122344521805644,0.010631350800395,0.0208482500165701
97,0.0206551719456911,0.000852935598231852,0.0235284082591534,0.00607982976362109,0.00571201601997018,0.0123528875410557
98,0.0141570921987295,-0.00768640777096152,0.0181372929364443,5.44319191249087E-05,0.00229214783757925,0.0025836443528533
99,0.00779347447678447,-0.0152017856016755,0.0129086300730705,-0.0059782350435853,5.10062272951473E-05,-0.00572698703035712
100,0.00395443476736546,-0.0195247884839773,0.00891332607716322,-0.0109883304685354,-0.00170382985379547,-0.0107303960248828
101,0.00262349378317595,-0.0202864967286587,0.00701917614787817,-0.0137923173606396,-0.00333029171451926,-0.0119192684069276
102,0.00268817832693458,-0.0188296474516392,0.00724873738363385,-0.0140719609335065,-0.00461751036345959,-0.00983515568077564
103,0.00337745016440749,-0.0165847856551409,0.00829259306192398,-0.0118623822927475,-0.00643457006663084,-0.00582508370280266
104,0.00360068306326866,-0.0139970146119595,0.00751103647053242,-0.00763502204790711,-0.0108202621340752,-0.00151009578257799
105,0.00211765011772513,-0.0121679538860917,0.00370304379612207,-0.0038684462197125,-0.0172099396586418,0.00043084446224384
106,-0.0012209340929985,-0.0128412619233131,-0.00155689369421452,-0.00331981154158711,-0.0226149316877127,-0.00222649564966559
107,-0.00554880453273654,-0.0159637033939362,-0.00615845713764429,-0.00550526985898614,-0.0255644526332617,-0.0077674319036305
108,-0.0101510239765048,-0.0198761895298958,-0.00916237104684114,-0.00835782568901777,-0.0261267144232988,-0.0130609348416328
109,-0.0141573483124375,-0.0223831851035357,-0.010383777320385,-0.0105292610824108,-0.0251482464373112,-0.016420129686594
110,-0.0168565064668655,-0.0226478260010481,-0.0110383806750178,-0.0127745056524873,-0.0257212072610855,-0.0173240825533867
111,-0.0185817293822765,-0.0220695417374372,-0.0129558155313134,-0.0170667339116335,-0.0300831310451031,-0.0166091285645962
112,-0.0208425726741552,-0.0220130700618029,-0.0163350477814674,-0.0224580802023411,-0.0373225621879101,-0.015431409701705
113,-0.0249491930007935,-0.022355679422617,-0.0198767352849245,-0.0259285904467106,-0.0459597073495388,-0.0136929601430893
114,-0.0295330118387938,-0.0227235741913319,-0.0216732565313578,-0.0263802092522383,-0.0534263476729393,-0.0108912624418736
115,-0.0319695249199867,-0.0237965881824493,-0.0211680550128222,-0.0252651460468769,-0.0568590350449085,-0.00778017798438668
116,-0.0315293148159981,-0.0265068858861923,-0.0203426424413919,-0.025959201157093,-0.0561972968280315,-0.00667315302416682
117,-0.0295759942382574,-0.030345881357789,-0.021468797698617,-0.0321092195808887,-0.0530939064919949,-0.0089407479390502
118,-0.0286480989307165,-0.0334315672516823,-0.0245749279856682,-0.0424391776323318,-0.0500120483338833,-0.0127461887896061
119,-0.0307468418031931,-0.034768633544445,-0.0289434250444174,-0.0515141673386097,-0.0502235181629658,-0.0165580715984106
120,-0.0354392156004906,-0.0346042364835739,-0.0348294787108898,-0.0569254346191883,-0.0545642636716366,-0.0202400200068951
121,-0.0407256931066513,-0.0336402952671051,-0.0414173044264317,-0.0607935525476933,-0.0611776188015938,-0.0231150425970554
122,-0.0458915084600449,-0.0340916030108929,-0.0467318780720234,-0.0656450688838959,-0.069442018866539,-0.0262660644948483
123,-0.0516245178878307,-0.0375121124088764,-0.0495470054447651,-0.0689394176006317,-0.0789564624428749,-0.030388705432415
124,-0.0576757714152336,-0.0423383638262749,-0.0503561273217201,-0.0661782324314117,-0.0872645825147629,-0.0333021357655525
125,-0.062303751707077,-0.0460976622998714,-0.050162672996521,-0.0579882338643074,-0.0920461043715477,-0.0337421149015427
126,-0.0643759369850159,-0.0477881915867329,-0.0497048273682594,-0.0489891394972801,-0.0930634513497353,-0.032580528408289
127,-0.0639863386750221,-0.0480481050908566,-0.0496691539883614,-0.0442242920398712,-0.0907298028469086,-0.031499806791544
128,-0.0612880662083626,-0.0474539287388325,-0.0488490089774132,-0.0451914705336094,-0.0854742601513863,-0.0312947407364845
129,-0.0573387444019318,-0.0460123755037785,-0.0460046716034412,-0.0503156743943691,-0.0792290344834328,-0.0312871299684048
130,-0.0530589036643505,-0.0437686331570148,-0.0421834550797939,-0.0581684336066246,-0.0729094371199608,-0.0300485454499722
131,-0.0477125905454159,-0.0422446466982365,-0.0386065766215324,-0.0682225227355957,-0.064772717654705,-0.0282304454594851
132,-0.0420721620321274,-0.0444268919527531,-0.0355604588985443,-0.080064982175827,-0.0553664341568947,-0.0305052567273378
133,-0.0401553921401501,-0.0508937686681747,-0.0346831940114498,-0.0884633362293243,-0.0510579124093056,-0.0384991206228733
134,-0.0453131087124348,-0.0585781075060368,-0.0390405021607876,-0.0849571898579597,-0.0591415762901306,-0.0456941388547421
135,-0.0562892146408558,-0.0641779527068138,-0.0473249070346355,-0.0697516649961472,-0.0786289721727371,-0.0452680364251137
136,-0.0677912458777428,-0.0668365210294724,-0.054395392537117,-0.0537584312260151,-0.0992152541875839,-0.0386841855943203
137,-0.0752545520663261,-0.0676532387733459,-0.0585367679595947,-0.0455692820250988,-0.111771419644356,-0.0324244163930416
138,-0.0783675014972687,-0.0693201050162315,-0.0611998103559017,-0.0460606887936592,-0.115371026098728,-0.0340570099651814
139,-0.0795518308877945,-0.0739029198884964,-0.0634793192148209,-0.0527694746851921,-0.114215694367886,-0.0479090549051762
140,-0.0811853483319283,-0.0795404687523842,-0.0664612427353859,-0.0617814026772976,-0.113246865570545,-0.061739407479763
141,-0.0839496329426765,-0.0834251046180725,-0.0736179649829865,-0.0703806281089783,-0.113945625722408,-0.059947557747364
142,-0.0868805348873138,-0.0864197686314583,-0.0861494764685631,-0.0803349167108536,-0.114682525396347,-0.050280399620533
143,-0.0880919322371483,-0.0911403596401215,-0.0964406132698059,-0.0957875400781631,-0.115015901625156,-0.0486647039651871
144,-0.0874899700284004,-0.0982507765293121,-0.0987391099333763,-0.115080647170544,-0.115737251937389,-0.0577931292355061
145,-0.0886102989315987,-0.106267265975475,-0.0966926515102386,-0.128934532403946,-0.118907168507576,-0.0717728808522224
146,-0.0941372215747833,-0.112996630370617,-0.0946374237537384,-0.131056487560272,-0.126718059182167,-0.0834996998310089
147,-0.103230565786362,-0.117895357310772,-0.0937431007623672,-0.124038130044937,-0.137760549783707,-0.0895997062325478
148,-0.1128064468503,-0.12216728925705,-0.0938690975308418,-0.115000203251839,-0.147486120462418,-0.0913091525435448
149,-0.120057061314583,-0.127184376120567,-0.0951175540685654,-0.110068805515766,-0.153797283768654,-0.0910682827234268
150,-0.125164002180099,-0.134265944361687,-0.0979290977120399,-0.110575325787067,-0.158467084169388,-0.0919292569160461
151,-0.129521384835243,-0.143457978963852,-0.101809233427048,-0.114376418292522,-0.162472501397133,-0.0966161265969276
152,-0.133793532848358,-0.153190091252327,-0.105880796909332,-0.11924409866333,-0.165273010730743,-0.104988642036915
153,-0.138184055685997,-0.161625653505325,-0.109738044440746,-0.123311139643192,-0.166564449667931,-0.113956637680531
154,-0.143206909298897,-0.167903319001198,-0.114463351666927,-0.126087546348572,-0.167694732546806,-0.120496802031994
155,-0.150523513555527,-0.173116117715836,-0.121764771640301,-0.129483133554459,-0.171958267688751,-0.125446230173111
156,-0.159277036786079,-0.17807212471962,-0.12916311621666,-0.13404193520546,-0.179222747683525,-0.131641685962677
157,-0.164052978157997,-0.18201456964016,-0.130527079105377,-0.137852594256401,-0.183243840932846,-0.141290560364723
158,-0.161095425486565,-0.18485115468502,-0.123873054981232,-0.139813587069511,-0.178769052028656,-0.155988872051239
159,-0.153979599475861,-0.185937911272049,-0.11495615541935,-0.138110011816025,-0.169509068131447,-0.17020857334137
160,-0.148845687508583,-0.184036388993263,-0.110533386468887,-0.132741346955299,-0.163385003805161,-0.173843234777451
161,-0.147519037127495,-0.18078388273716,-0.111778423190117,-0.128335371613503,-0.162893950939178,-0.166895255446434
162,-0.149534165859222,-0.179268792271614,-0.117034554481506,-0.127337411046028,-0.166747212409973,-0.157391399145126
163,-0.153033509850502,-0.179534927010536,-0.123712763190269,-0.127398312091827,-0.172420009970665,-0.148848742246628
164,-0.153954431414604,-0.17922106385231,-0.127985328435898,-0.126138135790825,-0.174353793263435,-0.140663430094719
165,-0.151513129472733,-0.178431436419487,-0.12924025952816,-0.124696493148804,-0.169690623879433,-0.134525820612907
166,-0.149237647652626,-0.17807050049305,-0.130147531628609,-0.123588517308235,-0.163222044706345,-0.13152177631855
167,-0.148185789585114,-0.176269769668579,-0.130465522408485,-0.11987116932869,-0.158806428313255,-0.129238039255142
168,-0.146184012293816,-0.171988785266876,-0.128246739506722,-0.113252408802509,-0.154429003596306,-0.12676477432251
169,-0.142612993717194,-0.167177334427834,-0.124923720955849,-0.107582107186317,-0.148234874010086,-0.125934466719627
170,-0.138588815927505,-0.164065629243851,-0.122595094144344,-0.104768961668015,-0.141503602266312,-0.127494737505913
171,-0.134814992547035,-0.162602767348289,-0.120149075984955,-0.102210074663162,-0.136416420340538,-0.129185736179352
172,-0.132162466645241,-0.161456778645515,-0.116409473121166,-0.098165899515152,-0.134158194065094,-0.128662094473839
173,-0.131622314453125,-0.159652680158615,-0.11263382434845,-0.0946616306900978,-0.134597942233086,-0.126181691884995
174,-0.132074654102325,-0.155821576714516,-0.109225668013096,-0.0927411094307899,-0.135617136955261,-0.122297592461109
175,-0.131624802947044,-0.150137767195702,-0.105164170265198,-0.0909654125571251,-0.135275855660439,-0.117789402604103
176,-0.129815608263016,-0.144864425063133,-0.100234046578407,-0.0889283642172813,-0.133670151233673,-0.114526703953743
177,-0.126449078321457,-0.140785917639732,-0.0945896655321121,-0.0872466787695885,-0.130682200193405,-0.112079635262489
178,-0.122227273881435,-0.137649849057198,-0.0894597321748734,-0.0854482129216194,-0.126945495605469,-0.108452051877975
179,-0.11873009800911,-0.135768249630928,-0.0868404060602188,-0.0826198384165764,-0.124433368444443,-0.104610055685043
180,-0.116172276437283,-0.134830355644226,-0.0863661468029022,-0.0787591263651848,-0.12274045497179,-0.102530300617218
181,-0.11372834444046,-0.133212104439735,-0.0857915356755257,-0.0750182643532753,-0.119035288691521,-0.101735509932041
182,-0.111155554652214,-0.129905357956886,-0.0841795280575752,-0.0731026083230972,-0.112440869212151,-0.102333232760429
183,-0.109468750655651,-0.125992506742477,-0.0827427059412003,-0.0743330642580986,-0.105610646307468,-0.105762183666229
184,-0.108944825828075,-0.121331036090851,-0.0824014544487,-0.0775425583124161,-0.100473873317242,-0.110015586018562
185,-0.108146548271179,-0.114078171551228,-0.0818644538521767,-0.0791639238595963,-0.095963679254055,-0.11120193451643
186,-0.106338821351528,-0.104828573763371,-0.0794038996100426,-0.0776957646012306,-0.0906307771801949,-0.109325267374516
187,-0.103848226368427,-0.0957567468285561,-0.0753740891814232,-0.0750338807702065,-0.0841096565127373,-0.10628879070282
188,-0.101188115775585,-0.0882162600755692,-0.0717402622103691,-0.0731072053313255,-0.0774645656347275,-0.102420955896378
189,-0.099064826965332,-0.0821046829223633,-0.0694554075598717,-0.0710818916559219,-0.0727800354361534,-0.0973430201411247
190,-0.0974525734782219,-0.0759674310684204,-0.0678893700242043,-0.0671642124652863,-0.0707780867815018,-0.0911705121397972
191,-0.0951794981956482,-0.0695312544703484,-0.065927229821682,-0.0617274679243565,-0.0691573619842529,-0.0852174460887909
192,-0.0919541493058205,-0.0643504187464714,-0.062923789024353,-0.0560688972473145,-0.065777413547039,-0.0814292430877686
193,-0.0893577709794044,-0.0617944821715355,-0.0597188100218773,-0.0511912517249584,-0.0621238984167576,-0.0811461731791496
194,-0.0885669738054276,-0.0619164556264877,-0.0578914470970631,-0.0483204051852226,-0.0608523674309254,-0.0844110399484634
195,-0.0886400118470192,-0.0637265369296074,-0.058014988899231,-0.0479616671800613,-0.0616637691855431,-0.0899024605751038
196,-0.0864709988236427,-0.0647630468010902,-0.0582405216991901,-0.0476661510765553,-0.0608985498547554,-0.0944323316216469
197,-0.0806229934096336,-0.0627870783209801,-0.0566846020519733,-0.0445038825273514,-0.0572613887488842,-0.095265731215477
198,-0.0733594745397568,-0.0587039589881897,-0.0531830228865147,-0.0392253808677197,-0.05328119546175,-0.0938888043165207
199,-0.0664448514580727,-0.054837342351675,-0.0479601174592972,-0.0338498912751675,-0.0502622425556183,-0.0935099273920059
200,-0.0598920695483685,-0.0530110895633698,-0.0423162691295147,-0.0289314892143011,-0.0474772751331329,-0.0956803411245346
201,-0.0535939186811447,-0.0544215440750122,-0.0368578620254993,-0.0237681623548269,-0.04391123726964,-0.100748002529144
202,-0.0487184561789036,-0.0576338358223438,-0.031808789819479,-0.0181579608470201,-0.040473710745573,-0.104361295700073
203,-0.0467652939260006,-0.0590112842619419,-0.0289894249290228,-0.0137913981452584,-0.0383959896862507,-0.100481539964676
204,-0.0476465038955212,-0.0580594092607498,-0.0293100029230118,-0.0121752517297864,-0.0366706922650337,-0.0921993926167488
205,-0.0500494427978992,-0.0570842772722244,-0.0310603976249695,-0.0125142782926559,-0.0339993014931679,-0.0861859768629074
206,-0.0520294606685638,-0.0563189759850502,-0.0310801900923252,-0.0125506594777107,-0.0304779745638371,-0.0821675136685371
207,-0.05252805352211,-0.0549943894147873,-0.0277412328869104,-0.0109970225021243,-0.0272511206567287,-0.0767801254987717
208,-0.0512434281408787,-0.0534040406346321,-0.0218861550092697,-0.00821766164153814,-0.0245664790272713,-0.0694268196821213
209,-0.0484489500522614,-0.052983433008194,-0.0161630120128393,-0.00575620075687766,-0.0224237404763699,-0.0626038908958435
210,-0.0459733866155148,-0.0552924387156963,-0.0137896463274956,-0.00555062061175704,-0.0215967670083046,-0.0598972924053669
211,-0.0445641353726387,-0.0589659251272678,-0.0149604361504316,-0.00699485745280981,-0.0213713888078928,-0.0619421675801277
212,-0.0422990433871746,-0.0602894686162472,-0.0162167567759752,-0.00689219497144222,-0.0194855444133282,-0.0650927871465683
213,-0.0380135923624039,-0.0576020441949368,-0.0152896149083972,-0.00377242802642286,-0.0160921644419432,-0.065183162689209
214,-0.0333166308701038,-0.0525173135101795,-0.0131642809137702,0.000990025815553963,-0.0143535248935223,-0.0611841641366482
215,-0.0292086843401194,-0.0471090972423553,-0.0107499836012721,0.00569403916597366,-0.0144374705851078,-0.0552737042307854
216,-0.0248306598514318,-0.0421522259712219,-0.00806347653269768,0.0100150080397725,-0.0129786031320691,-0.0502063073217869
217,-0.0199517030268908,-0.0378243885934353,-0.00536517892032862,0.014411979354918,-0.00848770793527365,-0.0473193638026714
218,-0.0150976460427046,-0.033607479184866,-0.00251729506999254,0.0188558977097273,-0.00202224100939929,-0.0440301783382893
219,-0.0103443739935756,-0.0287634488195181,0.00134620035532862,0.0230035502463579,0.00530213164165616,-0.0347570069134235
220,-0.00636228919029236,-0.0243434328585863,0.00611258158460259,0.0257168896496296,0.0118404468521476,-0.0205986127257347
221,-0.00362414889968932,-0.0214685741811991,0.0113591067492962,0.026557819917798,0.016674505546689,-0.0103865554556251
222,-0.000873218290507793,-0.0189111791551113,0.0174054726958275,0.0267146416008472,0.0216223560273647,-0.00929592456668615
223,0.00188151956535876,-0.0151363983750343,0.0223593041300774,0.0260588265955448,0.0266722347587347,-0.0148078678175807
224,0.00336261815391481,-0.011142959818244,0.0235615391284227,0.0236269570887089,0.0291029252111912,-0.0223115421831608
225,0.00342053268104792,-0.00937817804515362,0.0214871596544981,0.0198237076401711,0.027472298592329,-0.0302848722785711
226,0.00223845895379782,-0.00965206697583199,0.0186390988528728,0.0156763885170221,0.0228819120675325,-0.039108645170927
227,0.000546791881788522,-0.00984853878617287,0.0152456071227789,0.0111403185874224,0.0174181796610355,-0.0469455793499947
228,0.000877182523254305,-0.0104405991733074,0.00950543768703938,0.00606821943074465,0.0125735616311431,-0.0509167835116386
229,0.00506960693746805,-0.0124664697796106,0.00464400928467512,0.00257901777513325,0.0117909908294678,-0.0501572750508785
230,0.0111515009775758,-0.0128248389810324,0.00735219707712531,0.00387437548488379,0.0176640413701534,-0.0451528057456017
231,0.0149189475923777,-0.00764563074335456,0.0167413465678692,0.0107107972726226,0.0265783444046974,-0.0377761535346508
232,0.0138097973540425,0.00326726050116122,0.0252214148640633,0.0206006076186895,0.0338769629597664,-0.0290693882852793
233,0.00898285117000341,0.0165120176970959,0.0295343045145273,0.0309500750154257,0.0378208123147488,-0.0160805135965347
234,0.00386900152079761,0.0251259673386812,0.0311590991914272,0.0405048243701458,0.0383506789803505,0.00464574946090579
235,0.0013792576501146,0.024082450196147,0.0306221283972263,0.0468795299530029,0.0371077880263329,0.0297732464969158
236,0.00196507456712425,0.0174461305141449,0.028301177546382,0.0463391728699207,0.0357363969087601,0.0481108613312244
237,0.00383364129811525,0.0122909061610699,0.0260304901748896,0.0391970723867416,0.0352238193154335,0.0503836460411549
238,0.00536338146775961,0.00788505002856255,0.0257158447057009,0.0323246233165264,0.0365309156477451,0.0349898599088192
239,0.00630330527201295,-0.00198858603835106,0.0271477960050106,0.0303972791880369,0.0392191335558891,0.00460570584982634
240,0.00825235899537802,-0.0170928854495287,0.0286060739308596,0.02986129373312,0.0431552156805992,-0.0324834920465946
241,0.0125370286405087,-0.0293417423963547,0.0298936255276203,0.0260891485959291,0.0495027527213097,-0.0637927129864693
242,0.0171842183917761,-0.0340555012226105,0.0321317352354527,0.0193460546433926,0.0569596290588379,-0.083571121096611
243,0.0196557063609362,-0.0331458821892738,0.0353841260075569,0.012597925029695,0.0619693137705326,-0.0949555113911629
244,0.0198678094893694,-0.0299765896052122,0.038202878087759,0.00862222071737051,0.0629319921135902,-0.101669244468212
245,0.0192875750362873,-0.0263469144701958,0.0392480120062828,0.00848067738115788,0.0612482093274593,-0.102906867861748
246,0.0192855764180422,-0.0217513032257557,0.0382584817707539,0.0106763914227486,0.0586146228015423,-0.0959002822637558
247,0.0205022916197777,-0.0155350333079696,0.0361015684902668,0.0136485919356346,0.0561466887593269,-0.0814069658517838
248,0.0224867314100266,-0.00938280019909143,0.0340469107031822,0.0170412193983793,0.0546311475336552,-0.0645915344357491
249,0.0238063894212246,-0.00568546913564205,0.0318485274910927,0.0193392243236303,0.05299162119627,-0.0498307943344116
250,0.0237653255462646,-0.00457806373015046,0.0285321306437254,0.0191527269780636,0.0493465960025787,-0.0373080261051655
251,0.0218322463333607,-0.00501640466973186,0.0237726923078299,0.0164552796632051,0.0426174812018871,-0.0279038362205029
252,0.0175044033676386,-0.00562049588188529,0.018383864313364,0.0120892263948917,0.0337760373950005,-0.0252521708607674
253,0.0129294637590647,-0.00409835996106267,0.0150358788669109,0.0097972908988595,0.0261582899838686,-0.0293299835175276
254,0.0106217619031668,6.12209987593815E-05,0.0149174313992262,0.0129153812304139,0.0209642164409161,-0.0348941534757614
255,0.0114146843552589,0.00542983040213585,0.0172482002526522,0.0197969637811184,0.0182969346642494,-0.0365847125649452
256,0.0148960910737515,0.0115653071552515,0.0206667501479387,0.0261184778064489,0.0188124403357506,-0.0332216210663319
257,0.0195602718740702,0.0172958932816982,0.0210748035460711,0.0279739126563072,0.0195206422358751,-0.0288155414164066
258,0.0262975599616766,0.021229138597846,0.0189540963619947,0.0266126282513142,0.0181820001453161,-0.0250346381217241
259,0.0371325761079788,0.0249072127044201,0.022207347676158,0.0285412408411503,0.0175288338214159,-0.0177735462784767
260,0.0486597083508968,0.0295735485851765,0.0319146513938904,0.0364942885935307,0.0213194023817778,-0.00755218928679824
261,0.0535226948559284,0.0355457663536072,0.0401789210736752,0.0465898886322975,0.0308052394539118,-0.000776036758907139
262,0.0482268892228603,0.0434103719890118,0.0413304902613163,0.0528055429458618,0.0409926511347294,0.000381533871404827
263,0.0359360314905643,0.0510758496820927,0.0361858941614628,0.0521651022136211,0.0450266301631927,0.000299933832138777
264,0.0223701819777489,0.0540077723562717,0.0295575596392155,0.0469494760036469,0.0419391840696335,0.0022248518653214
265,0.0120543697848916,0.0497840493917465,0.026471558958292,0.041793767362833,0.0357727631926537,0.0041443407535553
266,0.00805463455617428,0.0414236634969711,0.0292235687375069,0.0399499721825123,0.0322941392660141,0.00395937357097864
267,0.00984740164130926,0.0334762670099735,0.0350197777152061,0.0403775908052921,0.0335707403719425,0.00151480827480555
268,0.0140969017520547,0.0279354210942984,0.0396092124283314,0.040659211575985,0.0374783240258694,-0.00270512816496193
269,0.019321620464325,0.0249369740486145,0.042950015515089,0.0415086895227432,0.0429536104202271,-0.00757359433919191
270,0.0253089815378189,0.0230033658444881,0.0466603338718414,0.0439758934080601,0.0498887933790684,-0.0119763975962996
271,0.0306446794420481,0.0213895849883556,0.0499570518732071,0.0474573001265526,0.0566622391343117,-0.0137251699343324
272,0.0336882472038269,0.0213589910417795,0.050883911550045,0.0509866923093796,0.0606390833854675,-0.0104559995234013
273,0.0343032106757164,0.0239971410483122,0.0494254603981972,0.0532041043043137,0.0607812218368053,-0.00306305196136236
274,0.0337089784443378,0.0290707889944315,0.0478187240660191,0.053461316972971,0.0582374818623066,0.00506249628961086
275,0.0331105291843414,0.0343514084815979,0.0476693138480186,0.0521745346486568,0.0552671179175377,0.01015664357692
276,0.0326545499265194,0.0370636209845543,0.0485061183571815,0.0496863089501858,0.0535198673605919,0.00963785033673048
277,0.0320329368114471,0.03714919090271,0.0489445216953754,0.0471269674599171,0.0520015060901642,0.00485418364405632
278,0.0325859263539314,0.0375958345830441,0.0487955138087273,0.0463680550456047,0.05013282969594,0.000603991386014968
279,0.0361517257988453,0.0405723229050636,0.0494298078119755,0.0476080439984798,0.0498761460185051,0.000140041709528305
280,0.0415229722857475,0.0447421558201313,0.0514049716293812,0.04957115650177,0.0515835545957088,0.00272422283887863
281,0.0454528033733368,0.0477606914937496,0.053180031478405,0.0514579266309738,0.0527436211705208,0.00701353326439857
282,0.0467555969953537,0.0492088980972767,0.0536450445652008,0.0530773103237152,0.0519820339977741,0.0124659026041627
283,0.047086089849472,0.0508217625319958,0.0541439838707447,0.0549265407025814,0.0510972999036312,0.0175724271684885
284,0.0473972782492638,0.0538425892591476,0.0555395446717739,0.0569242760539055,0.0517078936100006,0.0203942842781544
285,0.0471569411456585,0.0570510029792786,0.0570247955620289,0.0575519315898418,0.0532719157636166,0.020931102335453
286,0.0466397181153297,0.0587902776896954,0.058329701423645,0.0562115088105202,0.0549682155251503,0.0210297740995884
287,0.0459441319108009,0.0579425841569901,0.0588843449950218,0.0529172793030739,0.0557292811572552,0.0204557720571756
288,0.0444196909666061,0.0544175244867802,0.0576230734586716,0.0480349026620388,0.0541200898587704,0.0178599543869495
289,0.0419585034251213,0.0494579151272774,0.0540609546005726,0.0425385385751724,0.0500637590885162,0.0140815190970898
290,0.0387390367686749,0.0442341081798077,0.0485892035067081,0.0361684113740921,0.0451049320399761,0.0101121058687568
291,0.0356306843459606,0.0403319522738457,0.0436080731451511,0.0298197884112597,0.0412717871367931,0.00653307558968663
292,0.0340620093047619,0.0390493758022785,0.0415868014097214,0.026056258007884,0.0398066341876984,0.00383138074539602
293,0.0347994528710842,0.0400822982192039,0.0431466586887836,0.0257419999688864,0.04064130038023,0.00189234910067171
294,0.0380208007991314,0.0427164398133755,0.0482583418488503,0.0281587634235621,0.0433197095990181,0.00122098857536912
295,0.0426990836858749,0.046499464660883,0.0549461878836155,0.031540684401989,0.0466383434832096,0.0029633732046932
296,0.0468832775950432,0.0507049486041069,0.0593862310051918,0.0339142829179764,0.0485526695847511,0.00755625125020742
297,0.0499496795237064,0.0545601956546307,0.060613825917244,0.0355930216610432,0.0487353764474392,0.014315327629447
298,0.0524971336126328,0.0581428222358227,0.0607586093246937,0.0382341556251049,0.0490501075983047,0.0221698917448521
299,0.0537749826908112,0.0611025989055634,0.0606836415827274,0.0410710573196411,0.0502575300633907,0.0289120692759752
300,0.0520835444331169,0.0625385493040085,0.059916939586401,0.0420977957546711,0.0511959753930569,0.0315696634352207
301,0.0477655529975891,0.0629601255059242,0.0591430030763149,0.0420481711626053,0.0514712333679199,0.0297095198184252
302,0.043882392346859,0.0638957172632217,0.0601226650178432,0.0435394421219826,0.0526374876499176,0.0267131272703409
303,0.0426838137209415,0.0653854012489319,0.0627428814768791,0.0469651892781258,0.055377684533596,0.0261105019599199
304,0.0432064794003963,0.065532922744751,0.064484216272831,0.0499513819813728,0.0574367046356201,0.0277746748179197
305,0.0444576889276505,0.064178891479969,0.064573347568512,0.0513531193137169,0.0568546615540981,0.0301812645047903
306,0.0469679273664951,0.0637655481696129,0.0643049776554108,0.051664013415575,0.0542438253760338,0.0328898951411247
307,0.051481869071722,0.066518597304821,0.0647392868995667,0.0511625856161118,0.0527071394026279,0.0358614772558212
308,0.0580316334962845,0.0725627169013023,0.0667526125907898,0.050836157053709,0.0553811639547348,0.038864616304636
309,0.0643206313252449,0.0790765210986137,0.0698705390095711,0.0517475008964539,0.0607991777360439,0.040736511349678
310,0.0667430981993675,0.0826675668358803,0.0720217451453209,0.0533073432743549,0.0640486925840378,0.040403675287962
311,0.0637345910072327,0.0821396261453629,0.071117177605629,0.0534707866609097,0.0614371486008167,0.0385831110179424
312,0.057330884039402,0.0776887834072113,0.0669208243489265,0.0507203452289104,0.0540484897792339,0.036216001957655
313,0.0514845140278339,0.0708213746547699,0.0622006021440029,0.0460465252399445,0.0471853278577328,0.0336358398199081
314,0.0477942451834679,0.0643193125724792,0.0596425943076611,0.0415924265980721,0.0442364811897278,0.0318499207496643
315,0.0446841046214104,0.0595500580966473,0.0594038851559162,0.0384466201066971,0.0444347113370895,0.0313262231647968
316,0.0408562086522579,0.0556993931531906,0.0604451522231102,0.0368952080607414,0.0454798862338066,0.0313131399452686
317,0.0366667695343494,0.0519435852766037,0.0615530721843243,0.0368835553526878,0.0454406589269638,0.0313531644642353
318,0.0326788164675236,0.0483464933931828,0.0617314353585243,0.0374774783849716,0.0437565520405769,0.0309061501175165
319,0.0293488055467606,0.044563926756382,0.0613502189517021,0.0376723147928715,0.0417641773819923,0.0287870932370424
320,0.0273738838732243,0.0396476425230503,0.061828326433897,0.03777239844203,0.041051734238863,0.0244866423308849
321,0.0272091161459684,0.0339408032596111,0.0635738521814346,0.0383395813405514,0.0415579974651337,0.019150510430336
322,0.0287487097084522,0.0291485209017992,0.0654778927564621,0.0388039313256741,0.0419675968587399,0.0148531831800938
323,0.0306315533816814,0.0260131806135178,0.0659110695123672,0.03829475492239,0.0404944717884064,0.0128658385947347
324,0.0309002529829741,0.0237513817846775,0.0638406425714493,0.0366386733949184,0.0365496724843979,0.0123839965090156
325,0.0295887030661106,0.022276658564806,0.0597406961023808,0.0342107638716698,0.0320121571421623,0.0116452695801854
326,0.0281972233206034,0.0220297574996948,0.0555052645504475,0.0316550470888615,0.0293632335960865,0.0100343022495508
327,0.0282008741050959,0.0230483263731003,0.0539140626788139,0.0304836966097355,0.0304464623332024,0.00921260286122561
328,0.0299978107213974,0.0250820852816105,0.0559393912553787,0.0317869186401367,0.0350816138088703,0.0107729351148009
329,0.031384639441967,0.0261942986398935,0.0585839338600636,0.0338246747851372,0.03911117836833,0.0135541679337621
330,0.0308683346956968,0.0253755673766136,0.0585988946259022,0.0342653803527355,0.038760956376791,0.0169199202209711
331,0.0296672116965055,0.0241297110915184,0.0561672411859035,0.0332479774951935,0.0353670939803123,0.0211058706045151
332,0.0293846465647221,0.0239525828510523,0.0545247085392475,0.0328432954847813,0.0333480499684811,0.0249089114367962
333,0.0303752217441797,0.0247142650187016,0.0555772855877876,0.0331411808729172,0.0345641523599625,0.0260644871741533
334,0.0317081660032272,0.0244255550205708,0.0577265918254852,0.0318610854446888,0.0372623205184937,0.0222371574491262
335,0.032589603215456,0.0221455991268158,0.0590317659080029,0.0292083639651537,0.039854884147644,0.0146376118063927
336,0.0331837832927704,0.0190682783722878,0.0584171153604984,0.0270591229200363,0.041285328567028,0.00740483170375228
337,0.0343140698969364,0.0166087504476309,0.0561121329665184,0.0256365016102791,0.0408777892589569,0.00285172602161765
338,0.0362572371959686,0.0155523242428899,0.054087195545435,0.0245718136429787,0.0401242077350616,0.000656922813504934
339,0.0377650260925293,0.0156574416905642,0.0530921928584576,0.0234986636787653,0.0402976647019386,-0.000295508740236983
340,0.037814375013113,0.0168342068791389,0.0523061230778694,0.0227971654385328,0.0404374338686466,0.000369371613487601
341,0.0370094329118729,0.0195854585617781,0.0524810142815113,0.0241245646029711,0.0403771549463272,0.00316036236472428
342,0.0354995988309383,0.0232159048318863,0.0540426075458527,0.0277224890887737,0.0401478335261345,0.00610020197927952
343,0.0332270227372646,0.0264136698096991,0.0552567839622498,0.0320490635931492,0.0389495678246021,0.00728820916265249
344,0.0312536396086216,0.0288212187588215,0.0547563098371029,0.0353583209216595,0.037778452038765,0.00684889266267419
345,0.0304012782871723,0.0311332512646914,0.0530478619039059,0.0369570963084698,0.0383941568434238,0.00587145332247019
346,0.0303215030580759,0.0337617173790932,0.0513733737170696,0.03788236156106,0.0404950082302094,0.00560523569583893
347,0.0302080120891333,0.0360693968832493,0.0503007955849171,0.0390915721654892,0.0433851294219494,0.00676861545071006
348,0.030550392344594,0.0385114252567291,0.0511330515146255,0.040865633636713,0.048154454678297,0.0098709287121892
349,0.0316014289855957,0.0418034270405769,0.0546283237636089,0.0428160317242146,0.0540535561740398,0.01459651440382
350,0.0313738211989403,0.0440066531300545,0.058341421186924,0.0435877926647663,0.0576130226254463,0.018965320661664
351,0.0290689580142498,0.0431351996958256,0.0611080378293991,0.043610192835331,0.059144951403141,0.021879019215703
352,0.0265630148351192,0.0394689999520779,0.0658429488539696,0.0453638322651386,0.0628270581364632,0.0239248014986515
353,0.0250617116689682,0.0337673798203468,0.0737839564681053,0.0488823503255844,0.0692779794335365,0.0250193979591131
354,0.0239356402307749,0.0271800495684147,0.0809309780597687,0.0509485490620136,0.0740941017866135,0.0243057813495398
355,0.022689575329423,0.0221180766820908,0.0817244723439217,0.0487912259995937,0.0731141269207001,0.021740822121501
356,0.0221346020698547,0.0207044333219528,0.0741177797317505,0.0422869995236397,0.0667025744915009,0.0185075663030148
357,0.022895285859704,0.0228598732501268,0.061526283621788,0.0344038344919682,0.0588621646165848,0.0167377199977636
358,0.0237110536545515,0.0257050190120935,0.0495712868869305,0.028450695797801,0.0527177788317204,0.0172611884772778
359,0.0231091920286417,0.0260999407619238,0.041729710996151,0.0252810269594193,0.0487806610763073,0.0188804529607296
360,0.0214953683316708,0.0246101729571819,0.0382801480591297,0.0250361505895853,0.0458653457462788,0.0220319665968418
361,0.0201027728617191,0.0233829729259014,0.0375740937888622,0.0269632991403341,0.0422612465918064,0.0278264172375202
362,0.0201187841594219,0.022571025416255,0.0391466990113258,0.0296958927065134,0.038544774055481,0.0350497141480446
363,0.0215422194451094,0.0205355603247881,0.0429460071027279,0.0324172414839268,0.0362365692853928,0.0408716090023518
364,0.0227604955434799,0.016049200668931,0.0465991832315922,0.0341010093688965,0.0343170464038849,0.0434084013104439
365,0.023087602108717,0.0107566695660353,0.0481463745236397,0.0352148041129112,0.0316611528396606,0.0444230437278748
366,0.021736815571785,0.00599009729921818,0.046417735517025,0.0357681028544903,0.027877364307642,0.0454787760972977
367,0.0170025695115328,0.000283222208963707,0.0403393730521202,0.033373948186636,0.0219822712242603,0.0445017740130425
368,0.0108130481094122,-0.00592836923897266,0.0324850305914879,0.0285856686532497,0.0154538387432694,0.041439313441515
369,0.00786036159843206,-0.00950202811509371,0.027214040979743,0.0254663191735744,0.0119847096502781,0.0401334837079048
370,0.00942931789904833,-0.00935830548405647,0.0265012793242931,0.0260242689400911,0.012481976300478,0.0420557744801044
371,0.01296766102314,-0.00738430814817548,0.0303203593939543,0.0292577855288982,0.0151874711737037,0.044731430709362
372,0.016220374032855,-0.00538297230377793,0.0374991111457348,0.0340565666556358,0.0196897406131029,0.0468228533864021
373,0.0178149845451117,-0.00427779043093324,0.0454664900898933,0.0388580560684204,0.0252139493823051,0.0487447269260883
374,0.017012819647789,-0.00422407919541001,0.0513866692781448,0.041430376470089,0.0296494942158461,0.0501026883721352
375,0.0160601660609245,-0.00298956921324134,0.0553276240825653,0.0428760685026646,0.0337458215653896,0.0517205335199833
376,0.0160493664443493,0.000789943675044924,0.0576224140822887,0.0452545136213303,0.0370372273027897,0.0550008006393909
377,0.0143416570499539,0.00485237129032612,0.0564094334840775,0.0466890335083008,0.0357209928333759,0.058679610490799
378,0.0122109930962324,0.0079081179574132,0.0537150278687477,0.045802041888237,0.0317064523696899,0.0607414096593857
379,0.0136677054688334,0.0105971833691001,0.0538882352411747,0.044013287872076,0.0303597841411829,0.0607856065034866
380,0.0174520723521709,0.0120590450242162,0.0565234161913395,0.0420933663845062,0.0311525966972113,0.0594210997223854
381,0.0200055222958326,0.0108852852135897,0.059363316744566,0.0404772236943245,0.0312388483434916,0.0573569498956203
382,0.0204280856996775,0.00737311458215117,0.0616767704486847,0.0396720543503761,0.0304824560880661,0.0549233630299568
383,0.0194888189435005,0.00302420044317842,0.0628475323319435,0.038855005055666,0.0297253709286451,0.0518585927784443
384,0.017965929582715,-0.000228494362090714,0.0626715794205666,0.0374946482479572,0.0292978063225746,0.0483938828110695
385,0.0160225257277489,-0.00120859767775983,0.0611322931945324,0.0360855534672737,0.0276425071060658,0.0457489192485809
386,0.0137085458263755,-0.00109406746923923,0.0574494302272797,0.0339693352580071,0.0228187330067158,0.0441029891371727
387,0.0107687832787633,-0.00201929430477321,0.0512846596539021,0.0302973706275225,0.0156117109581828,0.0425966903567314
388,0.00622266391292214,-0.00421994877979159,0.0443902276456356,0.0261668544262648,0.00770174898207188,0.041903018951416
389,-0.000379555480321869,-0.00617668498307467,0.0395163036882877,0.0234257858246565,-0.000290707394015044,0.0438778065145016
390,-0.00769256614148617,-0.0070510683581233,0.0378903523087502,0.0229123346507549,-0.00739886472001672,0.048552393913269
391,-0.0126949232071638,-0.00756795983761549,0.0398179106414318,0.0243949592113495,-0.0110724121332169,0.0531755276024342
392,-0.0124836172908545,-0.00840743258595467,0.0458590276539326,0.0273777060210705,-0.00853482633829117,0.0546723194420338
393,-0.00671040592715144,-0.00898048188537359,0.0550741627812386,0.0310404542833567,-0.000589953386224806,0.0524131841957569
394,0.00158129760529846,-0.00801900681108236,0.0637442544102669,0.0337054245173931,0.00762722361832857,0.0482691898941994
395,0.00880843680351973,-0.0046705100685358,0.0682499036192894,0.0339078307151794,0.0121648404747248,0.0442129373550415
396,0.0134770656004548,0.00127005693502724,0.0683644190430641,0.0327588431537151,0.0133271515369415,0.0422515459358692
397,0.0152598572894931,0.00905321631580591,0.0661462098360062,0.0328732840716839,0.0131215117871761,0.0444770194590092
398,0.0156561657786369,0.016831623390317,0.0641053020954132,0.0347073636949062,0.0142145985737443,0.0498537197709084
399,0.0171473994851112,0.022601630538702,0.0637626796960831,0.0363528281450272,0.0184004586189985,0.0540336258709431
400,0.0190449804067612,0.0256781056523323,0.0640615671873093,0.0361500754952431,0.0238390751183033,0.0539034083485603
401,0.0184428784996271,0.0267984680831432,0.0626920014619827,0.0336597226560116,0.0272397082298994,0.0499307997524738
402,0.0139324376359582,0.0261408239603043,0.0589538030326366,0.0291604474186897,0.0268649887293577,0.0435022749006748
403,0.00697316462174058,0.0243259407579899,0.0544768832623959,0.0239939521998167,0.0222765114158392,0.0365721434354782
404,-0.000340227445121855,0.0227707047015429,0.0501642972230911,0.0188284199684858,0.0138054452836514,0.0310716107487679
405,-0.00671588163822889,0.022444998845458,0.0458583757281303,0.0138891926035285,0.00403437064960599,0.0279590636491776
406,-0.0107481284067035,0.02391517162323,0.0427063964307308,0.0107429390773177,-0.00292452331632376,0.027654966339469
407,-0.0119970617815852,0.0257545001804829,0.0415528006851673,0.0100038619711995,-0.00542900245636702,0.0283095575869083
408,-0.0102211395278573,0.026305865496397,0.0418979302048683,0.0109032867476344,-0.00385190732777119,0.0280082225799561
409,-0.00525057874619961,0.026795731857419,0.0427929498255253,0.0129593135789037,0.000635508098639548,0.0276488456875086
410,0.000727687904145569,0.028607003390789,0.0426956079900265,0.014634070917964,0.00501445168629289,0.0283536482602358
411,0.00473901908844709,0.0306684076786041,0.0407894812524319,0.0141073437407613,0.00699308281764388,0.0293075386434793
412,0.00641690474003553,0.0323233902454376,0.0386506319046021,0.0127412704750896,0.00736167142167687,0.0298172831535339
413,0.007134810090065,0.0339329168200493,0.0382541827857494,0.0125204445794225,0.00783813558518887,0.0299419946968555
414,0.00723711773753166,0.0346541106700897,0.0396102331578732,0.01372763607651,0.0088143041357398,0.0298378802835941
415,0.00589427957311273,0.0339779146015644,0.04047816619277,0.0162744261324406,0.00954076182097197,0.0301659870892763
416,0.002899274462834,0.0330441743135452,0.0380421988666058,0.0192778427153826,0.0093928063288331,0.0314630232751369
417,-0.000666750187519938,0.0326066128909588,0.0315924845635891,0.0211802646517754,0.0080679701641202,0.0337884016335011
418,-0.00457711005583405,0.0313153304159641,0.021818146109581,0.0200326517224312,0.00512979319319129,0.0357693210244179
419,-0.00866408739238977,0.0278903041034937,0.0108931949362159,0.0153632378205657,0.00264045363292098,0.0350043289363384
420,-0.0102214142680168,0.0240775812417269,0.00387828494422138,0.0102014113217592,0.00512398034334183,0.0313100293278694
421,-0.00801500119268894,0.0220577530562878,0.00359807792119682,0.00737943453714252,0.0128315817564726,0.0266791488975286
422,-0.00476524839177728,0.0217146500945091,0.0075551220215857,0.0071603199467063,0.0209391433745623,0.0232574455440044
423,-0.0031187089625746,0.0224381871521473,0.012065077200532,0.00877331849187613,0.0254139322787523,0.02251254953444
424,-0.00390293495729566,0.0239066034555435,0.0149367218837142,0.0106413634493947,0.0247893780469894,0.0237654354423285
425,-0.00649419054389,0.025482140481472,0.0156607236713171,0.0111868344247341,0.0199325922876596,0.0246513281017542
426,-0.00945159327238798,0.0268537811934948,0.0146831786260009,0.00973344594240189,0.0138666899874806,0.0241152811795473
427,-0.0112038282677531,0.0290260761976242,0.0132835693657398,0.00756129389628768,0.00949143711477518,0.024192875251174
428,-0.0109416758641601,0.0320724099874496,0.0132815400138497,0.00699675967916846,0.00817003939300776,0.0263707004487515
429,-0.00910581555217505,0.0338546223938465,0.0160108227282763,0.00832606013864279,0.010934529826045,0.0285371299833059
430,-0.00658168504014611,0.0336753912270069,0.0208216961473227,0.0103976083919406,0.0171614177525043,0.0295731257647276
431,-0.00480658188462257,0.0327641516923904,0.0250812545418739,0.012603223323822,0.0232286583632231,0.0313779823482037
432,-0.00424030143767595,0.0317051820456982,0.0276418626308441,0.0142998695373535,0.026833301410079,0.0341961830854416
433,-0.00316808745265007,0.0304021723568439,0.0295149348676205,0.0145708210766315,0.0287174731492996,0.0360680259764194
434,-0.000144600344356149,0.0295690316706896,0.0316346660256386,0.0143045382574201,0.0301470067352057,0.0372091084718704
435,0.0048703677020967,0.0307760834693909,0.0339052379131317,0.0153887802734971,0.0325432121753693,0.0397916436195374
436,0.011128987185657,0.0343921594321728,0.0354041159152985,0.0174042023718357,0.0367380008101463,0.0439865924417973
437,0.0173932109028101,0.0394420363008976,0.0360518097877502,0.0193824730813503,0.0416598878800869,0.048226572573185
438,0.023028627038002,0.0453984662890434,0.0374141559004784,0.0227666180580854,0.0452939420938492,0.0524454601109028
439,0.0273012444376946,0.0503405705094337,0.0399777293205261,0.0276849754154682,0.0465631000697613,0.0561751276254654
440,0.0288929305970669,0.0506099052727222,0.0422217696905136,0.0305973701179028,0.0468557253479958,0.0566271804273129
441,0.0275538377463818,0.0458038114011288,0.0427006706595421,0.0294862184673548,0.0472698286175728,0.0536130294203758
442,0.0233643036335707,0.038740660995245,0.0398245267570019,0.0252563916146755,0.0451627224683762,0.0495840087532997
443,0.0164544135332108,0.0313170999288559,0.0325475931167603,0.0189368668943644,0.0379278622567654,0.0445950701832771
444,0.00969252642244101,0.0252001583576202,0.0236832331866026,0.0128439115360379,0.0286185592412949,0.0383179746568203
445,0.00699118012562394,0.0227540452033281,0.0177379455417395,0.0101047186180949,0.0228842962533236,0.0330653004348278
446,0.00808596238493919,0.0241061393171549,0.0148108787834644,0.0105666890740395,0.0211427360773087,0.0303105060011148
447,0.00974587164819241,0.0263850335031748,0.0116826761513948,0.0108945900574327,0.0203076004981995,0.0281536225229502
448,0.0103627359494567,0.0267297718673944,0.00757712824270129,0.0091655133292079,0.0201457981020212,0.023762084543705
449,0.00965469516813755,0.0242751389741898,0.00356175657361746,0.00585276586934924,0.0211854185909033,0.0162638779729605
450,0.00721632083877921,0.0204404667019844,-0.000779392197728157,0.00131114979740232,0.0219455398619175,0.00779434433206916
451,0.0043391901999712,0.0184771828353405,-0.00538168614730239,-0.00370808085426688,0.0221117939800024,0.00303734396584332
452,0.00312472810037434,0.0193305928260088,-0.00861958228051662,-0.00746806897222996,0.0222858693450689,0.00459121493622661
453,0.00284083490259945,0.019256504252553,-0.0100878048688173,-0.00966693926602602,0.0215291418135166,0.00823042076081038
454,0.00179710518568754,0.015458732843399,-0.0108135603368282,-0.0110423872247338,0.019701573997736,0.00837886705994606
455,0.000168364451383241,0.00889336969703436,-0.0117194671183825,-0.0119069078937173,0.0181854274123907,0.00454765185713768
456,-0.00120448844972998,0.00149356562178582,-0.0133979385718703,-0.0128884399309754,0.0179872419685125,-0.00102546974085271
457,-0.00146313069853932,-0.00420815777033567,-0.0152565380558372,-0.0136905489489436,0.0193776972591877,-0.00581428175792098
458,-0.000215114443562925,-0.00601008906960487,-0.0159365348517895,-0.0132389673963189,0.0213126391172409,-0.00760337803512812
459,0.00144411541987211,-0.00473340321332216,-0.0157904103398323,-0.0121724279597402,0.0218064840883017,-0.0068648406304419
460,0.00183654448483139,-0.00329792965203524,-0.0162824112921953,-0.0121105471625924,0.0193728096783161,-0.00658969255164266
461,0.00109434768091887,-0.00276445900090039,-0.0176855996251106,-0.0134295653551817,0.0144590083509684,-0.00795214436948299
462,0.00101131829433143,-0.0022331636864692,-0.0193059295415878,-0.0152449673041701,0.00931724905967712,-0.00953594781458378
463,0.00229934579692781,-0.00184670195449144,-0.020727938041091,-0.0170805230736732,0.00567896710708737,-0.0106999613344669
464,0.00425117462873459,-0.00252764369361103,-0.0221926253288984,-0.0191307980567217,0.00378502975217998,-0.011399844661355
465,0.00652083335444331,-0.00410058395937085,-0.0233082883059978,-0.0210906192660332,0.00327570480294526,-0.0108037507161498
466,0.00862451270222664,-0.00593538675457239,-0.0237668696790934,-0.0233447607606649,0.00355547573417425,-0.00922666769474745
467,0.00882160756736994,-0.00749329896643758,-0.0243252757936716,-0.0258086789399385,0.00365031231194735,-0.00743063353002071
468,0.00604315986856818,-0.00779875228181481,-0.0248490702360868,-0.0264820326119661,0.00351768964901567,-0.00492627918720245
469,0.00125956954434514,-0.00657814275473356,-0.0251322239637375,-0.0250780563801527,0.00366505840793252,-0.00217810110189021
470,-0.00410750042647123,-0.00503564020618796,-0.0266698710620403,-0.023772681131959,0.00305963726714253,-0.000704868289176375
471,-0.00833267252892256,-0.00403567589819431,-0.0299065355211496,-0.0238253399729729,0.00208001723513007,-0.000699509750120342
472,-0.0104008298367262,-0.00338503182865679,-0.0335014089941978,-0.0245892629027367,0.00196826737374067,-0.00144798553083092
473,-0.0109892226755619,-0.00261495844461024,-0.0367255918681622,-0.0246176775544882,0.00128530489746481,-0.00171622599009424
474,-0.0106020392850041,-0.00170707248616964,-0.0390216782689095,-0.0230532996356487,-0.000701712095178664,-0.000573931785766035
475,-0.0102209746837616,-0.00175264559220523,-0.0405736826360226,-0.0217713546007872,-0.00272768456488848,-0.000305635068798438
476,-0.0109195047989488,-0.00263419421389699,-0.0421725399792194,-0.0227381233125925,-0.003340172348544,-0.00317341205663979
477,-0.0118107777088881,-0.00235019833780825,-0.0429261028766632,-0.0241412110626698,-0.00171724881511182,-0.00749631971120834
478,-0.0117513258010149,-0.000583138782531023,-0.0417224951088429,-0.0240324195474386,0.000900013081263751,-0.0115622142329812
479,-0.0115902377292514,0.000597929523792118,-0.0399317406117916,-0.0233803018927574,0.0013640372781083,-0.0156674310564995
480,-0.0124369189143181,9.59881290327758E-05,-0.0396599806845188,-0.0228484459221363,-0.00185754790436476,-0.0190317314118147
481,-0.0141643574461341,-0.00101635500323027,-0.0414122678339481,-0.0218006055802107,-0.00741946790367365,-0.0197576489299536
482,-0.0165453739464283,-0.00181373953819275,-0.0445552133023739,-0.0205673817545176,-0.0135433683171868,-0.0180057007819414
483,-0.0186231732368469,-0.00191276194527745,-0.0472134090960026,-0.0201205685734749,-0.0179404728114605,-0.0157140977680683
484,-0.0191789008677006,-0.000990552944131196,-0.0480833053588867,-0.0209722202271223,-0.0193954240530729,-0.0143821965903044
485,-0.0186713263392448,0.000170864354004152,-0.0488575920462608,-0.023426840081811,-0.0198585689067841,-0.0148695502430201
486,-0.0182087030261755,0.000839821354020387,-0.0513478070497513,-0.02635164745152,-0.0213727653026581,-0.0167287196964026
487,-0.0183905921876431,0.0014064529677853,-0.0550060607492924,-0.0277845412492752,-0.0240458641201258,-0.0183421466499567
488,-0.0190264936536551,0.00198840163648129,-0.0577853843569756,-0.0276757720857859,-0.0260820183902979,-0.0187712106853724
489,-0.0196183938533068,0.00192720594350249,-0.0577604919672012,-0.0269602965563536,-0.0260473564267159,-0.0187592133879662
490,-0.0202139131724834,0.00118465209379792,-0.0552891381084919,-0.0258693099021912,-0.0252871215343475,-0.0191195849329233
491,-0.0205121003091335,0.000695443304721266,-0.0518791079521179,-0.024115014821291,-0.0247985254973173,-0.0192947871983051
492,-0.0199102722108364,0.000513401755597442,-0.0479964911937714,-0.0220233108848333,-0.0234439969062805,-0.0190548487007618
493,-0.0189028158783913,-0.000148147169966251,-0.044527743011713,-0.0207001958042383,-0.020890137180686,-0.018501453101635
494,-0.0180032327771187,-0.00113832065835595,-0.0427192263305187,-0.0203599911183119,-0.0172627437859774,-0.0170592311769724
495,-0.0168047361075878,-0.00186516356188804,-0.0419249348342419,-0.0196206979453564,-0.0125310886651278,-0.0141015667468309
496,-0.0157014075666666,-0.0020572948269546,-0.0406332612037659,-0.0170309133827686,-0.00857425574213266,-0.00944734457880259
497,-0.015692787244916,-0.0015997695736587,-0.0392357707023621,-0.0139570068567991,-0.00707114255055785,-0.00497005274519324
498,-0.0162740480154753,-0.000617161160334945,-0.0389759838581085,-0.0129672391340137,-0.006852719001472,-0.00316195725463331
499,-0.0154514983296394,0.000924210238736123,-0.0389293991029263,-0.0134094851091504,-0.00519665610045195,-0.00336955371312797
500,-0.013203184120357,0.0023294435814023,-0.0383829176425934,-0.0140426140278578,-0.00152575958054513,-0.00413456885144114
501,-0.012092212215066,0.00224898825399578,-0.038635365664959,-0.0152497617527843,0.0020236405543983,-0.00517445104196668
502,-0.0135742640122771,0.000855325255542994,-0.0403110608458519,-0.0166603084653616,0.00344275287352502,-0.00599386356770992
503,-0.0168334245681763,-0.000373065064195544,-0.0430027060210705,-0.0180777870118618,0.00224181055091321,-0.00678156968206167
504,-0.0194329284131527,0.00033517146948725,-0.0461374334990978,-0.0208152867853642,0.000745758938137442,-0.00787854380905628
505,-0.0185650289058685,0.00299021089449525,-0.0486970879137516,-0.0289671160280705,0.00369309424422681,-0.0105253458023071
506,-0.0134256044402719,0.00549443019554019,-0.0494564063847065,-0.0448210872709751,0.0130158849060535,-0.0157511364668608
507,-0.00782338250428438,0.00794408749789,-0.048763994127512,-0.0581608489155769,0.0219687987118959,-0.0185769144445658
508,-0.00692361406981945,0.011460074223578,-0.0480188466608524,-0.0555890463292599,0.0224530044943094,-0.0142028452828527
509,-0.010402706451714,0.0138776041567326,-0.0475575104355812,-0.0405432358384132,0.0167816188186407,-0.00711490726098418
510,-0.0141984727233648,0.0121684251353145,-0.0474134758114815,-0.0291236564517021,0.012759274803102,-0.00523017020896077
511,-0.0156211880967021,0.00745631568133831,-0.0475813858211041,-0.0292116738855839,0.0132291195914149,-0.00934667233377695
512,-0.0150036113336682,0.00409601954743266,-0.0478584170341492,-0.0321086011826992,0.014392115175724,-0.0124711124226451
513,-0.0143405729904771,0.00356778991408646,-0.0485212653875351,-0.0282089803367853,0.0124528706073761,-0.0108474614098668
514,-0.014567750506103,0.00365485996007919,-0.0500530786812305,-0.0209941621869802,0.0085317911580205,-0.00864418875426054
515,-0.0150125445798039,0.00316994381137192,-0.0522467344999313,-0.0184617973864079,0.00580612430348992,-0.00975329428911209
516,-0.0145404106006026,0.00301153934560716,-0.0542455539107323,-0.022654952481389,0.00560691207647324,-0.0131803322583437
517,-0.0137344105169177,0.0034653574693948,-0.0561938397586346,-0.0303880106657743,0.00562288565561175,-0.0160549525171518
518,-0.0135295800864697,0.00358511484228075,-0.0577978640794754,-0.0379639193415642,0.00397472409531474,-0.0172859486192465
519,-0.0137125784531236,0.00261944602243602,-0.0572143159806728,-0.0421534441411495,0.00163106748368591,-0.017339238896966
520,-0.0156353991478682,0.000413936300901696,-0.0549413412809372,-0.0397233329713345,-0.00251525174826384,-0.0163112729787827
521,-0.0200226623564959,-0.00229611177928746,-0.0533433221280575,-0.0321601219475269,-0.00971128512173891,-0.0147892339155078
522,-0.0246547050774097,-0.00424784049391747,-0.0528024174273014,-0.0250435378402472,-0.0167913325130939,-0.0138554899021983
523,-0.0273013487458229,-0.00398647785186768,-0.0523783788084984,-0.0207661669701338,-0.0199191253632307,-0.0126187270507216
524,-0.0273908078670502,-0.000800905225332826,-0.0516614578664303,-0.018325274810195,-0.0192984342575073,-0.00930127501487732
525,-0.0262924246490002,0.00280068605206907,-0.0508412048220634,-0.0170738101005554,-0.0180755946785212,-0.00472509488463402
526,-0.0254406500607729,0.00360799115151167,-0.0500336848199368,-0.0169352535158396,-0.0175499301403761,-0.00108253920916468
527,-0.0248047970235348,0.0013716162648052,-0.0500859133899212,-0.0186907146126032,-0.0166875477880239,0.000160484021762386
528,-0.0245197732001543,-0.00283743441104889,-0.0528973191976547,-0.0241792052984238,-0.0148980971425772,-0.00206671678461134
529,-0.025792520493269,-0.00843087304383516,-0.0585324019193649,-0.0326181426644325,-0.0131314499303699,-0.00741794053465128
530,-0.0295845959335566,-0.0153721524402499,-0.0650200545787811,-0.0401268824934959,-0.0130779696628451,-0.0148213682696223
531,-0.0353428609669209,-0.0233866535127163,-0.0714735835790634,-0.045262161642313,-0.01557756960392,-0.0241622924804688
532,-0.041440449655056,-0.0305944699794054,-0.0777617618441582,-0.0493714399635792,-0.0209919232875109,-0.0338431559503078
533,-0.045672383159399,-0.0344951376318932,-0.0829287990927696,-0.0524617098271847,-0.02900580316782,-0.0403179302811623
534,-0.047170203179121,-0.0345080718398094,-0.0863607004284859,-0.0535116046667099,-0.0378930419683456,-0.0416766442358494
535,-0.0478655211627483,-0.0321151576936245,-0.0880577638745308,-0.0521758198738098,-0.0456257686018944,-0.0386073924601078
536,-0.0493880435824394,-0.0297305881977081,-0.087470605969429,-0.0492741800844669,-0.0503508187830448,-0.0338951162993908
537,-0.0509284101426601,-0.0296282675117254,-0.0842510610818863,-0.0470304228365421,-0.0503253675997257,-0.0315889045596123
538,-0.0507083497941494,-0.0312838293612003,-0.07911466807127,-0.046926025301218,-0.0451808460056782,-0.0329553075134754
539,-0.0475144274532795,-0.0308360159397125,-0.0735739469528198,-0.0483957044780254,-0.0369641929864883,-0.0350431799888611
540,-0.0424208082258701,-0.0259407050907612,-0.0698501318693161,-0.0502166375517845,-0.0302352122962475,-0.0347914136946201
541,-0.0377916097640991,-0.018600145354867,-0.0687349662184715,-0.0512346737086773,-0.0282921511679888,-0.0319790095090866
542,-0.033907700330019,-0.0120020546019077,-0.0681893527507782,-0.0518759228289127,-0.0287908017635345,-0.0290020853281021
543,-0.0304089412093163,-0.00736801046878099,-0.0665413960814476,-0.052851278334856,-0.0283733289688826,-0.0273556709289551
544,-0.0288999564945698,-0.00429132767021656,-0.0654508247971535,-0.0531640537083149,-0.0280614718794823,-0.025534288957715
545,-0.0308648701757193,-0.00230720033869147,-0.0668243542313576,-0.0524897277355194,-0.0297810770571232,-0.0217590983957052
546,-0.0345538184046745,-0.000964338076300919,-0.0681461319327354,-0.0508998595178127,-0.0313649028539658,-0.0165974721312523
547,-0.0374831072986126,-0.000580735504627228,-0.0666415840387344,-0.0491871796548367,-0.0301393140107393,-0.0134935807436705
548,-0.0401589013636112,-0.00212424923665822,-0.0639657750725746,-0.049205407500267,-0.0282256249338388,-0.0145401628687978
549,-0.0434774570167065,-0.00483185797929764,-0.062050387263298,-0.050097618252039,-0.0281469710171223,-0.016786677762866
550,-0.0474303923547268,-0.00720816710963845,-0.060909029096365,-0.0497475005686283,-0.0294827409088612,-0.0169813111424446
551,-0.0521377734839916,-0.00898469891399145,-0.0606905557215214,-0.048799816519022,-0.0314023047685623,-0.0156704876571894
552,-0.056780569255352,-0.0104814991354942,-0.0616084933280945,-0.0491265393793583,-0.0328777097165585,-0.0144322607666254
553,-0.0605451613664627,-0.0125060966238379,-0.063430093228817,-0.0517581962049007,-0.0334148146212101,-0.0138439303264022
554,-0.0629137828946114,-0.0155911799520254,-0.0654840692877769,-0.0563593097031116,-0.0333116985857487,-0.0140884574502707
555,-0.063307411968708,-0.0187726356089115,-0.0672660619020462,-0.0608258172869682,-0.0333011224865913,-0.0145611949265003
556,-0.0630063936114311,-0.021282272413373,-0.06916444003582,-0.0634828135371208,-0.0352489426732063,-0.0147914178669453
557,-0.0630511268973351,-0.0227379109710455,-0.0699818283319473,-0.0635727867484093,-0.0383749753236771,-0.0146366488188505
558,-0.061527643352747,-0.0220195055007935,-0.0670102760195732,-0.0604536198079586,-0.0385153256356716,-0.013188018463552
559,-0.0576716922223568,-0.0187293533235788,-0.0610914528369904,-0.0548788383603096,-0.0345331281423569,-0.00969780143350363
560,-0.0534143187105656,-0.01311921980232,-0.0554351136088371,-0.0481656566262245,-0.0284809991717339,-0.0040666195563972
561,-0.0505940951406956,-0.00654993113130331,-0.0514906048774719,-0.0425786897540092,-0.0214516688138247,0.000735451059881598
562,-0.0496335029602051,-0.00142911728471518,-0.0488347485661507,-0.0406688079237938,-0.0135015845298767,0.000197800400201231
563,-0.0494337752461433,0.00140753365121782,-0.0459479987621307,-0.0417285785079002,-0.00562635995447636,-0.00505259027704597
564,-0.04936583340168,0.0029949948657304,-0.0422379560768604,-0.0427854619920254,-0.000860154570546001,-0.0102899232879281
565,-0.0491988174617291,0.00484108133241534,-0.0385762341320515,-0.041828591376543,-0.000174985034391284,-0.0123413074761629
566,-0.0484035946428776,0.00665620248764753,-0.0358236990869045,-0.0393929518759251,-0.000674139009788632,-0.012189419940114
567,-0.0465839095413685,0.00728835351765156,-0.0331437475979328,-0.0363793037831783,0.000878223276231438,-0.0123918270692229
568,-0.0432263314723969,0.00765411742031574,-0.0287508554756641,-0.0320026613771915,0.00592077570036054,-0.0125983981415629
569,-0.0394207164645195,0.0082276901230216,-0.0237866584211588,-0.0273699667304754,0.0125853987410665,-0.0118963066488504
570,-0.03773383051157,0.00713715888559818,-0.0214249808341265,-0.0261334907263517,0.0172987449914217,-0.0127783715724945
571,-0.0388800911605358,0.00421677064150572,-0.0219638738781214,-0.028927106410265,0.0185745880007744,-0.0170297008007765
572,-0.0417032763361931,0.00220978166908026,-0.0233447253704071,-0.0324601046741009,0.0166046693921089,-0.0216065552085638
573,-0.0452727824449539,0.00170583999715745,-0.0244107246398926,-0.0348003283143044,0.0122203379869461,-0.0240368079394102
574,-0.0488184057176113,5.56329723622184E-05,-0.0247905682772398,-0.0373324416577816,0.0076035032980144,-0.0266292747110128
575,-0.0512823387980461,-0.00337193394079804,-0.0240477100014687,-0.0408737659454346,0.00447545619681478,-0.0307688508182764
576,-0.0525670163333416,-0.0065396330319345,-0.0220688264816999,-0.0439401902258396,0.00244131311774254,-0.0340053401887417
577,-0.0545240379869938,-0.00894665345549583,-0.0202240329235792,-0.0460722222924232,-0.000233647326240316,-0.0346431881189346
578,-0.0581018403172493,-0.0112674804404378,-0.0195819158107042,-0.0475877448916435,-0.00389165477827191,-0.033468883484602
579,-0.0607809834182262,-0.0128745473921299,-0.0193557757884264,-0.0479457899928093,-0.00560877611860633,-0.0319713242352009
580,-0.0610416866838932,-0.0142366820946336,-0.020451981574297,-0.0482411161065102,-0.00459407130256295,-0.0323154218494892
581,-0.0614457167685032,-0.0174622163176537,-0.0247424487024546,-0.0500682517886162,-0.00516796810552478,-0.0357863828539848
582,-0.0635187327861786,-0.0222455952316523,-0.0303541496396065,-0.0523076094686985,-0.00903639290481806,-0.0405296050012112
583,-0.0656061619520187,-0.0256289448589087,-0.0334121473133564,-0.0526047199964523,-0.0130344079807401,-0.0435437895357609
584,-0.0661843121051788,-0.0249957125633955,-0.0327000953257084,-0.0500545613467693,-0.0152783431112766,-0.0431624054908752
585,-0.0651093572378159,-0.0208583641797304,-0.0302957370877266,-0.0467534698545933,-0.0167463459074497,-0.0407928302884102
586,-0.0630383193492889,-0.0161529611796141,-0.0286277960985899,-0.0458314307034016,-0.0191103368997574,-0.0394014529883862
587,-0.0607672706246376,-0.0122376577928662,-0.0275157950818539,-0.0469953678548336,-0.0228694435209036,-0.0388852655887604
588,-0.0587128773331642,-0.00828238390386105,-0.0255363546311855,-0.0473501645028591,-0.0265085697174072,-0.0368899665772915
589,-0.0576457232236862,-0.00454418733716011,-0.0229161437600851,-0.0458509996533394,-0.0285114571452141,-0.0338048711419106
590,-0.0584372133016586,-0.00342459650710225,-0.020861716940999,-0.0442469827830791,-0.0279381405562162,-0.0332408808171749
591,-0.0606082454323769,-0.0062554869800806,-0.0201796051114798,-0.0445047169923782,-0.0236375033855438,-0.0372481234371662
592,-0.0629560872912407,-0.0105857066810131,-0.0208433233201504,-0.0463144741952419,-0.0172350984066725,-0.0430902279913425
593,-0.0648185685276985,-0.0124784484505653,-0.0220751203596592,-0.0472212247550488,-0.0128486473113298,-0.0458985045552254
594,-0.0658982545137405,-0.0110309608280659,-0.0233347807079554,-0.0456899702548981,-0.0123905865475535,-0.0438127107918262
595,-0.0653853639960289,-0.00849806237965822,-0.0242117941379547,-0.0429378412663937,-0.0140770804136992,-0.0391088910400867
596,-0.0632968917489052,-0.00742913829162717,-0.0238751973956823,-0.0407694727182388,-0.0156138530001044,-0.0349747054278851
597,-0.0609033033251762,-0.00837991666048765,-0.0216428805142641,-0.0394399352371693,-0.0167432893067598,-0.0323125831782818
598,-0.0592586882412434,-0.0103561207652092,-0.0183760896325111,-0.0389133132994175,-0.0177156254649162,-0.030707648023963
599,-0.0590715147554874,-0.0127229737117887,-0.0160161703824997,-0.0395649001002312,-0.0184813663363457,-0.0305582322180271
600,-0.0597185008227825,-0.0151679795235395,-0.0148155260831118,-0.0403972342610359,-0.0189314596354961,-0.0325292535126209
601,-0.0600072480738163,-0.0178317744284868,-0.0139432456344366,-0.040173701941967,-0.0194517876952887,-0.0366351641714573
602,-0.0600910857319832,-0.0212168637663126,-0.013864235021174,-0.0399238429963589,-0.0215047523379326,-0.0415942370891571
603,-0.0611099563539028,-0.0253219529986382,-0.0153405098244548,-0.0409638695418835,-0.0256373044103384,-0.0449568219482899
604,-0.0630781948566437,-0.0293620135635138,-0.0164054743945599,-0.0415216274559498,-0.0288386140018702,-0.0447529554367065
605,-0.0642597824335098,-0.0325725115835667,-0.0135936476290226,-0.0395357571542263,-0.0266638826578856,-0.0420515537261963
606,-0.0643540769815445,-0.0348959937691689,-0.00776168284937739,-0.0367449894547462,-0.0198977775871754,-0.0399494431912899
607,-0.0647107884287834,-0.0358203165233135,-0.00323130888864398,-0.0350229889154434,-0.0145729668438435,-0.0386820361018181
608,-0.0650688707828522,-0.0349205508828163,-0.00160484097432345,-0.0333184413611889,-0.0138031411916018,-0.0365526042878628
609,-0.064411461353302,-0.0338485203683376,-0.00200273818336427,-0.0313513390719891,-0.015548880212009,-0.0344780758023262
610,-0.0625718459486961,-0.0340562239289284,-0.00345881609246135,-0.0302562471479177,-0.0167370941489935,-0.0341105125844479
611,-0.0599229894578457,-0.0351333878934383,-0.0046414565294981,-0.0295620504766703,-0.0159895662218332,-0.0348573997616768
612,-0.0575893186032772,-0.0371736474335194,-0.00550837861374021,-0.0286793634295464,-0.0146885178983212,-0.0353534892201424
613,-0.0561677180230618,-0.0406310223042965,-0.00676833093166351,-0.0285330340266228,-0.0149870635941625,-0.0358885936439037
614,-0.0550124756991863,-0.0448433458805084,-0.00769869051873684,-0.0288596209138632,-0.0172370094805956,-0.037636399269104
615,-0.0533117689192295,-0.0489229746162891,-0.00796395353972912,-0.028480151668191,-0.0201453752815723,-0.0410891473293304
616,-0.0516620576381683,-0.0528400167822838,-0.00861921906471252,-0.0283442940562963,-0.0229630134999752,-0.0464976094663143
617,-0.0514934211969376,-0.0565425343811512,-0.0102275758981705,-0.0293303970247507,-0.0257760006934404,-0.0524424314498901
618,-0.0525766462087631,-0.0593300610780716,-0.0122213801369071,-0.0298304706811905,-0.0284910723567009,-0.0556735247373581
619,-0.0530750975012779,-0.0604942627251148,-0.0132298450917006,-0.0274738389998674,-0.0305768586695194,-0.0540105700492859
620,-0.0514294132590294,-0.060274962335825,-0.0122088482603431,-0.0221846885979176,-0.0307251010090113,-0.0483006983995438
621,-0.0486534722149372,-0.0604297034442425,-0.011670645326376,-0.0177691020071507,-0.0292737893760204,-0.0416902825236321
622,-0.0473727025091648,-0.0620562322437763,-0.0148672368377447,-0.0177555847913027,-0.0280666686594486,-0.0368165746331215
623,-0.0483436211943626,-0.0642302259802818,-0.0201152823865414,-0.0213782396167517,-0.027673227712512,-0.0347224362194538
624,-0.0500036180019379,-0.0660454034805298,-0.0240036826580763,-0.0263909623026848,-0.0277657117694616,-0.0351794362068176
625,-0.0501889437437058,-0.0674452409148216,-0.0252045225352049,-0.0312726125121117,-0.02771788649261,-0.0365786999464035
626,-0.0485821515321732,-0.0683864280581474,-0.0233029220253229,-0.0339199230074883,-0.0270954556763172,-0.0377758480608463
627,-0.0464825890958309,-0.0684527680277824,-0.0182901341468096,-0.033030167222023,-0.025011545047164,-0.0393235236406326
628,-0.0446991287171841,-0.0666771084070206,-0.011430555023253,-0.0294679086655378,-0.0201771892607212,-0.0404803790152073
629,-0.0439308062195778,-0.0624381080269814,-0.00529129290953279,-0.025007039308548,-0.0137661285698414,-0.0388019308447838
630,-0.0443514324724674,-0.0571860671043396,-0.00219756620936096,-0.0217296667397022,-0.00840290356427431,-0.0342634618282318
631,-0.0455437563359737,-0.0542366281151772,-0.00274577829986811,-0.0213454887270927,-0.00555635523051023,-0.029627887532115
632,-0.0470720641314983,-0.0552884191274643,-0.00520795164629817,-0.0231785979121923,-0.00496991770341992,-0.0260388292372227
633,-0.048446960747242,-0.0595401972532272,-0.00741040939465165,-0.0252766888588667,-0.00532526802271605,-0.0230025202035904
634,-0.0496908202767372,-0.0657118782401085,-0.00905345473438501,-0.0273134969174862,-0.00669191777706146,-0.0211253892630339
635,-0.0501453578472137,-0.0716885477304459,-0.0101140197366476,-0.0287590511143208,-0.0094530563801527,-0.0203078351914883
636,-0.0491229519248009,-0.0763794779777527,-0.00988580379635096,-0.029052434489131,-0.0118933198973536,-0.0207365266978741
637,-0.0476327277719975,-0.080120638012886,-0.00825387611985207,-0.029218140989542,-0.0130993202328682,-0.0234854426234961
638,-0.0476760640740395,-0.0823740363121033,-0.0062283300794661,-0.0293704234063625,-0.0153561597689986,-0.0277804285287857
639,-0.0508741661906242,-0.0827085748314857,-0.00607353309169412,-0.029106218367815,-0.02046212926507,-0.0321924984455109
640,-0.056184645742178,-0.0811162441968918,-0.00884168036282063,-0.0285664387047291,-0.0270061437040567,-0.0352983474731445
641,-0.0600620470941067,-0.0775535777211189,-0.0124569199979305,-0.0274549722671509,-0.0320489294826984,-0.0355469584465027
642,-0.0608604177832603,-0.0728280991315842,-0.0150818256661296,-0.0264180842787027,-0.03465835750103,-0.0330164842307568
643,-0.0597638487815857,-0.068108394742012,-0.0160280000418425,-0.0259311255067587,-0.0365408658981323,-0.0287714619189501
644,-0.057749230414629,-0.0644926875829697,-0.0142255490645766,-0.0252057909965515,-0.0382856279611588,-0.0244522076100111
645,-0.0556251257658005,-0.0632530972361565,-0.0108251888304949,-0.0251081790775061,-0.0390922576189041,-0.0228311996906996
646,-0.0537336841225624,-0.0637381225824356,-0.00796195585280657,-0.0260439496487379,-0.0378690809011459,-0.024218812584877
647,-0.0517111606895924,-0.0637030676007271,-0.0056092282757163,-0.0260954350233078,-0.0341568998992443,-0.0264420080929995
648,-0.0498728714883327,-0.0617765225470066,-0.00370382983237505,-0.0241101793944836,-0.0297957230359316,-0.0280480477958918
649,-0.0482691004872322,-0.0580392256379128,-0.00307182781398296,-0.0210924260318279,-0.0259154923260212,-0.0283591616898775
650,-0.0462820492684841,-0.0537976175546646,-0.00358707387931645,-0.018968440592289,-0.0211752615869045,-0.027619257569313
651,-0.0434515103697777,-0.0502995401620865,-0.00368497776798904,-0.0177725050598383,-0.0153439780697227,-0.0260618198662996
652,-0.0397210568189621,-0.0479499101638794,-0.00201875250786543,-0.0159257240593433,-0.0101227583363652,-0.0237014535814524
653,-0.0355931706726551,-0.0458764024078846,0.00115307804662734,-0.0131057659164071,-0.00619474239647388,-0.021326407790184
654,-0.0320565402507782,-0.0425250120460987,0.0044195968657732,-0.0102853244170547,-0.0028149257414043,-0.0198115352541208
655,-0.0297196060419083,-0.0366425290703774,0.0064685414545238,-0.0075714155100286,0.000420128897530958,-0.0180410575121641
656,-0.0284135695546865,-0.0282272752374411,0.00730789685621858,-0.00388150033541024,0.00325518636964262,-0.0137833030894399
657,-0.028049036860466,-0.0196269936859608,0.00758350361138582,0.000599241291638464,0.00592670170590281,-0.00804354716092348
658,-0.0286361426115036,-0.0129224332049489,0.00770696578547359,0.00485486863180995,0.00892833899706602,-0.00295965489931405
659,-0.0299489460885525,-0.00843092799186707,0.00774252181872725,0.00813812669366598,0.0116842109709978,0.00120279786642641
660,-0.0317751504480839,-0.00677040033042431,0.00662047695368528,0.00868185330182314,0.0131128113716841,0.00305926543660462
661,-0.0326127633452415,-0.00781071465462446,0.00457776337862015,0.00598519900813699,0.0138647584244609,0.00162485695909709
662,-0.0304787829518318,-0.00986354053020477,0.00332238944247365,0.0020872144959867,0.0151133798062801,-0.000829904922284186
663,-0.0259379558265209,-0.011654662899673,0.00260222447104752,-0.00105389370582998,0.0156948268413544,-0.00146132346708328
664,-0.0213020034134388,-0.012724339030683,0.00185622065328062,-0.00218838779255748,0.0145262870937586,0.000228073884500191
665,-0.0189517810940742,-0.0142851872369647,0.000963569502346218,-0.00204982492141426,0.0122708445414901,0.00117642211262137
666,-0.0201077535748482,-0.0184677299112082,-0.000848894938826561,-0.00319712422788143,0.00972262118011713,-0.00196427968330681
667,-0.0234762169420719,-0.0247145760804415,-0.00243222806602716,-0.00524805625900626,0.0076873479411006,-0.00783230178058147
668,-0.0264205001294613,-0.0294164158403873,-0.00148883077781647,-0.00518087623640895,0.006684017367661,-0.0116710644215345
669,-0.0280565805733204,-0.0293976571410894,0.00100986659526825,-0.00289574987255037,0.00581848621368408,-0.0110556138679385
670,-0.0286160837858915,-0.0242978148162365,0.00251100235618651,-0.00122206914238632,0.00528002390637994,-0.00845540408045053
671,-0.0266263671219349,-0.015730245038867,0.00331460824236274,-0.00084808433894068,0.00732330279424787,-0.00648432364687324
672,-0.0213762931525707,-0.00641001760959625,0.00459902547299862,-0.000206388358492404,0.0110554918646812,-0.00473069213330746
673,-0.0150597002357244,0.000874261895660311,0.00533720524981618,0.000877897196915001,0.0126246325671673,-0.00246250629425049
674,-0.011617504991591,0.00338693452067673,0.00301748537458479,0.000212898696190678,0.00938564538955688,-0.00150426768232137
675,-0.0138384345918894,-0.000769091653637588,-0.00329514010809362,-0.00426525063812733,0.00131220172625035,-0.00508188549429178
676,-0.0192191433161497,-0.00871449615806341,-0.0105256289243698,-0.0109168905764818,-0.00797991082072258,-0.0123065551742911
677,-0.023014958947897,-0.015205237083137,-0.014880838803947,-0.0157100148499012,-0.0145920617505908,-0.0181778632104397
678,-0.0237972978502512,-0.0185227505862713,-0.0151072265580297,-0.0158245153725147,-0.017567727714777,-0.0191822983324528
679,-0.0232646334916353,-0.020566813647747,-0.0121204359456897,-0.0118375308811665,-0.017731349915266,-0.0166048631072044
680,-0.0231376457959414,-0.0225661601871252,-0.00858882814645767,-0.00671327253803611,-0.016158314421773,-0.0132575947791338
681,-0.0226836502552032,-0.0228164158761501,-0.00621065264567733,-0.00207150890491903,-0.0132132340222597,-0.00856038741767406
682,-0.0208717063069344,-0.0211312994360924,-0.00367837655358016,0.00185281212907285,-0.00919731706380844,-0.00177905091550201
683,-0.0182044375687838,-0.0197870880365372,-1.97000499611022E-05,0.00469506764784455,-0.00462421961128712,0.00658655446022749
684,-0.0155909582972527,-0.0191010199487209,0.00247863680124283,0.00617216853424907,-0.000406254694098607,0.0187137629836798
685,-0.0134663488715887,-0.0174559056758881,0.00243506440892816,0.00703697372227907,0.00271076196804643,0.0370705612003803
686,-0.0120926704257727,-0.0157109331339598,0.00325746042653918,0.00697453785687685,0.00477245775982738,0.0575961172580719
687,-0.011564064770937,-0.0159904211759567,0.00709792692214251,0.00411577709019184,0.00562405912205577,0.0741568207740784
688,-0.0101286899298429,-0.0159732755273581,0.0117704859003425,0.000558751984499395,0.00612199120223522,0.0880294293165207
689,-0.00637721130624413,-0.0125829298049212,0.0156728737056255,0.00017192774976138,0.00755579955875874,0.102669723331928
690,-0.00106136268004775,-0.00648546498268843,0.0188898239284754,0.00347901601344347,0.0098612867295742,0.118627399206162
691,0.0043489895761013,-0.000185169861651957,0.0214477330446243,0.00856774020940065,0.0123266968876123,0.135285198688507
692,0.00814249366521835,0.00335006858222187,0.0222777761518955,0.0122171081602573,0.0136861586943269,0.150025963783264
693,0.0103691881522536,0.00314567494206131,0.0208933539688587,0.0139229204505682,0.0142918210476637,0.160674974322319
694,0.0119673274457455,0.000436037458712235,0.01873429864645,0.0160035733133554,0.0169327855110168,0.167482927441597
695,0.0127870542928576,-0.00304585159756243,0.0181517582386732,0.0181972216814756,0.0218606162816286,0.171905815601349
696,0.012719807215035,-0.0058579882606864,0.0204638708382845,0.0191600695252419,0.0253861509263515,0.175429955124855
697,0.0121789434924722,-0.00747857009992003,0.0260299369692802,0.0200677011162043,0.0257587879896164,0.179368704557419
698,0.0129813365638256,-0.00741746602579951,0.0329618491232395,0.0217637568712235,0.0261521898210049,0.185229912400246
699,0.0168562456965446,-0.00537768797948956,0.0354852974414825,0.0235247332602739,0.0303730759769678,0.192991942167282
700,0.021991053596139,-0.00217110593803227,0.0331520028412342,0.0260980594903231,0.0380131751298904,0.201030075550079
701,0.0250428505241871,-0.000142760836752132,0.0304228197783232,0.0300990529358387,0.044195119291544,0.207253068685532
702,0.0240578390657902,-0.00276148552075028,0.0265139099210501,0.0326782539486885,0.043644480407238,0.208743989467621
703,0.01861472427845,-0.0115403663367033,0.019719410687685,0.0314877741038799,0.0359869860112667,0.204097956418991
704,0.0114418938755989,-0.0233081616461277,0.0125315543264151,0.0285355374217033,0.0268611125648022,0.197040587663651
705,0.0057876561768353,-0.0337208993732929,0.00726820388808846,0.0255980435758829,0.0212145540863276,0.192305669188499
706,0.00130714580882341,-0.0415540896356106,0.00315872835926712,0.0216660816222429,0.0183650963008404,0.190072521567345
707,-0.00305514456704259,-0.0478697195649147,-0.000724428275134414,0.016081677749753,0.0160687956959009,0.189522817730904
708,-0.00699175009503961,-0.0545695759356022,-0.00413573067635298,0.00930317211896181,0.0132157979533076,0.190972402691841
709,-0.010412965901196,-0.0622009411454201,-0.00846788659691811,0.00229659746401012,0.00861854199320078,0.193693444132805
710,-0.0129177663475275,-0.0688350424170494,-0.0146111017093062,-0.00263839238323271,0.00311314174905419,0.19703634083271
711,-0.0138529781252146,-0.0733237415552139,-0.0195813309401274,-0.00424144230782986,-0.000617922109086066,0.200821116566658
712,-0.0143143776804209,-0.0766657516360283,-0.0222812201827765,-0.00496084522455931,-0.002692561596632,0.204991430044174
713,-0.0150008909404278,-0.079312264919281,-0.0252571552991867,-0.00718297576531768,-0.00438629649579525,0.210577830672264
714,-0.0148171475157142,-0.081485815346241,-0.0282374750822783,-0.00981014687567949,-0.00565454922616482,0.217969238758087
715,-0.013575273565948,-0.0840155035257339,-0.0287284944206476,-0.0102727618068457,-0.00681753922253847,0.225797787308693
716,-0.0125992530956864,-0.0872411578893662,-0.0259845331311226,-0.00800384767353535,-0.00796708185225725,0.231681704521179
717,-0.0132183255627751,-0.0915964618325233,-0.0212126728147268,-0.00536220660433173,-0.00848099403083324,0.233152940869331
718,-0.0149342557415366,-0.0962267816066742,-0.0165990944951773,-0.00421415083110332,-0.00793684832751751,0.231175348162651
719,-0.0155259519815445,-0.0987349674105644,-0.0134302591904998,-0.0040574069134891,-0.00594662362709641,0.230275973677635
720,-0.0137609830126166,-0.0984253883361816,-0.012197183445096,-0.00499586248770356,-0.00271137314848602,0.233350038528442
721,-0.0110800033435225,-0.0966070145368576,-0.0136658893898129,-0.00705011654645205,-0.000865832262206823,0.240079864859581
722,-0.00872065313160419,-0.0940591171383858,-0.0167548898607492,-0.00774660147726536,-0.00232354272156954,0.24853652715683
723,-0.00649028643965721,-0.0910363420844078,-0.0195007640868425,-0.0058396621607244,-0.00544442608952522,0.256140828132629
724,-0.00504899024963379,-0.089100606739521,-0.0208119079470634,-0.00287454621866345,-0.0080141294747591,0.261648118495941
725,-0.00427218759432435,-0.0894963890314102,-0.0196114033460617,-0.000370883994037285,-0.00863665714859962,0.265346825122833
726,-0.00223958864808083,-0.0907890275120735,-0.0166950281709433,0.000490108854137361,-0.00643929792568088,0.268070608377457
727,0.00137357006315142,-0.0910125374794006,-0.0151301193982363,-0.000687919266056269,-0.00218333187513053,0.272047400474548
728,0.0037792338989675,-0.090505562722683,-0.0183556359261274,-0.00227892282418907,0.000938515120651573,0.279760390520096
729,0.00152603629976511,-0.0921356305480003,-0.0257826782763004,-0.00314371474087238,-0.000659139361232519,0.288598775863647
730,-0.00490965880453587,-0.0979858115315437,-0.0315327867865562,-0.00465339096263051,-0.00675630196928978,0.291756838560104
731,-0.0105607770383358,-0.105067543685436,-0.0326601974666119,-0.00701105641201139,-0.0134510258212686,0.288308948278427
732,-0.0124205779284239,-0.109203420579433,-0.0315291956067085,-0.00871685054153204,-0.0184342581778765,0.283439338207245
733,-0.0123114250600338,-0.110380314290524,-0.0302957072854042,-0.00965770613402128,-0.0226567890495062,0.281300902366638
734,-0.0120825599879026,-0.110573053359985,-0.0292988959699869,-0.0108950231224298,-0.0260911304503679,0.283362030982971
735,-0.0101832514628768,-0.110084474086761,-0.0270358696579933,-0.0122567769140005,-0.0257576927542686,0.289534091949463
736,-0.0054892972111702,-0.10805906355381,-0.0220640413463116,-0.0118762226775289,-0.0214544124901295,0.299176186323166
737,0.000364697305485606,-0.105650499463081,-0.0163913033902645,-0.0100178336724639,-0.0165460668504238,0.309620290994644
738,0.00675833784043789,-0.104480341076851,-0.0124070392921567,-0.00782754551619291,-0.0115123931318522,0.318318217992783
739,0.0129875252023339,-0.104227028787136,-0.00993587076663971,-0.00425793277099729,-0.00654410384595394,0.326700776815414
740,0.0163324996829033,-0.103794746100903,-0.00890412554144859,0.00105441024061292,-0.00486958865076303,0.338310897350311
741,0.0156196262687445,-0.102096542716026,-0.00946497265249491,0.00684060947969556,-0.00769923068583012,0.354293644428253
742,0.0125689692795277,-0.0989121198654175,-0.0106155425310135,0.0116497594863176,-0.0118526760488749,0.370708525180817
743,0.0102684712037444,-0.0948533266782761,-0.0106583274900913,0.0146106099709868,-0.0129744112491608,0.381991803646088
744,0.00982549693435431,-0.0904371067881584,-0.0099253561347723,0.0161866545677185,-0.0105899116024375,0.386589050292969
745,0.00938569474965334,-0.0854708701372147,-0.0130113381892443,0.0179379004985094,-0.00790095329284668,0.387845277786255
746,0.00772862695157528,-0.0808946937322617,-0.0202393103390932,0.0193872805684805,-0.00744148762896657,0.388217598199844
747,0.00580838741734624,-0.079333484172821,-0.022926926612854,0.0185665171593428,-0.00927326735109091,0.385746777057648
748,0.00587360374629498,-0.0814438462257385,-0.0168902929872274,0.0161602832376957,-0.00949645321816206,0.378647178411484
749,0.00871271453797817,-0.0864131674170494,-0.0078368354588747,0.0133839109912515,-0.00409010425209999,0.367661893367767
750,0.0125894546508789,-0.0936899185180664,-0.000737947411835194,0.0106075666844845,0.00473245186731219,0.355516344308853
751,0.0159269366413355,-0.101946294307709,0.00443398300558329,0.00852509588003159,0.011737254448235,0.345198571681976
752,0.0174649488180876,-0.109230503439903,0.0077825584448874,0.00688106473535299,0.0136030111461878,0.33741283416748
753,0.0161184072494507,-0.114093489944935,0.00777805270627141,0.0053123221732676,0.00933609437197447,0.331432372331619
754,0.0130971232429147,-0.116744555532932,0.00484200939536095,0.0042545017786324,0.00204254593700171,0.325676441192627
755,0.0110606355592608,-0.118364550173283,0.0010872520506382,0.0036680696066469,-0.00280777551233768,0.317983090877533
756,0.0112052019685507,-0.118764117360115,-0.00292825442738831,0.00337500078603625,-0.0037924675270915,0.308133602142334
757,0.0121446587145329,-0.11736673116684,-0.00779341254383326,0.00318224285729229,-0.00428806571289897,0.297503054141998
758,0.0120284929871559,-0.115686327219009,-0.0139444535598159,0.00134013791102916,-0.00653279246762395,0.285290241241455
759,0.0113223260268569,-0.115005634725094,-0.0205355025827885,-0.00307315145619214,-0.00872473232448101,0.270107626914978
760,0.0120752062648535,-0.114118367433548,-0.0247431304305792,-0.00715192547068,-0.00811009854078293,0.255165785551071
761,0.0146415941417217,-0.112495079636574,-0.0250514447689056,-0.00783862452954054,-0.00513456761837006,0.244554758071899
762,0.0169853903353214,-0.112078353762627,-0.0236287731677294,-0.00537652662023902,-0.00274668424390256,0.237509623169899
763,0.0173946656286716,-0.114586047828197,-0.02312939055264,-0.00128584075719118,-0.00240987120196223,0.232387587428093
764,0.0162742398679256,-0.11876618117094,-0.023560905829072,0.00452483119443059,-0.00357349612750113,0.231423735618591
765,0.0156851150095463,-0.121341437101364,-0.023064261302352,0.0134984515607357,-0.00400881702080369,0.238111257553101
766,0.0167121440172195,-0.121027067303658,-0.0194208528846502,0.0266800671815872,-0.00212094164453447,0.252121448516846
767,0.0183371808379889,-0.118794910609722,-0.0117391869425774,0.0435352846980095,0.000128215528093278,0.269261956214905
768,0.0190509092062712,-0.116483941674232,-0.00296759512275457,0.0596133731305599,0.000710898835677654,0.283256202936172
769,0.0195803716778755,-0.115690924227238,0.00294860685244203,0.0688608512282372,0.00141441263258457,0.287779957056046
770,0.0229105167090893,-0.116290755569935,0.00445379363372922,0.068768098950386,0.00472884299233556,0.280375093221664
771,0.029677564278245,-0.117634579539299,0.000873356242664158,0.0612763874232769,0.00986635126173496,0.264109164476395
772,0.0369149595499039,-0.119657710194588,-0.00642574392259121,0.0514823235571384,0.0149315288290381,0.245357200503349
773,0.0417695045471191,-0.122355252504349,-0.0130916675552726,0.0440817773342133,0.0199314560741186,0.228454068303108
774,0.0440131947398186,-0.124989278614521,-0.0158902332186699,0.0404134355485439,0.025634465739131,0.213224962353706
775,0.0454952418804169,-0.126448422670364,-0.0143943009898067,0.0402029566466808,0.0320166982710361,0.199617519974709
776,0.0481811799108982,-0.126318201422691,-0.00889614596962929,0.0440074130892754,0.0388965308666229,0.190261125564575
777,0.0514070130884647,-0.125983700156212,-0.000215003281482495,0.0520195029675961,0.045783381909132,0.186301931738853
778,0.0529342256486416,-0.127102121710777,0.0098072262480855,0.0624903440475464,0.0518142953515053,0.186026364564896
779,0.0517647378146648,-0.129790037870407,0.0174868777394295,0.07195033878088,0.0550410188734531,0.186719954013824
780,0.0484589822590351,-0.133548557758331,0.0194251146167517,0.0777484178543091,0.0534047596156597,0.186071917414665
781,0.0467881560325623,-0.135896682739258,0.017684169113636,0.0811748877167702,0.0505076944828033,0.185042813420296
782,0.0505598895251751,-0.133253961801529,0.017447816208005,0.0853607952594757,0.0521907582879066,0.186649322509766
783,0.0582296401262283,-0.125491291284561,0.0201895404607058,0.0906514376401901,0.0580098517239094,0.18988598883152
784,0.0654347315430641,-0.115526840090752,0.0231841038912535,0.0952327251434326,0.0633021965622902,0.191764637827873
785,0.0683729723095894,-0.107475854456425,0.0239193569868803,0.0974939242005348,0.0641480684280396,0.192016169428825
786,0.0664266124367714,-0.104754015803337,0.0231181122362614,0.0970966368913651,0.0606861338019371,0.190553590655327
787,0.0634831935167313,-0.10611467063427,0.0234468448907137,0.0964957699179649,0.0571916885674,0.18748539686203
788,0.0625928193330765,-0.107395499944687,0.0258584041148424,0.0986816436052322,0.0560158118605614,0.184923753142357
789,0.0628945901989937,-0.106819503009319,0.0282957684248686,0.102844066917896,0.0558740235865116,0.183848515152931
790,0.0625753700733185,-0.105942122638226,0.0289517100900412,0.104718558490276,0.0565173253417015,0.181236043572426
791,0.0613538213074207,-0.106391690671444,0.0284176860004663,0.101631909608841,0.0581146813929081,0.174258142709732
792,0.0598350130021572,-0.107513606548309,0.027073360979557,0.0954185575246811,0.0579016320407391,0.164312094449997
793,0.0573961511254311,-0.108838684856892,0.0238428562879562,0.089051328599453,0.0535964630544186,0.153248146176338
794,0.053538553416729,-0.110627479851246,0.0186171215027571,0.0837261900305748,0.0469469241797924,0.141858801245689
795,0.049007136374712,-0.112734161317348,0.0124916397035122,0.079137921333313,0.0411368645727634,0.131225526332855
796,0.044375941157341,-0.115154348313808,0.00657879887148738,0.0749412551522255,0.0374232418835163,0.121866770088673
797,0.0396080650389194,-0.117418311536312,0.00184696028009057,0.0722190216183662,0.0339650735259056,0.115089982748032
798,0.0341494828462601,-0.119253426790237,-0.00169939466286451,0.0715304836630821,0.0281106755137444,0.112617373466492
799,0.0300074126571417,-0.119820490479469,-0.00298566976562142,0.0727913454174995,0.0217921920120716,0.114053405821323
800,0.0320222936570644,-0.118005685508251,0.000328423804603517,0.0761207938194275,0.0211849305778742,0.116727031767368
801,0.0409856475889683,-0.114471033215523,0.00771439168602228,0.0807610005140305,0.0277851391583681,0.118574604392052
802,0.0516982972621918,-0.110019259154797,0.0157071053981781,0.086074486374855,0.0355062671005726,0.120423384010792
803,0.0598330721259117,-0.105240926146507,0.0219241455197334,0.091933935880661,0.040624625980854,0.122783586382866
804,0.0652313753962517,-0.101113080978394,0.0265882071107626,0.098113439977169,0.0452112145721912,0.123913861811161
805,0.0677797719836235,-0.0982294231653214,0.0297627616673708,0.103666841983795,0.0491109229624271,0.122223325073719
806,0.0664297938346863,-0.0968760624527931,0.0299985520541668,0.106952235102654,0.0496847629547119,0.118038803339005
807,0.0624729283154011,-0.0967045798897743,0.0269695408642292,0.107575044035912,0.0467913076281548,0.112815663218498
808,0.058922290802002,-0.097159318625927,0.0227681882679462,0.106906093657017,0.0419780276715755,0.107224389910698
809,0.0569907464087009,-0.0986453220248222,0.0193280708044767,0.105667389929295,0.0365928038954735,0.100731700658798
810,0.0558460019528866,-0.100941188633442,0.016839636489749,0.103232927620411,0.0318912379443645,0.0929197743535042
811,0.0546143166720867,-0.102619469165802,0.0148579301312566,0.0995800271630287,0.0290411673486233,0.084902785718441
812,0.0529341287910938,-0.102473057806492,0.0134355435147882,0.096100814640522,0.0284331683069468,0.0790431648492813
813,0.0515850894153118,-0.0995871350169182,0.0136682037264109,0.0944243744015694,0.0303240455687046,0.0771456807851791
814,0.0519054681062698,-0.0940291732549667,0.015528223477304,0.094068169593811,0.0352883785963058,0.0789594799280167
815,0.0535552799701691,-0.0866016671061516,0.016109760850668,0.0931908935308456,0.0419212244451046,0.0834521651268005
816,0.0552174337208271,-0.078720822930336,0.0148234143853188,0.0917131304740906,0.0477717705070972,0.088896207511425
817,0.0571608804166317,-0.0725590363144875,0.0163165610283613,0.0914105847477913,0.0529425702989101,0.0924677774310112
818,0.0590896941721439,-0.0693006590008736,0.0223537366837263,0.09221600741148,0.0569297932088375,0.0927425399422646
819,0.0589620433747768,-0.0682392492890358,0.0295252334326506,0.0921134501695633,0.0573130957782269,0.0914576500654221
820,0.0566699877381325,-0.0674725323915482,0.0358211435377598,0.0914413779973984,0.0543539337813854,0.0922164469957352
821,0.0528253950178623,-0.0666257590055466,0.0396651066839695,0.0905930548906326,0.0497192814946175,0.0965498760342598
822,0.0478321649134159,-0.0667086243629456,0.0392402298748493,0.0881951525807381,0.0448896959424019,0.104171492159367
823,0.043982345610857,-0.0674174576997757,0.0358503460884094,0.0840581953525543,0.0424251332879066,0.115003444254398
824,0.0422801002860069,-0.0682998597621918,0.0312109235674143,0.0784026458859444,0.0423820167779922,0.126901209354401
825,0.0400308333337307,-0.0701669305562973,0.0243879891932011,0.0707482099533081,0.0404784455895424,0.136540740728378
826,0.0352571457624435,-0.0741814076900482,0.0150554943829775,0.0611214376986027,0.0347965620458126,0.142740085721016
827,0.0296829137951136,-0.0791401639580727,0.00668646721169353,0.0517448708415031,0.0291125904768705,0.147421211004257
828,0.0256390813738108,-0.0813200250267982,0.00333524914458394,0.0469125658273697,0.027231402695179,0.155278727412224
829,0.0233173035085201,-0.0799944028258324,0.00414061406627297,0.0476724468171597,0.0290309954434633,0.168818697333336
830,0.0213447343558073,-0.0793250948190689,0.00448641926050186,0.0492116175591946,0.031722865998745,0.185277178883553
831,0.0184658542275429,-0.0837712362408638,0.00206084013916552,0.0469439849257469,0.0331723690032959,0.200512990355492
832,0.0143071711063385,-0.0935846418142319,-0.00173103518318385,0.0411770530045033,0.0335732288658619,0.213097482919693
833,0.0096984226256609,-0.104020662605762,-0.00498542794957757,0.0354636833071709,0.0332418084144592,0.226594239473343
834,0.0064155631698668,-0.110276132822037,-0.00751854991540313,0.0326378382742405,0.0313615687191486,0.246534302830696
835,0.0049778507091105,-0.11268375068903,-0.00917480885982513,0.0327453687787056,0.0276661850512028,0.273872196674347
836,0.0038793277926743,-0.113370418548584,-0.00872269086539745,0.0343764610588551,0.0220981631428003,0.306688845157623
837,0.00189791491720825,-0.111857771873474,-0.00650388840585947,0.0358494780957699,0.0148138366639614,0.343747228384018
838,3.02160151477437E-05,-0.108368195593357,-0.0034539510961622,0.0360510013997555,0.00930531788617373,0.381276249885559
839,-9.74038412095979E-05,-0.105205528438091,0.000361660437192768,0.0352443493902683,0.0100480802357197,0.415171593427658
840,0.000813737045973539,-0.104005455970764,0.00358424452133477,0.0334106236696243,0.0157632175832987,0.444699883460999
841,0.00108548300340772,-0.104961171746254,0.00497910799458623,0.0299459677189589,0.0216765906661749,0.470131933689117
842,0.000150426261825487,-0.10737968236208,0.00425314577296376,0.0251695066690445,0.0250979755073786,0.491694271564484
843,-0.00221846322529018,-0.1109334602952,0.000857746752444655,0.0197296850383282,0.0248401556164026,0.5
844,-0.00573650002479553,-0.114586032927036,-0.00387540808878839,0.0147648910060525,0.021270802244544,0.5
845,-0.00995718408375978,-0.11662369966507,-0.00723269581794739,0.011816362850368,0.0161316897720099,0.5
846,-0.0143232690170407,-0.117323413491249,-0.00790673308074474,0.0106029948219657,0.0113277342170477,0.5
847,-0.0174153260886669,-0.11680880934,-0.00609597330912948,0.0100259222090244,0.00811001192778349,0.5
848,-0.0194549914449453,-0.113409519195557,-0.00443155551329255,0.00932988710701466,0.00391199253499508,0.5
849,-0.0217512231320143,-0.106516316533089,-0.00566015020012856,0.00764568150043488,-0.00380866532213986,0.5
850,-0.0240448489785194,-0.0981348752975464,-0.00892860721796751,0.00517730601131916,-0.0118989078328013,0.472174257040024
851,-0.0264604371041059,-0.0919836312532425,-0.0125062046572566,0.00270354421809316,-0.0168513897806406,0.436298787593842
852,-0.0292716939002275,-0.0916221365332603,-0.0151901356875896,0.000457314483355731,-0.0178320184350014,0.399081200361252
853,-0.0318190045654774,-0.0983750820159912,-0.0153329614549875,-0.00149421591777354,-0.0148237869143486,0.364204615354538
854,-0.033582616597414,-0.11023160815239,-0.0117401517927647,-0.00231030466966331,-0.00980308838188648,0.334418594837189
855,-0.033457949757576,-0.124332591891289,-0.00478101382032037,-0.00155624886974692,-0.00448593916371465,0.310195773839951
856,-0.0309208761900663,-0.139199152588844,0.00318365800194442,-0.000589747680351138,0.000799329718574882,0.290118783712387
857,-0.0278054755181074,-0.152354195713997,0.00951305311173201,-0.000679541262798011,0.00409386958926916,0.274875313043594
858,-0.0262321941554546,-0.159911692142487,0.0121515821665525,-0.00268684071488678,0.00391481025144458,0.267968475818634
859,-0.0271977633237839,-0.160553053021431,0.0100460788235068,-0.00702669518068433,0.000916721357498318,0.270646274089813
860,-0.030465092509985,-0.15680342912674,0.00539209973067045,-0.0121258068829775,-0.0033478494733572,0.278632283210754
861,-0.0344274900853634,-0.152122989296913,0.00118125649169087,-0.0165702793747187,-0.00676263915374875,0.286370635032654
862,-0.0384937115013599,-0.148651003837585,-0.00314996321685612,-0.021061934530735,-0.00953500531613827,0.292192310094833
863,-0.0425602607429028,-0.146244302392006,-0.00785686168819666,-0.025418683886528,-0.0124385878443718,0.298878908157349
864,-0.0444204658269882,-0.143683165311813,-0.0098764980211854,-0.0282063186168671,-0.0130020026117563,0.310394495725632
865,-0.0430605411529541,-0.141783520579338,-0.00807725731283426,-0.0297952312976122,-0.0105485478416085,0.32690367102623
866,-0.0404200479388237,-0.141609281301498,-0.00502012949436903,-0.0320020541548729,-0.00826876610517502,0.344487428665161
867,-0.0381028987467289,-0.141733929514885,-0.00299582071602345,-0.0358325205743313,-0.00772605510428548,0.358655005693436
868,-0.0362425595521927,-0.140557780861855,-0.00188200653064996,-0.0398437529802322,-0.00748836807906628,0.368291467428207
869,-0.0343287512660027,-0.137389570474625,-0.000314703240292147,-0.0417890176177025,-0.00603790068998933,0.37622407078743
870,-0.0316930934786797,-0.131524920463562,0.00272363051772118,-0.0412571504712105,-0.00308002717792988,0.385306715965271
871,-0.0281145703047514,-0.124104045331478,0.00783249549567699,-0.0385794937610626,0.00162273121532053,0.395904630422592
872,-0.0250161085277796,-0.119589939713478,0.0145422676578164,-0.035143181681633,0.00836880598217249,0.404961824417114
873,-0.0242093894630671,-0.120382085442543,0.0219183545559645,-0.0326728522777557,0.0167636461555958,0.41050198674202
874,-0.0250378847122192,-0.123043179512024,0.0299990251660347,-0.0303597282618284,0.0260171871632338,0.417250663042068
875,-0.026632621884346,-0.12398711591959,0.0365805961191654,-0.0282415132969618,0.0329124368727207,0.432522684335709
876,-0.0294958390295506,-0.123000167310238,0.0367989130318165,-0.0293052773922682,0.032856673002243,0.458224385976791
877,-0.0327845215797424,-0.12032350897789,0.0291356202214956,-0.0351384244859219,0.0255527067929506,0.4890958070755
878,-0.035301685333252,-0.114577397704124,0.0169933680444956,-0.0435447916388512,0.0142913414165378,0.5
879,-0.0372832715511322,-0.105187870562077,0.00556567264720798,-0.0506854467093945,0.00205093761906028,0.5
880,-0.0394989661872387,-0.094838909804821,-0.000940892205107957,-0.0542210936546326,-0.00900639314204454,0.5
881,-0.0426064357161522,-0.0864232257008553,-0.00137146818451583,-0.053304385393858,-0.0176488198339939,0.5
882,-0.0459747202694416,-0.0797572657465935,0.00278579955920577,-0.047744233161211,-0.0229552015662193,0.5
883,-0.0476082637906075,-0.0734303146600723,0.00931015610694885,-0.0392523109912872,-0.0237238891422749,0.5
884,-0.0460297390818596,-0.0670402050018311,0.0167073663324118,-0.0309635512530804,-0.0196403097361326,0.5
885,-0.0414905101060867,-0.0608473233878613,0.0240911040455103,-0.0253169629722834,-0.0120266154408455,0.5
886,-0.0358040742576122,-0.0552135854959488,0.0297699514776468,-0.0230096392333508,-0.00338642438873649,0.5
887,-0.0309603177011013,-0.0512667261064053,0.032233502715826,-0.0235775262117386,0.00419702427461743,0.5
888,-0.0275397058576345,-0.0509715192019939,0.0323202945291996,-0.0266714375466108,0.0104162832722068,0.5
889,-0.0253231097012758,-0.0539817549288273,0.0317795611917973,-0.0313321687281132,0.0147548606619239,0.5
890,-0.0244999397546053,-0.0569542981684208,0.0308952536433935,-0.0353358313441277,0.0156541541218758,0.5
891,-0.025651428848505,-0.0575632452964783,0.0290985722094774,-0.037286251783371,0.0123487086966634,0.5
892,-0.0292413886636496,-0.0562739111483097,0.0264051612466574,-0.0371917821466923,0.0054890988394618,0.5
893,-0.0338560454547405,-0.0547806173563004,0.023334763944149,-0.0355015508830547,-0.00184569286648184,0.496387183666229
894,-0.0365917980670929,-0.0543333254754543,0.0205822438001633,-0.0330177024006844,-0.00622560270130634,0.483918905258179
895,-0.0365367643535137,-0.0557543970644474,0.0186461098492146,-0.0307670217007399,-0.00813447404652834,0.470199227333069
896,-0.0354859903454781,-0.0600836873054504,0.0165317989885807,-0.0305835325270891,-0.0102521227672696,0.454403519630432
897,-0.0352731756865978,-0.0669423192739487,0.0127417463809252,-0.0332580022513866,-0.0135001838207245,0.436687231063843
898,-0.0356986671686172,-0.0742563456296921,0.00750225456431508,-0.0372017994523048,-0.0165686011314392,0.420217961072922
899,-0.0353568680584431,-0.0812247395515442,0.00230746087618172,-0.0412341095507145,-0.0170515719801188,0.405714005231857
900,-0.0338137969374657,-0.0882239639759064,-0.00140899000689387,-0.0448811762034893,-0.0140356728807092,0.392096012830734
901,-0.0315281711518765,-0.0942756682634354,-0.00313216145150363,-0.0473395511507988,-0.00942101143300533,0.380650132894516
902,-0.029064143076539,-0.0981443375349045,-0.00366051844321191,-0.0487674325704575,-0.00556450802832842,0.372385025024414
903,-0.0271192528307438,-0.100258894264698,-0.00462518632411957,-0.049835953861475,-0.00376512273214757,0.366956502199173
904,-0.0265348572283983,-0.101732969284058,-0.00809495989233255,-0.050166692584753,-0.00481643527746201,0.364777058362961
905,-0.0274812877178192,-0.104274235665798,-0.0135744791477919,-0.0498499721288681,-0.00696555571630597,0.36463075876236
906,-0.0290941316634417,-0.110251419246197,-0.0163466706871986,-0.0509591437876225,-0.00674600293859839,0.361948996782303
907,-0.0309091992676258,-0.119319669902325,-0.0142232086509466,-0.0541735701262951,-0.00457328604534268,0.354350954294205
908,-0.0328013524413109,-0.128185540437698,-0.010810206644237,-0.0570573918521404,-0.00358377839438617,0.344610810279846
909,-0.0339882150292397,-0.134701728820801,-0.00927979126572609,-0.0581495985388756,-0.00493780570104718,0.336009949445724
910,-0.0337825268507004,-0.13822278380394,-0.00902231782674789,-0.0579317547380924,-0.00688165845349431,0.3291255235672
911,-0.0324994884431362,-0.138237342238426,-0.00841503124684095,-0.0567320808768272,-0.00662279361858964,0.322686195373535
912,-0.0314590856432915,-0.136185050010681,-0.00700257159769535,-0.0550415851175785,-0.00401020143181086,0.314878880977631
913,-0.0326845459640026,-0.135506212711334,-0.00619617383927107,-0.0543297305703163,-0.00333010079339147,0.304872244596481
914,-0.0359371304512024,-0.136326134204865,-0.00781396217644215,-0.0553985349833965,-0.00751084461808205,0.294331043958664
915,-0.037083063274622,-0.136224046349525,-0.0107378466054797,-0.0572153963148594,-0.0117957200855017,0.284443855285645
916,-0.0338909849524498,-0.136689990758896,-0.0127029456198215,-0.0590212047100067,-0.0104132751002908,0.273163944482803
917,-0.0295311287045479,-0.141300618648529,-0.0141080524772406,-0.0607383474707603,-0.00565151125192642,0.261175960302353
918,-0.0283161327242851,-0.151057824492455,-0.0170784071087837,-0.0618987493216991,-0.00445541320368648,0.254497498273849
919,-0.031286433339119,-0.164636373519897,-0.0215314943343401,-0.0622799061238766,-0.00948595255613327,0.25596034526825
920,-0.0357202105224133,-0.179331436753273,-0.0252059679478407,-0.0621551908552647,-0.0168769434094429,0.261902093887329
921,-0.039050031453371,-0.192717492580414,-0.0278290845453739,-0.062367033213377,-0.0224165003746748,0.268286615610123
922,-0.0409620553255081,-0.203676342964172,-0.0292619448155165,-0.0631227120757103,-0.0255614798516035,0.27587303519249
923,-0.0412067994475365,-0.210329592227936,-0.0279389340430498,-0.0632181987166405,-0.0276407804340124,0.289630115032196
924,-0.040936566889286,-0.211703106760979,-0.0259052142500877,-0.0636414885520935,-0.0313692763447762,0.3106549680233
925,-0.0433452799916267,-0.210343107581139,-0.0268128272145987,-0.0668546557426453,-0.0386209711432457,0.334120124578476
926,-0.048686221241951,-0.208764314651489,-0.029556455090642,-0.071907751262188,-0.0462489537894726,0.358745485544205
927,-0.0534556657075882,-0.206521674990654,-0.0306291338056326,-0.0764256790280342,-0.0492666214704514,0.388324975967407
928,-0.0546775199472904,-0.201610758900642,-0.0282604694366455,-0.0787301436066628,-0.0471086651086807,0.425349652767181
929,-0.0521733164787292,-0.193371072411537,-0.02247947268188,-0.076935388147831,-0.0429488681256771,0.467961728572845
930,-0.0475097522139549,-0.182924285531044,-0.0146667202934623,-0.0710924863815308,-0.039067517966032,0.5
931,-0.0418501645326614,-0.17129248380661,-0.00626252731308341,-0.063399039208889,-0.0353234000504017,0.5
932,-0.0360758267343044,-0.160657778382301,0.0011956401867792,-0.05678865686059,-0.0311295483261347,0.5
933,-0.0319459773600101,-0.154290273785591,0.00569454021751881,-0.053735438734293,-0.0281067006289959,0.5
934,-0.0302749518305063,-0.153141736984253,0.00752465426921844,-0.0533977337181568,-0.0283853635191917,0.5
935,-0.0294865667819977,-0.155431270599365,0.00865015387535095,-0.0536011159420013,-0.0310433432459831,0.5
936,-0.0280861239880323,-0.157665848731995,0.0100818201899529,-0.0539603494107723,-0.0336130782961845,0.5
937,-0.0259621627628803,-0.156297266483307,0.0125969378277659,-0.0539412088692188,-0.034301295876503,0.5
938,-0.0233494769781828,-0.150874808430672,0.0167441107332706,-0.0521685108542442,-0.0325032025575638,0.5
939,-0.0212098937481642,-0.143463224172592,0.0212242752313614,-0.0485668480396271,-0.0304390136152506,0.5
940,-0.0202943328768015,-0.135734081268311,0.0239163115620613,-0.044421199709177,-0.0312180928885937,0.5
941,-0.0192431584000587,-0.129904508590698,0.024869330227375,-0.0405664145946503,-0.0340149290859699,0.5
942,-0.0168072916567326,-0.128980591893196,0.0250047966837883,-0.0378748364746571,-0.0356148891150951,0.5
943,-0.0130609571933746,-0.132234945893288,0.024616152048111,-0.0365805551409721,-0.0344365984201431,0.49671334028244
944,-0.00863316003233194,-0.135527655482292,0.024555591866374,-0.0354039184749126,-0.0306133050471544,0.476581662893295
945,-0.00461284630000591,-0.136290460824966,0.0261774752289057,-0.0336637645959854,-0.0246975813060999,0.458303600549698
946,-0.00143604492768645,-0.133309528231621,0.0294019654393196,-0.0315256491303444,-0.0178814921528101,0.442616671323776
947,0.000584936758968979,-0.125912606716156,0.0317667499184608,-0.0296229161322117,-0.0121387792751193,0.42836457490921
948,0.000858456012792885,-0.116063982248306,0.0312357433140278,-0.0292203314602375,-0.00876495242118835,0.411964029073715
949,0.000326900568325073,-0.107053004205227,0.0284968428313732,-0.030354330316186,-0.00728868180885911,0.391390532255173
950,0.000438358023529872,-0.100381717085838,0.0254367869347334,-0.0314579047262669,-0.00595570309087634,0.368716180324554
951,4.16803013649769E-05,-0.0968650728464127,0.0226597264409065,-0.0317723602056503,-0.00492840725928545,0.346820026636124
952,-0.00270131509751081,-0.0977870747447014,0.0199786927551031,-0.0318852365016937,-0.0060782115906477,0.325694859027863
953,-0.00659786770120263,-0.102466575801373,0.0178165920078754,-0.032143596559763,-0.008920275606215,0.303069770336151
954,-0.00915146805346012,-0.108063317835331,0.0158235486596823,-0.0323155634105206,-0.0118322689086199,0.278898686170578
955,-0.0103587992489338,-0.113658852875233,0.0130791375413537,-0.0323349311947823,-0.0148767214268446,0.2553730905056
956,-0.011976026929915,-0.121559262275696,0.0101340403780341,-0.0323814824223518,-0.0190768335014582,0.233662292361259
957,-0.0148289473727345,-0.1334278434515,0.00729138171300292,-0.0329922288656235,-0.0248589403927326,0.214389443397522
958,-0.0186971873044968,-0.147988811135292,0.00429989537224174,-0.0345196463167667,-0.0303970873355865,0.197539269924164
959,-0.0227580610662699,-0.162045672535896,0.00241025420837104,-0.036009892821312,-0.0331199169158936,0.182070761919022
960,-0.0260207746177912,-0.17288638651371,0.00256813666783273,-0.0361160822212696,-0.0334295853972435,0.167440176010132
961,-0.0281001422554255,-0.18016354739666,0.00356860365718603,-0.0348572842776775,-0.0336904004216194,0.152983531355858
962,-0.029222596436739,-0.183404624462128,0.00334648392163217,-0.0336038395762444,-0.0349588617682457,0.137590691447258
963,-0.0302562676370144,-0.179960787296295,0.00051798956701532,-0.0341706164181232,-0.0373514071106911,0.121955737471581
964,-0.0321732200682163,-0.169119730591774,-0.00413991324603558,-0.0369475670158863,-0.04042873904109,0.108545072376728
965,-0.0356937013566494,-0.15545055270195,-0.00829846039414406,-0.0406170189380646,-0.0432522110641003,0.0969750955700874
966,-0.0408274158835411,-0.143550097942352,-0.0112606110051274,-0.0447667725384235,-0.0456846505403519,0.0838163867592812
967,-0.0459520108997822,-0.133551701903343,-0.013637512922287,-0.0494937188923359,-0.0478784739971161,0.0685235932469368
968,-0.04934136942029,-0.125321000814438,-0.0145810460671782,-0.0535411350429058,-0.0488334894180298,0.0531974099576473
969,-0.0502134747803211,-0.120161466300488,-0.0123417703434825,-0.0551510564982891,-0.0455133356153965,0.0387154296040535
970,-0.0486419461667538,-0.117432296276093,-0.00732446042820811,-0.0534022152423859,-0.0370498858392239,0.0257017761468887
971,-0.0462654456496239,-0.115611642599106,-0.00259141670539975,-0.0494758002460003,-0.0279246456921101,0.0147859305143356
972,-0.0446266978979111,-0.114412389695644,-6.29065034445375E-05,-0.0451933331787586,-0.021655011922121,0.0048439921811223
973,-0.04283157736063,-0.113135740160942,0.00155965343583375,-0.0405417680740356,-0.016899099573493,-0.00662454729899764
974,-0.0398577004671097,-0.111109465360641,0.00287971994839609,-0.0360294841229916,-0.0126429982483387,-0.0216978676617146
975,-0.0365230292081833,-0.108590334653854,0.00271087349392474,-0.0327739231288433,-0.0104830432683229,-0.0401556901633739
976,-0.03336426243186,-0.105346508324146,0.00200134352780879,-0.029980406165123,-0.0108096385374665,-0.0607606768608093
977,-0.0302735269069672,-0.10088587552309,0.00310297007672489,-0.0268307533115149,-0.012044602073729,-0.0836742296814919
978,-0.0276535898447037,-0.0959070399403572,0.00623799441382289,-0.0245004333555698,-0.0127746509388089,-0.109535522758961
979,-0.0258494019508362,-0.0921481922268867,0.00933226197957993,-0.0248910672962666,-0.0120913041755557,-0.138242959976196
980,-0.0241375975310802,-0.0903210937976837,0.0105932801961899,-0.0278667621314526,-0.00885333400219679,-0.168596461415291
981,-0.0211442857980728,-0.0887385010719299,0.0106390602886677,-0.0306569039821625,-0.00360808474943042,-0.198011130094528
982,-0.0170211680233479,-0.0859226733446121,0.010551068931818,-0.0317362844944,0.000205741715035401,-0.224838569760323
983,-0.0135310608893633,-0.0817406550049782,0.00998504273593426,-0.0320302806794643,0.000225525291170925,-0.249196290969849
984,-0.0115233054384589,-0.0755934864282608,0.00858237035572529,-0.0322280861437321,-0.00223764590919018,-0.271133095026016
985,-0.0100867627188563,-0.0671027526259422,0.00723090302199125,-0.0319595411419868,-0.00436572777107358,-0.2905393242836
986,-0.00891221594065428,-0.0575112402439117,0.00673192087560892,-0.0307415705174208,-0.00621196068823338,-0.308377087116241
987,-0.0101081002503634,-0.0495411865413189,0.00541738048195839,-0.029814762994647,-0.0110213970765471,-0.326334625482559
988,-0.0139341847971082,-0.0444732755422592,0.0023944228887558,-0.0302105396986008,-0.0184110775589943,-0.344323039054871
989,-0.0171215478330851,-0.0403349995613098,-0.000382100493879989,-0.0309882946312428,-0.0237198062241077,-0.360703200101852
990,-0.0171984862536192,-0.034856054931879,-0.000679183402098715,-0.0312726907432079,-0.0244270209223032,-0.374746859073639
991,-0.0143511863425374,-0.0293341483920813,0.0026467265561223,-0.0316272005438805,-0.0208495054394007,-0.388922065496445
992,-0.010247697122395,-0.0265357196331024,0.00818247254937887,-0.033207394182682,-0.0146222999319434,-0.405826807022095
993,-0.00559771247208118,-0.0254820622503757,0.0133596733212471,-0.0349577777087688,-0.00854473374783993,-0.422604262828827
994,-0.000508335011545569,-0.024029029533267,0.0162350088357925,-0.0352648198604584,-0.00492346659302711,-0.436153382062912
995,0.00442887889221311,-0.0224685966968536,0.0166544709354639,-0.0345725007355213,-0.00338153098709881,-0.448309332132339
