,AF3,AF4,Fp1,Fp2,AF7,AF8
0,-0.5,-0.456243395805359,-0.5,-0.5,-0.5,-0.462136209011078
1,-0.5,-0.451177388429642,-0.5,-0.5,-0.5,-0.46867173910141
2,-0.5,-0.447269350290298,-0.5,-0.5,-0.5,-0.47538486123085
3,-0.5,-0.442985773086548,-0.5,-0.5,-0.5,-0.478450179100037
4,-0.5,-0.437553137540817,-0.5,-0.5,-0.5,-0.4773069024086
5,-0.5,-0.431592375040054,-0.5,-0.5,-0.5,-0.474276721477509
6,-0.5,-0.425759792327881,-0.5,-0.5,-0.5,-0.471133321523666
7,-0.5,-0.420404464006424,-0.5,-0.5,-0.5,-0.467426300048828
8,-0.5,-0.416254609823227,-0.5,-0.5,-0.5,-0.461739838123322
9,-0.5,-0.412823021411896,-0.5,-0.5,-0.5,-0.452881276607513
10,-0.5,-0.407927334308624,-0.5,-0.5,-0.5,-0.441216468811035
11,-0.5,-0.401135832071304,-0.5,-0.5,-0.5,-0.430266976356506
12,-0.5,-0.394466131925583,-0.5,-0.5,-0.5,-0.424163937568665
13,-0.5,-0.388264983892441,-0.5,-0.5,-0.5,-0.423254460096359
14,-0.5,-0.380451917648315,-0.5,-0.5,-0.5,-0.424782872200012
15,-0.496437162160873,-0.369972407817841,-0.5,-0.5,-0.5,-0.42510911822319
16,-0.483706295490265,-0.357941627502441,-0.5,-0.5,-0.497069269418716,-0.421272039413452
17,-0.474987208843231,-0.346932709217072,-0.5,-0.5,-0.492013394832611,-0.414340406656265
18,-0.470861434936523,-0.33876645565033,-0.5,-0.5,-0.49086120724678,-0.408183395862579
19,-0.469540446996689,-0.3321413397789,-0.5,-0.5,-0.49048125743866,-0.403889536857605
20,-0.468509197235107,-0.324802845716476,-0.5,-0.5,-0.488170921802521,-0.399435192346573
21,-0.466613054275513,-0.316852271556854,-0.5,-0.5,-0.482952326536179,-0.393496960401535
22,-0.464982390403748,-0.310419052839279,-0.5,-0.5,-0.476261556148529,-0.38675993680954
23,-0.464237749576569,-0.306286722421646,-0.496533423662186,-0.5,-0.470478862524033,-0.379681587219238
24,-0.462894767522812,-0.302479118108749,-0.489181220531464,-0.5,-0.466242849826813,-0.371563225984573
25,-0.459624320268631,-0.296464830636978,-0.481972128152847,-0.5,-0.461629539728165,-0.362555235624313
26,-0.455207347869873,-0.288221746683121,-0.475313663482666,-0.5,-0.45558226108551,-0.354900062084198
27,-0.450604796409607,-0.279754817485809,-0.469863146543503,-0.5,-0.449186831712723,-0.34977662563324
28,-0.444990783929825,-0.271258682012558,-0.465499192476273,-0.5,-0.443639695644379,-0.344028502702713
29,-0.438142895698547,-0.262148708105087,-0.462339699268341,-0.5,-0.440152317285538,-0.334559470415115
30,-0.430673480033875,-0.253731697797775,-0.459825664758682,-0.5,-0.438194811344147,-0.322698920965195
31,-0.422179609537125,-0.24754236638546,-0.456236809492111,-0.495439469814301,-0.435461670160294,-0.312238752841949
32,-0.412366479635239,-0.243733078241348,-0.451289296150208,-0.488853007555008,-0.430882304906845,-0.306791037321091
33,-0.401905298233032,-0.24097104370594,-0.445721387863159,-0.485553205013275,-0.424070686101913,-0.307347774505615
34,-0.391990214586258,-0.237610727548599,-0.440410047769547,-0.484981596469879,-0.415470004081726,-0.311364203691483
35,-0.38328942656517,-0.233351528644562,-0.436493545770645,-0.485542684793472,-0.407364934682846,-0.315566301345825
36,-0.376683920621872,-0.229915946722031,-0.43479198217392,-0.486172169446945,-0.402368098497391,-0.319202840328217
37,-0.374021470546722,-0.228535115718842,-0.435452520847321,-0.48658362030983,-0.401879489421844,-0.32220533490181
38,-0.375237882137299,-0.227517455816269,-0.436870515346527,-0.485158234834671,-0.404655426740646,-0.322621285915375
39,-0.378229260444641,-0.225216552615166,-0.437015652656555,-0.480409920215607,-0.407713353633881,-0.319431573152542
40,-0.381411880254745,-0.22167381644249,-0.435667544603348,-0.473179668188095,-0.409617990255356,-0.312863260507584
41,-0.383115887641907,-0.216699674725533,-0.432909458875656,-0.46532529592514,-0.409867435693741,-0.302967339754105
42,-0.380802869796753,-0.208654344081879,-0.427491843700409,-0.457533776760101,-0.406338542699814,-0.290895700454712
43,-0.373889803886414,-0.196321964263916,-0.419657737016678,-0.45018082857132,-0.398654937744141,-0.279139041900635
44,-0.366184830665588,-0.182476401329041,-0.413666933774948,-0.445883005857468,-0.391559273004532,-0.270915240049362
45,-0.361830800771713,-0.171291634440422,-0.412689566612244,-0.44673216342926,-0.388546288013458,-0.268060922622681
46,-0.361331850290298,-0.163608819246292,-0.415072053670883,-0.451068967580795,-0.387868881225586,-0.269485861063004
47,-0.363663107156754,-0.157379433512688,-0.418186515569687,-0.455141693353653,-0.387387365102768,-0.271816283464432
48,-0.367339134216309,-0.150539055466652,-0.420464634895325,-0.45608714222908,-0.385848760604858,-0.271616816520691
49,-0.370210707187653,-0.142523139715195,-0.420885056257248,-0.453455984592438,-0.382413446903229,-0.267521917819977
50,-0.371216148138046,-0.133517384529114,-0.419306874275208,-0.448479771614075,-0.3775554895401,-0.259913355112076
51,-0.371714890003204,-0.12500062584877,-0.417029947042465,-0.443418741226196,-0.372848749160767,-0.250819206237793
52,-0.373447567224503,-0.119305461645126,-0.415377974510193,-0.439843535423279,-0.370204418897629,-0.242665514349937
53,-0.376162886619568,-0.117076881229877,-0.414021283388138,-0.437395006418228,-0.370306581258774,-0.236456334590912
54,-0.377920746803284,-0.116282753646374,-0.411340534687042,-0.434728592634201,-0.37137109041214,-0.231716901063919
55,-0.377845048904419,-0.114872321486473,-0.40686896443367,-0.432071089744568,-0.371632069349289,-0.228273540735245
56,-0.377614498138428,-0.11268400400877,-0.40297731757164,-0.431438833475113,-0.372278958559036,-0.225973665714264
57,-0.377665787935257,-0.10864345729351,-0.400658786296844,-0.431346088647842,-0.374416619539261,-0.221019566059113
58,-0.376584053039551,-0.102147363126278,-0.398084461688995,-0.428140252828598,-0.37695249915123,-0.20965912938118
59,-0.373733311891556,-0.095859982073307,-0.394715815782547,-0.422361075878143,-0.378029972314835,-0.194526329636574
60,-0.369097888469696,-0.0927549749612808,-0.391470521688461,-0.417355865240097,-0.376181781291962,-0.18193319439888
61,-0.363268315792084,-0.0928900614380836,-0.388597935438156,-0.414566338062286,-0.371898829936981,-0.175559908151627
62,-0.35708075761795,-0.0943777561187744,-0.385582357645035,-0.413244485855103,-0.366645634174347,-0.174933657050133
63,-0.351657897233963,-0.0968274027109146,-0.382576704025269,-0.41365659236908,-0.361374974250793,-0.179246172308922
64,-0.347601115703583,-0.100252419710159,-0.380123376846313,-0.416262000799179,-0.356667339801788,-0.187123775482178
65,-0.343519419431686,-0.102872967720032,-0.377470016479492,-0.418855786323547,-0.352503567934036,-0.194112509489059
66,-0.338984966278076,-0.10813769698143,-0.37387877702713,-0.419340759515762,-0.348716795444489,-0.197750583291054
67,-0.335777819156647,-0.127130463719368,-0.369682133197784,-0.418022930622101,-0.344566285610199,-0.19982685148716
68,-0.334372788667679,-0.163847476243973,-0.365347474813461,-0.415584087371826,-0.339787155389786,-0.20131328701973
69,-0.334693104028702,-0.208842977881432,-0.362284004688263,-0.412370532751083,-0.337358325719833,-0.201215699315071
70,-0.338533818721771,-0.250981837511063,-0.363084375858307,-0.409485280513763,-0.340922236442566,-0.199324041604996
71,-0.346570312976837,-0.284619331359863,-0.36870464682579,-0.408143132925034,-0.350325644016266,-0.197005435824394
72,-0.356304496526718,-0.307060182094574,-0.376206487417221,-0.407225072383881,-0.361421048641205,-0.194502338767052
73,-0.365532130002975,-0.318009048700333,-0.381837159395218,-0.404998749494553,-0.369851648807526,-0.191374018788338
74,-0.374033004045486,-0.321002095937729,-0.385058522224426,-0.40292876958847,-0.374532431364059,-0.190383642911911
75,-0.379603505134583,-0.318110942840576,-0.38547483086586,-0.402237683534622,-0.374414265155792,-0.193542689085007
76,-0.379279553890228,-0.308437943458557,-0.381791025400162,-0.401630878448486,-0.367920428514481,-0.198839589953423
77,-0.374628216028214,-0.29371103644371,-0.37571793794632,-0.400621742010117,-0.358073741197586,-0.204203099012375
78,-0.369584649801254,-0.277808487415314,-0.370445281267166,-0.399629414081573,-0.350443542003632,-0.208603382110596
79,-0.365435689687729,-0.264237552881241,-0.367123454809189,-0.399234801530838,-0.345959603786469,-0.211998105049133
80,-0.360203444957733,-0.254884660243988,-0.36382532119751,-0.399562388658524,-0.339828968048096,-0.21522356569767
81,-0.352934449911118,-0.249245554208755,-0.35759761929512,-0.399444937705994,-0.328629851341248,-0.21794131398201
82,-0.345989584922791,-0.245316565036774,-0.348012983798981,-0.39712005853653,-0.314240008592606,-0.217747807502747
83,-0.34231886267662,-0.241012439131737,-0.338155388832092,-0.392260611057281,-0.301609754562378,-0.212803199887276
84,-0.343045651912689,-0.235203623771667,-0.332224637269974,-0.386457681655884,-0.295730501413345,-0.204068183898926
85,-0.347382098436356,-0.227740630507469,-0.33250492811203,-0.381122767925262,-0.298558115959167,-0.193907544016838
86,-0.353086531162262,-0.219422236084938,-0.337839126586914,-0.376595586538315,-0.307232946157455,-0.184080094099045
87,-0.356986790895462,-0.211129680275917,-0.343785315752029,-0.3719202876091,-0.315264075994492,-0.174318358302116
88,-0.357161819934845,-0.203086659312248,-0.346036583185196,-0.365961581468582,-0.317463994026184,-0.163884595036507
89,-0.354265958070755,-0.195688232779503,-0.343792140483856,-0.359202325344086,-0.313694030046463,-0.154374599456787
90,-0.350039631128311,-0.189753353595734,-0.339632272720337,-0.354032963514328,-0.307905346155167,-0.148357301950455
91,-0.34429258108139,-0.184780344367027,-0.335449397563934,-0.352548897266388,-0.301953464746475,-0.14713416993618
92,-0.33598592877388,-0.179195865988731,-0.330479204654694,-0.354304969310761,-0.293780624866486,-0.151214793324471
93,-0.326886236667633,-0.172527134418488,-0.324264526367188,-0.357264786958694,-0.283473789691925,-0.15925170481205
94,-0.320513904094696,-0.165436193346977,-0.318268418312073,-0.360016733407974,-0.274037837982178,-0.167279109358788
95,-0.31896311044693,-0.158636778593063,-0.31456732749939,-0.361904114484787,-0.268273085355759,-0.171308577060699
96,-0.321567565202713,-0.152731254696846,-0.313743084669113,-0.362179309129715,-0.267646253108978,-0.169560700654984
97,-0.326087713241577,-0.148187160491943,-0.314590245485306,-0.3609239757061,-0.271625906229019,-0.163432881236076
98,-0.330323249101639,-0.145247608423233,-0.315474092960358,-0.358841091394424,-0.277863264083862,-0.156586021184921
99,-0.333633333444595,-0.143646478652954,-0.315955817699432,-0.356237530708313,-0.284590840339661,-0.151664033532143
100,-0.335767209529877,-0.141026929020882,-0.315551728010178,-0.352340668439865,-0.290448993444443,-0.14760234951973
101,-0.335554659366608,-0.135455936193466,-0.313554555177689,-0.347293168306351,-0.293423622846603,-0.142779976129532
102,-0.333861708641052,-0.129321783781052,-0.311978399753571,-0.34436559677124,-0.293973386287689,-0.139259278774261
103,-0.332351386547089,-0.125744640827179,-0.312030732631683,-0.345157623291016,-0.293551057577133,-0.139000564813614
104,-0.330340355634689,-0.124709479510784,-0.311233967542648,-0.347332745790482,-0.291520059108734,-0.140644088387489
105,-0.327976733446121,-0.124394752085209,-0.308379143476486,-0.348515599966049,-0.289159744977951,-0.141626536846161
106,-0.326061129570007,-0.122667066752911,-0.304587841033936,-0.347342550754547,-0.288464844226837,-0.139695078134537
107,-0.323002457618713,-0.118219561874866,-0.300775796175003,-0.34371891617775,-0.287743240594864,-0.134445443749428
108,-0.317945659160614,-0.111308209598064,-0.297723054885864,-0.339243322610855,-0.285913288593292,-0.127388820052147
109,-0.312384247779846,-0.10313756018877,-0.295556485652924,-0.335417628288269,-0.28375232219696,-0.120298363268375
110,-0.309184789657593,-0.0959508940577507,-0.293912202119827,-0.332910239696503,-0.281272321939468,-0.11512017250061
111,-0.309889882802963,-0.0908629670739174,-0.292192697525024,-0.331007719039917,-0.278012067079544,-0.11247568577528
112,-0.312475949525833,-0.0862727761268616,-0.289940416812897,-0.328189671039581,-0.274103045463562,-0.110545121133327
113,-0.314454317092896,-0.0812724009156227,-0.287884831428528,-0.324382394552231,-0.270598143339157,-0.107164196670055
114,-0.314613223075867,-0.0767898857593536,-0.286374717950821,-0.320297598838806,-0.267868757247925,-0.101656556129456
115,-0.313039004802704,-0.0730230212211609,-0.284215480089188,-0.315546870231628,-0.265049755573273,-0.0945147275924683
116,-0.311438649892807,-0.0688668638467789,-0.280195862054825,-0.309229552745819,-0.261506825685501,-0.085774265229702
117,-0.311275333166122,-0.063577339053154,-0.274738788604736,-0.301611065864563,-0.257583737373352,-0.0753951817750931
118,-0.311698466539383,-0.0569120869040489,-0.268974781036377,-0.293564230203629,-0.253130942583084,-0.0639445632696152
119,-0.310885906219482,-0.0488344915211201,-0.26298850774765,-0.285606026649475,-0.246909663081169,-0.0523167662322521
120,-0.308279246091843,-0.0398193970322609,-0.256385982036591,-0.277896672487259,-0.239165708422661,-0.0410397946834564
121,-0.30464705824852,-0.031226858496666,-0.250143349170685,-0.270995795726776,-0.232774659991264,-0.0303986817598343
122,-0.301553457975388,-0.02505774050951,-0.246211767196655,-0.266384720802307,-0.229829728603363,-0.0219555273652077
123,-0.300194710493088,-0.0211621280759573,-0.244844540953636,-0.264020502567291,-0.22942516207695,-0.0161009896546602
124,-0.300386846065521,-0.0164172053337097,-0.244238570332527,-0.261475652456284,-0.229205280542374,-0.0103331562131643
125,-0.300344258546829,-0.00812703557312489,-0.241958066821098,-0.256238251924515,-0.226527243852615,-0.00313026807270944
126,-0.298151403665543,0.00308547308668494,-0.23661345243454,-0.247546136379242,-0.219648286700249,0.0041040307842195
127,-0.294162184000015,0.0141950733959675,-0.229255646467209,-0.237392112612724,-0.209671512246132,0.0091120908036828
128,-0.289823651313782,0.0228355601429939,-0.221502915024757,-0.22870397567749,-0.199304640293121,0.0107215140014887
129,-0.286374151706696,0.0278704520314932,-0.214772880077362,-0.223590418696404,-0.191174104809761,0.00902467779815197
130,-0.28414848446846,0.0291575100272894,-0.210191071033478,-0.223141819238663,-0.186723753809929,0.00476752128452063
131,-0.281791746616364,0.0282118171453476,-0.206997156143188,-0.225924044847488,-0.184631824493408,-0.000877123908139765
132,-0.279242843389511,0.0268768351525068,-0.20477083325386,-0.229151710867882,-0.18418325483799,-0.00620076479390264
133,-0.277668178081512,0.0266946814954281,-0.203592270612717,-0.230727225542068,-0.186024263501167,-0.00887760519981384
134,-0.277984291315079,0.0280304960906506,-0.203119903802872,-0.230315953493118,-0.189667075872421,-0.00819690804928541
135,-0.281920522451401,0.0285684149712324,-0.204834595322609,-0.230436727404594,-0.194755226373672,-0.00698982225731015
136,-0.288905650377274,0.0272425077855587,-0.209376826882362,-0.232620373368263,-0.20015050470829,-0.00695187458768487
137,-0.295153856277466,0.0258910339325666,-0.214246779680252,-0.234925180673599,-0.20324270427227,-0.00574752269312739
138,-0.298195451498032,0.0251581780612469,-0.217311784625053,-0.235677063465118,-0.202949777245522,-0.00213552406057715
139,-0.297840267419815,0.0248875580728054,-0.218237474560738,-0.234746903181076,-0.200616419315338,0.00195015862118453
140,-0.294434130191803,0.0263013709336519,-0.216649755835533,-0.232043445110321,-0.197106868028641,0.00458548171445727
141,-0.289819985628128,0.029485858976841,-0.213079109787941,-0.228759080171585,-0.192846849560738,0.00451682601124048
142,-0.286650657653809,0.0327842123806477,-0.209693253040314,-0.227052122354507,-0.189660996198654,0.00176336348522455
143,-0.285409271717072,0.0352793373167515,-0.207620590925217,-0.227398902177811,-0.187961131334305,-0.00202820543199778
144,-0.284361392259598,0.037520382553339,-0.205553039908409,-0.228180974721909,-0.18474292755127,-0.0051517803221941
145,-0.282822132110596,0.0407812893390656,-0.202606990933418,-0.227685451507568,-0.179291367530823,-0.00607887795194983
146,-0.283118337392807,0.0441788658499718,-0.201156869530678,-0.227247223258018,-0.176102176308632,-0.00617995718494058
147,-0.28642725944519,0.0452717058360577,-0.202738255262375,-0.228749856352806,-0.177276626229286,-0.00886490009725094
148,-0.290909141302109,0.0441471710801125,-0.205118790268898,-0.23027215898037,-0.180797547101974,-0.0136978439986706
149,-0.294751107692719,0.0430183261632919,-0.206001147627831,-0.229208543896675,-0.184797421097755,-0.0173742715269327
150,-0.297219425439835,0.0434100180864334,-0.205364555120468,-0.226045995950699,-0.188087224960327,-0.0182407628744841
151,-0.2978256046772,0.0456468053162098,-0.20390160381794,-0.222443953156471,-0.189936816692352,-0.0165040343999863
152,-0.295565634965897,0.0502588972449303,-0.201335981488228,-0.218415185809135,-0.189439550042152,-0.0127703566104174
153,-0.28990039229393,0.0588997267186642,-0.197170257568359,-0.212561815977097,-0.1861432492733,-0.00710825948044658
154,-0.282268851995468,0.0714459046721458,-0.192306399345398,-0.205222234129906,-0.181572958827019,0.000100825665867887
155,-0.276305258274078,0.0834350809454918,-0.189654067158699,-0.200477987527847,-0.178985521197319,0.00608235830441117
156,-0.2747882604599,0.0911138355731964,-0.191101655364037,-0.200674071907997,-0.179679676890373,0.00866595935076475
157,-0.276545345783234,0.095564030110836,-0.19426403939724,-0.202074944972992,-0.18115921318531,0.00924249272793531
158,-0.279207319021225,0.0988931730389595,-0.196270644664764,-0.201012223958969,-0.181340843439102,0.00907471403479576
159,-0.281154006719589,0.102364435791969,-0.196197539567947,-0.197449624538422,-0.179222568869591,0.00872703641653061
160,-0.281029224395752,0.106559276580811,-0.194192588329315,-0.193074613809586,-0.174323171377182,0.00900840107351542
161,-0.2796251475811,0.109849847853184,-0.192232608795166,-0.190562933683395,-0.169277608394623,0.00856095179915428
162,-0.278891533613205,0.110743016004562,-0.191608905792236,-0.19080325961113,-0.167248472571373,0.00621360493823886
163,-0.278700739145279,0.11002553999424,-0.191671773791313,-0.192186802625656,-0.167494297027588,0.00321541028097272
164,-0.278352856636047,0.108886137604713,-0.19235298037529,-0.193414628505707,-0.167930543422699,0.000985153834335506
165,-0.27875092625618,0.108065083622932,-0.193996116518974,-0.193630084395409,-0.168678686022758,0.00069857231574133
166,-0.280951529741287,0.10779096186161,-0.196131959557533,-0.19215402007103,-0.17102999985218,0.00299001089297235
167,-0.284744888544083,0.106056652963161,-0.198156535625458,-0.189606115221977,-0.175625219941139,0.00715667847543955
168,-0.288311809301376,0.097847692668438,-0.199565201997757,-0.187156468629837,-0.180252864956856,0.0119077926501632
169,-0.290116786956787,0.0799283385276794,-0.200525656342506,-0.18559318780899,-0.182460740208626,0.0160227678716183
170,-0.290597558021545,0.0562352538108826,-0.201439633965492,-0.184758722782135,-0.182995408773422,0.0192020237445831
171,-0.290718585252762,0.0330891460180283,-0.2017892152071,-0.184192150831223,-0.182324767112732,0.0210470333695412
172,-0.290719926357269,0.0140943760052323,-0.200741782784462,-0.183829858899117,-0.17961411178112,0.0213303007185459
173,-0.290896743535995,0.00079405540600419,-0.198366299271584,-0.183635056018829,-0.175362914800644,0.0210383888334036
174,-0.291434556245804,-0.00751533405855298,-0.196210905909538,-0.183810368180275,-0.171687379479408,0.0203658975660801
175,-0.29229947924614,-0.0129888560622931,-0.196589961647987,-0.184867456555367,-0.171845600008965,0.0187163818627596
176,-0.293201446533203,-0.0171445813030005,-0.199779570102692,-0.186809957027435,-0.176282450556755,0.0160486325621605
177,-0.293552607297897,-0.0200542770326138,-0.204064130783081,-0.18935239315033,-0.1817497164011,0.0127081386744976
178,-0.294787764549255,-0.0218270812183619,-0.209228962659836,-0.192961364984512,-0.187099769711494,0.0092821829020977
179,-0.298115611076355,-0.0229396987706423,-0.21466301381588,-0.196875989437103,-0.191795065999031,0.00680422410368919
180,-0.300860583782196,-0.0226199049502611,-0.217047572135925,-0.198196053504944,-0.192785203456879,0.00691143469884992
181,-0.300871998071671,-0.020734803751111,-0.214963167905808,-0.196104899048805,-0.189258486032486,0.00943547207862139
182,-0.299507260322571,-0.0196206159889698,-0.211530387401581,-0.193765878677368,-0.18479973077774,0.0108089344576001
183,-0.298066467046738,-0.0205936767160892,-0.209751859307289,-0.19376428425312,-0.182715862989426,0.00866823736578226
184,-0.296180665493011,-0.0220085643231869,-0.209431692957878,-0.19522263109684,-0.182974442839623,0.00456938892602921
185,-0.293126881122589,-0.0221247002482414,-0.209181904792786,-0.196205288171768,-0.183867022395134,0.000483002630062401
186,-0.289126604795456,-0.0211935676634312,-0.208270817995071,-0.196402430534363,-0.183625400066376,-0.00361481122672558
187,-0.284294486045837,-0.0193339753895998,-0.206014767289162,-0.195884823799133,-0.180722802877426,-0.00689891073852777
188,-0.278006821870804,-0.0161470957100391,-0.201991021633148,-0.194005861878395,-0.175312370061874,-0.00728951394557953
189,-0.270960062742233,-0.012665449641645,-0.197339355945587,-0.190986216068268,-0.169756576418877,-0.00496354466304183
190,-0.265388339757919,-0.0105372201651335,-0.194143980741501,-0.188255980610847,-0.166698351502419,-0.00236514257267118
191,-0.262267082929611,-0.0100603485479951,-0.192778646945953,-0.186746910214424,-0.166282787919044,-0.00161050108727068
192,-0.259740948677063,-0.00923408847302198,-0.191200405359268,-0.185525149106979,-0.166005566716194,-0.00216948776505888
193,-0.255237907171249,-0.00536475703120232,-0.187874183058739,-0.183322608470917,-0.164045289158821,-0.00166724610608071
194,-0.248807400465012,0.00205861730501056,-0.183108389377594,-0.180225297808647,-0.160871580243111,0.00071568094426766
195,-0.243651300668716,0.0105461915954947,-0.178602993488312,-0.177437663078308,-0.158580228686333,0.00358150736428797
196,-0.24239008128643,0.0163683369755745,-0.1763646453619,-0.176234632730484,-0.159008011221886,0.00548200681805611
197,-0.243713065981865,0.0174968410283327,-0.176051154732704,-0.176700755953789,-0.161194875836372,0.00597125804051757
198,-0.244275361299515,0.0145708844065666,-0.174791142344475,-0.177622735500336,-0.161934301257133,0.0052210995927453
199,-0.243471458554268,0.00867901090532541,-0.17147958278656,-0.178236529231071,-0.15932609140873,0.002971185836941
200,-0.243159681558609,0.00126998289488256,-0.167667776346207,-0.178677245974541,-0.154204800724983,-0.00126391684170812
201,-0.24414724111557,-0.00431433832272887,-0.164248809218407,-0.178135707974434,-0.148769319057465,-0.00542757753282785
202,-0.246502220630646,-0.00525293359532952,-0.16291406750679,-0.176184773445129,-0.147084191441536,-0.00589170912280679
203,-0.249906867742538,-0.00204827357083559,-0.167197078466415,-0.175166234374046,-0.153343260288239,-0.0024001148995012
204,-0.252195328474045,0.00346755096688867,-0.176944822072983,-0.177164822816849,-0.165737435221672,0.00210635759867728
205,-0.250870883464813,0.0104941399767995,-0.18710869550705,-0.180522277951241,-0.177130863070488,0.00632141530513763
206,-0.246429920196533,0.0177011210471392,-0.193858802318573,-0.182415410876274,-0.182989060878754,0.010973259806633
207,-0.241707980632782,0.0230994671583176,-0.196534439921379,-0.182067155838013,-0.183958366513252,0.0162412654608488
208,-0.237769812345505,0.0262608230113983,-0.19540473818779,-0.179913699626923,-0.181443601846695,0.0216308496892452
209,-0.234009847044945,0.0277787894010544,-0.192351907491684,-0.177413627505302,-0.177191376686096,0.0252961665391922
210,-0.230408579111099,0.0281576607376337,-0.18999807536602,-0.176266491413116,-0.1740602850914,0.024888439103961
211,-0.226415157318115,0.0278779100626707,-0.188096985220909,-0.17605522274971,-0.171339318156242,0.0206046514213085
212,-0.221761673688889,0.0273502171039581,-0.185153439640999,-0.175849229097366,-0.166221037507057,0.0148194087669253
213,-0.217618227005005,0.026454221457243,-0.181420102715492,-0.175965651869774,-0.159044176340103,0.00936168897897005
214,-0.21529084444046,0.0243865661323071,-0.17834547162056,-0.176635935902596,-0.152876049280167,0.00480722915381193
215,-0.214878156781197,0.0217752791941166,-0.176666185259819,-0.177100047469139,-0.150010675191879,0.00170513696502894
216,-0.215760096907616,0.0200546998530626,-0.176134005188942,-0.176656916737556,-0.150349721312523,-3.72704162145965E-05
217,-0.217757597565651,0.019629554823041,-0.176784187555313,-0.175369247794151,-0.153050243854523,-0.00106251798570156
218,-0.21954756975174,0.0210507940500975,-0.17779678106308,-0.173209220170975,-0.156675979495049,-0.00118500425014645
219,-0.219638705253601,0.0241881553083658,-0.177744433283806,-0.17082391679287,-0.159970253705978,-0.00100713782012463
220,-0.219081103801727,0.0278402529656887,-0.176618471741676,-0.16951596736908,-0.163151100277901,-0.00241163023747504
221,-0.219766154885292,0.0314766243100166,-0.17508339881897,-0.168992802500725,-0.166321992874146,-0.00559322163462639
222,-0.221979483962059,0.0349971167743206,-0.173532336950302,-0.167959794402123,-0.168382361531258,-0.00814676284790039
223,-0.22451563179493,0.0377800986170769,-0.172446563839912,-0.166622936725616,-0.168431624770164,-0.008706234395504
224,-0.226270258426666,0.0387631468474865,-0.172426402568817,-0.166453346610069,-0.167802289128304,-0.00915591791272163
225,-0.226779922842979,0.0377776734530926,-0.173636987805367,-0.167813211679459,-0.169066354632378,-0.010821919888258
226,-0.225008234381676,0.0371528528630733,-0.174897000193596,-0.168665543198586,-0.17241869866848,-0.0113216452300549
227,-0.221223324537277,0.0391717813909054,-0.17511947453022,-0.167191281914711,-0.176623120903969,-0.00850724801421165
228,-0.217397481203079,0.0435870811343193,-0.174179524183273,-0.163833022117615,-0.180445671081543,-0.00363730266690254
229,-0.214490190148354,0.0490579716861248,-0.171914234757423,-0.159755080938339,-0.182130932807922,0.000843225629068911
230,-0.213499039411545,0.0534177497029305,-0.169250845909119,-0.15653669834137,-0.182248830795288,0.00292948074638844
231,-0.215215623378754,0.0547797083854675,-0.16784206032753,-0.155531018972397,-0.183051496744156,0.00215177680365741
232,-0.218484610319138,0.0533385686576366,-0.168078854680061,-0.15679244697094,-0.184712186455727,-0.000606176618020982
233,-0.221984684467316,0.0500779859721661,-0.169403553009033,-0.159893438220024,-0.186452761292458,-0.00467228377237916
234,-0.225535646080971,0.0459636375308037,-0.171624332666397,-0.164134100079536,-0.189167186617851,-0.00882795639336109
235,-0.228000715374947,0.0427630804479122,-0.17402221262455,-0.167994663119316,-0.192681968212128,-0.0115431845188141
236,-0.227549806237221,0.0420083440840244,-0.174785852432251,-0.169679045677185,-0.194184795022011,-0.012775163166225
237,-0.22427049279213,0.0440242923796177,-0.172947406768799,-0.168235316872597,-0.192463234066963,-0.013001786544919
238,-0.219152018427849,0.0487243160605431,-0.168993353843689,-0.164137855172157,-0.18890705704689,-0.0123134702444077
239,-0.212557971477509,0.0550809130072594,-0.164272949099541,-0.15953366458416,-0.184926226735115,-0.0118349259719253
240,-0.205013453960419,0.0612092912197113,-0.160534679889679,-0.156639486551285,-0.181776642799377,-0.0129895694553852
241,-0.197551026940346,0.0661386623978615,-0.158630818128586,-0.155691757798195,-0.180407226085663,-0.0156123302876949
242,-0.191978514194489,0.0699161216616631,-0.158291175961494,-0.155943855643272,-0.181210801005363,-0.0183658637106419
243,-0.189807906746864,0.0723924115300179,-0.158813953399658,-0.157026499509811,-0.183681502938271,-0.0205792374908924
244,-0.190061122179031,0.0729493051767349,-0.159377381205559,-0.158781468868256,-0.186201423406601,-0.0228355303406715
245,-0.190083965659142,0.0721814334392548,-0.159139156341553,-0.16016960144043,-0.187080577015877,-0.0249187666922808
246,-0.188831433653831,0.0711354464292526,-0.157934248447418,-0.159965738654137,-0.185329392552376,-0.0264424458146095
247,-0.188146352767944,0.0689392536878586,-0.156767204403877,-0.15885902941227,-0.182490184903145,-0.0288620963692665
248,-0.189060136675835,0.0656422898173332,-0.155941486358643,-0.157607808709145,-0.180546909570694,-0.032595083117485
249,-0.191026508808136,0.0626057609915733,-0.155897811055183,-0.156422927975655,-0.180413737893105,-0.0364502966403961
250,-0.193516701459885,0.06001852825284,-0.157196000218391,-0.155557006597519,-0.182299792766571,-0.0398114509880543
251,-0.195234283804893,0.0578887723386288,-0.158200457692146,-0.15425980091095,-0.184121072292328,-0.0421572998166084
252,-0.195824563503265,0.0554812625050545,-0.158190622925758,-0.153004676103592,-0.18434864282608,-0.0442925058305264
253,-0.195255592465401,0.0526067465543747,-0.157637193799019,-0.152687281370163,-0.182859480381012,-0.047333337366581
254,-0.192754521965981,0.0509831011295319,-0.156055152416229,-0.152144879102707,-0.179805040359497,-0.050445307046175
255,-0.188877403736115,0.051606148481369,-0.153797999024391,-0.150167807936668,-0.176324218511581,-0.0528240613639355
256,-0.184456065297127,0.0547048151493073,-0.151318371295929,-0.146487712860107,-0.173336461186409,-0.0540283657610416
257,-0.180544018745422,0.0591703541576862,-0.149561107158661,-0.143144562840462,-0.172301232814789,-0.0543089546263218
258,-0.178288877010345,0.0627363473176956,-0.149977877736092,-0.142920881509781,-0.174434617161751,-0.0545113533735275
259,-0.176823630928993,0.0652714669704437,-0.150756642222404,-0.144332200288773,-0.177679523825645,-0.0538572110235691
260,-0.17521969974041,0.0679375007748604,-0.148865535855293,-0.144489571452141,-0.178701311349869,-0.0513775236904621
261,-0.173970207571983,0.0702582970261574,-0.144560411572456,-0.143636703491211,-0.176647156476974,-0.0480490289628506
262,-0.173999562859535,0.0698097795248032,-0.140651002526283,-0.143745735287666,-0.173709839582443,-0.0463556796312332
263,-0.175644546747208,0.0657058358192444,-0.13859398663044,-0.145436376333237,-0.172075256705284,-0.0474384762346745
264,-0.178371250629425,0.0603521019220352,-0.137589424848557,-0.147312328219414,-0.172392889857292,-0.049816157668829
265,-0.181879967451096,0.0557110905647278,-0.137316957116127,-0.148653402924538,-0.175183460116386,-0.0525596514344215
266,-0.185627147555351,0.0520352907478809,-0.138151079416275,-0.150544062256813,-0.180024430155754,-0.0563588701188564
267,-0.188709229230881,0.0495904795825481,-0.139317736029625,-0.153519421815872,-0.18513235449791,-0.0611091665923595
268,-0.191136509180069,0.0487656109035015,-0.139188230037689,-0.155983120203018,-0.189243823289871,-0.0649656057357788
269,-0.192899718880653,0.0497358217835426,-0.137003809213638,-0.155865490436554,-0.191875368356705,-0.0662387311458588
270,-0.193468898534775,0.0522963255643845,-0.133361384272575,-0.153120577335358,-0.192479491233826,-0.0655013471841812
271,-0.191889643669128,0.0565700978040695,-0.128624111413956,-0.149229735136032,-0.189790368080139,-0.0646244734525681
272,-0.187860712409019,0.062333881855011,-0.123330466449261,-0.145621746778488,-0.183892071247101,-0.0648198649287224
273,-0.183140501379967,0.0677047520875931,-0.119347855448723,-0.143272921442986,-0.177533999085426,-0.0657969266176224
274,-0.179208725690842,0.0712942108511925,-0.117529056966305,-0.142009973526001,-0.172641932964325,-0.0659611150622368
275,-0.176265239715576,0.0738684684038162,-0.117111131548882,-0.140805572271347,-0.169782474637032,-0.0640286207199097
276,-0.174226701259613,0.0766372457146645,-0.117024496197701,-0.139076948165894,-0.168930664658546,-0.0602743402123451
277,-0.172491818666458,0.0788904055953026,-0.116309002041817,-0.137544229626656,-0.168548554182053,-0.0567210279405117
278,-0.170541048049927,0.0791440084576607,-0.115152783691883,-0.137007609009743,-0.167839989066124,-0.0546577423810959
279,-0.16937243938446,0.0767764002084732,-0.115143917500973,-0.137270301580429,-0.168335363268852,-0.0540512315928936
280,-0.169393911957741,0.0724031403660774,-0.1164860278368,-0.137293741106987,-0.170151084661484,-0.0548268482089043
281,-0.168613269925117,0.0683306530117989,-0.117332622408867,-0.135831743478775,-0.171163454651833,-0.0559911280870438
282,-0.164913237094879,0.0668225884437561,-0.116668313741684,-0.133041381835938,-0.169967383146286,-0.0563401356339455
283,-0.157694816589355,0.0688480511307716,-0.114826284348965,-0.129782155156136,-0.166176721453667,-0.0552390813827515
284,-0.149251744151115,0.0733304247260094,-0.112987793982029,-0.126814767718315,-0.161324590444565,-0.0528016611933708
285,-0.142642363905907,0.0777948424220085,-0.112216450273991,-0.124743431806564,-0.157934680581093,-0.049747858196497
286,-0.138665422797203,0.0802736207842827,-0.11272294074297,-0.123849175870419,-0.157007724046707,-0.0476122945547104
287,-0.136599168181419,0.0801185369491577,-0.113952614367008,-0.123934976756573,-0.1573795825243,-0.0478938482701778
288,-0.135284289717674,0.0783640518784523,-0.114644795656204,-0.123842492699623,-0.156992048025131,-0.0494321845471859
289,-0.134397625923157,0.0763082727789879,-0.114398598670959,-0.122813269495964,-0.156054303050041,-0.049184512346983
290,-0.133864343166351,0.0750547349452972,-0.113274365663528,-0.120104387402534,-0.155928701162338,-0.0440244786441326
291,-0.133767187595367,0.0753401517868042,-0.11091037094593,-0.114259347319603,-0.157104820013046,-0.0322497747838497
292,-0.134885907173157,0.076217032968998,-0.107334770262241,-0.105477958917618,-0.159491717815399,-0.0164248012006283
293,-0.137223094701767,0.0752531290054321,-0.103190049529076,-0.0970574989914894,-0.161365479230881,-0.00350770680233836
294,-0.139555379748344,0.0705251917243004,-0.0993964001536369,-0.0939877033233643,-0.160418227314949,-0.000889754446689039
295,-0.140562817454338,0.0625653266906738,-0.0978109687566757,-0.0997584909200668,-0.157741650938988,-0.0113069387152791
296,-0.139734596014023,0.0540013685822487,-0.100446254014969,-0.112799473106861,-0.156915932893753,-0.0298375580459833
297,-0.137311324477196,0.047906432300806,-0.105720736086369,-0.126691609621048,-0.157648831605911,-0.0475237853825092
298,-0.134391397237778,0.045086532831192,-0.109907433390617,-0.136203959584236,-0.156210154294968,-0.0595633983612061
299,-0.132528513669968,0.0432251952588558,-0.111766420304775,-0.141171127557755,-0.151162981987,-0.0673434734344482
300,-0.132263004779816,0.0407825820147991,-0.111791983246803,-0.143230900168419,-0.143734350800514,-0.0725320354104042
301,-0.131905421614647,0.0394290946424007,-0.109571032226086,-0.142660692334175,-0.134640261530876,-0.0739491954445839
302,-0.13003396987915,0.0402697063982487,-0.105732247233391,-0.140340656042099,-0.12519283592701,-0.0710149481892586
303,-0.128588825464249,0.0416083112359047,-0.103115238249302,-0.138388082385063,-0.119790971279144,-0.0653740242123604
304,-0.129718124866486,0.0421363227069378,-0.103081651031971,-0.137636065483093,-0.121980622410774,-0.0591377429664135
305,-0.1322922706604,0.0424057617783546,-0.104478523135185,-0.137778997421265,-0.129902437329292,-0.0540066435933113
306,-0.133594244718552,0.0439416654407978,-0.105476088821888,-0.138216257095337,-0.137621656060219,-0.0505710355937481
307,-0.131699219346046,0.0486600287258625,-0.104047797620296,-0.137433499097824,-0.139852359890938,-0.0478808097541332
308,-0.128798991441727,0.0557177066802979,-0.101229406893253,-0.13624519109726,-0.138440921902657,-0.0464301556348801
309,-0.129480972886086,0.0620141476392746,-0.100915513932705,-0.137790963053703,-0.13989531993866,-0.0480264835059643
310,-0.133449003100395,0.0671641677618027,-0.10291900485754,-0.141195118427277,-0.144157573580742,-0.0514587871730328
311,-0.137733578681946,0.0720231831073761,-0.104183122515678,-0.142889693379402,-0.146596774458885,-0.0544449388980865
312,-0.141043111681938,0.0764133632183075,-0.103786423802376,-0.14130312204361,-0.146612256765366,-0.0559834167361259
313,-0.142856419086456,0.0799225494265556,-0.102502256631851,-0.13726969063282,-0.146414130926132,-0.055725771933794
314,-0.143512070178986,0.0819320008158684,-0.101366318762302,-0.133150637149811,-0.147123411297798,-0.0543909482657909
315,-0.142889693379402,0.0818641781806946,-0.100489191710949,-0.130830481648445,-0.147594109177589,-0.0535302646458149
316,-0.140412390232086,0.0788548737764359,-0.100212477147579,-0.131469696760178,-0.14644780755043,-0.0552619695663452
317,-0.137338325381279,0.072813592851162,-0.102013885974884,-0.135426104068756,-0.14500404894352,-0.0602451451122761
318,-0.134992733597755,0.066488191485405,-0.10554426908493,-0.140580996870995,-0.145072117447853,-0.0659110620617867
319,-0.132797360420227,0.0633681043982506,-0.108195945620537,-0.143689528107643,-0.145740374922752,-0.0683025345206261
320,-0.129775553941727,0.0642226487398148,-0.108316414058208,-0.143344059586525,-0.144713863730431,-0.0647743046283722
321,-0.126555174589157,0.0671321079134941,-0.10701160877943,-0.141245722770691,-0.141582474112511,-0.056548148393631
322,-0.12434770911932,0.0699094086885452,-0.105890691280365,-0.139852240681648,-0.137869641184807,-0.0471454188227654
323,-0.123240880668163,0.0715600028634071,-0.105147361755371,-0.139726892113686,-0.134548887610435,-0.0386977568268776
324,-0.123318590223789,0.071606457233429,-0.10530636459589,-0.140967801213264,-0.131942272186279,-0.0325416885316372
325,-0.124188490211964,0.0698791891336441,-0.106499053537846,-0.143333375453949,-0.129836931824684,-0.0292979869991541
326,-0.125032320618629,0.0670897364616394,-0.107743509113789,-0.145335108041763,-0.128022953867912,-0.0275815054774284
327,-0.125467643141747,0.0646811425685883,-0.107993602752686,-0.145493745803833,-0.12612409889698,-0.0252983681857586
328,-0.125816971063614,0.0628367885947227,-0.107050769031048,-0.143920332193375,-0.123455479741097,-0.0218923781067133
329,-0.12625515460968,0.0609427094459534,-0.105450302362442,-0.141231238842011,-0.120147429406643,-0.0172633808106184
330,-0.125447809696198,0.0598735250532627,-0.103131622076035,-0.137349888682365,-0.116764903068542,-0.0111284125596285
331,-0.123380526900291,0.0598161369562149,-0.100604064762592,-0.13356988132,-0.114638917148113,-0.005442775785923
332,-0.121371209621429,0.0593032576143742,-0.0987242832779884,-0.132048979401588,-0.11472811549902,-0.00300461472943425
333,-0.119413919746876,0.0577494315803051,-0.0975906327366829,-0.133209645748138,-0.116582773625851,-0.004364472348243
334,-0.118121355772018,0.0550090447068214,-0.0977948904037476,-0.136306390166283,-0.119981899857521,-0.0082698343321681
335,-0.11844539642334,0.0512212477624416,-0.0990864485502243,-0.139973327517509,-0.123757891356945,-0.0125442203134298
336,-0.119419261813164,0.0482889525592327,-0.0995267182588577,-0.142053216695786,-0.125660344958305,-0.0150523874908686
337,-0.120164543390274,0.0479957535862923,-0.0983558744192123,-0.141207665205002,-0.125606760382652,-0.0148501116782427
338,-0.120550788938999,0.0500953122973442,-0.0963221415877342,-0.137972682714462,-0.124309614300728,-0.012030384503305
339,-0.120481476187706,0.0523271709680557,-0.0948352813720703,-0.134762242436409,-0.121716909110546,-0.00879554636776447
340,-0.120424620807171,0.052070613950491,-0.0954235941171646,-0.133956551551819,-0.119228012859821,-0.00856323074549437
341,-0.120108120143414,0.0489770248532295,-0.098061703145504,-0.135497495532036,-0.118659451603889,-0.0124105038121343
342,-0.11822135746479,0.0453227497637272,-0.101450636982918,-0.137626945972443,-0.119996026158333,-0.0182525962591171
343,-0.11496739834547,0.0437981598079205,-0.104841403663158,-0.138990312814713,-0.122818224132061,-0.0232113040983677
344,-0.112264864146709,0.0450842827558517,-0.107984878122807,-0.139527827501297,-0.126495823264122,-0.0264400225132704
345,-0.111493535339832,0.0484546907246113,-0.109845049679279,-0.139943584799767,-0.12899512052536,-0.0290176644921303
346,-0.11334416270256,0.0537546165287495,-0.109670862555504,-0.141089975833893,-0.129177019000053,-0.0321291498839855
347,-0.118141785264015,0.0613307058811188,-0.108464002609253,-0.143084973096848,-0.128670364618301,-0.0356042683124542
348,-0.12386953830719,0.0713407620787621,-0.106642097234726,-0.144198060035706,-0.128420695662498,-0.038098718971014
349,-0.128013640642166,0.0823508203029633,-0.103802382946014,-0.143488675355911,-0.127454653382301,-0.0399144217371941
350,-0.131273463368416,0.0917249917984009,-0.101397104561329,-0.142593413591385,-0.126560717821121,-0.0417318679392338
351,-0.13396093249321,0.098931297659874,-0.10045313090086,-0.141783252358437,-0.126928240060806,-0.0421029701828957
352,-0.134640052914619,0.104410886764526,-0.10034417361021,-0.140028953552246,-0.128211468458176,-0.0405432395637035
353,-0.133742824196815,0.10750637203455,-0.100853584706783,-0.138130828738213,-0.130345210433006,-0.0383154414594173
354,-0.132337629795074,0.108275450766087,-0.101599417626858,-0.137004688382149,-0.132862091064453,-0.0362100303173065
355,-0.129879459738731,0.108139432966709,-0.101191721856594,-0.135737344622612,-0.133112296462059,-0.0340238027274609
356,-0.125476881861687,0.10900991410017,-0.0986131727695465,-0.133416339755058,-0.128380224108696,-0.0310166645795107
357,-0.120039649307728,0.111050494015217,-0.0955128446221352,-0.13148207962513,-0.120937161147594,-0.028237396851182
358,-0.115500785410404,0.112305514514446,-0.0944359824061394,-0.131784826517105,-0.116113215684891,-0.028174789622426
359,-0.112999133765697,0.112039364874363,-0.0953687578439713,-0.133568927645683,-0.115242555737495,-0.0306761842221022
360,-0.112252704799175,0.111643269658089,-0.0963903293013573,-0.134569525718689,-0.114865176379681,-0.0333720408380032
361,-0.112115390598774,0.11196394264698,-0.0963727831840515,-0.133677959442139,-0.111929006874561,-0.0349896550178528
362,-0.112918078899384,0.111714690923691,-0.0963533818721771,-0.131834253668785,-0.107322834432125,-0.0358539782464504
363,-0.115650281310081,0.109138786792755,-0.097195602953434,-0.130705267190933,-0.102721869945526,-0.0370021611452103
364,-0.120095200836658,0.104029253125191,-0.098268061876297,-0.13111674785614,-0.0994347706437111,-0.039014458656311
365,-0.124816119670868,0.0982293859124184,-0.0987301170825958,-0.132169499993324,-0.0991201102733612,-0.0411824211478233
366,-0.127560049295425,0.0940330550074577,-0.0978068709373474,-0.132045909762383,-0.100588276982307,-0.0428220704197884
367,-0.127406045794487,0.0919964164495468,-0.0951255187392235,-0.12999863922596,-0.101481631398201,-0.0441631153225899
368,-0.125510230660439,0.0911837071180344,-0.0915986970067024,-0.126710221171379,-0.102044075727463,-0.0450515747070313
369,-0.122832231223583,0.0903508961200714,-0.0887562856078148,-0.123581476509571,-0.103083997964859,-0.0455381907522678
370,-0.119520604610443,0.0882903710007668,-0.0865956693887711,-0.121231608092785,-0.103962831199169,-0.0463297888636589
371,-0.115902155637741,0.0846491083502769,-0.0839131847023964,-0.118442200124264,-0.103843659162521,-0.0466350689530373
372,-0.112004421651363,0.0797518268227577,-0.0808287858963013,-0.114269785583019,-0.102775871753693,-0.0453994683921337
373,-0.108442828059196,0.0730978846549988,-0.0793792828917503,-0.109988451004028,-0.102273300290108,-0.0436798445880413
374,-0.106766283512115,0.0641955211758614,-0.0809153690934181,-0.107751533389091,-0.102912180125713,-0.0432419031858444
375,-0.106458403170109,0.0543769337236881,-0.0834177806973457,-0.107901431620121,-0.101599156856537,-0.0441905483603477
376,-0.105465672910213,0.0452709384262562,-0.0837501734495163,-0.108872957527637,-0.0963446944952011,-0.0453597791492939
377,-0.103792041540146,0.0366327799856663,-0.0821366161108017,-0.109911158680916,-0.0903894379734993,-0.0463704392313957
378,-0.102435819804668,0.028184786438942,-0.0806207358837128,-0.111080192029476,-0.0875733718276024,-0.0470936298370361
379,-0.101450055837631,0.0209111664444208,-0.0799427255988121,-0.112221233546734,-0.0882391110062599,-0.0478682033717632
380,-0.100547224283218,0.0158682372421026,-0.0802197083830833,-0.113354280591011,-0.0900084227323532,-0.0496613159775734
381,-0.0994725823402405,0.0132641848176718,-0.0809708163142204,-0.114066690206528,-0.0904582068324089,-0.0522105135023594
382,-0.0986135005950928,0.0114114191383123,-0.0819755718111992,-0.114678390324116,-0.09044349193573,-0.055547870695591
383,-0.0984780713915825,0.00860409066081047,-0.0837275758385658,-0.116634897887707,-0.0918265804648399,-0.0602404288947582
384,-0.0984791070222855,0.00579924415796995,-0.0854916051030159,-0.119860753417015,-0.0932261124253273,-0.0649387389421463
385,-0.0975958108901978,0.00451570330187678,-0.0855191871523857,-0.122709468007088,-0.0922514721751213,-0.0678599402308464
386,-0.0957123637199402,0.00458965450525284,-0.0831139385700226,-0.123954489827156,-0.0888929069042206,-0.0690471157431602
387,-0.0932386741042137,0.00551327271386981,-0.0789093226194382,-0.123199388384819,-0.0846095904707909,-0.0687982216477394
388,-0.0909718126058578,0.00679976399987936,-0.0740375593304634,-0.1206464022398,-0.0811719223856926,-0.0669896975159645
389,-0.0904126390814781,0.00710201542824507,-0.0701585039496422,-0.117464937269688,-0.0807023942470551,-0.064962774515152
390,-0.0921791568398476,0.00535647897049785,-0.0687273144721985,-0.115285165607929,-0.0837465673685074,-0.0646352991461754
391,-0.0959629565477371,0.00185565871652216,-0.0700569972395897,-0.115222588181496,-0.0885741636157036,-0.0669862106442451
392,-0.100806541740894,-0.00207185233011842,-0.0726568102836609,-0.116667345166206,-0.0922717154026031,-0.0716739520430565
393,-0.105231188237667,-0.00504589034244418,-0.0746714249253273,-0.117604300379753,-0.0935925170779228,-0.0769718959927559
394,-0.1084850654006,-0.00645085144788027,-0.0757768824696541,-0.116933844983578,-0.094885990023613,-0.0807048454880714
395,-0.109658375382423,-0.00614060973748565,-0.0756944492459297,-0.114761807024479,-0.0975519344210625,-0.0810319036245346
396,-0.107037156820297,-0.00380063592456281,-0.0738720446825027,-0.111136212944984,-0.0991678386926651,-0.0771990194916725
397,-0.100879468023777,-0.000623278901912272,-0.0712752491235733,-0.106719069182873,-0.0977063551545143,-0.0710458382964134
398,-0.0945393368601799,0.000207438715733588,-0.0700367912650108,-0.103527642786503,-0.0944236740469933,-0.0663860067725182
399,-0.0904368758201599,-0.0026990994811058,-0.0709685310721397,-0.102802366018295,-0.091313511133194,-0.0652597025036812
400,-0.0874422043561935,-0.00732742389664054,-0.0728214755654335,-0.103556394577026,-0.0882892161607742,-0.0666776821017265
401,-0.084487609565258,-0.0111810760572553,-0.0747349783778191,-0.104466676712036,-0.0848711654543877,-0.068829134106636
402,-0.0837330892682076,-0.0138822812587023,-0.0773491486907005,-0.10557048022747,-0.082889087498188,-0.0705814436078072
403,-0.0865562558174133,-0.015626760199666,-0.0803118646144867,-0.106990985572338,-0.0837661400437355,-0.0709491446614265
404,-0.091085858643055,-0.0164760388433933,-0.0825267359614372,-0.108679085969925,-0.0863353088498116,-0.0700766891241074
405,-0.0956453606486321,-0.0173629373311996,-0.0845483541488647,-0.110906735062599,-0.0895890817046165,-0.0692468211054802
406,-0.0998103991150856,-0.0178308300673962,-0.0868577882647514,-0.11237820237875,-0.0937974974513054,-0.067484013736248
407,-0.103183165192604,-0.0163582116365433,-0.0888991057872772,-0.111605830490589,-0.0986263304948807,-0.0638981238007545
408,-0.104692541062832,-0.0132043613120914,-0.0901179909706116,-0.109324671328068,-0.101118728518486,-0.0614456087350845
409,-0.103740714490414,-0.00986320804804564,-0.0907332003116608,-0.106916628777981,-0.0990863665938377,-0.0629108920693398
410,-0.102827459573746,-0.00836886465549469,-0.0928827747702599,-0.105916500091553,-0.0962346196174622,-0.0682618096470833
411,-0.105031684041023,-0.0101565541699529,-0.097513385117054,-0.107194267213345,-0.0968288332223892,-0.0760855451226234
412,-0.109770812094212,-0.0142972469329834,-0.102196864783764,-0.109347313642502,-0.0998295471072197,-0.0840371549129486
413,-0.1144690066576,-0.0187913905829191,-0.104526057839394,-0.110311448574066,-0.102733500301838,-0.0901716351509094
414,-0.117585703730583,-0.0229375679045916,-0.10397993773222,-0.110008455812931,-0.104802407324314,-0.0947096943855286
415,-0.119164191186428,-0.027279244735837,-0.10158783197403,-0.110525138676167,-0.105547346174717,-0.0983231291174889
416,-0.119953155517578,-0.0314267389476299,-0.099034458398819,-0.112807296216488,-0.105050578713417,-0.0993696302175522
417,-0.120366156101227,-0.0343320555984974,-0.0975776761770248,-0.115332469344139,-0.105292841792107,-0.0964991748332977
418,-0.120222941040993,-0.0365990996360779,-0.0977203026413918,-0.116716109216213,-0.107216268777847,-0.0914748981595039
419,-0.118991240859032,-0.0390394702553749,-0.0994361415505409,-0.11680530756712,-0.109914928674698,-0.086500845849514
420,-0.116366364061832,-0.0414683185517788,-0.102199271321297,-0.116033032536507,-0.112530909478664,-0.0828821957111359
421,-0.111828058958054,-0.0434418544173241,-0.103795722126961,-0.11382107436657,-0.112879142165184,-0.0805681347846985
422,-0.106143079698086,-0.0447063706815243,-0.10280504822731,-0.10956934094429,-0.109795652329922,-0.0786249861121178
423,-0.102514058351517,-0.0463208556175232,-0.101475171744823,-0.105122722685337,-0.106458969414234,-0.0778420120477676
424,-0.102508999407291,-0.0493973419070244,-0.101870812475681,-0.102423131465912,-0.106163613498211,-0.0788503289222717
425,-0.104063630104065,-0.0532597936689854,-0.102853760123253,-0.101218432188034,-0.107705280184746,-0.0804974064230919
426,-0.104022592306137,-0.0559484399855137,-0.101746968924999,-0.0999966040253639,-0.10635469853878,-0.0815354138612747
427,-0.101947829127312,-0.0563616380095482,-0.0976069420576096,-0.0979645475745201,-0.0999919772148132,-0.0815885066986084
428,-0.100218176841736,-0.0554703325033188,-0.0923343896865845,-0.0957147181034088,-0.0925092101097107,-0.0813461989164352
429,-0.10038685053587,-0.0550167672336102,-0.0885150954127312,-0.0941910445690155,-0.0890021249651909,-0.081801526248455
430,-0.102471694350243,-0.0560118928551674,-0.0876430794596672,-0.0939865186810493,-0.0909646898508072,-0.0835183709859848
431,-0.105193227529526,-0.057790283113718,-0.0886383429169655,-0.0945527628064156,-0.0955790132284164,-0.0859965309500694
432,-0.105939321219921,-0.0582804791629314,-0.0883653983473778,-0.094061866402626,-0.0983664840459824,-0.0866800174117088
433,-0.104112796485424,-0.0569737665355206,-0.0860063806176186,-0.0919854417443275,-0.0977598205208778,-0.0842743217945099
434,-0.101860828697681,-0.0554824508726597,-0.0835259109735489,-0.090028740465641,-0.0945062413811684,-0.0818387269973755
435,-0.100264959037304,-0.0538936480879784,-0.0816698223352432,-0.0888059735298157,-0.088677205145359,-0.0817134082317352
436,-0.0998217165470123,-0.0517769865691662,-0.0807439014315605,-0.0881209820508957,-0.0816225633025169,-0.0828392952680588
437,-0.100961439311504,-0.050449725240469,-0.0809707716107368,-0.0883492007851601,-0.0755546092987061,-0.083803728222847
438,-0.101928055286407,-0.050232321023941,-0.0804926156997681,-0.0884549841284752,-0.0702500343322754,-0.0833431258797646
439,-0.100890524685383,-0.0500079207122326,-0.0782115161418915,-0.0873239114880562,-0.0645334124565125,-0.0808923095464706
440,-0.0987831726670265,-0.0498933531343937,-0.0759251564741135,-0.0861861035227776,-0.0597263723611832,-0.0781186521053314
441,-0.097496896982193,-0.0503989197313786,-0.0749447271227837,-0.0863142982125282,-0.057821124792099,-0.0766740366816521
442,-0.0975052714347839,-0.0505729168653488,-0.0741473957896233,-0.0865749344229698,-0.0581837855279446,-0.0758949890732765
443,-0.0980042591691017,-0.0492363497614861,-0.0723598673939705,-0.0850706622004509,-0.0590183399617672,-0.0742864310741425
444,-0.0990533456206322,-0.0472898036241531,-0.0707272663712502,-0.0822752639651299,-0.0601441413164139,-0.0713723227381706
445,-0.102722607553005,-0.0470147654414177,-0.0719812214374542,-0.0808598548173904,-0.0633762404322624,-0.0678901448845863
446,-0.108872950077057,-0.0478196553885937,-0.0758916214108467,-0.0812623053789139,-0.0685237273573875,-0.0642131567001343
447,-0.113767251372337,-0.0468434542417526,-0.0788670480251312,-0.0811646059155464,-0.0723606497049332,-0.0599724799394608
448,-0.115875020623207,-0.0440662428736687,-0.0796220600605011,-0.0803481489419937,-0.0738275945186615,-0.0562959164381027
449,-0.117631904780865,-0.0416933782398701,-0.0800786763429642,-0.0810773000121117,-0.0752120390534401,-0.0549601167440414
450,-0.12028618901968,-0.0398222766816616,-0.0806618854403496,-0.0832942128181458,-0.0773633942008018,-0.0550234839320183
451,-0.121705785393715,-0.0361630544066429,-0.0798634141683578,-0.0847761929035187,-0.0780336782336235,-0.0547241568565369
452,-0.12047117203474,-0.0274227689951658,-0.0778645575046539,-0.0852336212992668,-0.0760221034288406,-0.0545344650745392
453,-0.118471331894398,-0.010743984952569,-0.0765026211738586,-0.0859760865569115,-0.0732327029109001,-0.0554326921701431
454,-0.11722356826067,0.0134486351162195,-0.0760190337896347,-0.08743005245924,-0.0707712322473526,-0.0568580850958824
455,-0.115216344594955,0.0410557389259338,-0.0747335776686668,-0.0887911096215248,-0.0668348968029022,-0.057762548327446
456,-0.112027585506439,0.0673413500189781,-0.0719772949814796,-0.0889441519975662,-0.0610892362892628,-0.0578811131417751
457,-0.110213592648506,0.0890185236930847,-0.0687239617109299,-0.0870343074202538,-0.0563030242919922,-0.0567888244986534
458,-0.111555248498917,0.103610940277576,-0.0667798742651939,-0.0838500410318375,-0.0543069466948509,-0.0550962053239346
459,-0.115675784647465,0.110041961073875,-0.0679880008101463,-0.0818928405642509,-0.0549025163054466,-0.0548513568937778
460,-0.120456099510193,0.110536441206932,-0.0713893175125122,-0.0816267132759094,-0.0568553730845451,-0.0556041784584522
461,-0.123231694102287,0.108506239950657,-0.0738932266831398,-0.0814637243747711,-0.0583004653453827,-0.055666122585535
462,-0.122520782053471,0.106448784470558,-0.0737579837441444,-0.0805064812302589,-0.0582213811576366,-0.0544169247150421
463,-0.117590129375458,0.106433570384979,-0.0704182460904121,-0.077801413834095,-0.0556422173976898,-0.0509525313973427
464,-0.109795369207859,0.108235888183117,-0.0654059052467346,-0.073622852563858,-0.0502568371593952,-0.0461354590952396
465,-0.103275559842587,0.11001543700695,-0.0623060949146748,-0.0705259218811989,-0.0448618046939373,-0.0421791858971119
466,-0.100298665463924,0.111418917775154,-0.0619858093559742,-0.0693812668323517,-0.0418097078800201,-0.0394122041761875
467,-0.0980880334973335,0.113960519433022,-0.0614588521420956,-0.0672256648540497,-0.0401204004883766,-0.0355234593153
468,-0.0934490859508514,0.118403539061546,-0.0589751936495304,-0.0619821213185787,-0.0388505682349205,-0.0288233887404203
469,-0.0877373218536377,0.121928162872791,-0.0566309243440628,-0.0562920831143856,-0.0388519018888474,-0.0222598500549793
470,-0.0844381973147392,0.121225386857986,-0.0567943789064884,-0.0535111539065838,-0.0404959134757519,-0.0199218168854713
471,-0.0842769369482994,0.116772100329399,-0.0591310039162636,-0.0536065809428692,-0.041788212954998,-0.0221075844019651
472,-0.0853404775261879,0.11138279736042,-0.062119472771883,-0.0548818595707417,-0.0409738272428513,-0.0265894383192062
473,-0.0854607820510864,0.108295120298862,-0.0641252622008324,-0.055605236440897,-0.0387629456818104,-0.0307707414031029
474,-0.0831939876079559,0.109348006546497,-0.0636269077658653,-0.0546685829758644,-0.0360098257660866,-0.0331040509045124
475,-0.0791376680135727,0.112872906029224,-0.0607203096151352,-0.0525986365973949,-0.0332411751151085,-0.0338923633098602
476,-0.074250727891922,0.116939701139927,-0.0560644306242466,-0.0496294237673283,-0.0306607354432344,-0.0324881784617901
477,-0.0691106840968132,0.120527073740959,-0.0510846450924873,-0.046123281121254,-0.0286167059093714,-0.0283908843994141
478,-0.0650027468800545,0.122275151312351,-0.0478338561952114,-0.0431483648717403,-0.0284554492682219,-0.0235226470977068
479,-0.062505379319191,0.12166989594698,-0.0460036806762218,-0.0403833612799644,-0.0303246974945068,-0.0192086417227983
480,-0.0609597824513912,0.115578562021255,-0.0442192703485489,-0.0378976985812187,-0.0324353724718094,-0.0160686634480953
481,-0.0593739598989487,0.0988411530852318,-0.0426497459411621,-0.0371709987521172,-0.0331297777593136,-0.0150533244013786
482,-0.0574412606656551,0.0731616988778114,-0.0421531423926353,-0.0385168008506298,-0.0325127765536308,-0.0153238782659173
483,-0.0547910407185555,0.0473068282008171,-0.0421447828412056,-0.0399868376553059,-0.0311798769980669,-0.0142165319994092
484,-0.0514780357480049,0.0273172594606876,-0.0414617545902729,-0.0399878285825253,-0.0291752237826586,-0.0110195428133011
485,-0.049261212348938,0.0126905040815473,-0.0404660776257515,-0.0390534438192844,-0.027207687497139,-0.00764086842536926
486,-0.0481281653046608,0.00186703901272267,-0.0392897054553032,-0.0372762009501457,-0.0254948809742928,-0.00455016875639558
487,-0.0458610281348228,-0.00533271068707109,-0.0372915342450142,-0.0340252593159676,-0.0237737502902746,-0.00067532534012571
488,-0.0428092107176781,-0.00966046564280987,-0.0351692475378513,-0.0300703961402178,-0.0238412823528051,0.00359789072535932
489,-0.0410587377846241,-0.0115598738193512,-0.0337823405861855,-0.0265681073069572,-0.0270243845880032,0.00702221039682627
490,-0.0410228744149208,-0.0112662939354777,-0.0332678519189358,-0.0240672584623098,-0.0321282893419266,0.00815526023507118
491,-0.0412499718368053,-0.00984014011919498,-0.0331317894160748,-0.0223876256495714,-0.0367685221135616,0.00627762218937278
492,-0.0410516411066055,-0.0089461812749505,-0.0328289270401001,-0.0214611999690533,-0.0395483486354351,0.00303380750119686
493,-0.0425793528556824,-0.0110027203336358,-0.0334893465042114,-0.0223987009376287,-0.0423357151448727,0.000239305838476866
494,-0.0461766608059406,-0.0159142781049013,-0.0348394475877285,-0.0244011245667934,-0.0460149981081486,-0.000927313114516437
495,-0.048762109130621,-0.0208190083503723,-0.0345706902444363,-0.0250787138938904,-0.0484891198575497,0.000236073246924207
496,-0.0487395040690899,-0.0241496786475182,-0.0324235484004021,-0.0243530832231045,-0.0485529191792011,0.00306242029182613
497,-0.0470874905586243,-0.0251213740557432,-0.0295934081077576,-0.023270208388567,-0.046956904232502,0.00677049579098821
498,-0.0455825217068195,-0.0235556568950415,-0.0270299557596445,-0.0227076057344675,-0.0450680926442146,0.00973942037671804
499,-0.0454418621957302,-0.0211249273270369,-0.0257863029837608,-0.0235812831670046,-0.0435243546962738,0.0096991341561079
500,-0.0469716563820839,-0.0202056020498276,-0.0268546584993601,-0.0261445268988609,-0.0435728505253792,0.00647085020318627
501,-0.0496398247778416,-0.0218335594981909,-0.0300674010068178,-0.0298237316310406,-0.0460129454731941,0.00168123026378453
502,-0.0525662712752819,-0.0251497905701399,-0.0339413546025753,-0.0334462895989418,-0.0488499030470848,-0.00314703467302024
503,-0.0545288249850273,-0.0280748046934605,-0.036353312432766,-0.035382803529501,-0.0497386902570724,-0.00670434441417456
504,-0.055426899343729,-0.0294923316687346,-0.0366644002497196,-0.0355208292603493,-0.0492187924683094,-0.008506472222507
505,-0.056491881608963,-0.030093839392066,-0.0358751155436039,-0.0350402593612671,-0.0488559193909168,-0.00853484217077494
506,-0.0570549182593822,-0.0301674567162991,-0.0341541655361652,-0.0339736193418503,-0.0484101213514805,-0.00596840959042311
507,-0.056028675287962,-0.0300408117473125,-0.0317178033292294,-0.0326230451464653,-0.0475367866456509,-0.00177848292514682
508,-0.0534343384206295,-0.0298352986574173,-0.0290993843227625,-0.0310190934687853,-0.0459621548652649,0.00205866899341345
509,-0.0498114340007305,-0.0289409495890141,-0.0268163774162531,-0.0284627564251423,-0.0439236983656883,0.00581017462536693
510,-0.0462969914078712,-0.0279911644756794,-0.0252259988337755,-0.026029285043478,-0.0424793660640717,0.00980404578149319
511,-0.0437328480184078,-0.0286507625132799,-0.024324482306838,-0.0256087984889746,-0.0420183725655079,0.0125593263655901
512,-0.0424837805330753,-0.0317258797585964,-0.0248396582901478,-0.0278146546334028,-0.0426548644900322,0.0127810416743159
513,-0.0421039462089539,-0.0362645350396633,-0.0269467700272799,-0.0318387411534786,-0.0428403466939926,0.0113243022933602
514,-0.0426922924816608,-0.0410556457936764,-0.0298565570265055,-0.0365845635533333,-0.0401538014411926,0.00972909852862358
515,-0.0456684865057468,-0.0456958599388599,-0.0333141945302486,-0.0418670624494553,-0.0355072505772114,0.00778183620423079
516,-0.0504665672779083,-0.0489063151180744,-0.0363891199231148,-0.046921219676733,-0.0317266918718815,0.0055289282463491
517,-0.0553196929395199,-0.0498961918056011,-0.0379448942840099,-0.0502864494919777,-0.0308473370969296,0.00378069747239351
518,-0.0595428980886936,-0.0496882647275925,-0.0382577888667583,-0.0518941171467304,-0.0337494499981403,0.00234251795336604
519,-0.062203474342823,-0.0490116328001022,-0.037504181265831,-0.0527115613222122,-0.038165308535099,0.000696202216204256
520,-0.0631467774510384,-0.0478590652346611,-0.0355318672955036,-0.05313865467906,-0.0405432395637035,-0.00119480188004673
521,-0.063662014901638,-0.0460463613271713,-0.0331340804696083,-0.0527937337756157,-0.0405230335891247,-0.00295574613846838
522,-0.0647470951080322,-0.0439459681510925,-0.0314389951527119,-0.0517664924263954,-0.0400459095835686,-0.00493188761174679
523,-0.0661753788590431,-0.042731586843729,-0.0303937569260597,-0.0507393851876259,-0.0401279926300049,-0.0075211999937892
524,-0.0671588927507401,-0.0431173071265221,-0.0293686706572771,-0.0504197888076305,-0.0404456593096256,-0.0102542024105787
525,-0.0677136480808258,-0.0442346334457397,-0.0283242147415876,-0.0507263615727425,-0.0405171029269695,-0.0125643741339445
526,-0.0679525882005692,-0.0443556345999241,-0.0268626473844051,-0.0503095723688602,-0.0396871045231819,-0.0141933364793658
527,-0.0664900317788124,-0.0418236702680588,-0.0237055029720068,-0.0473385341465473,-0.0365794263780117,-0.0142251448705792
528,-0.0622412748634815,-0.0364659503102303,-0.0188192706555128,-0.0412026084959507,-0.030812481418252,-0.0117725115269423
529,-0.0568951368331909,-0.0308710914105177,-0.0149183720350266,-0.0344714522361755,-0.0253768619149923,-0.00895324908196926
530,-0.0533675514161587,-0.0283783450722694,-0.0153212510049343,-0.031463261693716,-0.0240335892885923,-0.00961645785719156
531,-0.052456583827734,-0.0292118899524212,-0.0199674349278212,-0.0328414514660835,-0.0264227278530598,-0.0139287272468209
532,-0.0518963672220707,-0.0296022277325392,-0.0249878950417042,-0.0344580709934235,-0.029243802651763,-0.0175040792673826
533,-0.0497135743498802,-0.0274363774806261,-0.0276736840605736,-0.0340230762958527,-0.0302718486636877,-0.0181277822703123
534,-0.0461500510573387,-0.0245414096862078,-0.028528019785881,-0.0331660434603691,-0.0289853718131781,-0.0169418808072805
535,-0.0416124947369099,-0.0222549922764301,-0.0284350346773863,-0.0328167341649532,-0.0259440876543522,-0.0139455711469054
536,-0.0376631282269955,-0.0216565243899822,-0.028549050912261,-0.0333273857831955,-0.0235349088907242,-0.0105697847902775
537,-0.0361137092113495,-0.0225976724177599,-0.0295664705336094,-0.0340337008237839,-0.0232825875282288,-0.00841890368610621
538,-0.0362225845456123,-0.0216130707412958,-0.0302734989672899,-0.0317403562366962,-0.023696968331933,-0.00492013012990355
539,-0.0372329652309418,-0.0172210335731506,-0.0303926728665829,-0.0250920131802559,-0.0247652698308229,0.00203061616048217
540,-0.0387413911521435,-0.0110396929085255,-0.0305448304861784,-0.0158023927360773,-0.0274110436439514,0.0115115819498897
541,-0.039867851883173,-0.00496561359614134,-0.0306790117174387,-0.00761706614866853,-0.0299126654863358,0.0197981912642717
542,-0.0389833115041256,-0.000412046443670988,-0.0305686667561531,-0.00479994947090745,-0.0293838325887918,0.0217510517686605
543,-0.0338528193533421,0.00243670050986111,-0.0302167274057865,-0.00796468183398247,-0.0243952181190252,0.0160251352936029
544,-0.0261342842131853,0.00316276890225708,-0.0308522284030914,-0.014872613362968,-0.016923438757658,0.00543148582801223
545,-0.0204068217426538,0.0013761967420578,-0.0331653691828251,-0.0226657688617706,-0.0103618865832686,-0.00597721105441451
546,-0.0181276760995388,-0.00169169041328132,-0.0354839563369751,-0.0281395614147186,-0.00599747290834785,-0.0148412929847836
547,-0.0181192792952061,-0.00498714484274387,-0.0364872477948666,-0.0303523205220699,-0.00387745071202517,-0.020793255418539
548,-0.0187800414860249,-0.00734948506578803,-0.0365920141339302,-0.0305347666144371,-0.00411959178745747,-0.0245254021137953
549,-0.0182592011988163,-0.00628850189968944,-0.0364454686641693,-0.0292300544679165,-0.00586346723139286,-0.0246033500880003
550,-0.0164228640496731,-0.00183260056655854,-0.0368656180799007,-0.0269426461309195,-0.00792571995407343,-0.0205701123923063
551,-0.014100881293416,0.00326680601574481,-0.0376973338425159,-0.024004714563489,-0.00954760238528252,-0.0140669196844101
552,-0.0107962116599083,0.00773435411974788,-0.0367966815829277,-0.0196189023554325,-0.00990109052509069,-0.00598753476515412
553,-0.00618021748960018,0.0109110753983259,-0.0331904180347919,-0.0143937142565846,-0.00905560236424208,0.00157240859698504
554,-0.0020889004226774,0.0107168136164546,-0.0295402202755213,-0.0114768203347921,-0.008650210686028,0.00384334684349597
555,-0.00100774795282632,0.00648485729470849,-0.0286103915423155,-0.012587615288794,-0.00994148105382919,-0.00126695074141026
556,-0.00222525908611715,0.00181047862861305,-0.0288012679666281,-0.0149842388927937,-0.0112395687028766,-0.00952366925776005
557,-0.00214596814475954,0.00107317662332207,-0.0264058522880077,-0.0148436743766069,-0.00949153304100037,-0.0146210808306932
558,0.000631573901046067,0.00436028931289911,-0.0212508328258991,-0.0121406968683004,-0.00479798344895244,-0.0146637996658683
559,0.0034977700561285,0.00864626280963421,-0.0170431714504957,-0.0096594113856554,-0.000799481174908578,-0.0122849177569151
560,0.00436874991282821,0.012244813144207,-0.0154285868629813,-0.00772701390087605,0.000566719332709908,-0.00916408002376556
561,0.00448564719408751,0.0150382984429598,-0.0141547871753573,-0.00445738341659307,0.00101386243477464,-0.00543427746742964
562,0.00475756078958511,0.0160303004086018,-0.0121624525636435,-0.00067819090327248,0.00134324957616627,-0.00270114233717322
563,0.00364496349357069,0.0142372632399201,-0.011070785112679,0.000834312406368554,0.000116085320769344,-0.00273920502513647
564,4.57892165286466E-05,0.0104024931788445,-0.0120275281369686,-0.000917916360776871,-0.00332853337749839,-0.00524241244420409
565,-0.004988435190171,0.00600988045334816,-0.0144909135997295,-0.00480528268963099,-0.00759209273383021,-0.00810465402901173
566,-0.0102089326828718,0.00199432414956391,-0.0179424677044153,-0.00931253749877214,-0.0112899411469698,-0.00980597361922264
567,-0.0147883836179972,-0.000430048152338713,-0.0218999981880188,-0.0132038854062557,-0.0142417959868908,-0.0104191871359944
568,-0.0179401244968176,4.54055953014176E-05,-0.0253816992044449,-0.0154764726758003,-0.0164761766791344,-0.0103200459852815
569,-0.0196732580661774,0.00272937794215977,-0.0278138760477304,-0.0157052036374807,-0.0183119643479586,-0.00981300231069326
570,-0.0194792728871107,0.00628928327932954,-0.0280020013451576,-0.0134511403739452,-0.0190883968025446,-0.00859372410923243
571,-0.0161675456911325,0.0105754192918539,-0.025021081790328,-0.00891184434294701,-0.0173657238483429,-0.00621696328744292
572,-0.0107975229620934,0.0146893160417676,-0.020271172747016,-0.00410536071285605,-0.0141042964532971,-0.0032857593614608
573,-0.00647518411278725,0.0175547786056995,-0.0160240549594164,-0.00127312354743481,-0.0115876840427518,-0.000652765040285885
574,-0.00456166639924049,0.0224141757935286,-0.0134915672242641,-0.000680202036164701,-0.0102234138175845,0.00150091748218983
575,-0.00416118931025267,0.0343497432768345,-0.012306148186326,-0.000866783375386149,-0.00952314306050539,0.00371240288950503
576,-0.0050854841247201,0.0518934279680252,-0.0120192803442478,-0.00107330444734544,-0.00992422457784414,0.00635637901723385
577,-0.00763916922733188,0.0685287490487099,-0.0136049743741751,-0.00196547922678292,-0.0121748531237245,0.00920372270047665
578,-0.0107363099232316,0.0803004503250122,-0.0173902790993452,-0.00379535346291959,-0.0160364359617233,0.0120954066514969
579,-0.0131914876401424,0.0870128124952316,-0.0211894232779741,-0.00589517084881663,-0.0198841374367476,0.0146892396733165
580,-0.0146245062351227,0.0907803177833557,-0.0225074589252472,-0.00750210834667087,-0.0216701999306679,0.0163498520851135
581,-0.0152303129434586,0.0940261408686638,-0.0213688276708126,-0.00881766807287931,-0.0207073725759983,0.0163676794618368
582,-0.0164700802415609,0.0972242206335068,-0.0197566244751215,-0.010796426795423,-0.018932368606329,0.0147362817078829
583,-0.0189734492450953,0.0997033193707466,-0.0184817314147949,-0.0128394961357117,-0.0181536972522736,0.0126429479569197
584,-0.0208924654871225,0.100683070719242,-0.0167445167899132,-0.013175368309021,-0.0172764025628567,0.0111858630552888
585,-0.0207046214491129,0.0998033881187439,-0.0143308378756046,-0.0116335041821003,-0.0145957255735993,0.0107858516275883
586,-0.0194033086299896,0.0969183668494225,-0.0125874355435371,-0.010475710965693,-0.0109014147892594,0.0103568620979786
587,-0.0196520909667015,0.0917037725448608,-0.0139809539541602,-0.0126037877053022,-0.00920392386615276,0.00728988694027066
588,-0.0220119301229715,0.0862444341182709,-0.0188801661133766,-0.0178612358868122,-0.0103330593556166,0.0018169223330915
589,-0.0240320507436991,0.0838632881641388,-0.0244156308472157,-0.0235757417976856,-0.0114956256002188,-0.00234283623285592
590,-0.0249407645314932,0.083966389298439,-0.0288789141923189,-0.0288334749639034,-0.0116234701126814,-0.00339826894924045
591,-0.0266529489308596,0.0830260738730431,-0.0330638401210308,-0.0341651812195778,-0.0136315412819386,-0.00265969661995769
592,-0.029582554474473,0.0796099230647087,-0.0367809385061264,-0.0388180203735828,-0.018772054463625,-0.00125049019698054
593,-0.0329091437160969,0.075043223798275,-0.038940716534853,-0.0415877774357796,-0.0249208863824606,0.000727000937331468
594,-0.0369354709982872,0.0706170126795769,-0.039650984108448,-0.0429281443357468,-0.0304108709096909,0.00236090016551316
595,-0.0405092425644398,0.0676028728485107,-0.0390623435378075,-0.0436283871531487,-0.0342398546636105,0.00288906809873879
596,-0.0411030575633049,0.0672435760498047,-0.0373387522995472,-0.0435072183609009,-0.0358770415186882,0.00314502813853323
597,-0.0384653061628342,0.0690294876694679,-0.0351986922323704,-0.0423102676868439,-0.035508006811142,0.00400999374687672
598,-0.0347925126552582,0.0712506026029587,-0.0333438515663147,-0.0402208045125008,-0.0342543609440327,0.00543703977018595
599,-0.0320889316499233,0.0725962892174721,-0.0322002284228802,-0.0379472523927689,-0.0333539359271526,0.00679139513522387
600,-0.0305084213614464,0.0727286711335182,-0.0313061289489269,-0.0363248065114021,-0.031974982470274,0.00694918166846037
601,-0.0290195494890213,0.0717895701527596,-0.02968461625278,-0.0355439782142639,-0.0287901628762484,0.00558852404356003
602,-0.0271967239677906,0.0696408897638321,-0.0275280233472586,-0.0352734662592411,-0.0247086510062218,0.0039922739379108
603,-0.0266399588435888,0.0655749440193176,-0.0271016806364059,-0.0360183976590633,-0.0232382416725159,0.00256405165418983
604,-0.0283620413392782,0.060565784573555,-0.0290482603013515,-0.0379013009369373,-0.0261300634592772,0.00152989604976028
605,-0.0307625643908978,0.0570084005594254,-0.0306201539933681,-0.0397037155926228,-0.0305525828152895,0.00189297506585717
606,-0.0310574769973755,0.0561346001923084,-0.0292129069566727,-0.0400582253932953,-0.0324483886361122,0.00390158989466727
607,-0.0281441044062376,0.0574538111686707,-0.0251507759094238,-0.0387380979955196,-0.0307241771370173,0.0066299200989306
608,-0.0247772429138422,0.0583133958280087,-0.0210503581911325,-0.0375800430774689,-0.0277812648564577,0.00771942595019937
609,-0.0241145323961973,0.0566700287163258,-0.01847929880023,-0.0379622653126717,-0.0257685091346502,0.00589909357950091
610,-0.0271190479397774,0.0527725778520107,-0.0178182199597359,-0.0398707762360573,-0.025637274608016,0.00186496833339334
611,-0.0325218103826046,0.0476951375603676,-0.0188757255673409,-0.042801707983017,-0.0274313576519489,-0.00274030910804868
612,-0.0372659899294376,0.0424240864813328,-0.0209038443863392,-0.0462458580732346,-0.0300026293843985,-0.00644846819341183
613,-0.0392824374139309,0.0375020429491997,-0.0235587302595377,-0.0499937869608402,-0.0327316746115685,-0.00884770415723324
614,-0.0396997220814228,0.032761137932539,-0.0269439369440079,-0.0538293533027172,-0.0361950136721134,-0.0103419134393334
615,-0.0410135947167873,0.0275881495326757,-0.0309890303760767,-0.0576562359929085,-0.0406996160745621,-0.0124113149940968
616,-0.0431520268321037,0.022258909419179,-0.0345072336494923,-0.0606075748801231,-0.0453245639801025,-0.0154453115537763
617,-0.044571541249752,0.0171113163232803,-0.0365451350808144,-0.0621210485696793,-0.0492307022213936,-0.0187051612883806
618,-0.0445742681622505,0.0126646310091019,-0.0370453000068665,-0.0627471953630447,-0.0514638721942902,-0.0219284649938345
619,-0.0437791459262371,0.00953466724604368,-0.0367746166884899,-0.0630992203950882,-0.0516768582165241,-0.0250477716326714
620,-0.0436637327075005,0.00696846703067422,-0.0375043414533138,-0.0635697618126869,-0.0518692471086979,-0.0284839682281017
621,-0.0437344498932362,0.00581781519576907,-0.0390492752194405,-0.0632527619600296,-0.0530503205955029,-0.0315893106162548
622,-0.042949240654707,0.0081085953861475,-0.0396632477641106,-0.0610114298760891,-0.0545678399503231,-0.0322909876704216
623,-0.042035348713398,0.012896672822535,-0.0394713878631592,-0.0575493052601814,-0.0563461631536484,-0.0301215592771769
624,-0.0407383628189564,0.0185891948640347,-0.0388607829809189,-0.0535098165273666,-0.0570443831384182,-0.0257935654371977
625,-0.038387268781662,0.0244380384683609,-0.0373995192348957,-0.0487854667007923,-0.0556923374533653,-0.0197465289384127
626,-0.0356767699122429,0.0286757368594408,-0.0351158119738102,-0.044071938842535,-0.0531201958656311,-0.013514818623662
627,-0.0329084247350693,0.0303606763482094,-0.0320709235966206,-0.0400794818997383,-0.0490834899246693,-0.00902442540973425
628,-0.030181584879756,0.0308199934661388,-0.0287613216787577,-0.0366979464888573,-0.0439919643104076,-0.00638494361191988
629,-0.0278598424047232,0.0315977148711681,-0.0259606763720512,-0.0334841124713421,-0.039628267288208,-0.00434553204104304
630,-0.0260253641754389,0.0331096313893795,-0.023571128025651,-0.0299384519457817,-0.0364161804318428,-0.00198917929083109
631,-0.0244735293090343,0.0353764370083809,-0.0209687780588865,-0.0257521755993366,-0.0332172513008118,0.00103861291427165
632,-0.0225837156176567,0.0376774072647095,-0.0182464793324471,-0.0217698272317648,-0.0289608333259821,0.00402056239545345
633,-0.0205274764448404,0.0379805415868759,-0.0164903867989779,-0.0199651531875134,-0.0245864782482386,0.00471063004806638
634,-0.0200251303613186,0.0347161255776882,-0.0167788416147232,-0.0217663701623678,-0.02297143638134,0.00172485108487308
635,-0.0217539817094803,0.0291383992880583,-0.0185334607958794,-0.0260005388408899,-0.0257668197154999,-0.00282834679819644
636,-0.0242755673825741,0.0242311246693134,-0.0198337491601706,-0.0298845823854208,-0.0317638553678989,-0.00555558688938618
637,-0.0270544532686472,0.0207812711596489,-0.0208558868616819,-0.0332849249243736,-0.0398749858140945,-0.00639144843444228
638,-0.0305409412831068,0.0177811253815889,-0.0229912865906954,-0.0377159528434277,-0.0492629148066044,-0.0077865244820714
639,-0.0336817763745785,0.01520358864218,-0.0250560585409403,-0.0424363389611244,-0.0564212203025818,-0.0108434641733766
640,-0.0359204709529877,0.0125808659940958,-0.0254686325788498,-0.0459662303328514,-0.0588925965130329,-0.0148661844432354
641,-0.037645947188139,0.00974920764565468,-0.024175001308322,-0.0470493547618389,-0.0579966381192207,-0.01727937720716
642,-0.0380365401506424,0.00813479907810688,-0.0219104439020157,-0.0453359298408031,-0.0554813891649246,-0.0160812363028526
643,-0.0371334180235863,0.00753783201798797,-0.0204635094851255,-0.0429729409515858,-0.0530501492321491,-0.0131427757441998
644,-0.0353488847613335,0.00712497532367706,-0.0195436924695969,-0.041529968380928,-0.0506309904158115,-0.0112445009872317
645,-0.0320112444460392,0.00714346440508962,-0.0162240546196699,-0.0403029136359692,-0.0457110442221165,-0.0110118975862861
646,-0.0280166417360306,0.00672442140057683,-0.0100418711081147,-0.0383363850414753,-0.038346778601408,-0.0118136303499341
647,-0.0257851462811232,0.00464082276448607,-0.00421472080051899,-0.0359393022954464,-0.0325158983469009,-0.0132261011749506
648,-0.0267482940107584,0.00195231905672699,-0.00270965811796486,-0.0342520028352737,-0.0330899879336357,-0.0144652863964438
649,-0.0300475042313337,0.000990713015198708,-0.00730848219245672,-0.0338304154574871,-0.0418408550322056,-0.0146230347454548
650,-0.0338108316063881,0.00147598213516176,-0.0163996852934361,-0.0352789908647537,-0.0554342307150364,-0.0152174485847354
651,-0.0367131866514683,0.00142089661676437,-0.0257715322077274,-0.0386622175574303,-0.0678406655788422,-0.0178556889295578
652,-0.038895770907402,-0.000104159989859909,-0.032450832426548,-0.0430921278893948,-0.0753876566886902,-0.0214626248925924
653,-0.0417993366718292,-0.00317574036307633,-0.0373109057545662,-0.0479651354253292,-0.0787336751818657,-0.0242875777184963
654,-0.0451759770512581,-0.00683421222493052,-0.041585985571146,-0.0523899123072624,-0.0796479657292366,-0.0250949282199144
655,-0.0480111986398697,-0.0104174744337797,-0.0451682396233082,-0.0558428913354874,-0.0798263102769852,-0.0244318842887878
656,-0.0505962818861008,-0.0140373855829239,-0.0484021082520485,-0.0584908463060856,-0.0814742296934128,-0.0238604117184877
657,-0.0526231676340103,-0.0176824424415827,-0.0517125874757767,-0.0606010667979717,-0.084911897778511,-0.023918280377984
658,-0.0529214888811111,-0.0208203289657831,-0.0539857409894466,-0.0621239356696606,-0.0874167308211327,-0.0239946935325861
659,-0.0516964830458164,-0.0228201132267714,-0.0540761351585388,-0.0626814663410187,-0.0872518941760063,-0.0233033858239651
660,-0.0496688224375248,-0.0236695799976587,-0.0519397519528866,-0.0618693344295025,-0.0851021185517311,-0.022007692605257
661,-0.0465595163404942,-0.0229360926896334,-0.047522708773613,-0.0589385144412518,-0.081358328461647,-0.0200086776167154
662,-0.0437984876334667,-0.0209502708166838,-0.0425275564193726,-0.0548356845974922,-0.0775605514645576,-0.0172181967645884
663,-0.0431867651641369,-0.019517807289958,-0.0394552201032639,-0.0517986044287682,-0.0763327553868294,-0.0145323276519775
664,-0.0439507737755775,-0.0199501421302557,-0.0385774858295918,-0.0504962764680386,-0.0779838487505913,-0.0129932081326842
665,-0.0444605574011803,-0.0219094529747963,-0.0384198762476444,-0.0499525181949139,-0.0803950950503349,-0.0126752173528075
666,-0.0437340997159481,-0.0238885078579187,-0.0370611138641834,-0.0487202219665051,-0.0806096941232681,-0.0121569223701954
667,-0.0427259914577007,-0.025305749848485,-0.0345589742064476,-0.0470568314194679,-0.0780619010329247,-0.0104519939050078
668,-0.0440060645341873,-0.0274216588586569,-0.0331144407391548,-0.0469345711171627,-0.076052337884903,-0.00887601543217897
669,-0.0472335740923882,-0.0307306218892336,-0.0325212702155113,-0.0484893023967743,-0.0762065425515175,-0.00927790533751249
670,-0.0484855212271214,-0.0331805571913719,-0.0302037633955479,-0.0496667288243771,-0.0763047412037849,-0.0113873099908233
671,-0.0469781048595905,-0.033837266266346,-0.0266568474471569,-0.0501069463789463,-0.0758936107158661,-0.0139505593106151
672,-0.0459142588078976,-0.0343832671642303,-0.0247206091880798,-0.0511989146471024,-0.0769978389143944,-0.0162356179207563
673,-0.0461116842925549,-0.035724725574255,-0.0244512688368559,-0.0525970049202442,-0.0794375091791153,-0.0172168388962746
674,-0.0452181063592434,-0.0368644259870052,-0.0230422765016556,-0.0521534346044064,-0.0801468417048454,-0.015682565048337
675,-0.0420477688312531,-0.0369399040937424,-0.0192511696368456,-0.0488328039646149,-0.0774682089686394,-0.0116815716028214
676,-0.0373323373496532,-0.0361947789788246,-0.0144544923678041,-0.0431835241615772,-0.072499044239521,-0.0063703884370625
677,-0.031681016087532,-0.0348689705133438,-0.0097337756305933,-0.035787146538496,-0.0663603395223618,-0.00038882385706529
678,-0.0256199631839991,-0.033499576151371,-0.00559018272906542,-0.0278606526553631,-0.0602007880806923,0.00573187414556742
679,-0.0199747141450644,-0.0333800502121449,-0.00253442884422839,-0.0217155031859875,-0.055666945874691,0.0106785418465734
680,-0.0155613254755735,-0.0355740487575531,-5.07877593918238E-05,-0.0182317029684782,-0.0538720265030861,0.0140061834827065
681,-0.0128486128523946,-0.0406486764550209,0.00309764174744487,-0.0150739485397935,-0.0544319301843643,0.0170901492238045
682,-0.0115220015868545,-0.0478298962116241,0.00724410358816385,-0.0113360686227679,-0.055183332413435,0.0198868550360203
683,-0.0121829798445106,-0.0544925108551979,0.0105339847505093,-0.0110899647697806,-0.0553668215870857,0.0190159659832716
684,-0.0164965894073248,-0.0580417923629284,0.0103030800819397,-0.0170953571796417,-0.0575906373560429,0.012554420158267
685,-0.0236754883080721,-0.0583392269909382,0.00676342099905014,-0.0264625456184149,-0.0630593821406364,0.00321005866862834
686,-0.0307360962033272,-0.0579320453107357,0.00278107658959925,-0.0349594242870808,-0.0686445310711861,-0.00573247577995062
687,-0.0355419218540192,-0.0581779778003693,0.000403517304221168,-0.0402027480304241,-0.0715844705700874,-0.012288105674088
688,-0.0370955467224121,-0.0578012093901634,0.000147158731124364,-0.0414616502821445,-0.0718706399202347,-0.0149185163900256
689,-0.0356809310615063,-0.0560872480273247,0.00191212736535817,-0.0394333489239216,-0.0702276825904846,-0.0138983828946948
690,-0.0325510874390602,-0.0536760725080967,0.00519138015806675,-0.0351054593920708,-0.0676126852631569,-0.0108840242028236
691,-0.0290211495012045,-0.0521860681474209,0.00860432535409927,-0.0302479322999716,-0.0648248419165611,-0.00808265618979931
692,-0.0269132219254971,-0.0533685870468616,0.0103143136948347,-0.0275420360267162,-0.0620715953409672,-0.00732689909636974
693,-0.0268888641148806,-0.0568311847746372,0.0101901777088642,-0.0274401679635048,-0.0594116374850273,-0.00780262984335423
694,-0.02847895398736,-0.0614035278558731,0.00867028255015612,-0.029100900515914,-0.0585189312696457,-0.0082605080679059
695,-0.0312117859721184,-0.0660127326846123,0.00581472739577293,-0.032072626054287,-0.0610270351171494,-0.00915452186018229
696,-0.0329106636345387,-0.0677364692091942,0.00370821729302406,-0.0343086756765842,-0.0641570538282394,-0.00940321758389473
697,-0.0315120667219162,-0.0645381808280945,0.00436073215678334,-0.0336432866752148,-0.0639972239732742,-0.00651200069114566
698,-0.0264766104519367,-0.0581960789859295,0.00753576494753361,-0.0302333068102598,-0.0596866607666016,-0.000641875143628567
699,-0.0199220385402441,-0.0530993342399597,0.0111411772668362,-0.0265058670192957,-0.0542634800076485,0.00458225375041366
700,-0.016788225620985,-0.0527362301945686,0.0126838972792029,-0.0239769015461206,-0.0527864396572113,0.00674679828807712
701,-0.0182512253522873,-0.0566837899386883,0.0129279177635908,-0.0194126218557358,-0.0555312596261501,0.00889492686837912
702,-0.0211886372417212,-0.0628133416175842,0.0135454479604959,-0.011491316370666,-0.0588227920234203,0.0134815759956837
703,-0.0230533145368099,-0.0680879205465317,0.0138153089210391,-0.00588711258023977,-0.0607025101780891,0.0172297451645136
704,-0.0232469532638788,-0.0692880526185036,0.0121971974149346,-0.00752724194899201,-0.061966709792614,0.0166515503078699
705,-0.0231942553073168,-0.0683790072798729,0.0080883651971817,-0.0159955509006977,-0.0640135705471039,0.011344819329679
706,-0.0241075847297907,-0.0702727735042572,0.00339630316011608,-0.0268046390265226,-0.0654933303594589,0.00396854104474187
707,-0.0260436236858368,-0.0763225182890892,0.000194173029740341,-0.0348051153123379,-0.0646889582276344,-0.00109629170037806
708,-0.0285676810890436,-0.0841699913144112,-0.00146197958383709,-0.0375689081847668,-0.0630879178643227,-0.00146554515231401
709,-0.0307768527418375,-0.090930849313736,-0.00225453614257276,-0.0354636944830418,-0.0633529871702194,0.00192107365000993
710,-0.0319899767637253,-0.0953741520643234,-0.00237728166393936,-0.0304950717836618,-0.0658292323350906,0.00619503716006875
711,-0.0322611033916473,-0.0970808416604996,-0.000753617030568421,-0.0245135370641947,-0.0687116086483002,0.00963812321424484
712,-0.0330009311437607,-0.0967479273676872,0.00263014226220548,-0.019334714859724,-0.0707615092396736,0.0122461980208755
713,-0.035782229155302,-0.0970501601696014,0.00561089999973774,-0.0172617416828871,-0.0706172809004784,0.0132070602849126
714,-0.0396455526351929,-0.098832331597805,0.00731424335390329,-0.0184000823646784,-0.0668884292244911,0.012407286092639
715,-0.041792344301939,-0.0999806448817253,0.00869538821280003,-0.0203361045569181,-0.0616804324090481,0.0115793067961931
716,-0.0411768667399883,-0.100055508315563,0.0102110644802451,-0.0215292107313871,-0.0587835758924484,0.010783514007926
717,-0.0395126193761826,-0.100275047123432,0.0119506912305951,-0.0215859469026327,-0.0591568276286125,0.00913855340331793
718,-0.0385542176663876,-0.100652769207954,0.0137195102870464,-0.020695062354207,-0.061476606875658,0.0071842554025352
719,-0.0385818965733051,-0.101012244820595,0.0139833884313703,-0.0203710719943047,-0.0647949427366257,0.00547430757433176
720,-0.0386190563440323,-0.10119267553091,0.0121663305908442,-0.021050900220871,-0.0675956085324287,0.00436875410377979
721,-0.0369548462331295,-0.100158169865608,0.0108413770794868,-0.020702563226223,-0.0669716000556946,0.00508796516805887
722,-0.0335417427122593,-0.0980135649442673,0.0118019124493003,-0.0187027025967836,-0.0630291253328323,0.00774301961064339
723,-0.0300604403018951,-0.0966020748019218,0.0139080407097936,-0.0170114263892174,-0.0586916618049145,0.0102605037391186
724,-0.0273678675293922,-0.0963007658720016,0.0160930473357439,-0.0161725897341967,-0.0551727563142776,0.0121289202943444
725,-0.0255644600838423,-0.0958689600229263,0.0183221604675055,-0.0148070165887475,-0.0524153113365173,0.0147824594751
726,-0.0246278084814548,-0.0953876748681068,0.0205848831683397,-0.0126893501728773,-0.0505767799913883,0.0178258661180735
727,-0.0237770657986403,-0.0951349288225174,0.0227122325450182,-0.0106491949409246,-0.0499831959605217,0.0201592966914177
728,-0.022045761346817,-0.0941746234893799,0.0245615337044001,-0.00872059538960457,-0.0507590137422085,0.022255290299654
729,-0.0194241255521774,-0.0922837629914284,0.0261826980859041,-0.0064690406434238,-0.0525578111410141,0.024320162832737
730,-0.0169579479843378,-0.0904133468866348,0.0272512957453728,-0.00437224190682173,-0.0555155910551548,0.0247574876993895
731,-0.0161237344145775,-0.0892125815153122,0.0272017661482096,-0.00362847629003227,-0.0602690912783146,0.0224229358136654
732,-0.017055181786418,-0.0882386937737465,0.0265596564859152,-0.00448377570137382,-0.0657326281070709,0.0188104622066021
733,-0.0180269312113523,-0.0868231803178787,0.026245191693306,-0.00597215071320534,-0.069278322160244,0.015610110014677
734,-0.0183286909013987,-0.0853569060564041,0.0258836280554533,-0.00742635875940323,-0.0708026885986328,0.0130006093531847
735,-0.0183583404868841,-0.0843423455953598,0.0252353698015213,-0.00832144822925329,-0.0717911943793297,0.0113994833081961
736,-0.0170730594545603,-0.0831302031874657,0.0255082249641418,-0.00783272739499807,-0.0708215162158012,0.0114544862881303
737,-0.0135744335129857,-0.0805688798427582,0.0273133013397455,-0.00575907900929451,-0.0660212710499763,0.0134359793737531
738,-0.00945864524692297,-0.0764524340629578,0.0296585541218519,-0.00279009062796831,-0.0591471344232559,0.0174924377351999
739,-0.0078160623088479,-0.0732253268361092,0.0306210331618786,-0.00100351625587791,-0.05428272113204,0.0217814967036247
740,-0.00944614596664906,-0.0732467100024223,0.0296075381338596,-0.00185056054033339,-0.0529852956533432,0.0236249063163996
741,-0.011457422748208,-0.0752366930246353,0.0285740457475185,-0.00374937150627375,-0.0527699664235115,0.0232957731932402
742,-0.0127797741442919,-0.0779073536396027,0.0278479047119617,-0.0056950650177896,-0.0527110919356346,0.0218255240470171
743,-0.0150431888177991,-0.0815044566988945,0.0262006968259811,-0.00823389366269112,-0.0538115538656712,0.0192066840827465
744,-0.0174033772200346,-0.084535576403141,0.0252031125128269,-0.00988179352134466,-0.054271187633276,0.0171082802116871
745,-0.0192668922245502,-0.0859467759728432,0.0256466753780842,-0.00996000412851572,-0.0537217520177364,0.0165313351899385
746,-0.0213920027017593,-0.0855932533740997,0.0262450706213713,-0.00935664493590593,-0.0545613542199135,0.0172145422548056
747,-0.0221272502094507,-0.082360103726387,0.0273447632789612,-0.00752447638660669,-0.0562123656272888,0.0200794190168381
748,-0.0201570931822062,-0.0772813484072685,0.0291686952114105,-0.00502679962664843,-0.0566462203860283,0.023843614384532
749,-0.0164470467716455,-0.0728523433208466,0.0313450954854488,-0.0033944055903703,-0.0553473904728889,0.025659341365099
750,-0.0125835062935948,-0.0699137300252914,0.0339079163968563,-0.00259815924800932,-0.05278180539608,0.0251400750130415
751,-0.00972365960478783,-0.067807674407959,0.0363448038697243,-0.00185129093006253,-0.0495698414742947,0.0237492211163044
752,-0.0085638165473938,-0.0657206848263741,0.0376695916056633,-0.000772215367760509,-0.0469853542745113,0.0229412913322449
753,-0.0106795141473413,-0.0644286349415779,0.036273930221796,-0.000415713788243011,-0.0477686859667301,0.0223631821572781
754,-0.0162347741425037,-0.064471498131752,0.0323553197085857,-0.00143848033621907,-0.0515535958111286,0.02102380245924
755,-0.0213395692408085,-0.0638569891452789,0.0297285169363022,-0.00170960032846779,-0.0526824742555618,0.0197836123406887
756,-0.0235363617539406,-0.0625570937991142,0.0300033744424582,-0.000917811179533601,-0.0486355200409889,0.0176945235580206
757,-0.0239992160350084,-0.06281378865242,0.0311836320906878,-0.00122606079094112,-0.0431968793272972,0.012976972386241
758,-0.0223732385784388,-0.0637216418981552,0.033174179494381,-0.00157828174997121,-0.0388329178094864,0.0088862394914031
759,-0.0184832606464624,-0.0636065825819969,0.0360586605966091,-0.000501788104884326,-0.0359106436371803,0.00900022685527802
760,-0.0153046622872353,-0.0632551312446594,0.0375089421868324,0.000262780318735167,-0.0361207872629166,0.0118058761581779
761,-0.0151204895228148,-0.0635156556963921,0.0364931672811508,-0.000887587608303875,-0.0389924682676792,0.0140179991722107
762,-0.0173856467008591,-0.0646063461899757,0.0341410264372826,-0.00388026726432145,-0.0412048697471619,0.0139571679756045
763,-0.0199540164321661,-0.0666481405496597,0.0320345163345337,-0.00745713105425239,-0.0410690121352673,0.0119482614099979
764,-0.0215282347053289,-0.0694881305098534,0.0309376176446676,-0.0103569338098168,-0.039864044636488,0.0089296018704772
765,-0.022845009341836,-0.0725127086043358,0.0300468392670155,-0.01275226008147,-0.0394899025559425,0.00537420809268951
766,-0.0246476382017136,-0.0747051760554314,0.0283019971102476,-0.0153065985068679,-0.0408317409455776,0.00176801369525492
767,-0.0266106482595205,-0.0755963027477264,0.0254039764404297,-0.0180829409509897,-0.0440639369189739,-0.00158360786736012
768,-0.0279044136404991,-0.0754064619541168,0.0220144279301167,-0.0206673182547092,-0.0478542596101761,-0.004813261795789
769,-0.0281618386507034,-0.074493408203125,0.0192928519099951,-0.022445211187005,-0.0500281415879726,-0.00792938750237226
770,-0.0271127931773663,-0.0717696100473404,0.0188102032989264,-0.0217672623693943,-0.0491324923932552,-0.00918012671172619
771,-0.0248671807348728,-0.0659086629748344,0.0210408810526133,-0.0179068967700005,-0.0451376028358936,-0.00663862191140652
772,-0.0228442437946796,-0.0588495768606663,0.0237881392240524,-0.0135300168767571,-0.0394328720867634,-0.0023406024556607
773,-0.0219625532627106,-0.053277175873518,0.0251248013228178,-0.0106700994074345,-0.0329425595700741,0.000508464407175779
774,-0.021923866122961,-0.049718726426363,0.0254408121109009,-0.00854457356035709,-0.0255902353674173,0.00171733158640563
775,-0.0223162360489368,-0.0488977842032909,0.0255586206912994,-0.00722158560529351,-0.0181997455656528,0.00180616276338696
776,-0.0226349793374538,-0.051015954464674,0.0259303450584412,-0.00721068168058991,-0.012834819033742,0.00176108349114656
777,-0.0228733085095882,-0.0545383095741272,0.0262603890150785,-0.00794176105409861,-0.0106275025755167,0.00305928103625774
778,-0.0242629423737526,-0.058421827852726,0.0251955687999725,-0.00966901797801256,-0.0113562205806375,0.00472561782225966
779,-0.0270988028496504,-0.0617423541843891,0.0230582691729069,-0.0121160494163632,-0.0138624515384436,0.00519646750763059
780,-0.0304498001933098,-0.063958503305912,0.0214324258267879,-0.0141819575801492,-0.0167637560516596,0.00407705875113606
781,-0.0342417694628239,-0.0657044127583504,0.0202760491520166,-0.016259653493762,-0.01944475248456,0.00110588502138853
782,-0.0382860861718655,-0.0667835026979446,0.0197139699012041,-0.0180512294173241,-0.0212817769497633,-0.00271684606559575
783,-0.0419674329459667,-0.0667211189866066,0.0205984506756067,-0.0176998190581799,-0.0223114751279354,-0.00530235376209021
784,-0.0456755459308624,-0.0672736093401909,0.0218008831143379,-0.0155617892742157,-0.0238715782761574,-0.00681449007242918
785,-0.0501882806420326,-0.0708065927028656,0.020741218701005,-0.0146598229184747,-0.0269317850470543,-0.00978868175297976
786,-0.0545655973255634,-0.0765396878123283,0.0170484334230423,-0.0165076665580273,-0.0305750872939825,-0.0149932829663157
787,-0.0562507621943951,-0.0807493180036545,0.0133338235318661,-0.0190748795866966,-0.0324734933674335,-0.0196840260177851
788,-0.0547224096953869,-0.0814753696322441,0.0111554935574532,-0.0202077589929104,-0.0322992503643036,-0.0210159681737423
789,-0.0515291690826416,-0.0795814692974091,0.0103422254323959,-0.0193502772599459,-0.0314955338835716,-0.0185705441981554
790,-0.0479349568486214,-0.0761533007025719,0.010726117528975,-0.0166002158075571,-0.0305320788174868,-0.0136558879166842
791,-0.0452763848006725,-0.0726341605186462,0.0113721657544374,-0.0134969102218747,-0.0302804484963417,-0.00847076158970594
792,-0.0437978729605675,-0.0699609890580177,0.0116091407835484,-0.0118190115317702,-0.0315620340406895,-0.00438595190644264
793,-0.0424168333411217,-0.0677178129553795,0.0121029019355774,-0.0114354994148016,-0.0332415252923965,-0.0013171584578231
794,-0.0400580428540707,-0.0652420967817307,0.0141535075381398,-0.0103764841333032,-0.0328904651105404,0.00163715076632798
795,-0.0358107462525368,-0.0621894188225269,0.0181051939725876,-0.00717647606506944,-0.0290378127247095,0.00516189448535442
796,-0.0300418417900801,-0.0594750083982944,0.0223238635808229,-0.0029721085447818,-0.0235399734228849,0.00823931861668825
797,-0.0247350409626961,-0.0584890395402908,0.0251962821930647,0.000220873291254975,-0.0196603164076805,0.00974537711590528
798,-0.0218081828206778,-0.0594700388610363,0.0262467935681343,0.00126721384003758,-0.0187282282859087,0.00997019652277231
799,-0.0210453644394875,-0.061077993363142,0.0263451114296913,0.000723953649867326,-0.0193691682070494,0.0100413700565696
800,-0.0207280069589615,-0.0605175383388996,0.02772007137537,0.00118416536133736,-0.018873555585742,0.0119412103667855
801,-0.0206788368523121,-0.0575879365205765,0.0304089765995741,0.00338175008073449,-0.0167472157627344,0.0155119532719254
802,-0.0213173907250166,-0.0555988103151321,0.0321717970073223,0.0049552246928215,-0.0143048781901598,0.0174939278513193
803,-0.0221334099769592,-0.0560472160577774,0.0323460511863232,0.00443336786702275,-0.0123456185683608,0.0160319712013006
804,-0.0223350245505571,-0.0574733503162861,0.0317506976425648,0.00248344731517136,-0.011558435857296,0.0124195590615273
805,-0.0212597586214542,-0.0585323050618172,0.0307999681681395,-2.08780384127749E-05,-0.0122125223278999,0.00826216954737902
806,-0.0188646260648966,-0.0582676008343697,0.0299328789114952,-0.0022299075499177,-0.0136221013963223,0.00410302868112922
807,-0.0152968736365438,-0.055341050028801,0.0301701799035072,-0.00255364156328142,-0.0143315754830837,0.0010446336818859
808,-0.0122653916478157,-0.0507166683673859,0.0311317443847656,-0.000889006303623319,-0.0136766182258725,-0.000968418200500309
809,-0.0121992463245988,-0.0467776097357273,0.0314963683485985,0.00124779238831252,-0.0124127995222807,-0.00312742823734879
810,-0.015205672942102,-0.0443012975156307,0.0307156015187502,0.00277521018870175,-0.0116331893950701,-0.00495239766314626
811,-0.0199762508273125,-0.0433371216058731,0.028770100325346,0.00318559259176254,-0.0115570649504662,-0.00567845534533262
812,-0.0253348145633936,-0.0432105921208858,0.0263367965817451,0.00292242551222444,-0.011815027333796,-0.00525226583704352
813,-0.0307547282427549,-0.0429659187793732,0.0235195923596621,0.00217669829726219,-0.0127672478556633,-0.00454798899590969
814,-0.0361323654651642,-0.0426978394389153,0.0195675231516361,-0.000158673501573503,-0.0145921362563968,-0.00508284661918879
815,-0.0408648364245892,-0.0422208979725838,0.0152229946106672,-0.00385766616091132,-0.0165150258690119,-0.00620037131011486
816,-0.0439511351287365,-0.0406538136303425,0.0125574562698603,-0.00685700075700879,-0.0173440612852573,-0.00574937649071217
817,-0.0450564213097095,-0.0381435044109821,0.0121534299105406,-0.00849794875830412,-0.0168416239321232,-0.00394123373553157
818,-0.0442058034241199,-0.0355556532740593,0.0127394963055849,-0.00952371302992105,-0.0161447878926992,-0.00257720705121756
819,-0.041450347751379,-0.0340378358960152,0.0129270479083061,-0.0105219595134258,-0.0161250401288271,-0.00301271886564791
820,-0.036982573568821,-0.0343345515429974,0.0124671002849936,-0.011439741589129,-0.0163456685841084,-0.00518137216567993
821,-0.0314768366515636,-0.0361244231462479,0.0113174468278885,-0.0120283020660281,-0.0166873913258314,-0.00743042072281241
822,-0.0265241097658873,-0.0386701971292496,0.00903404410928488,-0.012679997831583,-0.0177810620516539,-0.00862707104533911
823,-0.0235017016530037,-0.0410269536077976,0.00592497223988175,-0.0136252976953983,-0.0193835627287626,-0.00884822104126215
824,-0.0227486472576857,-0.0427391529083252,0.0030769722070545,-0.0149548687040806,-0.0204962603747845,-0.00884247478097677
825,-0.0230558905750513,-0.0431654490530491,0.0020798749756068,-0.0164050757884979,-0.0192428715527058,-0.00888477638363838
826,-0.0237392373383045,-0.0423720888793468,0.00209335098043084,-0.0180827602744102,-0.0155956894159317,-0.00955608952790499
827,-0.0255926270037889,-0.041513592004776,0.000202624883968383,-0.0201905649155378,-0.0124218994751573,-0.0110627971589565
828,-0.0273494943976402,-0.0398004129528999,-0.00301988143473864,-0.0203651040792465,-0.0104301692917943,-0.0103438850492239
829,-0.0280426666140556,-0.0367844887077808,-0.00534548098221421,-0.0174798667430878,-0.00882640015333891,-0.00600400427356362
830,-0.0296007003635168,-0.0339755862951279,-0.00663156062364578,-0.0138764306902885,-0.00843029748648405,-0.00102272245567292
831,-0.0324633680284023,-0.0312971174716949,-0.00688405428081751,-0.010691118426621,-0.00937922392040491,0.00262801977805793
832,-0.0354238152503967,-0.0281933806836605,-0.00601080944761634,-0.00819918420165777,-0.0108715677633882,0.00445764977484941
833,-0.0379586070775986,-0.0251478925347328,-0.00434927130118012,-0.0069124074652791,-0.0120390290394425,0.00453955633565784
834,-0.0389739461243153,-0.0218835659325123,-0.00161190633662045,-0.00572484033182263,-0.0109116453677416,0.00461184745654464
835,-0.0375371240079403,-0.017554746940732,0.00229316810145974,-0.00348091241903603,-0.00713763060048223,0.00569230876863003
836,-0.0346243008971214,-0.0123678930103779,0.00653598317876458,-0.000467749312520027,-0.00335214636288583,0.00676698330789804
837,-0.0316378623247147,-0.00749989598989487,0.0104370480403304,0.00268006650730968,-0.00118484988342971,0.0071926130913198
838,-0.0296728070825338,-0.00422515580430627,0.0133537082001567,0.00486226752400398,-0.000200709808268584,0.00657216133549809
839,-0.0294870492070913,-0.00359741458669305,0.0140857640653849,0.00488890847191215,-0.000241645131609403,0.0042031710036099
840,-0.0296644754707813,-0.00561496475711465,0.0123938675969839,0.00339377694763243,-0.000833997095469385,0.00105953030288219
841,-0.0277863219380379,-0.00895526632666588,0.00969485938549042,0.00214164727367461,-0.000412871537264436,-0.00136002886574715
842,-0.0238442271947861,-0.0119974836707115,0.00750944996252656,0.00215047970414162,0.00149332277942449,-0.00277868332341313
843,-0.0187241397798061,-0.0141718881204724,0.00706758815795183,0.00374683900736272,0.00461813202127814,-0.00345461419783533
844,-0.0132367573678494,-0.0171433556824923,0.00825140159577131,0.00578743731603026,0.0083928257226944,-0.00448852311819792
845,-0.00981167517602444,-0.0229262318462133,0.00874801632016897,0.00599097879603505,0.0106156365945935,-0.00710906321182847
846,-0.0090703135356307,-0.0294589605182409,0.0076851244084537,0.0049420353025198,0.0103723602369428,-0.00931229908019304
847,-0.00868747569620609,-0.0323772728443146,0.00688710855320096,0.00553271360695362,0.00951419491320848,-0.00762942945584655
848,-0.00696628307923675,-0.0304208379238844,0.00795506779104471,0.00881221145391464,0.0099995443597436,-0.00210900604724884
849,-0.00496833957731724,-0.0260874573141336,0.010003536939621,0.0129261761903763,0.0114273373037577,0.0040216064080596
850,-0.0050558247603476,-0.0221628118306398,0.0109494710341096,0.0153787489980459,0.0117415562272072,0.008185850456357
851,-0.00712868012487888,-0.0194758363068104,0.0111531354486942,0.0160153638571501,0.0113586392253637,0.0100380517542362
852,-0.0100486977025867,-0.018360149115324,0.0119824791327119,0.0159852616488934,0.0120154805481434,0.00986100826412439
853,-0.01398691162467,-0.018610555678606,0.0129751730710268,0.0158627778291702,0.0126192569732666,0.00867045763880014
854,-0.0190476160496473,-0.0196465812623501,0.0126831950619817,0.0152236707508564,0.0110099222511053,0.00737538421526551
855,-0.0236210860311985,-0.0209976192563772,0.0107728457078338,0.0138365905731916,0.00782161019742489,0.0062321200966835
856,-0.0248251222074032,-0.0209869332611561,0.00891907513141632,0.0133413532748818,0.00552745070308447,0.00666167074814439
857,-0.0221520569175482,-0.0190687049180269,0.00855443812906742,0.0143896266818047,0.00483780540525913,0.00873885955661535
858,-0.0179076176136732,-0.0170014463365078,0.00939716119319201,0.0152588030323386,0.00480430852621794,0.00991852860897779
859,-0.013739226385951,-0.0155454110354185,0.0109137436375022,0.0150932716205716,0.00518072629347444,0.00914018135517836
860,-0.00965056568384171,-0.0137795461341739,0.0136456741020083,0.0149638233706355,0.00675472291186452,0.00821098685264587
861,-0.00529261818155646,-0.0112279690802097,0.017983527854085,0.0160656310617924,0.0105041339993477,0.00888127274811268
862,-0.00274320389144123,-0.00972279720008373,0.0211399495601654,0.0173538532108068,0.0148017127066851,0.0101534882560372
863,-0.00489764660596848,-0.0109518067911267,0.0202076137065887,0.0174383651465178,0.0164465773850679,0.0100440438836813
864,-0.00964629743248224,-0.0129105746746063,0.0173261966556311,0.0175908431410789,0.0164277032017708,0.00838484801352024
865,-0.013255812227726,-0.0140263754874468,0.0151066789403558,0.0180920604616404,0.0173141416162252,0.00460916059091687
866,-0.0154557842761278,-0.0153339086100459,0.0134462611749768,0.0177491791546345,0.0189105030149221,-0.00179359584581107
867,-0.0168632157146931,-0.016894755885005,0.0124699100852013,0.0171419829130173,0.0199248176068068,-0.00838138815015554
868,-0.018036212772131,-0.0179513990879059,0.0119827026501298,0.0169259700924158,0.0190213192254305,-0.0121948774904013
869,-0.0197845082730055,-0.0185049884021282,0.0112935760989785,0.016723083332181,0.0157010909169912,-0.0127202477306128
870,-0.0224292259663343,-0.0193890184164047,0.0100428517907858,0.0156762301921844,0.0109212044626474,-0.0121053531765938
871,-0.0248154103755951,-0.0203977562487125,0.00863184314221144,0.0139504596590996,0.0069840638898313,-0.0117321154102683
872,-0.0250407885760069,-0.019980950281024,0.00805532839149237,0.0129441097378731,0.00577949592843652,-0.0105242226272821
873,-0.0232034958899021,-0.0180066879838705,0.00860140193253756,0.0129789961501956,0.00676837330684066,-0.00835184752941132
874,-0.0200767852365971,-0.0149011993780732,0.0110022909939289,0.0141292260959744,0.00912431068718433,-0.00603797845542431
875,-0.0168279092758894,-0.0108938375487924,0.0152510460466146,0.0160857941955328,0.0117114661261439,-0.00409858906641603
876,-0.0152244037017226,-0.0068998602218926,0.0195726566016674,0.0176836494356394,0.0127214761450887,-0.00287263165228069
877,-0.0144569780677557,-0.00312394136562943,0.0232654493302107,0.0187411326915026,0.0128091722726822,-0.00211182679049671
878,-0.0132932746782899,0.000276085920631886,0.025875261053443,0.0189066901803017,0.0130461482331157,-0.00211147428490222
879,-0.0132225137203932,0.00182563869748265,0.0260868817567825,0.017176965251565,0.0120504358783364,-0.0036259728949517
880,-0.0147769711911678,0.000967049680184573,0.0242813434451818,0.0140857407823205,0.00905049592256546,-0.00631488766521215
881,-0.0161035060882568,-0.00162723020184785,0.021922217682004,0.0105690453201532,0.00533266458660364,-0.00982092879712582
882,-0.0161430314183235,-0.00537488935515285,0.0193016156554222,0.00650774873793125,0.00222150236368179,-0.014300312846899
883,-0.0152387293055654,-0.00857765879482031,0.0162918977439404,0.0025758498813957,0.000182292453246191,-0.0179553404450417
884,-0.0137520926073194,-0.0095732007175684,0.0135005414485931,0.000430783664342016,-0.000365189742296934,-0.0184001065790653
885,-0.0112526174634695,-0.00784931145608425,0.012575825676322,0.00145336461719126,0.00141614163294435,-0.0155488839372993
886,-0.00748491520062089,-0.00308638787828386,0.0147812124341726,0.00578679842874408,0.00578998681157827,-0.0106614865362644
887,-0.00330792204476893,0.00398728391155601,0.0194424781948328,0.0116815054789186,0.0122081758454442,-0.00513616390526295
888,-0.000119302254461218,0.0116014257073402,0.0244670156389475,0.0170070622116327,0.0187531057745218,0.000355688709532842
889,0.00091856811195612,0.018336983397603,0.0277817565947771,0.020603759214282,0.022533493116498,0.00526171643286943
890,-0.000613525684457272,0.0231790654361248,0.0283637344837189,0.0216167010366917,0.0220274794846773,0.00780544430017471
891,-0.00408870354294777,0.0256384201347828,0.0266423895955086,0.0200087036937475,0.0183526203036308,0.00715512316673994
892,-0.00794778857380152,0.0263550244271755,0.0242110788822174,0.017135851085186,0.0146307311952114,0.0050041857175529
893,-0.0100528402253985,0.0269013680517673,0.0227481722831726,0.0146267497912049,0.0129476198926568,0.00365474307909608
894,-0.00897273328155279,0.0284037552773952,0.022646851837635,0.0131629183888435,0.0126570053398609,0.00385755603201687
895,-0.0050111897289753,0.0308531504124403,0.0235988218337297,0.0127517599612474,0.0126692308112979,0.00515673449262977
896,0.000996373244561255,0.0341042280197144,0.0262175966054201,0.0139074828475714,0.0132919987663627,0.00754001922905445
897,0.00830429885536432,0.0382258407771587,0.0310288239270449,0.0171952601522207,0.0156044978648424,0.01135188434273
898,0.0152502842247486,0.0424550957977772,0.0367626622319222,0.0216897204518318,0.0195212680846453,0.0161734540015459
899,0.020179271697998,0.0455974861979485,0.0414333567023277,0.0258097220212221,0.0234315749257803,0.0213476996868849
900,0.0231359545141459,0.047897107899189,0.0444803796708584,0.0293682105839252,0.0265809409320354,0.0269943997263908
901,0.0239951759576797,0.0496274717152119,0.0457075014710426,0.0317597687244415,0.0282430909574032,0.0318390727043152
902,0.0219392068684101,0.0501470267772675,0.0447765588760376,0.0315628312528133,0.026876537129283,0.0337571762502193
903,0.0179806742817163,0.0494644045829773,0.0429405942559242,0.0294174291193485,0.0232015810906887,0.0336508080363274
904,0.0135472631081939,0.0472821518778801,0.0411639735102654,0.0266890171915293,0.0195987746119499,0.0332463756203651
905,0.00923045538365841,0.0441215448081493,0.0396233946084976,0.0245839320123196,0.0178079400211573,0.0330295115709305
906,0.00564317777752876,0.042253203690052,0.038847591727972,0.0241700615733862,0.0175522211939096,0.0334091074764729
907,0.00191596453078091,0.0416444279253483,0.0373158901929855,0.0235000848770142,0.0158632919192314,0.0327204167842865
908,-0.00226343818940222,0.0416230373084545,0.0343561880290508,0.0213025510311127,0.0120614133775234,0.0296546667814255
909,-0.00559489615261555,0.0425667725503445,0.0322205014526844,0.0191942397505045,0.00894693750888109,0.0252902656793594
910,-0.00827626045793295,0.0432561822235584,0.0311670526862144,0.0173089690506458,0.00715208007022738,0.0206342302262783
911,-0.0104725686833262,0.0428592711687088,0.0295827183872461,0.0154144810512662,0.004661382175982,0.0172914136201143
912,-0.0107514625415206,0.0424771830439568,0.0276962667703629,0.0150547297671437,0.000917414086870849,0.0171809997409582
913,-0.0093592070043087,0.0430930927395821,0.026704104617238,0.0175415836274624,-0.0030110573861748,0.0212607309222221
914,-0.00923580955713987,0.0437630973756313,0.0261295046657324,0.0221847649663687,-0.00792879983782768,0.0288779623806477
915,-0.0117205362766981,0.0434001982212067,0.0254697352647781,0.0276527609676123,-0.015138728544116,0.0380351766943932
916,-0.0143774766474962,0.0428934879601002,0.0257514324039221,0.0328723266720772,-0.0224100314080715,0.046255599707365
917,-0.0139839723706245,0.0432165488600731,0.0278613865375519,0.0359479784965515,-0.024693850427866,0.0505889132618904
918,-0.0105798896402121,0.043265089392662,0.030927300453186,0.0342154167592525,-0.0196187496185303,0.0480168871581554
919,-0.00657665682956576,0.0423636771738529,0.0332646742463112,0.027748541906476,-0.0101816849783063,0.0391764640808105
920,-0.00294101168401539,0.0422238670289516,0.0350845456123352,0.0209218561649323,-0.000401088764192536,0.0295811928808689
921,-0.000469471793621778,0.0433085486292839,0.0369656942784786,0.0170158389955759,0.0065606189891696,0.0229016337543726
922,-0.000200240305275656,0.0443372614681721,0.0382263176143169,0.0159062389284372,0.00858265534043312,0.0190195459872484
923,-0.00210856087505817,0.0442396476864815,0.0376828014850616,0.0155295645818114,0.00587494811043143,0.0166687443852425
924,-0.00548933492973447,0.0428068786859512,0.0346613824367523,0.0139945223927498,0.00031004473567009,0.0149384560063481
925,-0.00847948249429464,0.0416695885360241,0.0312580056488514,0.0125908460468054,-0.00489541096612811,0.0153184905648232
926,-0.0103617608547211,0.0417718812823296,0.0296814050525427,0.0129169411957264,-0.00807073432952166,0.0187725126743317
927,-0.0130568323656917,0.0413276255130768,0.0284699480980635,0.0135687310248613,-0.0114326067268848,0.0227370802313089
928,-0.0177106522023678,0.0386248007416725,0.0256096348166466,0.0129925813525915,-0.0171146225184202,0.024451470002532
929,-0.0230779089033604,0.0339870676398277,0.02172059006989,0.0113379545509815,-0.0239272732287645,0.0237206611782312
930,-0.0275146570056677,0.0287397634238005,0.0184401739388704,0.00914327707141638,-0.0295331832021475,0.0219425912946463
931,-0.0299926716834307,0.0244979467242956,0.0167869050055742,0.00717676104977727,-0.0325867645442486,0.0206993706524372
932,-0.030729228630662,0.0217097401618958,0.0164929144084454,0.00546653289347887,-0.033260777592659,0.0201710294932127
933,-0.0304933153092861,0.0199833065271378,0.0167008582502604,0.00339639652520418,-0.0325582027435303,0.0201412104070187
934,-0.0287739709019661,0.0201632939279079,0.0174266584217548,0.00184938369784504,-0.0310613885521889,0.021996496245265
935,-0.0259816311299801,0.0215533133596182,0.0178999733179808,0.000825539696961641,-0.0303829349577427,0.025200042873621
936,-0.023631663993001,0.0217550955712795,0.0174325332045555,-0.000780470087192953,-0.0315550789237022,0.0269474200904369
937,-0.0215038396418095,0.0206310655921698,0.0174566358327866,-0.00205345568247139,-0.0322122611105442,0.0264806151390076
938,-0.0189220104366541,0.0195976365357637,0.0189736988395453,-0.00190280075185001,-0.0304898470640183,0.0246007237583399
939,-0.0157518032938242,0.0200416874140501,0.0217312630265951,-0.000189389669685625,-0.0271148234605789,0.0226841196417809
940,-0.012132354080677,0.0223603844642639,0.024738360196352,0.00286468351259828,-0.0234315451234579,0.0222219042479992
941,-0.00862744450569153,0.0258748810738325,0.0265814419835806,0.00663123279809952,-0.0207387581467628,0.0239909663796425
942,-0.00521649792790413,0.0300420112907887,0.0272383503615856,0.0105742812156677,-0.0194838177412748,0.0279262382537127
943,-0.00226260884664953,0.0333908274769783,0.026901189237833,0.0134774949401617,-0.0200514197349548,0.0323356725275517
944,-0.000995845766738057,0.0347514674067497,0.0250074584037066,0.0145663153380156,-0.0225643906742334,0.0357023254036903
945,-0.00260340538807213,0.0342123471200466,0.0216845218092203,0.0142650380730629,-0.0257467161864042,0.0372521616518497
946,-0.00768594024702907,0.0311620570719242,0.0174603872001171,0.0121446987614036,-0.0288637522608042,0.0354742184281349
947,-0.0141257187351584,0.0259230807423592,0.0135164596140385,0.00853011664003134,-0.0315041691064835,0.0307855606079102
948,-0.0183181017637253,0.0207307636737823,0.0111719500273466,0.00603027688339353,-0.032828938215971,0.0266256127506495
949,-0.0191667657345533,0.017194714397192,0.0101341623812914,0.00636392552405596,-0.0331152603030205,0.0256459824740887
950,-0.0182515885680914,0.0146414423361421,0.00916033238172531,0.00833180639892817,-0.033255897462368,0.0266810245811939
951,-0.0164655931293964,0.0128644229844213,0.00849160458892584,0.0109803890809417,-0.0325186140835285,0.0281374156475067
952,-0.0137330796569586,0.0132840787991881,0.00918244756758213,0.0147423949092627,-0.0299265831708908,0.0308797247707844
953,-0.00962404161691666,0.0162568483501673,0.0118695059791207,0.0198129639029503,-0.0252915341407061,0.0358287207782269
954,-0.00338013051077724,0.0212363377213478,0.0170291922986507,0.0262660458683968,-0.0182586945593357,0.0430919043719769
955,0.00283605582080781,0.0271016377955675,0.0231178887188435,0.0325057879090309,-0.0103703755885363,0.0509798415005207
956,0.00542781502008438,0.0315420441329479,0.0270648505538702,0.0353303775191307,-0.00480030803009868,0.0559395328164101
957,0.00504342233762145,0.0335639901459217,0.0281602218747139,0.0342955254018307,-0.00237699854187667,0.0567224100232124
958,0.00539067015051842,0.035221129655838,0.0287274718284607,0.0327917188405991,-0.000762440089602023,0.0559308938682079
959,0.00626433873549104,0.0371148139238358,0.0294640138745308,0.0322005599737167,0.000763445743359625,0.0549607537686825
960,0.00453687133267522,0.0374032743275166,0.0291760917752981,0.030959153547883,0.000396041694330052,0.0528052523732185
961,0.000888957118149847,0.0365788340568542,0.0285004954785109,0.0292018689215183,-0.00133247813209891,0.0499141439795494
962,-0.00152662955224514,0.0369045250117779,0.0283209066838026,0.0280789341777563,-0.00215561920776963,0.0475302450358868
963,-0.00226162024773657,0.0379004403948784,0.0277572683990002,0.0268742106854916,-0.00237309909425676,0.0447943583130836
964,-0.00212772586382926,0.0379858538508415,0.0267537981271744,0.0250248443335295,-0.0030410757753998,0.0412164479494095
965,-0.000498898734804243,0.0381740741431713,0.0272214468568563,0.0244512464851141,-0.00347401620820165,0.0394753664731979
966,0.00328589114360511,0.0398912839591503,0.0303598139435053,0.0267525352537632,-0.00279272510670125,0.0418458357453346
967,0.00787118542939425,0.0420244485139847,0.0339095816016197,0.0299449283629656,-0.00194183504208922,0.0460550971329212
968,0.0108006224036217,0.0426460690796375,0.0344258733093739,0.0314073078334332,-0.00320874899625778,0.0484004095196724
969,0.0119044724851847,0.0426769219338894,0.0324298776686192,0.0319657139480114,-0.00621239189058542,0.0494699515402317
970,0.0113693363964558,0.0430660061538219,0.0299977045506239,0.0317333675920963,-0.00926085561513901,0.0501197427511215
971,0.0089534055441618,0.0424183495342731,0.0278850346803665,0.029383722692728,-0.0120134325698018,0.0485303066670895
972,0.00644791498780251,0.0405925363302231,0.0268814265727997,0.0263625662773848,-0.0142014632001519,0.0449785217642784
973,0.0045553045347333,0.037928394973278,0.0260215997695923,0.023485079407692,-0.0168724302202463,0.0405906923115253
974,0.00152526749297976,0.0335858948528767,0.0230335891246796,0.0192380994558334,-0.0217477679252625,0.0349178276956081
975,-0.00342594250105321,0.0278280954807997,0.01835947483778,0.0138615863397717,-0.0278838966041803,0.0284694023430347
976,-0.00841702613979578,0.0223593637347221,0.0149134118109941,0.0100530944764614,-0.0320709608495235,0.0234389528632164
977,-0.0110978810116649,0.0185834877192974,0.0141379488632083,0.00974123366177082,-0.0327704399824142,0.0216789115220308
978,-0.0111859701573849,0.0166297871619463,0.0148477787151933,0.011899545788765,-0.0316983349621296,0.0230839438736439
979,-0.00939565431326628,0.0159560684114695,0.0159463305026293,0.0145410057157278,-0.0307972636073828,0.0262391846626997
980,-0.00669425027444959,0.0160936750471592,0.0175888352096081,0.0167880076915026,-0.0304228160530329,0.0296961944550276
981,-0.00442146928980947,0.0167960412800312,0.0200139284133911,0.0185452569276094,-0.0301302075386047,0.0328238271176815
982,-0.00315527338534594,0.0178402327001095,0.0230307206511498,0.0198178067803383,-0.0290747750550509,0.0354275964200497
983,-0.00191940600052476,0.0193345583975315,0.0268176458775997,0.0215845797210932,-0.025906914845109,0.0376208946108818
984,0.000792425707913935,0.0215845983475447,0.0318219773471355,0.0255473610013723,-0.0200420916080475,0.0401503406465054
985,0.00485376268625259,0.023667374625802,0.0371403060853481,0.0309703033417463,-0.0130925513803959,0.0428110882639885
986,0.00829894281923771,0.0238768681883812,0.0408815741539001,0.0348197966814041,-0.00764087215065956,0.0444163084030151
987,0.00927716121077538,0.0215873140841722,0.0419127829372883,0.0354566499590874,-0.00525287073105574,0.0448348708450794
988,0.00762977870181203,0.0175583902746439,0.0406532138586044,0.0336618535220623,-0.00529808830469847,0.0448661856353283
989,0.00417784648016095,0.0124987959861755,0.0381149761378765,0.03039032779634,-0.00626008864492178,0.044081412255764
990,0.00132647028658539,0.00789291132241488,0.0359238423407078,0.0273377131670713,-0.00662437500432134,0.0427433624863625
991,0.000809905875939876,0.00477934163063765,0.0352390892803669,0.0259146802127361,-0.00629648566246033,0.041858796030283
992,0.000800812675151974,0.00180826161522418,0.0350556410849094,0.0249656550586224,-0.00727591617032886,0.0407697446644306
993,0.000914562959223986,-0.000126763232401572,0.0358942151069641,0.0246477890759707,-0.00865707453340292,0.0405537821352482
994,0.00273409951478243,0.00231994059868157,0.0397539176046848,0.0267380475997925,-0.00788006372749805,0.0434967055916786
995,0.00573086412623525,0.00962880905717611,0.0458321385085583,0.030819883570075,-0.00603676540777087,0.0484228506684303
996,0.010006102733314,0.0200005825608969,0.0530026517808437,0.036098551005125,-0.00341049185954034,0.0528456121683121
997,0.0154649335891008,0.0297115184366703,0.0594436265528202,0.0409243255853653,0.00124671414960176,0.0545363835990429
998,0.0184719823300838,0.03392468765378,0.0611989200115204,0.0419050753116608,0.00566282588988543,0.0515528209507465
999,0.0170182380825281,0.0325300619006157,0.058218214660883,0.039439894258976,0.00743933860212564,0.0459075085818768
1000,0.0127775715664029,0.028794975951314,0.0535276755690575,0.0366955287754536,0.00623617554083467,0.0409446693956852
1001,0.00761310197412968,0.0250024292618036,0.0484524555504322,0.0346013605594635,0.00194294448010623,0.0370815098285675
1002,0.00226846849545836,0.022160841152072,0.0432056039571762,0.0323729962110519,-0.00475558219477534,0.0332957915961742
