,AF3,AF4,Fp1,Fp2,AF7,AF8
0,-0.205271691083908,-0.106446772813797,-0.32983073592186,-0.266796052455902,-0.205420225858688,-0.145980522036552
1,-0.211850389838219,-0.103738449513912,-0.321792989969254,-0.249661609530449,-0.217610880732536,-0.147229745984077
2,-0.216329991817474,-0.114351108670235,-0.320357620716095,-0.241313889622688,-0.235856980085373,-0.160090193152428
3,-0.210630163550377,-0.139397099614143,-0.320847153663635,-0.245942801237106,-0.246456190943718,-0.172482028603554
4,-0.196148753166199,-0.167734995484352,-0.316705614328384,-0.25048902630806,-0.239513158798218,-0.174586668610573
5,-0.17876310646534,-0.186055317521095,-0.306041240692139,-0.242953255772591,-0.215718120336533,-0.165426000952721
6,-0.161488875746727,-0.186606600880623,-0.291421949863434,-0.22292223572731,-0.182713449001312,-0.147078558802605
7,-0.144795536994934,-0.16825932264328,-0.276865869760513,-0.198624387383461,-0.150032639503479,-0.123818330466747
8,-0.131579086184502,-0.136085912585258,-0.265965789556503,-0.178897097706795,-0.126520693302155,-0.103058733046055
9,-0.125313222408295,-0.101402029395103,-0.25982990860939,-0.165269821882248,-0.11292727291584,-0.0878320932388306
10,-0.125829860568047,-0.0789492800831795,-0.258175045251846,-0.15589152276516,-0.107731506228447,-0.0777393653988838
11,-0.128837093710899,-0.0757843479514122,-0.259160369634628,-0.150023996829987,-0.113450534641743,-0.0729291513562202
12,-0.126127481460571,-0.0828922316431999,-0.258913576602936,-0.144084215164185,-0.125242799520493,-0.0696501806378365
13,-0.109417200088501,-0.0883210748434067,-0.256563305854797,-0.134439885616302,-0.131050229072571,-0.0632641837000847
14,-0.0783888027071953,-0.0904385522007942,-0.256090581417084,-0.124190151691437,-0.122538223862648,-0.055270291864872
15,-0.0391904525458813,-0.08993199467659,-0.258036464452744,-0.121089957654476,-0.101520836353302,-0.0473387390375137
16,-0.000174576285644434,-0.0815701112151146,-0.25221374630928,-0.125561878085136,-0.0769186317920685,-0.0347112007439137
17,0.0266993269324303,-0.0589488483965397,-0.225511401891708,-0.12179771065712,-0.0521235167980194,-0.0115763824433088
18,0.0372456833720207,-0.0217774827033281,-0.180413126945496,-0.0930442214012146,-0.0275118518620729,0.0259678401052952
19,0.0372377149760723,0.0200130082666874,-0.137884423136711,-0.043969914317131,-0.00962475687265396,0.0748941972851753
20,0.0295703839510679,0.0530055314302444,-0.113789856433868,0.00485738134011626,-0.0020167117472738,0.117774710059166
21,0.0191846936941147,0.074410080909729,-0.105273604393005,0.0363124273717403,0.000678771582897753,0.137804105877876
22,0.0166433192789555,0.0912738442420959,-0.101507186889648,0.0472758859395981,0.00581581890583038,0.137843310832977
23,0.0266499109566212,0.108437523245811,-0.093640610575676,0.047204427421093,0.0153110809624195,0.134151831269264
24,0.0457497350871563,0.125482648611069,-0.079510860145092,0.04629160836339,0.0234116669744253,0.137413129210472
25,0.0670437961816788,0.1417256295681,-0.0628252029418945,0.048183761537075,0.0237151496112347,0.145802482962608
26,0.0852071791887283,0.159309849143028,-0.0460235141217709,0.0529451481997967,0.0173832084983587,0.154137805104256
27,0.103222921490669,0.181921511888504,-0.0249525476247072,0.0625169426202774,0.0157853737473488,0.163782030344009
28,0.127439215779305,0.212224781513214,0.00625124899670482,0.082501694560051,0.0307404603809118,0.18375401198864
29,0.154765099287033,0.2510085105896,0.0448685884475708,0.114611864089966,0.0611939281225204,0.218119576573372
30,0.177203774452209,0.298550724983215,0.0836598724126816,0.149797216057777,0.0975006222724915,0.25667017698288
31,0.192404314875603,0.354242742061615,0.120769143104553,0.176497727632523,0.130262225866318,0.286085486412048
32,0.198687195777893,0.413156092166901,0.156329274177551,0.191429316997528,0.15110556781292,0.301362246274948
33,0.195268109440804,0.468961089849472,0.188705861568451,0.198440000414848,0.156716778874397,0.307417005300522
34,0.18713067471981,0.5,0.214980736374855,0.199867650866508,0.150843143463135,0.310932755470276
35,0.18001689016819,0.5,0.229483410716057,0.193207859992981,0.139550715684891,0.309036076068878
36,0.17792072892189,0.5,0.228514194488525,0.177704080939293,0.130060508847237,0.295600205659866
37,0.180361032485962,0.5,0.217256680130959,0.159929782152176,0.127496615052223,0.277705162763596
38,0.177951246500015,0.5,0.204795151948929,0.147471696138382,0.128815084695816,0.26907879114151
39,0.16134138405323,0.5,0.193598091602325,0.140957042574883,0.126355960965157,0.271580010652542
40,0.132383301854134,0.5,0.181513160467148,0.138026535511017,0.115868769586086,0.277596801519394
41,0.100945457816124,0.5,0.169113114476204,0.137654930353165,0.0989097207784653,0.280931025743485
42,0.0769877657294273,0.5,0.15914186835289,0.138187646865845,0.0814617723226547,0.28204545378685
43,0.0685725808143616,0.5,0.154494613409042,0.138387218117714,0.0725038647651672,0.287283152341843
44,0.0795141458511353,0.5,0.156759202480316,0.138967648148537,0.0796438083052635,0.299750804901123
45,0.10498371720314,0.5,0.164893552660942,0.141902282834053,0.103407829999924,0.316006153821945
46,0.133891925215721,0.5,0.176958993077278,0.150065004825592,0.135201081633568,0.333436638116837
47,0.157864972949028,0.5,0.191602095961571,0.163797751069069,0.163203075528145,0.35015469789505
48,0.174835219979286,0.5,0.207583785057068,0.179882824420929,0.18227456510067,0.362803339958191
49,0.185264095664024,0.5,0.225236386060715,0.196198493242264,0.195397913455963,0.371432155370712
50,0.189688786864281,0.5,0.246664747595787,0.211494669318199,0.206215158104897,0.37885844707489
51,0.189212694764137,0.5,0.272522479295731,0.222889795899391,0.215213343501091,0.386870622634888
52,0.187662497162819,0.5,0.301176697015762,0.229198783636093,0.222709342837334,0.397004514932632
53,0.189119517803192,0.5,0.329489409923553,0.233807474374771,0.229309439659119,0.410510778427124
54,0.193189054727554,0.5,0.354819118976593,0.242643982172012,0.23562353849411,0.428188681602478
55,0.198887571692467,0.5,0.37782296538353,0.258711993694305,0.242801949381828,0.451495975255966
56,0.210059374570847,0.5,0.400359988212585,0.279068231582642,0.25276917219162,0.480020821094513
57,0.228238686919212,0.5,0.421422392129898,0.29849648475647,0.269729793071747,0.5
58,0.249897494912148,0.5,0.439219504594803,0.313669681549072,0.297381907701492,0.5
59,0.276089727878571,0.5,0.453404307365417,0.322560876607895,0.332210540771484,0.5
60,0.306862086057663,0.5,0.463920027017593,0.324447780847549,0.36306756734848,0.5
61,0.328305959701538,0.5,0.473207414150238,0.322849422693253,0.380954682826996,0.5
62,0.324591904878616,0.5,0.484408617019653,0.323866456747055,0.384028285741806,0.496776640415192
63,0.300036430358887,0.5,0.498368322849274,0.331883937120438,0.373255997896194,0.5
64,0.274034202098846,0.5,0.5,0.347257941961288,0.353036761283875,0.5
65,0.259624123573303,0.5,0.5,0.366829663515091,0.33335417509079,0.5
66,0.257384896278381,0.5,0.5,0.386333227157593,0.325903326272964,0.5
67,0.266827076673508,0.5,0.5,0.402363210916519,0.338392227888107,0.5
68,0.292418658733368,0.5,0.5,0.416791647672653,0.370170444250107,0.5
69,0.333957731723785,0.5,0.5,0.434709817171097,0.410701125860214,0.5
70,0.381383985280991,0.5,0.5,0.455869555473328,0.446100145578384,0.5
71,0.424438863992691,0.5,0.5,0.476618200540543,0.471779406070709,0.5
72,0.458552062511444,0.5,0.5,0.494911879301071,0.491992473602295,0.5
73,0.479818016290665,0.5,0.5,0.5,0.5,0.5
74,0.486375212669373,0.5,0.5,0.5,0.5,0.5
75,0.482923150062561,0.5,0.5,0.5,0.5,0.5
76,0.478600949048996,0.5,0.5,0.5,0.5,0.5
77,0.482606202363968,0.5,0.5,0.5,0.5,0.5
78,0.499502688646317,0.5,0.5,0.5,0.5,0.5
79,0.5,0.5,0.5,0.5,0.5,0.5
80,0.5,0.5,0.5,0.5,0.5,0.5
81,0.5,0.5,0.5,0.5,0.5,0.5
82,0.5,0.5,0.5,0.5,0.5,0.5
83,0.5,0.5,0.5,0.5,0.5,0.5
84,0.5,0.5,0.5,0.5,0.5,0.5
85,0.5,0.5,0.5,0.5,0.5,0.5
86,0.5,0.5,0.5,0.5,0.5,0.5
87,0.5,0.5,0.5,0.5,0.5,0.5
88,0.5,0.5,0.5,0.5,0.5,0.5
89,0.5,0.5,0.5,0.5,0.5,0.5
90,0.5,0.5,0.5,0.5,0.5,0.5
91,0.5,0.5,0.5,0.5,0.5,0.5
92,0.5,0.5,0.5,0.5,0.5,0.5
93,0.5,0.5,0.5,0.5,0.5,0.5
94,0.5,0.5,0.5,0.5,0.5,0.5
95,0.5,0.5,0.5,0.5,0.5,0.5
96,0.5,0.5,0.5,0.5,0.5,0.5
97,0.5,0.5,0.5,0.5,0.5,0.5
98,0.5,0.5,0.5,0.5,0.5,0.5
99,0.5,0.5,0.5,0.5,0.5,0.5
100,0.5,0.5,0.5,0.5,0.5,0.5
101,0.5,0.5,0.5,0.5,0.5,0.5
102,0.5,0.5,0.5,0.5,0.5,0.5
103,0.5,0.5,0.5,0.5,0.5,0.5
104,0.5,0.5,0.5,0.5,0.5,0.5
105,0.5,0.5,0.5,0.5,0.5,0.5
106,0.5,0.5,0.5,0.5,0.5,0.5
107,0.5,0.5,0.5,0.5,0.5,0.5
108,0.5,0.5,0.5,0.5,0.5,0.5
109,0.5,0.5,0.5,0.5,0.5,0.5
110,0.5,0.5,0.5,0.5,0.5,0.5
111,0.5,0.5,0.5,0.5,0.5,0.5
112,0.5,0.5,0.5,0.5,0.5,0.5
113,0.5,0.5,0.5,0.5,0.5,0.5
114,0.5,0.5,0.5,0.5,0.5,0.5
115,0.5,0.5,0.5,0.5,0.5,0.5
116,0.5,0.5,0.5,0.5,0.5,0.5
117,0.5,0.5,0.5,0.5,0.5,0.5
118,0.5,0.5,0.5,0.5,0.5,0.5
119,0.5,0.5,0.5,0.5,0.5,0.5
120,0.5,0.5,0.5,0.5,0.5,0.5
121,0.5,0.5,0.5,0.5,0.5,0.5
122,0.5,0.5,0.5,0.5,0.5,0.5
123,0.5,0.5,0.5,0.5,0.5,0.5
124,0.5,0.5,0.5,0.5,0.5,0.5
125,0.5,0.5,0.5,0.5,0.5,0.5
126,0.5,0.5,0.5,0.5,0.5,0.5
127,0.5,0.5,0.5,0.467757225036621,0.5,0.5
128,0.5,0.5,0.5,0.436867773532867,0.5,0.5
129,0.5,0.5,0.5,0.416080057621002,0.5,0.5
130,0.5,0.5,0.5,0.411029607057571,0.5,0.5
131,0.5,0.5,0.5,0.4173364341259,0.5,0.5
132,0.5,0.5,0.5,0.421413093805313,0.5,0.5
133,0.5,0.5,0.5,0.415319919586182,0.5,0.5
134,0.5,0.5,0.5,0.399767279624939,0.5,0.5
135,0.5,0.5,0.5,0.378788113594055,0.5,0.5
136,0.5,0.5,0.5,0.362361013889313,0.5,0.5
137,0.5,0.5,0.5,0.363254487514496,0.5,0.5
138,0.5,0.5,0.5,0.380832821130753,0.5,0.5
139,0.5,0.5,0.5,0.40168222784996,0.5,0.5
140,0.5,0.5,0.5,0.417389810085297,0.5,0.5
141,0.5,0.5,0.5,0.428085505962372,0.5,0.5
142,0.5,0.5,0.5,0.435504078865051,0.5,0.5
143,0.5,0.5,0.5,0.440205752849579,0.5,0.5
144,0.5,0.5,0.5,0.442347526550293,0.5,0.5
145,0.5,0.5,0.5,0.441956341266632,0.5,0.5
146,0.5,0.5,0.5,0.438912123441696,0.5,0.5
147,0.5,0.5,0.5,0.435364335775375,0.5,0.5
148,0.5,0.495048373937607,0.5,0.435899198055267,0.5,0.5
149,0.5,0.493315696716309,0.5,0.442635297775269,0.5,0.5
150,0.5,0.492145925760269,0.5,0.450704634189606,0.5,0.5
151,0.5,0.484959244728088,0.5,0.453070819377899,0.5,0.5
152,0.5,0.471847176551819,0.5,0.450471699237823,0.5,0.5
153,0.5,0.456837981939316,0.5,0.44951143860817,0.5,0.5
154,0.5,0.440334290266037,0.5,0.451662957668304,0.5,0.5
155,0.5,0.420653641223907,0.5,0.452066481113434,0.5,0.5
156,0.5,0.400298893451691,0.5,0.447801649570465,0.5,0.5
157,0.5,0.383164912462235,0.5,0.440195918083191,0.495474457740784,0.5
158,0.5,0.370363593101501,0.5,0.43094539642334,0.475787043571472,0.5
159,0.5,0.363577604293823,0.5,0.421807318925858,0.456279516220093,0.5
160,0.5,0.364127069711685,0.5,0.415896117687225,0.443665087223053,0.5
161,0.490425825119019,0.369694977998734,0.5,0.415269762277603,0.438232064247131,0.5
162,0.487229228019714,0.376150369644165,0.5,0.418955594301224,0.436936259269714,0.5
163,0.488632589578629,0.378092169761658,0.5,0.424086719751358,0.439693927764893,0.5
164,0.492871582508087,0.37036395072937,0.5,0.427836537361145,0.447737574577332,0.5
165,0.499124735593796,0.353017121553421,0.5,0.428366422653198,0.458866745233536,0.5
166,0.5,0.332996934652328,0.5,0.425292491912842,0.466862469911575,0.5
167,0.5,0.31805744767189,0.5,0.419999241828918,0.466887772083282,0.5
168,0.5,0.309361159801483,0.5,0.414363771677017,0.458585143089294,0.5
169,0.498337060213089,0.303506195545197,0.5,0.40961104631424,0.446386873722076,0.5
170,0.480662971735001,0.297817438840866,0.5,0.405875623226166,0.436749756336212,0.5
171,0.462452918291092,0.291875779628754,0.5,0.402370244264603,0.430932939052582,0.5
172,0.449327349662781,0.287541955709457,0.5,0.397425919771194,0.425073534250259,0.5
173,0.442861080169678,0.285209536552429,0.499047070741653,0.389534085988998,0.417011618614197,0.5
174,0.437195211648941,0.282009035348892,0.488241702318192,0.380328953266144,0.40875032544136,0.5
175,0.425487101078033,0.275306284427643,0.479571551084518,0.372442930936813,0.402046352624893,0.5
176,0.406223446130753,0.265467435121536,0.471935927867889,0.365482807159424,0.39438733458519,0.48724102973938
177,0.382888078689575,0.257120877504349,0.461094528436661,0.357775270938873,0.383467733860016,0.47886860370636
178,0.360271692276001,0.253373235464096,0.445193499326706,0.34701070189476,0.369907081127167,0.473942071199417
179,0.34144127368927,0.252608478069305,0.426631212234497,0.332853138446808,0.354664206504822,0.468208074569702
180,0.328603446483612,0.254801779985428,0.412935167551041,0.321617543697357,0.341093808412552,0.465033978223801
181,0.323766976594925,0.261093258857727,0.410108655691147,0.320233047008514,0.335681855678558,0.469793677330017
182,0.327160954475403,0.27084282040596,0.41514790058136,0.328311294317245,0.340784162282944,0.480440318584442
183,0.334020584821701,0.282796055078506,0.419740706682205,0.33854615688324,0.349113285541534,0.487438589334488
184,0.336600184440613,0.294981688261032,0.418564081192017,0.342160224914551,0.351354867219925,0.482262194156647
185,0.331309705972672,0.305296540260315,0.412492245435715,0.336083710193634,0.346234053373337,0.465359777212143
186,0.319457352161407,0.312689185142517,0.40472599864006,0.324447005987167,0.337196499109268,0.445376098155975
187,0.303841799497604,0.315476417541504,0.39598673582077,0.311962276697159,0.325523555278778,0.429992467164993
188,0.28722283244133,0.311323016881943,0.385768443346024,0.300279349088669,0.311084061861038,0.420232534408569
189,0.271088421344757,0.30095037817955,0.374951601028442,0.290086954832077,0.293928444385529,0.413656681776047
190,0.256588876247406,0.288293421268463,0.365443855524063,0.281492441892624,0.276916682720184,0.407555490732193
191,0.244613453745842,0.277790546417236,0.358443826436996,0.273432821035385,0.264512956142426,0.400295615196228
192,0.235119134187698,0.273281306028366,0.353294998407364,0.265652537345886,0.257327884435654,0.393810540437698
193,0.229567155241966,0.276175528764725,0.349430322647095,0.259714245796204,0.256110161542892,0.391446948051453
194,0.227797761559486,0.283736914396286,0.346464902162552,0.256064236164093,0.260041266679764,0.393156826496124
195,0.224464669823647,0.290647387504578,0.342529892921448,0.252619087696075,0.261634647846222,0.395488321781158
196,0.215985789895058,0.293061852455139,0.336149275302887,0.247536584734917,0.256477236747742,0.395106226205826
197,0.206509575247765,0.290773689746857,0.328296989202499,0.241656318306923,0.248719781637192,0.392110109329224
198,0.202673330903053,0.284128665924072,0.320320159196854,0.235871970653534,0.242908954620361,0.386840730905533
199,0.203818872570992,0.272162258625031,0.312733471393585,0.228719770908356,0.238910809159279,0.377620369195938
200,0.203465268015862,0.256710737943649,0.306967407464981,0.219947382807732,0.235174044966698,0.366477966308594
201,0.199139967560768,0.243011057376862,0.303706824779511,0.211866274476051,0.230832725763321,0.358482778072357
202,0.19288058578968,0.233305484056473,0.300505548715591,0.205289512872696,0.225285038352013,0.354139238595963
203,0.184378892183304,0.225082784891129,0.294345915317535,0.198486819863319,0.217814758419991,0.349901676177979
204,0.171562448143959,0.216495469212532,0.286142438650131,0.191751658916473,0.208674818277359,0.344942212104797
205,0.157391518354416,0.208531096577644,0.28011691570282,0.188180357217789,0.201787084341049,0.341660976409912
206,0.147376492619514,0.201686948537827,0.278401613235474,0.188504472374916,0.201439991593361,0.341343969106674
207,0.143167808651924,0.194840997457504,0.27970677614212,0.190009221434593,0.205940783023834,0.343263417482376
208,0.142554417252541,0.187308982014656,0.280944645404816,0.18936713039875,0.208889082074165,0.346092820167542
209,0.142021119594574,0.180119425058365,0.279130071401596,0.184905633330345,0.204897627234459,0.348634570837021
210,0.139038726687431,0.175017014145851,0.274082511663437,0.177214756608009,0.193518906831741,0.34856653213501
211,0.133168533444405,0.171377554535866,0.266800552606583,0.166567131876946,0.179184511303902,0.341738820075989
212,0.124785862863064,0.167435318231583,0.258030295372009,0.153112441301346,0.165864393115044,0.327472805976868
213,0.112657532095909,0.163678824901581,0.249370008707047,0.138625964522362,0.153695777058601,0.311004817485809
214,0.0965375676751137,0.160357519984245,0.24260014295578,0.124579429626465,0.142961964011192,0.296842366456985
215,0.0792262777686119,0.155618652701378,0.23878800868988,0.111984588205814,0.134783312678337,0.28634575009346
216,0.0629298910498619,0.147535413503647,0.237007915973663,0.101549342274666,0.127328678965569,0.280051827430725
217,0.0490205399692059,0.136912167072296,0.235298663377762,0.0930803269147873,0.119574435055256,0.278010249137878
218,0.0387680865824223,0.12518185377121,0.232329934835434,0.0856570228934288,0.113946042954922,0.277235060930252
219,0.0319217927753925,0.112148508429527,0.227620050311089,0.0786597430706024,0.111070401966572,0.273902714252472
220,0.0281133651733398,0.0993175730109215,0.221852943301201,0.0723377168178558,0.10833103954792,0.268933802843094
221,0.0284601468592882,0.0881932005286217,0.215759590268135,0.0660042464733124,0.104052551090717,0.263944000005722
222,0.0335034467279911,0.0797473788261414,0.210650712251663,0.0599777698516846,0.100699707865715,0.259829938411713
223,0.0404201783239841,0.0764397531747818,0.208843603730202,0.0569670163094997,0.101944349706173,0.258552461862564
224,0.046309482306242,0.0786714181303978,0.211185544729233,0.0579833723604679,0.107935711741447,0.260356813669205
225,0.0509442389011383,0.0835872814059258,0.216003656387329,0.0610725656151772,0.115972302854061,0.264735758304596
226,0.0529358051717281,0.0871487259864807,0.219350025057793,0.0635264068841934,0.122224062681198,0.270948052406311
227,0.0503536351025105,0.086796760559082,0.217575415968895,0.063762404024601,0.123880349099636,0.276598870754242
228,0.0440520979464054,0.0826646536588669,0.210841044783592,0.0619312487542629,0.121664553880692,0.279319286346436
229,0.0365326106548309,0.0745305866003037,0.201423987746239,0.0582165606319904,0.118625067174435,0.27827662229538
230,0.0296674035489559,0.0621614865958691,0.190909594297409,0.0521282777190208,0.116208225488663,0.274005800485611
231,0.0232975389808416,0.0480352863669395,0.180604085326195,0.044208075851202,0.11219971626997,0.269007980823517
232,0.0165206473320723,0.0344443693757057,0.171539157629013,0.0360586605966091,0.104004919528961,0.265632688999176
233,0.00986392423510551,0.0201145205646753,0.163044035434723,0.0282487459480762,0.0928809866309166,0.26133993268013
234,0.00591301592066884,0.00502251740545034,0.154547140002251,0.0219336356967688,0.083647295832634,0.254008084535599
235,0.00557756004855037,-0.00595028279349208,0.1477310359478,0.0193898994475603,0.0785905569791794,0.24668051302433
236,0.0053811464458704,-0.0103765688836575,0.144005984067917,0.0197284519672394,0.075231172144413,0.239908128976822
237,0.00308266282081604,-0.0114992242306471,0.142481222748756,0.0200209897011518,0.0721206665039063,0.231592357158661
238,0.00080928357783705,-0.011789608746767,0.142117574810982,0.020236611366272,0.0711279138922691,0.224143072962761
239,0.000590310199186206,-0.0111371437087655,0.143298640847206,0.0223133768886328,0.0741699486970901,0.221270591020584
240,0.00194118113722652,-0.0106499176472425,0.14523421227932,0.0252845827490091,0.0795182213187218,0.22130773961544
241,0.00522204861044884,-0.0120845464989543,0.146223977208138,0.0263252481818199,0.0828332304954529,0.219998210668564
242,0.0112387351691723,-0.0151953110471368,0.146080106496811,0.0253605451434851,0.083730012178421,0.215908467769623
243,0.0174170359969139,-0.0188821982592344,0.143693044781685,0.0239717606455088,0.0843866765499115,0.211032062768936
244,0.0191750768572092,-0.0226879399269819,0.137198492884636,0.0224831588566303,0.0822399035096169,0.207434520125389
245,0.0128984618932009,-0.0270241349935532,0.127608150243759,0.0200560744851828,0.074236124753952,0.202613055706024
246,-0.000779387482907623,-0.0331429876387119,0.117854759097099,0.0159227680414915,0.0625855326652527,0.19255468249321
247,-0.0152634922415018,-0.0428142994642258,0.109381936490536,0.0101036699488759,0.051280677318573,0.177814900875092
248,-0.0250951144844294,-0.056787084788084,0.100651517510414,0.00262470939196646,0.0420655012130737,0.162752762436867
249,-0.0320196188986301,-0.0733267217874527,0.0896480530500412,-0.00692585110664368,0.0343031734228134,0.151413276791573
250,-0.0400645285844803,-0.0895647332072258,0.0765488147735596,-0.0181493051350117,0.0266280602663755,0.143396407365799
251,-0.0505231432616711,-0.102860383689404,0.0631376579403877,-0.0285312943160534,0.0185116212815046,0.135885462164879
252,-0.0607237629592419,-0.111817046999931,0.0524742938578129,-0.0342602282762527,0.0115196388214827,0.128434374928474
253,-0.0671103149652481,-0.117214538156986,0.0463940314948559,-0.0353014282882214,0.00645246729254723,0.121857434511185
254,-0.0699546188116074,-0.120989613234997,0.0432471744716167,-0.0367182344198227,0.00265914178453386,0.115921415388584
255,-0.0710863173007965,-0.126057714223862,0.0396873727440834,-0.0424134023487568,0.000976355106104165,0.108369544148445
256,-0.0710464492440224,-0.134682878851891,0.0325328260660172,-0.0519103556871414,-0.000236177787883207,0.0979330763220787
257,-0.0698046684265137,-0.145284429192543,0.0224156882613897,-0.061518732458353,-0.00523034809157252,0.0885541588068008
258,-0.0679142698645592,-0.154975384473801,0.0133208995684981,-0.0682087913155556,-0.0135896550491452,0.0837772712111473
259,-0.0675132647156715,-0.162514850497246,0.00662207324057817,-0.072449617087841,-0.0211974587291479,0.0809268206357956
260,-0.0710737854242325,-0.168159812688828,0.000839876069221646,-0.0758303254842758,-0.0259007178246975,0.0748895481228828
261,-0.0785495340824127,-0.174333438277245,-0.00460400292649865,-0.0798949748277664,-0.028304822742939,0.0634773746132851
262,-0.0865191370248795,-0.181825816631317,-0.00775917107239366,-0.0841472372412682,-0.0304301325231791,0.0513077601790428
263,-0.0914663448929787,-0.187620028853416,-0.0086288545280695,-0.0860304832458496,-0.0347674675285816,0.0451345853507519
264,-0.0933452919125557,-0.191374555230141,-0.0135711226612329,-0.087181881070137,-0.0438390672206879,0.0422432832419872
265,-0.0933178812265396,-0.195724621415138,-0.0269470531493425,-0.0913789421319962,-0.0571509897708893,0.0353712402284145
266,-0.0937317386269569,-0.200539901852608,-0.045544695109129,-0.0987330675125122,-0.071242444217205,0.0259400214999914
267,-0.0979191586375237,-0.202817320823669,-0.0638545751571655,-0.107086896896362,-0.0832743346691132,0.0191384796053171
268,-0.103686086833477,-0.199822634458542,-0.0766873434185982,-0.113669157028198,-0.0900133550167084,0.0149200353771448
269,-0.108076132833958,-0.193179607391357,-0.0825326591730118,-0.117226980626583,-0.0904062166810036,0.00990143604576588
270,-0.113869816064835,-0.187336474657059,-0.0847112089395523,-0.118287891149521,-0.0879365652799606,0.00251110317185521
271,-0.121805123984814,-0.183702886104584,-0.086474634706974,-0.117405794560909,-0.0857659429311752,-0.00546290073543787
272,-0.127174273133278,-0.181721284985542,-0.089301273226738,-0.116165973246098,-0.0845996588468552,-0.0134109798818827
273,-0.127265632152557,-0.183362454175949,-0.0946177318692207,-0.116725035011768,-0.0855488181114197,-0.0243073776364326
274,-0.125651359558105,-0.191985249519348,-0.104770094156265,-0.119793459773064,-0.0907638818025589,-0.0400914438068867
275,-0.127021595835686,-0.207133233547211,-0.121677465736866,-0.124472603201866,-0.0992513224482536,-0.0580536127090454
276,-0.130763471126556,-0.221969157457352,-0.142210409045219,-0.128601014614105,-0.104564025998116,-0.0725832283496857
277,-0.133563622832298,-0.226891428232193,-0.159331187605858,-0.13093775510788,-0.101315177977085,-0.0797251537442207
278,-0.136538788676262,-0.219338625669479,-0.170715108513832,-0.134008526802063,-0.091649167239666,-0.0813533812761307
279,-0.14461587369442,-0.206972599029541,-0.1806510835886,-0.140794470906258,-0.0854371041059494,-0.0834848880767822
280,-0.15827539563179,-0.19768825173378,-0.193131327629089,-0.149658098816872,-0.0923352614045143,-0.0890030637383461
281,-0.170137673616409,-0.191485598683357,-0.206420555710793,-0.155416786670685,-0.10890869051218,-0.095199353992939
282,-0.171114861965179,-0.183976590633392,-0.216854348778725,-0.155259817838669,-0.124378681182861,-0.0990811362862587
283,-0.160948857665062,-0.174409255385399,-0.223879352211952,-0.151418656110764,-0.135145351290703,-0.100164115428925
284,-0.150656521320343,-0.166729390621185,-0.228339120745659,-0.147398367524147,-0.142953559756279,-0.0987955629825592
285,-0.149570479989052,-0.163503229618073,-0.230175897479057,-0.144378408789635,-0.148305609822273,-0.0958564653992653
286,-0.156626150012016,-0.163292273879051,-0.229152947664261,-0.14229342341423,-0.151157051324844,-0.0935937240719795
287,-0.165949478745461,-0.163943856954575,-0.226312413811684,-0.141864374279976,-0.152038544416428,-0.094091922044754
288,-0.173490852117538,-0.165075689554214,-0.223699629306793,-0.14419612288475,-0.15104404091835,-0.0969955697655678
289,-0.179440677165985,-0.168132811784744,-0.223343819379807,-0.149652630090714,-0.149852424860001,-0.101000063121319
290,-0.187040433287621,-0.175047785043716,-0.227249890565872,-0.157867550849915,-0.151923015713692,-0.10619779676199
291,-0.198163717985153,-0.185468018054962,-0.236465603113174,-0.168734773993492,-0.158110558986664,-0.114609323441982
292,-0.208936929702759,-0.195681020617485,-0.249146491289139,-0.181141123175621,-0.166688114404678,-0.127948731184006
293,-0.213093861937523,-0.203926309943199,-0.262147665023804,-0.19362661242485,-0.176172390580177,-0.14609383046627
294,-0.210692673921585,-0.212222307920456,-0.272322356700897,-0.204725503921509,-0.184822857379913,-0.165234684944153
295,-0.207816436886787,-0.220868393778801,-0.276739120483398,-0.21107691526413,-0.191553428769112,-0.177832886576653
296,-0.208588436245918,-0.228910699486732,-0.276288777589798,-0.211607024073601,-0.195680767297745,-0.182558879256248
297,-0.21171273291111,-0.235555604100227,-0.274369418621063,-0.208651348948479,-0.194611564278603,-0.184875771403313
298,-0.214473485946655,-0.239132612943649,-0.272602677345276,-0.204980686306953,-0.188892811536789,-0.187243029475212
299,-0.216156080365181,-0.239506512880325,-0.272004991769791,-0.203378707170486,-0.184287250041962,-0.189802095293999
300,-0.216212660074234,-0.237955495715141,-0.274003386497498,-0.204216510057449,-0.184680938720703,-0.192457750439644
301,-0.213340863585472,-0.236471205949783,-0.279327422380447,-0.206161513924599,-0.190213605761528,-0.194585427641869
302,-0.206468015909195,-0.238288834691048,-0.287471145391464,-0.209229737520218,-0.198740854859352,-0.197501316666603
303,-0.194108679890633,-0.244572982192039,-0.295914351940155,-0.213231042027473,-0.205479681491852,-0.202948719263077
304,-0.179317697882652,-0.253268629312515,-0.301585048437119,-0.217450305819511,-0.207341283559799,-0.210391208529472
305,-0.174072444438934,-0.262450009584427,-0.304675072431564,-0.222811579704285,-0.206635057926178,-0.218922838568687
306,-0.184948742389679,-0.270751088857651,-0.306177973747253,-0.229767605662346,-0.205206915736198,-0.228334963321686
307,-0.203423649072647,-0.276167631149292,-0.303686171770096,-0.23543319106102,-0.202405318617821,-0.236751049757004
308,-0.218665093183517,-0.278144985437393,-0.296307951211929,-0.2365982234478,-0.19999361038208,-0.241411313414574
309,-0.22680951654911,-0.278504103422165,-0.288350760936737,-0.23378512263298,-0.199772402644157,-0.242486834526062
310,-0.228652969002724,-0.278396636247635,-0.283474922180176,-0.229331657290459,-0.200896009802818,-0.241793319582939
311,-0.227628946304321,-0.276975482702255,-0.280591398477554,-0.223961174488068,-0.203033894300461,-0.239633694291115
312,-0.226749822497368,-0.27338057756424,-0.277485311031342,-0.217128947377205,-0.20662547647953,-0.235139131546021
313,-0.224964991211891,-0.267872333526611,-0.274064838886261,-0.209547832608223,-0.209850519895554,-0.228463917970657
314,-0.219586998224258,-0.262498110532761,-0.271806508302689,-0.204768180847168,-0.20877930521965,-0.222709178924561
315,-0.209797918796539,-0.261081725358963,-0.273396462202072,-0.206736862659454,-0.202736809849739,-0.22200907766819
316,-0.198370337486267,-0.264956444501877,-0.278552323579788,-0.214292988181114,-0.194674104452133,-0.227489799261093
317,-0.191124215722084,-0.270659416913986,-0.282224804162979,-0.221780195832253,-0.18522672355175,-0.237419664859772
318,-0.191418468952179,-0.274704605340958,-0.283450603485107,-0.226477727293968,-0.176318690180779,-0.25042736530304
319,-0.19820100069046,-0.276827663183212,-0.286214113235474,-0.229431450366974,-0.175323694944382,-0.264358997344971
320,-0.208361193537712,-0.277121841907501,-0.290561467409134,-0.230731636285782,-0.186625257134438,-0.273921757936478
321,-0.218699648976326,-0.274459928274155,-0.293053209781647,-0.229200407862663,-0.205832451581955,-0.274289965629578
322,-0.22767548263073,-0.269399374723434,-0.292147040367126,-0.225500255823135,-0.223248720169067,-0.266767233610153
323,-0.234530925750732,-0.263923287391663,-0.288380831480026,-0.222294300794601,-0.231067538261414,-0.257853448390961
324,-0.239423960447311,-0.259777814149857,-0.28460493683815,-0.222479075193405,-0.229507848620415,-0.253637313842773
325,-0.242305234074593,-0.258497059345245,-0.283842921257019,-0.226616099476814,-0.222777292132378,-0.25531342625618
326,-0.240970715880394,-0.25977298617363,-0.284814715385437,-0.231210634112358,-0.213245809078217,-0.258453100919724
327,-0.234516710042953,-0.261277168989182,-0.284561067819595,-0.232426017522812,-0.20392881333828,-0.258383870124817
328,-0.226884335279465,-0.26171886920929,-0.284115791320801,-0.231154099106789,-0.200651124119759,-0.256425827741623
329,-0.221912086009979,-0.262664437294006,-0.286808729171753,-0.231380790472031,-0.205551221966743,-0.257933169603348
330,-0.215785264968872,-0.265661180019379,-0.292371660470963,-0.234276369214058,-0.211972087621689,-0.26485213637352
331,-0.20531202852726,-0.270341992378235,-0.298196107149124,-0.238779783248901,-0.212581843137741,-0.275308072566986
332,-0.19672480225563,-0.27534082531929,-0.303143531084061,-0.244996294379234,-0.207580715417862,-0.286413311958313
333,-0.194473937153816,-0.278269797563553,-0.305217713117599,-0.252203822135925,-0.2003034055233,-0.294918984174728
334,-0.194817274808884,-0.276259183883667,-0.30051651597023,-0.256858289241791,-0.192252159118652,-0.299086302518845
335,-0.193527415394783,-0.269177228212357,-0.289252907037735,-0.256112784147263,-0.186309143900871,-0.299188584089279
336,-0.189915239810944,-0.260305434465408,-0.277513682842255,-0.250177025794983,-0.185395881533623,-0.294988632202148
337,-0.186493948101997,-0.252788722515106,-0.271497458219528,-0.24199652671814,-0.189992889761925,-0.285991996526718
338,-0.185672149062157,-0.248276188969612,-0.274404376745224,-0.236708208918571,-0.200783655047417,-0.276000320911407
339,-0.188502579927444,-0.24659575521946,-0.286995381116867,-0.237895369529724,-0.218237772583961,-0.271373063325882
340,-0.195441871881485,-0.245220452547073,-0.305659055709839,-0.244945555925369,-0.23821584880352,-0.27438560128212
341,-0.204871758818626,-0.242460340261459,-0.322586447000504,-0.254448294639587,-0.252932697534561,-0.282552391290665
342,-0.215452328324318,-0.240344628691673,-0.332724720239639,-0.263064682483673,-0.258917659521103,-0.291815727949142
343,-0.227654427289963,-0.241084814071655,-0.336496919393539,-0.269432544708252,-0.258125513792038,-0.299004584550858
344,-0.242448166012764,-0.244127839803696,-0.336186140775681,-0.274171739816666,-0.255085378885269,-0.303456485271454
345,-0.258422881364822,-0.2485591173172,-0.333301514387131,-0.278596609830856,-0.253816097974777,-0.30640184879303
346,-0.271750807762146,-0.254381895065308,-0.329722702503204,-0.283707469701767,-0.254375964403152,-0.309550315141678
347,-0.28121080994606,-0.261773586273193,-0.329310178756714,-0.290786802768707,-0.254988253116608,-0.314239650964737
348,-0.286330461502075,-0.269254386425018,-0.333948522806168,-0.299761861562729,-0.253701508045197,-0.319804489612579
349,-0.285645455121994,-0.273759186267853,-0.34183943271637,-0.308564066886902,-0.249798536300659,-0.324911564588547
350,-0.280417889356613,-0.273678600788116,-0.350197821855545,-0.315201461315155,-0.24508672952652,-0.328722953796387
351,-0.273851066827774,-0.26953598856926,-0.357303828001022,-0.318525046110153,-0.243890091776848,-0.329574048519135
352,-0.268299728631973,-0.263244599103928,-0.36346498131752,-0.318727940320969,-0.250423640012741,-0.326721578836441
353,-0.264687746763229,-0.257803440093994,-0.368491619825363,-0.316733568906784,-0.261761099100113,-0.321538299322128
354,-0.263700693845749,-0.256457954645157,-0.37229710817337,-0.314775764942169,-0.271568417549133,-0.316956758499146
355,-0.265271574258804,-0.25913217663765,-0.375651359558105,-0.314961075782776,-0.277048856019974,-0.315415501594543
356,-0.268624573945999,-0.2635617852211,-0.378425806760788,-0.317438244819641,-0.277208656072617,-0.318698316812515
357,-0.272563576698303,-0.269089639186859,-0.379801839590073,-0.321603745222092,-0.272033303976059,-0.327494621276855
358,-0.275512248277664,-0.273559033870697,-0.378107577562332,-0.324895858764648,-0.263473004102707,-0.336771547794342
359,-0.277317255735397,-0.274763256311417,-0.373167902231216,-0.325687408447266,-0.254866659641266,-0.340909034013748
360,-0.276900887489319,-0.274005383253098,-0.368270635604858,-0.326091408729553,-0.248043820261955,-0.340022534132004
361,-0.272833585739136,-0.272627115249634,-0.367302775382996,-0.327040880918503,-0.243786185979843,-0.335371971130371
362,-0.268621534109116,-0.271546810865402,-0.370343327522278,-0.327003329992294,-0.242502421140671,-0.328864723443985
363,-0.267291605472565,-0.27083945274353,-0.372825413942337,-0.324368089437485,-0.242278471589088,-0.322623193264008
364,-0.265376031398773,-0.267688184976578,-0.370449215173721,-0.318251818418503,-0.241152986884117,-0.315551072359085
365,-0.260637700557709,-0.261247098445892,-0.363271623849869,-0.310042142868042,-0.23909604549408,-0.307240098714828
366,-0.256579756736755,-0.254334330558777,-0.354061663150787,-0.302702575922012,-0.236014842987061,-0.300309777259827
367,-0.255957812070847,-0.248923122882843,-0.344797223806381,-0.297632068395615,-0.229237899184227,-0.296425938606262
368,-0.258199453353882,-0.245593518018723,-0.336653292179108,-0.294681251049042,-0.21624393761158,-0.29501673579216
369,-0.261943072080612,-0.245399683713913,-0.33199468255043,-0.294875830411911,-0.201112285256386,-0.296158462762833
370,-0.263064861297607,-0.248025953769684,-0.3330118060112,-0.299109190702438,-0.19250950217247,-0.299719542264938
371,-0.256108850240707,-0.250476539134979,-0.338479429483414,-0.304538488388062,-0.19466070830822,-0.303313702344894
372,-0.244434133172035,-0.25044572353363,-0.344106197357178,-0.306536287069321,-0.205014333128929,-0.304699152708054
373,-0.238028019666672,-0.247071966528893,-0.345816373825073,-0.302797049283981,-0.218201771378517,-0.303291469812393
374,-0.238913223147392,-0.239876732230186,-0.342162877321243,-0.294400632381439,-0.228066623210907,-0.300225585699081
375,-0.240155234932899,-0.22908827662468,-0.333487689495087,-0.283688277006149,-0.228066340088844,-0.295413970947266
376,-0.236518010497093,-0.21561262011528,-0.319858342409134,-0.271405756473541,-0.21501787006855,-0.286009877920151
377,-0.228660196065903,-0.201622813940048,-0.302031308412552,-0.257615745067596,-0.192553535103798,-0.272866547107697
378,-0.21906466782093,-0.188132047653198,-0.283126324415207,-0.243065774440765,-0.169375613331795,-0.259499192237854
379,-0.207271933555603,-0.174286380410194,-0.268777310848236,-0.230035454034805,-0.154298141598701,-0.246974438428879
380,-0.192414477467537,-0.160607472062111,-0.263402223587036,-0.222575321793556,-0.15058670938015,-0.237479895353317
381,-0.180356696248055,-0.148582249879837,-0.264429271221161,-0.222344502806664,-0.155831098556519,-0.233807265758514
382,-0.178079679608345,-0.138707756996155,-0.26484352350235,-0.224948510527611,-0.165858298540115,-0.233377814292908
383,-0.184079572558403,-0.130340591073036,-0.261765360832214,-0.223612770438194,-0.177069112658501,-0.229818567633629
384,-0.192923858761787,-0.123973563313484,-0.257829785346985,-0.216799929738045,-0.186913222074509,-0.221373662352562
385,-0.200878992676735,-0.121779933571815,-0.255292117595673,-0.209408849477768,-0.192181885242462,-0.212704315781593
386,-0.203751996159554,-0.123468488454819,-0.252478301525116,-0.205626830458641,-0.188127920031548,-0.208701387047768
387,-0.198795080184937,-0.126258462667465,-0.247246310114861,-0.205113351345062,-0.174002215266228,-0.210410505533218
388,-0.188612073659897,-0.12866248190403,-0.240739762783051,-0.206191822886467,-0.156033992767334,-0.215490654110909
389,-0.178117498755455,-0.130453005433083,-0.235241681337357,-0.207247212529182,-0.140868872404099,-0.22038808465004
390,-0.170497700572014,-0.13122433423996,-0.231392040848732,-0.206518203020096,-0.130264893174171,-0.222603619098663
391,-0.165958806872368,-0.130462899804115,-0.228803172707558,-0.203881278634071,-0.122441403567791,-0.222565576434135
392,-0.163872629404068,-0.129220679402351,-0.228141844272614,-0.201775953173637,-0.11739706993103,-0.224109694361687
393,-0.164542764425278,-0.128723338246346,-0.229665994644165,-0.20143711566925,-0.116780124604702,-0.228135630488396
394,-0.167045623064041,-0.127506703138351,-0.23100908100605,-0.200412452220917,-0.119105897843838,-0.228872030973434
395,-0.16894069314003,-0.12481215596199,-0.229461908340454,-0.197072178125381,-0.120355866849422,-0.223846927285194
396,-0.168058037757874,-0.122518420219421,-0.224120065569878,-0.192408084869385,-0.117314539849758,-0.217412739992142
397,-0.163901314139366,-0.12165879458189,-0.216000139713287,-0.187346890568733,-0.110526837408543,-0.212520927190781
398,-0.157887741923332,-0.120684392750263,-0.206980764865875,-0.182023525238037,-0.103705033659935,-0.208008855581284
399,-0.150854960083961,-0.117906749248505,-0.198780447244644,-0.176749914884567,-0.0989492610096931,-0.202216923236847
400,-0.143394485116005,-0.114178046584129,-0.192639946937561,-0.172783762216568,-0.0951526165008545,-0.195832535624504
401,-0.137654289603233,-0.111414849758148,-0.18830843269825,-0.171182781457901,-0.0909879729151726,-0.190819516777992
402,-0.134132832288742,-0.109174691140652,-0.183915331959724,-0.170418173074722,-0.0867900922894478,-0.187030643224716
403,-0.132366418838501,-0.10535454005003,-0.178433999419212,-0.167453795671463,-0.0853106454014778,-0.182202950119972
404,-0.133479490876198,-0.100657120347023,-0.173129290342331,-0.162140697240829,-0.0885945186018944,-0.176637664437294
405,-0.136104449629784,-0.0985947847366333,-0.16915200650692,-0.157461434602737,-0.0919374078512192,-0.174308806657791
406,-0.136834442615509,-0.100425161421299,-0.166331350803375,-0.154865697026253,-0.0905923172831535,-0.176750898361206
407,-0.13559353351593,-0.103747442364693,-0.164496257901192,-0.152525827288628,-0.0880694538354874,-0.17998842895031
408,-0.13448503613472,-0.106410525739193,-0.163780719041824,-0.14942929148674,-0.0880221128463745,-0.180804967880249
409,-0.133059293031693,-0.10815254598856,-0.164060041308403,-0.147544741630554,-0.0876810848712921,-0.180712640285492
410,-0.129337191581726,-0.109555505216122,-0.166029766201973,-0.149548754096031,-0.0855360478162766,-0.181879431009293
411,-0.124618999660015,-0.11080352216959,-0.170438334345818,-0.155149310827255,-0.0862635001540184,-0.183028981089592
412,-0.122396498918533,-0.111106775701046,-0.174366131424904,-0.16030877828598,-0.0905532538890839,-0.181433975696564
413,-0.124632865190506,-0.110658742487431,-0.173529893159866,-0.162385508418083,-0.092189334332943,-0.178000777959824
414,-0.131656318902969,-0.110277079045773,-0.167128428816795,-0.161563485860825,-0.0898518040776253,-0.1753269135952
415,-0.140849471092224,-0.109895408153534,-0.158329755067825,-0.159159198403358,-0.0870602205395699,-0.174556270241737
416,-0.147014439105988,-0.109524972736835,-0.151796534657478,-0.157652139663696,-0.0855001956224442,-0.17656022310257
417,-0.148950740695,-0.109690107405186,-0.150626227259636,-0.158625081181526,-0.0874264538288116,-0.181215614080429
418,-0.149896860122681,-0.110916756093502,-0.155173495411873,-0.161606550216675,-0.0943614020943642,-0.187134936451912
419,-0.150695130228996,-0.112802237272263,-0.162015214562416,-0.164568036794662,-0.102229841053486,-0.192182183265686
420,-0.151201754808426,-0.116655215620995,-0.166995495557785,-0.16677887737751,-0.104952104389668,-0.196162849664688
421,-0.154145166277885,-0.12594598531723,-0.170282423496246,-0.17038469016552,-0.101427853107452,-0.202141389250755
422,-0.161860182881355,-0.140046700835228,-0.17508564889431,-0.176987588405609,-0.0971687883138657,-0.211276143789291
423,-0.173701748251915,-0.155043631792068,-0.183697879314423,-0.186387866735458,-0.0987746864557266,-0.222063437104225
424,-0.18825489282608,-0.16988031566143,-0.197181552648544,-0.198554947972298,-0.110280923545361,-0.234466582536697
425,-0.202020138502121,-0.184014305472374,-0.214510038495064,-0.212334230542183,-0.132548317313194,-0.247905045747757
426,-0.210826858878136,-0.195426508784294,-0.230900034308434,-0.224456325173378,-0.160690665245056,-0.259710818529129
427,-0.217880427837372,-0.204753905534744,-0.242701560258865,-0.233796343207359,-0.187541261315346,-0.269119322299957
428,-0.226979270577431,-0.213218882679939,-0.250097870826721,-0.241415187716484,-0.207036510109901,-0.276593863964081
429,-0.233625635504723,-0.219835236668587,-0.253851354122162,-0.24706095457077,-0.214619070291519,-0.281984210014343
430,-0.232701137661934,-0.222598075866699,-0.252901136875153,-0.248682022094727,-0.210557714104652,-0.284233033657074
431,-0.224970370531082,-0.218713268637657,-0.245315238833427,-0.24413751065731,-0.19875867664814,-0.280792117118835
432,-0.214178696274757,-0.207741782069206,-0.232612743973732,-0.23437125980854,-0.183014571666718,-0.271891295909882
433,-0.203717261552811,-0.193344429135323,-0.219268232584,-0.223258092999458,-0.167666107416153,-0.261178582906723
434,-0.195690900087357,-0.17968837916851,-0.207547351717949,-0.213346406817436,-0.156780377030373,-0.249921023845673
435,-0.188697203993797,-0.168742150068283,-0.197009488940239,-0.204141721129417,-0.149145856499672,-0.237618297338486
436,-0.178969070315361,-0.16167514026165,-0.189672276377678,-0.196471571922302,-0.141760140657425,-0.22723500430584
437,-0.166393235325813,-0.159335076808929,-0.188964679837227,-0.192664295434952,-0.136007502675056,-0.22201931476593
438,-0.155954256653786,-0.159977808594704,-0.192010939121246,-0.191127330064774,-0.132468789815903,-0.219822242856026
439,-0.152493700385094,-0.161413371562958,-0.193250060081482,-0.189566165208817,-0.129374384880066,-0.218641370534897
440,-0.156051814556122,-0.162697687745094,-0.19156751036644,-0.187933638691902,-0.12737700343132,-0.21953658759594
441,-0.16278201341629,-0.162602841854095,-0.188204035162926,-0.185786888003349,-0.126364856958389,-0.221959069371223
442,-0.168301954865456,-0.160881415009499,-0.184962779283524,-0.183845728635788,-0.123725771903992,-0.224903345108032
443,-0.170303612947464,-0.158310025930405,-0.183217450976372,-0.183016538619995,-0.120216347277164,-0.227538779377937
444,-0.168981909751892,-0.155149921774864,-0.182337045669556,-0.181654453277588,-0.119460202753544,-0.22772641479969
445,-0.16445529460907,-0.1512151658535,-0.180540055036545,-0.177732706069946,-0.122247725725174,-0.223958060145378
446,-0.157894223928452,-0.14786984026432,-0.177604213356972,-0.172565475106239,-0.127696186304092,-0.218361586332321
447,-0.152214094996452,-0.148488134145737,-0.175905421376228,-0.170362204313278,-0.134215176105499,-0.216467559337616
448,-0.149127826094627,-0.156279131770134,-0.17783722281456,-0.174487918615341,-0.13866800069809,-0.222887933254242
449,-0.149606317281723,-0.170086428523064,-0.183609247207642,-0.184174373745918,-0.142406821250916,-0.235216900706291
450,-0.154243603348732,-0.182833179831505,-0.191157892346382,-0.194232285022736,-0.150509178638458,-0.24403777718544
451,-0.16255858540535,-0.189349129796028,-0.197833225131035,-0.200731217861176,-0.162260919809341,-0.244030833244324
452,-0.172648549079895,-0.190622538328171,-0.201665237545967,-0.203458577394485,-0.171087875962257,-0.238602936267853
453,-0.181407034397125,-0.19024433195591,-0.203125953674316,-0.204194888472557,-0.171603351831436,-0.233726069331169
454,-0.186931371688843,-0.19149212539196,-0.204813808202744,-0.205255717039108,-0.164826273918152,-0.232786357402802
455,-0.189537942409515,-0.194856017827988,-0.20695623755455,-0.206512004137039,-0.157605051994324,-0.234720543026924
456,-0.191003650426865,-0.198818355798721,-0.208208158612251,-0.207017704844475,-0.155015170574188,-0.237520694732666
457,-0.192810118198395,-0.202304065227509,-0.208119913935661,-0.206974238157272,-0.155905112624168,-0.240317270159721
458,-0.193908035755157,-0.204949259757996,-0.205878838896751,-0.206156045198441,-0.156507641077042,-0.242013424634933
459,-0.191131427884102,-0.20620621740818,-0.201170518994331,-0.204073235392571,-0.154539629817009,-0.241873934864998
460,-0.182129859924316,-0.203990399837494,-0.194407343864441,-0.199090108275414,-0.149262830615044,-0.237826809287071
461,-0.166617348790169,-0.194647714495659,-0.183945968747139,-0.18749038875103,-0.138905048370361,-0.225027695298195
462,-0.144856482744217,-0.177029073238373,-0.167661130428314,-0.167771369218826,-0.121461048722267,-0.201749056577683
463,-0.117419458925724,-0.155203461647034,-0.147236585617065,-0.14376112818718,-0.0983157679438591,-0.173215612769127
464,-0.0880804881453514,-0.134294673800468,-0.12645024061203,-0.120684310793877,-0.0739454850554466,-0.146380096673965
465,-0.0635525062680244,-0.11623776704073,-0.106709107756615,-0.100561410188675,-0.052337571978569,-0.124568112194538
466,-0.0476592816412449,-0.101508401334286,-0.0884455740451813,-0.0836320146918297,-0.0366384834051132,-0.108170941472054
467,-0.0417536683380604,-0.0928149446845055,-0.0757583975791931,-0.0729179978370667,-0.0308613013476133,-0.0989016070961952
468,-0.0483688861131668,-0.0928535610437393,-0.0741334483027458,-0.0724883452057838,-0.0354553833603859,-0.0983858853578568
469,-0.0676899179816246,-0.10061002522707,-0.0853598713874817,-0.0824073925614357,-0.046973679214716,-0.104831114411354
470,-0.0932272747159004,-0.112526580691338,-0.10536728054285,-0.0982333123683929,-0.0625829696655273,-0.115820027887821
471,-0.114322982728481,-0.123957484960556,-0.124607481062412,-0.112959302961826,-0.0759267508983612,-0.128612548112869
472,-0.123469270765781,-0.130372732877731,-0.134545385837555,-0.120501503348351,-0.076747439801693,-0.138803064823151
473,-0.121513858437538,-0.130026012659073,-0.134525373578072,-0.119730532169342,-0.0644249394536018,-0.142747804522514
474,-0.116838581860065,-0.125793904066086,-0.13126315176487,-0.115316897630692,-0.0529584810137749,-0.141226530075073
475,-0.117140576243401,-0.122657723724842,-0.131303668022156,-0.113455377519131,-0.0542681217193604,-0.139461889863014
476,-0.122547790408134,-0.122785046696663,-0.135341584682465,-0.116389974951744,-0.0670231953263283,-0.14115098118782
477,-0.130054891109467,-0.125673219561577,-0.141222342848778,-0.123101092875004,-0.084118627011776,-0.146138980984688
478,-0.138677760958672,-0.131119191646576,-0.147553876042366,-0.132687494158745,-0.0999272838234901,-0.153729051351547
479,-0.146896094083786,-0.138489082455635,-0.152303114533424,-0.142858922481537,-0.110013447701931,-0.1626345962286
480,-0.152170076966286,-0.145866349339485,-0.153340354561806,-0.150046348571777,-0.112712688744068,-0.170414745807648
481,-0.155338391661644,-0.152229607105255,-0.152284756302834,-0.154058694839478,-0.112962119281292,-0.176661163568497
482,-0.160673514008522,-0.159781381487846,-0.154838532209396,-0.159130439162254,-0.118287339806557,-0.184334516525269
483,-0.169852450489998,-0.170550912618637,-0.164874941110611,-0.168300077319145,-0.130559131503105,-0.194666057825089
484,-0.180744230747223,-0.183241918683052,-0.179661691188812,-0.179551467299461,-0.145675510168076,-0.204975575208664
485,-0.191502928733826,-0.196978315711021,-0.19431172311306,-0.190850600600243,-0.158838003873825,-0.215095356106758
486,-0.200662508606911,-0.21036896109581,-0.205894500017166,-0.20216877758503,-0.167172819375992,-0.227016463875771
487,-0.206047266721725,-0.220890685915947,-0.213160932064056,-0.212793424725533,-0.169445499777794,-0.23995815217495
488,-0.206687897443771,-0.228912800550461,-0.218148365616798,-0.222333580255508,-0.168226718902588,-0.25171372294426
489,-0.204903110861778,-0.236208140850067,-0.225195497274399,-0.231408983469009,-0.171748742461205,-0.260945230722427
490,-0.20494569838047,-0.24373397231102,-0.235824704170227,-0.240891769528389,-0.185525372624397,-0.268351584672928
491,-0.209116369485855,-0.251005709171295,-0.246326789259911,-0.250315636396408,-0.204845607280731,-0.274550706148148
492,-0.218448266386986,-0.256450593471527,-0.251970827579498,-0.25731834769249,-0.222564101219177,-0.278409481048584
493,-0.23403662443161,-0.25894170999527,-0.252074033021927,-0.25943449139595,-0.237110316753387,-0.278528451919556
494,-0.251018851995468,-0.258136004209518,-0.248504042625427,-0.256760329008102,-0.244253739714623,-0.274807393550873
495,-0.260813176631927,-0.255117267370224,-0.242801398038864,-0.2529636323452,-0.237932771444321,-0.270292639732361
496,-0.262369245290756,-0.251092821359634,-0.23676261305809,-0.251041769981384,-0.224071234464645,-0.26729416847229
497,-0.259815335273743,-0.245454385876656,-0.231167614459991,-0.250064969062805,-0.212652444839478,-0.263641506433487
498,-0.254245787858963,-0.237477570772171,-0.225126430392265,-0.247788354754448,-0.205457419157028,-0.257863759994507
499,-0.246122911572456,-0.229283362627029,-0.220203414559364,-0.244501397013664,-0.202055186033249,-0.252938568592072
500,-0.237690314650536,-0.224065735936165,-0.219311684370041,-0.242032185196877,-0.203316777944565,-0.251698464155197
501,-0.229818373918533,-0.221851512789726,-0.220495313405991,-0.239777877926826,-0.206510439515114,-0.252716332674026
502,-0.222719788551331,-0.220371380448341,-0.21943698823452,-0.235706657171249,-0.20726652443409,-0.25261789560318
503,-0.216531559824944,-0.218020811676979,-0.215650349855423,-0.229897528886795,-0.204837515950203,-0.249351114034653
504,-0.211621463298798,-0.215704023838043,-0.212335884571075,-0.225053489208221,-0.201650172472,-0.243527963757515
505,-0.211038336157799,-0.215686306357384,-0.211709320545197,-0.223381713032722,-0.199180334806442,-0.237728744745255
506,-0.215030446648598,-0.216432243585587,-0.2109444886446,-0.22321629524231,-0.194211855530739,-0.233318611979485
507,-0.21686989068985,-0.212471187114716,-0.205816060304642,-0.220818653702736,-0.182989045977592,-0.228753224015236
508,-0.211120754480362,-0.201676487922668,-0.196875229477882,-0.215158894658089,-0.167553499341011,-0.222263112664223
509,-0.199042081832886,-0.187837228178978,-0.186674609780312,-0.20778751373291,-0.152965322136879,-0.214307844638824
510,-0.184951916337013,-0.174977317452431,-0.175883308053017,-0.199314072728157,-0.142031133174896,-0.20610237121582
511,-0.174004212021828,-0.164667934179306,-0.167021811008453,-0.191094294190407,-0.136769339442253,-0.199100643396378
512,-0.170298025012016,-0.158359289169312,-0.163751438260078,-0.186599999666214,-0.138007923960686,-0.194929093122482
513,-0.172422781586647,-0.156980812549591,-0.165472686290741,-0.187001690268517,-0.142141655087471,-0.192939206957817
514,-0.174110904335976,-0.159853428602219,-0.168827280402184,-0.189955100417137,-0.144249275326729,-0.191480442881584
515,-0.172258824110031,-0.165037676692009,-0.170873746275902,-0.192150369286537,-0.14217047393322,-0.18999183177948
516,-0.169877499341965,-0.170045852661133,-0.170060887932777,-0.19176909327507,-0.136877983808517,-0.188623562455177
517,-0.17017163336277,-0.17358660697937,-0.167848840355873,-0.190576285123825,-0.130988523364067,-0.188442558050156
518,-0.172564908862114,-0.17437219619751,-0.165964901447296,-0.190701469779015,-0.125323042273521,-0.189567416906357
519,-0.173899874091148,-0.170312777161598,-0.162629172205925,-0.190625205636024,-0.118636839091778,-0.190235406160355
520,-0.172903180122375,-0.161908447742462,-0.156386896967888,-0.188793063163757,-0.112254701554775,-0.189910441637039
521,-0.170626893639565,-0.151922404766083,-0.148387968540192,-0.185664787888527,-0.108856715261936,-0.188948661088943
522,-0.166677117347717,-0.14220005273819,-0.13981057703495,-0.180946841835976,-0.1075404509902,-0.186260521411896
523,-0.160854443907738,-0.134234100580215,-0.131996750831604,-0.17465703189373,-0.105471014976501,-0.182173073291779
524,-0.154024243354797,-0.12845866382122,-0.12583389878273,-0.167521938681602,-0.101214490830898,-0.178036957979202
525,-0.145663931965828,-0.123222790658474,-0.120511643588543,-0.159749269485474,-0.0935923531651497,-0.173337757587433
526,-0.135611146688461,-0.117520652711391,-0.115235723555088,-0.152433305978775,-0.0816355347633362,-0.168079823255539
527,-0.12703087925911,-0.112456858158112,-0.111119575798512,-0.147794798016548,-0.0686837956309319,-0.164040416479111
528,-0.123143546283245,-0.109254248440266,-0.109311312437058,-0.146344915032387,-0.0592506378889084,-0.162511751055717
529,-0.123464107513428,-0.107682630419731,-0.109122350811958,-0.146435275673866,-0.0535880066454411,-0.163510620594025
530,-0.125616550445557,-0.106500469148159,-0.109445571899414,-0.146301418542862,-0.0499410293996334,-0.165527939796448
531,-0.127075701951981,-0.104616291821003,-0.109129063785076,-0.144319072365761,-0.0465870499610901,-0.165517792105675
532,-0.12722173333168,-0.103264629840851,-0.107905268669128,-0.140936374664307,-0.0432377979159355,-0.162761494517326
533,-0.126920580863953,-0.104700513184071,-0.106299817562103,-0.138310432434082,-0.0403013601899147,-0.159319147467613
534,-0.124676026403904,-0.108937941491604,-0.10417166352272,-0.136826530098915,-0.0367973409593105,-0.156376138329506
535,-0.118095368146896,-0.114403530955315,-0.101852536201477,-0.135715261101723,-0.0327019728720188,-0.15408681333065
536,-0.108871169388294,-0.119160190224648,-0.0998243540525436,-0.134283348917961,-0.0298811420798302,-0.151797577738762
537,-0.10069727152586,-0.121268920600414,-0.0966749042272568,-0.130806356668472,-0.028094757348299,-0.147579476237297
538,-0.0921999365091324,-0.120598249137402,-0.0908180102705956,-0.124354869127274,-0.0244478434324265,-0.14061875641346
539,-0.0802653506398201,-0.118390373885632,-0.0830566212534904,-0.116550549864769,-0.0181241799145937,-0.13259844481945
540,-0.0706773772835732,-0.11564975976944,-0.077198825776577,-0.110212370753288,-0.0131435031071305,-0.126061365008354
541,-0.0719379410147667,-0.113285683095455,-0.0768785551190376,-0.107268095016479,-0.0137904705479741,-0.121729731559753
542,-0.0808623060584068,-0.11066672950983,-0.0793520882725716,-0.106267265975475,-0.0170641764998436,-0.117485076189041
543,-0.0891808122396469,-0.106159351766109,-0.0790798664093018,-0.104596972465515,-0.0181224420666695,-0.112153172492981
544,-0.0943486839532852,-0.100156024098396,-0.0760456174612045,-0.102403864264488,-0.0183289870619774,-0.10814843326807
545,-0.0954906642436981,-0.0946743562817574,-0.0730943158268929,-0.100949719548225,-0.0180279482156038,-0.108103692531586
546,-0.0923642888665199,-0.0904657393693924,-0.0704812705516815,-0.0997665822505951,-0.0144279580563307,-0.110971763730049
547,-0.0873375684022903,-0.0867504701018333,-0.0674768090248108,-0.0981747955083847,-0.0078654894605279,-0.113858200609684
548,-0.081398569047451,-0.0831354632973671,-0.0632548406720161,-0.0957035645842552,0.000236140913330019,-0.114913947880268
549,-0.0738667249679565,-0.0792474746704102,-0.0564009137451649,-0.0904258489608765,0.00787620898336172,-0.113029003143311
550,-0.0659650340676308,-0.0742315202951431,-0.0474476218223572,-0.0816592276096344,0.0115081099793315,-0.10794635117054
551,-0.0605150237679482,-0.0690615251660347,-0.0393666215240955,-0.0722539946436882,0.0106430435553193,-0.101595290005207
552,-0.0589405559003353,-0.065931111574173,-0.0354144796729088,-0.0653505325317383,0.00817385781556368,-0.0967681407928467
553,-0.0607989467680454,-0.0646340996026993,-0.0370511598885059,-0.0616314671933651,0.00474689388647676,-0.0934613049030304
554,-0.0643384158611298,-0.063196212053299,-0.041154395788908,-0.059817761182785,-0.000767709338106215,-0.0894463062286377
555,-0.0675860270857811,-0.0615167357027531,-0.0434244126081467,-0.058558750897646,-0.0079625379294157,-0.0843278393149376
556,-0.0695428177714348,-0.0616424940526485,-0.0444020442664623,-0.0578861236572266,-0.0158788654953241,-0.0797339156270027
557,-0.068334773182869,-0.0639938563108444,-0.0449412688612938,-0.0572452992200851,-0.0211689677089453,-0.0756175145506859
558,-0.0622194223105907,-0.0663699507713318,-0.0432775467634201,-0.0555691234767437,-0.0197297986596823,-0.0707368180155754
559,-0.0528691150248051,-0.0672108605504036,-0.0393810607492924,-0.0532295405864716,-0.0121896816417575,-0.0651688575744629
560,-0.0434487462043762,-0.0664881020784378,-0.0342644192278385,-0.0500284694135189,-0.0022064836230129,-0.0588484667241573
561,-0.036395400762558,-0.0650941729545593,-0.0285754855722189,-0.0455691814422607,0.00703899655491114,-0.0519980862736702
562,-0.0342478193342686,-0.0648690015077591,-0.0245058424770832,-0.0413609482347965,0.0121952341869473,-0.0462706796824932
563,-0.0374300368130207,-0.066083587706089,-0.0236545614898205,-0.0382862873375416,0.0120864557102323,-0.0424893535673618
564,-0.0421776548027992,-0.0674781203269959,-0.0245772078633308,-0.0359072983264923,0.0110073024407029,-0.0402848906815052
565,-0.0427245683968067,-0.0696351379156113,-0.0254097487777472,-0.034527700394392,0.0132811237126589,-0.0394048690795898
566,-0.0363724119961262,-0.0735421478748322,-0.0254874154925346,-0.033920019865036,0.0184062384068966,-0.0397709049284458
567,-0.0279509034007788,-0.0781284421682358,-0.0244941283017397,-0.0329387597739697,0.0236495025455952,-0.0412998609244823
568,-0.0245279241353273,-0.0816688388586044,-0.0223212391138077,-0.0311133805662394,0.0260667223483324,-0.0430786572396755
569,-0.0275149662047625,-0.0837186202406883,-0.0191887468099594,-0.02860052511096,0.0231302510946989,-0.0435098111629486
570,-0.0343964099884033,-0.0851555392146111,-0.0157836824655533,-0.0261091496795416,0.0142158549278975,-0.0427148528397083
571,-0.0425994992256165,-0.0863760113716125,-0.0131667479872704,-0.0245937835425138,0.00178053788840771,-0.0425661355257034
572,-0.0506200566887856,-0.0874877125024796,-0.0128811849281192,-0.0253965370357037,-0.0108020678162575,-0.0447875671088696
573,-0.0563466735184193,-0.0882013142108917,-0.0149154337123036,-0.0293094255030155,-0.0203158315271139,-0.0489420108497143
574,-0.0570096373558044,-0.0869792401790619,-0.0170269068330526,-0.0346545837819576,-0.0244310051202774,-0.051984641700983
575,-0.0530712455511093,-0.0849971175193787,-0.0188825763761997,-0.0395265147089958,-0.0250513609498739,-0.0529090501368046
576,-0.0482481941580772,-0.0864574387669563,-0.0211334452033043,-0.043521486222744,-0.0243774019181728,-0.0540945306420326
577,-0.0469982847571373,-0.0928777009248734,-0.0228917859494686,-0.0469837374985218,-0.0227271988987923,-0.0571228861808777
578,-0.0518588162958622,-0.101860925555229,-0.024581391364336,-0.0507563091814518,-0.022577665746212,-0.0611655712127686
579,-0.0610599033534527,-0.109165593981743,-0.0279682595282793,-0.0541948825120926,-0.0260914210230112,-0.0631804242730141
580,-0.0707677379250526,-0.112089954316616,-0.0338624119758606,-0.0558368712663651,-0.0325970686972141,-0.0612774975597858
581,-0.0780771896243095,-0.111403442919254,-0.0410292595624924,-0.05566580966115,-0.0394374877214432,-0.0573870688676834
582,-0.079640120267868,-0.107568465173244,-0.0458338782191277,-0.0530546680092812,-0.0421474352478981,-0.052981112152338
583,-0.0736728087067604,-0.100113786756992,-0.0455115921795368,-0.0472156293690205,-0.0382377989590168,-0.0474479459226131
584,-0.0631982684135437,-0.0911306515336037,-0.0409109890460968,-0.0399863012135029,-0.0296201072633266,-0.0413918606936932
585,-0.0521245896816254,-0.0839663967490196,-0.0349480323493481,-0.033773809671402,-0.0208685379475355,-0.0360796861350536
586,-0.0420650839805603,-0.0791158303618431,-0.0304289944469929,-0.0282726120203733,-0.0163789577782154,-0.0306505057960749
587,-0.0340240187942982,-0.0746370628476143,-0.0287063773721457,-0.0214854516088963,-0.0173179097473621,-0.023765230551362
588,-0.0283332671970129,-0.0697109550237656,-0.029117152094841,-0.0131146898493171,-0.0220473315566778,-0.0161569435149431
589,-0.0210897829383612,-0.0650757998228073,-0.0306837745010853,-0.00585957104340196,-0.0278092976659536,-0.00969212967902422
590,-0.00931452587246895,-0.0613800548017025,-0.0328047908842564,-0.00228490284644067,-0.0314035005867481,-0.00537419598549604
591,0.000837996602058411,-0.058931689709425,-0.0340641960501671,-0.00172486086376011,-0.0312766805291176,-0.00302088167518377
592,0.00298813101835549,-0.0576927848160267,-0.0336448326706886,-0.00185847247485071,-0.0288509167730808,-0.0024272776208818
593,-0.0011042618425563,-0.0569791533052921,-0.0329427346587181,-0.00169168575666845,-0.0264749210327864,-0.00382187007926404
594,-0.00643916707485914,-0.0554917827248573,-0.0331330485641956,-0.00209697894752026,-0.02376320771873,-0.00735573656857014
595,-0.00977790728211403,-0.0524476580321789,-0.0332049764692783,-0.00350978714413941,-0.0189048908650875,-0.0116360913962126
596,-0.0114306127652526,-0.0488580986857414,-0.0324202366173267,-0.00461998442187905,-0.014024362899363,-0.0145558407530189
597,-0.0125135909765959,-0.0455292910337448,-0.0302091129124165,-0.00337820569984615,-0.0117878317832947,-0.0151928840205073
598,-0.0131501629948616,-0.0425530411303043,-0.0253390073776245,0.000107902218587697,-0.0114511167630553,-0.0138015700504184
599,-0.0125127602368593,-0.0401269234716892,-0.018156798556447,0.00315707852132618,-0.0114929554983974,-0.0113691426813602
600,-0.00840773060917854,-0.037511020898819,-0.0104213608428836,0.00468324404209852,-0.0103067802265286,-0.00883552618324757
601,-0.000154021094203927,-0.0348029024899006,-0.00367611739784479,0.00574822165071964,-0.00637357076629996,-0.00729162013158202
602,0.01096704415977,-0.0330877415835857,0.00152891280595213,0.00745792593806982,0.000623885134700686,-0.00753946648910642
603,0.0222760103642941,-0.0322183668613434,0.00497225159779191,0.0104088932275772,0.00785660184919834,-0.00888865254819393
604,0.0301348268985748,-0.0309891346842051,0.00670036394149065,0.0146922646090388,0.0119106760248542,-0.00931964814662933
605,0.0336172133684158,-0.0288524441421032,0.0078583424910903,0.0199676100164652,0.0129312388598919,-0.00748984096571803
606,0.0360081866383553,-0.0263967700302601,0.0102857984602451,0.0256992727518082,0.0131341470405459,-0.0036576334387064
607,0.0396080389618874,-0.0242499839514494,0.0150070302188396,0.0307855736464262,0.0144832730293274,0.000899815757293254
608,0.0426989383995533,-0.0223259106278419,0.0207551270723343,0.034019261598587,0.0177412461489439,0.00560633139684796
609,0.0437926463782787,-0.0199075359851122,0.0255786087363958,0.0351997837424278,0.021296476945281,0.010762277059257
610,0.0427677780389786,-0.01689088717103,0.028045728802681,0.0335498079657555,0.0217369329184294,0.0145276794210076
611,0.0401484183967113,-0.0138680012896657,0.026633957400918,0.0278624631464481,0.0181681402027607,0.0144825018942356
612,0.0370799489319324,-0.0112665435299277,0.0216087307780981,0.0192074347287416,0.0129843018949032,0.0105423554778099
613,0.0330544300377369,-0.0102827306836843,0.0149047067388892,0.0104918777942657,0.00717399828135967,0.00351067446172237
614,0.0270182713866234,-0.0121329026296735,0.00815953500568867,0.0041893795132637,6.94064583512954E-05,-0.00607847981154919
615,0.0211834367364645,-0.0145995896309614,0.0031686476431787,0.00175932247657329,-0.00664734980091453,-0.0157233066856861
616,0.0195888541638851,-0.0142661770805717,0.00131761736702174,0.00268493895418942,-0.00897459778934717,-0.0222399439662695
617,0.0236327759921551,-0.0110910842195153,0.00249082548543811,0.00470609636977315,-0.0057562324218452,-0.0263588428497314
618,0.031666174530983,-0.00678023090586066,0.00544522283598781,0.00631256867200136,-0.000627461937256157,-0.0300850514322519
619,0.0412659458816051,-0.00238106423057616,0.00885222759097815,0.00688908249139786,0.00303465221077204,-0.0335304923355579
620,0.049011267721653,0.000504711933899671,0.0113346949219704,0.00488832499831915,0.00434382911771536,-0.0383223257958889
621,0.0524555966258049,0.000763799645937979,0.0119356159120798,-0.000369046232663095,0.00414254888892174,-0.0461765304207802
622,0.0533884726464748,0.000954840739723295,0.0117460023611784,-0.00614906428381801,0.0045844279229641,-0.0542938001453877
623,0.054346539080143,0.00427946681156754,0.0125596905127168,-0.00897463317960501,0.00629220763221383,-0.0592779256403446
624,0.0561317205429077,0.0104280291125178,0.0149992583319545,-0.00715779047459364,0.00782522186636925,-0.0608891658484936
625,0.0601112805306911,0.0174776557832956,0.0190693717449903,-0.000473044696263969,0.00910944864153862,-0.0593917146325111
626,0.069150023162365,0.0239856280386448,0.0240043215453625,0.00930393300950527,0.0121903708204627,-0.0559613220393658
627,0.0847596302628517,0.0283067617565393,0.0276971291750669,0.0177644826471806,0.0176150910556316,-0.0545722767710686
628,0.101614445447922,0.0286239329725504,0.0288980454206467,0.0207735877484083,0.023515721783042,-0.0587360821664333
629,0.109220325946808,0.0238380804657936,0.0280144531279802,0.0169460810720921,0.0269422791898251,-0.069160521030426
630,0.1044537499547,0.0168045740574598,0.0268142484128475,0.0089248288422823,0.0268788430839777,-0.0821494981646538
631,0.0951351076364517,0.0135711152106524,0.0280837304890156,0.00210273661650717,0.0267514679580927,-0.0916577726602554
632,0.0882142335176468,0.0152772115543485,0.0319328829646111,-0.00131318008061498,0.0297999251633883,-0.0964101627469063
633,0.0843582302331924,0.0184917915612459,0.0357564948499203,-0.00203149346634746,0.0359336398541927,-0.0981776416301727
634,0.0830564722418785,0.0221029259264469,0.0380780957639217,-7.74948275648057E-05,0.0441367067396641,-0.0972748175263405
635,0.0844137519598007,0.0259834602475166,0.0387020334601402,0.00304561923258007,0.053233552724123,-0.094567097723484
636,0.0877383351325989,0.0285329520702362,0.0377530455589294,0.00458376249298453,0.0615469254553318,-0.09184530377388
637,0.091748833656311,0.0294476523995399,0.0359003655612469,0.00424912571907043,0.0673691481351852,-0.0901345834136009
638,0.0945497378706932,0.0297609157860279,0.0334054864943028,0.0028962551150471,0.0693151652812958,-0.0899252444505692
639,0.0940439477562904,0.029573667794466,0.0300004016608,-0.000485309312352911,0.0676178783178329,-0.0921358242630959
640,0.0906580835580826,0.0293424315750599,0.0267069973051548,-0.00605508452281356,0.0650472939014435,-0.0959493070840836
641,0.0877419263124466,0.0304344706237316,0.025477260351181,-0.0102327233180404,0.0643589422106743,-0.0969731956720352
642,0.0889677405357361,0.0323373861610889,0.0260557495057583,-0.00996876787394285,0.0663304775953293,-0.091737374663353
643,0.0967373847961426,0.0338920764625072,0.0267154853790998,-0.00570119731128216,0.0725724026560783,-0.0812895223498344
644,0.109214179217815,0.0358144417405128,0.027620991691947,0.000816671410575509,0.0848782733082771,-0.0692191794514656
645,0.120612233877182,0.0384624376893044,0.0300239082425833,0.00759440520778298,0.0998126491904259,-0.0572907738387585
646,0.125743210315704,0.0410835854709148,0.0346818044781685,0.0137017341330647,0.110916376113892,-0.0437225289642811
647,0.122349254786968,0.0440268777310848,0.0420252308249474,0.0202981904149055,0.115891419351101,-0.0268936678767204
648,0.113469041883945,0.0480143949389458,0.0507123917341232,0.0280515123158693,0.116419866681099,-0.00974514428526163
649,0.104649573564529,0.0523934960365295,0.0572836995124817,0.0350620709359646,0.114105425775051,0.00201148400083184
650,0.0969265475869179,0.0563768781721592,0.0597299225628376,0.0396385081112385,0.110367998480797,0.00617697043344378
651,0.088455893099308,0.0593597330152988,0.0589872300624847,0.0422278493642807,0.106777288019657,0.00508765922859311
652,0.0791246145963669,0.0595495030283928,0.0562051795423031,0.0426414348185062,0.103404268622398,0.00148659304250032
653,0.0706362128257751,0.0560981594026089,0.0519981049001217,0.0401044897735119,0.0997761338949203,-0.0021297310013324
654,0.0650346651673317,0.0518331341445446,0.0478263907134533,0.0363677516579628,0.0970607250928879,-0.00172427680809051
655,0.0626847222447395,0.0502896532416344,0.045324120670557,0.034435112029314,0.0963754877448082,0.00607709959149361
656,0.0619684234261513,0.0512414947152138,0.0450916402041912,0.0350679345428944,0.0969051048159599,0.0207831952720881
657,0.0617355965077877,0.0524391271173954,0.0473001524806023,0.0370154790580273,0.0980775877833366,0.038117278367281
658,0.062026996165514,0.0528373196721077,0.0512441471219063,0.039115197956562,0.0995115339756012,0.0529052428901196
659,0.0629032403230667,0.0527419447898865,0.0549858249723911,0.0409822650253773,0.0997343584895134,0.0633232221007347
660,0.0637052431702614,0.0528063625097275,0.0568228475749493,0.0421725325286388,0.0974708721041679,0.0704526305198669
661,0.0634614527225494,0.0535954758524895,0.0561484880745411,0.0430140532553196,0.0924474373459816,0.0757913812994957
662,0.062375146895647,0.0560574047267437,0.0542794987559319,0.0454241782426834,0.0864454433321953,0.0801518931984901
663,0.0611073635518551,0.0594319328665733,0.0532590560615063,0.0493045933544636,0.0826556831598282,0.0819921493530273
664,0.0600660368800163,0.0615790970623493,0.0537431165575981,0.0521875098347664,0.0835210457444191,0.0807678326964378
665,0.0592843815684319,0.0624645575881004,0.0554543435573578,0.0535407364368439,0.0884559229016304,0.0797294750809669
666,0.0580506324768066,0.0626955777406693,0.0578704439103603,0.0545016974210739,0.0931853801012039,0.0813625529408455
667,0.0564426109194756,0.0609613582491875,0.0600546970963478,0.0545664243400097,0.093997098505497,0.0840987786650658
668,0.0555421113967896,0.0566338337957859,0.0606602057814598,0.0529529005289078,0.0909315645694733,0.0864824429154396
669,0.055723425000906,0.0516759380698204,0.0589034110307693,0.050561685115099,0.086752861738205,0.0891156643629074
670,0.0566335283219814,0.0487251654267311,0.0561837069690228,0.048580676317215,0.0848874598741531,0.0915143340826035
671,0.0573168322443962,0.0482699349522591,0.0544031895697117,0.0476763918995857,0.0859128534793854,0.0931790694594383
672,0.0555680394172668,0.0478147603571415,0.0531256049871445,0.0475043132901192,0.0866573303937912,0.094818614423275
673,0.0514108128845692,0.0465875789523125,0.0516537502408028,0.0478064231574535,0.0854317098855972,0.0973833799362183
674,0.0489701591432095,0.0465531386435032,0.0505312420427799,0.0491848103702068,0.0841782316565514,0.101494200527668
675,0.0528641641139984,0.0470459684729576,0.0496871843934059,0.0512805879116058,0.0843376293778419,0.10615947842598
676,0.063651442527771,0.0453692972660065,0.0489605218172073,0.0532894432544708,0.0856707245111465,0.109634540975094
677,0.0750052407383919,0.0417643785476685,0.0498379319906235,0.0558472760021687,0.0890034139156342,0.111761137843132
678,0.080467127263546,0.0399044267833233,0.0539130121469498,0.0607118867337704,0.0955441296100616,0.114765733480453
679,0.0790031105279922,0.0418513640761375,0.0592573843896389,0.0677515119314194,0.102268777787685,0.120484352111816
680,0.0723865181207657,0.0449746772646904,0.0621776059269905,0.0738250911235809,0.10416117310524,0.126480206847191
681,0.0642367899417877,0.0459130480885506,0.0618714243173599,0.0766283348202705,0.101150155067444,0.129374653100967
682,0.0573603212833405,0.0433785542845726,0.0591608993709087,0.0761494189500809,0.0971936136484146,0.128994420170784
683,0.0512628480792046,0.0378919057548046,0.0549359656870365,0.0735033228993416,0.0949124470353127,0.126425787806511
684,0.0451703555881977,0.0319097749888897,0.0511939898133278,0.0711371749639511,0.0934490561485291,0.122933745384216
685,0.0410469062626362,0.0280148088932037,0.0503089129924774,0.071308821439743,0.0916961878538132,0.119895875453949
686,0.0408669300377369,0.0273493863642216,0.0530658885836601,0.0740220621228218,0.0903248190879822,0.11813448369503
687,0.0433069914579391,0.0290338043123484,0.0581181161105633,0.0770446285605431,0.0900955051183701,0.117277696728706
688,0.0463127046823502,0.0317476987838745,0.0639292523264885,0.0783945769071579,0.0916839018464088,0.116814948618412
689,0.0485755652189255,0.0351417772471905,0.0687063559889793,0.0778034329414368,0.0941381230950356,0.11701637506485
690,0.0488049723207951,0.0383942648768425,0.0700075477361679,0.0751959607005119,0.0956126227974892,0.117204509675503
691,0.0474599152803421,0.0414138771593571,0.0674842745065689,0.0711259171366692,0.0957479029893875,0.117491573095322
692,0.0454859659075737,0.0435613356530666,0.0628165900707245,0.0665344372391701,0.0931854173541069,0.117970958352089
693,0.0425621345639229,0.0422369427978992,0.0577491708099842,0.0617122165858746,0.0866725221276283,0.116374604403973
694,0.0401058979332447,0.0386578775942326,0.054401520639658,0.0582553632557392,0.0791274830698967,0.113506689667702
695,0.0414198040962219,0.037163008004427,0.0541052147746086,0.0578857474029064,0.0747544690966606,0.112594954669476
696,0.0463819354772568,0.0375999733805656,0.0550003983080387,0.0591395422816277,0.0736379250884056,0.113224804401398
697,0.0508745200932026,0.0368572846055031,0.0547000579535961,0.0596018023788929,0.0736956670880318,0.113437823951244
698,0.0516819767653942,0.0339050367474556,0.0534818917512894,0.0585690103471279,0.074224941432476,0.112895108759403
699,0.0487103536725044,0.0294499062001705,0.0521242097020149,0.0556885451078415,0.0747547969222069,0.112254031002522
700,0.0443127267062664,0.0254675187170506,0.050702691078186,0.0513538382947445,0.0743413642048836,0.112322621047497
701,0.0403780117630959,0.0241000223904848,0.0489497892558575,0.0469721592962742,0.0714239701628685,0.113139599561691
702,0.0371525436639786,0.0254747327417135,0.047122199088335,0.0434614196419716,0.0658661350607872,0.113815031945705
703,0.0343637727200985,0.0268589332699776,0.0459899045526981,0.0403850711882114,0.0603635907173157,0.112266644835472
704,0.0312648229300976,0.0250937808305025,0.0446061678230762,0.0367240607738495,0.0559364557266235,0.106843799352646
705,0.0301948599517345,0.0211869906634092,0.0420467779040337,0.0338246673345566,0.05065056681633,0.100022099912167
706,0.0347854606807232,0.018623411655426,0.0399367064237595,0.0346691198647022,0.0451330915093422,0.0962729528546333
707,0.0416722595691681,0.0189188588410616,0.0409233793616295,0.0406246408820152,0.042689137160778,0.0983783304691315
708,0.0436055511236191,0.020604282617569,0.0453139618039131,0.0499052964150906,0.0431709587574005,0.105707637965679
709,0.0390963405370712,0.0215184241533279,0.0508824363350868,0.0589613877236843,0.0444068275392056,0.114448942244053
710,0.0328596867620945,0.0220500081777573,0.0557679384946823,0.0657688453793526,0.0467916987836361,0.121968299150467
711,0.0275036841630936,0.0210754740983248,0.057537991553545,0.0684335082769394,0.0494436919689178,0.125650987029076
712,0.0214747861027718,0.0150758996605873,0.0545041561126709,0.0653906911611557,0.0492744781076908,0.123569138348103
713,0.0147055769339204,0.00539815099909902,0.0489477068185806,0.0586366318166256,0.0463580228388309,0.119189210236073
714,0.00929159298539162,-0.00329210353083909,0.0432670600712299,0.0511160716414452,0.0424446910619736,0.115356460213661
715,0.00695348158478737,-0.00945765990763903,0.0376677475869656,0.0443171299993992,0.0382301509380341,0.109998874366283
716,0.00735399546101689,-0.0136938653886318,0.0326646752655506,0.039609931409359,0.0352326743304729,0.102753706276417
717,0.00840276014059782,-0.0159389059990644,0.0294904615730047,0.0377898290753365,0.0349426455795765,0.0964256823062897
718,0.00947172846645117,-0.0160285998135805,0.028999013826251,0.0380736254155636,0.0370477586984634,0.0918161049485207
719,0.0120410108938813,-0.0139571381732821,0.031672477722168,0.0393102280795574,0.0410980097949505,0.0882270932197571
720,0.0161737743765116,-0.0108080757781863,0.0372258760035038,0.0402008593082428,0.0467356108129025,0.0851513221859932
721,0.020156916230917,-0.00846258271485567,0.0440636649727821,0.0399449877440929,0.0516089648008347,0.0829058066010475
722,0.0240196865051985,-0.0065641519613564,0.0511924289166927,0.0399643518030643,0.0537628270685673,0.083672933280468
723,0.0278983134776354,-0.00415403535589576,0.0575304478406906,0.0410146974027157,0.0529954545199871,0.0876343920826912
724,0.0295026544481516,-0.00249830703251064,0.0604218542575836,0.0412428788840771,0.0489601381123066,0.0913509577512741
725,0.0279544293880463,-0.00268102297559381,0.0592631734907627,0.0396556258201599,0.0428325124084949,0.0923272147774696
726,0.0252762977033854,-0.00371687533333898,0.056628230959177,0.0372808128595352,0.0374660454690456,0.091118186712265
727,0.0231805592775345,-0.00399822602048516,0.0551276057958603,0.0354128554463387,0.0340804345905781,0.0893756523728371
728,0.0226232968270779,-0.00218330742791295,0.0562914945185184,0.0352852903306484,0.0325558334589005,0.0882663354277611
729,0.0241410471498966,0.00210320227779448,0.0604752190411091,0.037734929472208,0.0338496379554272,0.0882188081741333
730,0.0268811378628016,0.00792580377310514,0.0662753134965897,0.0423407405614853,0.0383704341948032,0.089284859597683
731,0.0299967341125011,0.0148247769102454,0.0713521614670753,0.0477240420877934,0.0444210954010487,0.0912594795227051
732,0.0325963459908962,0.0217020697891712,0.0738544538617134,0.0521545559167862,0.0498004257678986,0.0931622907519341
733,0.0326139554381371,0.024876220151782,0.0732286274433136,0.053706731647253,0.0528339184820652,0.0924487262964249
734,0.0298491287976503,0.0226537249982357,0.0705826655030251,0.0518756732344627,0.0530534237623215,0.0874335318803787
735,0.0267662983387709,0.0184264332056046,0.0676411762833595,0.0488748662173748,0.0514342002570629,0.0809710323810577
736,0.0246886927634478,0.0157592296600342,0.0645764544606209,0.0464128851890564,0.0483119376003742,0.0766425132751465
737,0.023623613640666,0.0154914548620582,0.0606106035411358,0.0441915951669216,0.0435944832861423,0.0749965310096741
738,0.0247964411973953,0.0167465712875128,0.0559940561652184,0.0420621111989021,0.038761917501688,0.0746796205639839
739,0.0281509645283222,0.0174986179918051,0.0513576194643974,0.0399236567318439,0.0352423600852489,0.0727919861674309
740,0.0288536250591278,0.0163707304745913,0.046790886670351,0.0367596670985222,0.0322902500629425,0.0667989403009415
741,0.0225184392184019,0.0138338198885322,0.0428507626056671,0.0318615511059761,0.0283605400472879,0.0572671741247177
742,0.011955494992435,0.0118129495531321,0.041435819119215,0.0271334629505873,0.0242645349353552,0.0480202995240688
743,0.00290411990135908,0.0116823175922036,0.0432017929852009,0.0252957977354527,0.0215761382132769,0.0434625148773193
744,-0.00242791092023253,0.0132752610370517,0.0459404624998569,0.0268037058413029,0.0198531672358513,0.0455485731363297
745,-0.00453800847753882,0.0156699623912573,0.0475967675447464,0.0304036419838667,0.0183056704699993,0.0528088882565498
746,-0.00422603124752641,0.0182629097253084,0.0490031354129314,0.0348731614649296,0.0173498187214136,0.0623865537345409
747,-0.00197082385420799,0.0217833928763866,0.0522267669439316,0.0394209362566471,0.0173967406153679,0.0710478872060776
748,0.001015804708004,0.0259149074554443,0.0560101419687271,0.0424499027431011,0.0160410981625319,0.0754516199231148
749,0.00310369743965566,0.0286955125629902,0.0567816160619259,0.0422687381505966,0.0101873138919473,0.0751913860440254
750,0.0042780889198184,0.0294754859060049,0.0540917068719864,0.0392749197781086,0.00147989438846707,0.0728747174143791
751,0.00497766956686974,0.0288060717284679,0.0503506511449814,0.0354512706398964,-0.00549219269305468,0.071050800383091
752,0.00498204259201884,0.0270428340882063,0.0474599972367287,0.0327946245670319,-0.00877975951880217,0.0709380060434341
753,0.00637452863156796,0.0255451276898384,0.0475250221788883,0.03324855864048,-0.00754853943362832,0.073171392083168
754,0.0107596032321453,0.0254511125385761,0.0519370697438717,0.0367249436676502,-0.00136574462521821,0.0767354592680931
755,0.0150537118315697,0.0256802104413509,0.0582237504422665,0.0402574874460697,0.00663452781736851,0.0789666622877121
756,0.0169213507324457,0.0256084818392992,0.0635083764791489,0.0423611924052238,0.0134842041879892,0.0792637541890144
757,0.0178711898624897,0.0254005324095488,0.0668977499008179,0.0436381585896015,0.0182864814996719,0.0784402564167976
758,0.0208412650972605,0.0253625176846981,0.0678157731890678,0.0444174781441689,0.0204541776329279,0.0767568796873093
759,0.0258283484727144,0.0260590333491564,0.0667935758829117,0.0448851361870766,0.0203143209218979,0.0748793333768845
760,0.028121305629611,0.0263051018118858,0.0650275722146034,0.0446584597229958,0.0188220217823982,0.0730603113770485
761,0.0248091053217649,0.0248083248734474,0.0636784285306931,0.0435523018240929,0.0185329932719469,0.0712438747286797
762,0.0194942336529493,0.0228133145719767,0.0651750639081001,0.043198935687542,0.0226874630898237,0.0708243325352669
763,0.0175475236028433,0.0222926549613476,0.0712383463978767,0.0452053621411324,0.0307380668818951,0.0730441734194756
764,0.019537728279829,0.0243563782423735,0.0796054601669312,0.0495339781045914,0.0381899401545525,0.0777210667729378
765,0.0219019409269094,0.0285675190389156,0.0846904888749123,0.0545079410076141,0.0401547327637672,0.0835539773106575
766,0.0208766981959343,0.0320174545049667,0.0818550065159798,0.0563512593507767,0.0350525826215744,0.0871693640947342
767,0.0154260769486427,0.0317130722105503,0.0724808722734451,0.0524044670164585,0.0270984079688787,0.0849508494138718
768,0.00828632432967424,0.0279611330479383,0.0624038875102997,0.044597152620554,0.0222387425601482,0.0780650749802589
769,0.00520772533491254,0.0245898440480232,0.0565118975937366,0.0375369898974895,0.0218736138194799,0.0723468363285065
770,0.010760921984911,0.0244999695569277,0.0564851313829422,0.033750057220459,0.0234077386558056,0.0711973384022713
771,0.0206785704940557,0.0275198463350534,0.0600173994898796,0.0322225391864777,0.0243275556713343,0.0746305137872696
772,0.0249574277549982,0.0312939360737801,0.0630553886294365,0.0309257470071316,0.023537952452898,0.0798277631402016
773,0.0198441911488771,0.0322459153831005,0.0638601258397102,0.0288662798702717,0.0210689883679152,0.0826091915369034
774,0.010112788528204,0.0297705847769976,0.0632419660687447,0.0269924607127905,0.0179501231759787,0.084707222878933
775,0.00196657935157418,0.0255212895572186,0.0618592202663422,0.0258792396634817,0.015602795407176,0.0887523368000984
776,-0.00195223884657025,0.0208231825381517,0.0596766546368599,0.0247098412364721,0.0143169201910496,0.0914652422070503
777,-0.00252527580596507,0.017400411888957,0.0567892640829086,0.0234179459512234,0.0131853325292468,0.089396670460701
778,-0.00138229923322797,0.0156825352460146,0.0534907169640064,0.0220468528568745,0.0126583389937878,0.0829024389386177
779,0.000409426458645612,0.0140033233910799,0.0505401641130447,0.019987441599369,0.0135878687724471,0.0737555399537086
780,0.00178311136551201,0.0116006406024098,0.0484778545796871,0.0169460196048021,0.01483662892133,0.0640346109867096
781,0.00281098671257496,0.01009092759341,0.0476038232445717,0.0139909293502569,0.0158398319035769,0.0572827756404877
782,0.00365334912203252,0.0100626433268189,0.0480362512171268,0.0121247759088874,0.017416350543499,0.0555725730955601
783,0.0036308562848717,0.0100164944306016,0.0497924350202084,0.0111142639070749,0.0195840131491423,0.057120393961668
784,0.00239458633586764,0.00895539298653603,0.0527223609387875,0.010293941013515,0.0214377008378506,0.0584149621427059
785,-0.00054353044833988,0.00647726096212864,0.0547168403863907,0.00863644387573004,0.0216779168695211,0.056107334792614
786,-0.0051840846426785,0.002887980081141,0.0525310188531876,0.00576988887041807,0.0187941677868366,0.0502757765352726
787,-0.0100661423057318,-0.000159432820510119,0.0452516712248325,0.00214538653381169,0.0128633845597506,0.0447686649858952
788,-0.0131127871572971,-0.00113933614920825,0.0362707711756229,-0.00132341589778662,0.00714577501639724,0.0423872321844101
789,-0.0137352151796222,0.00019791342492681,0.0296958182007074,-0.00378006766550243,0.0042086667381227,0.043368224054575
790,-0.0137136140838265,0.00302257132716477,0.0260218810290098,-0.00539060495793819,0.00301365717314184,0.0464749895036221
791,-0.0147010069340467,0.00559312477707863,0.023639777675271,-0.00664080586284399,0.00194401922635734,0.0492450706660748
792,-0.0158111229538918,0.00718255108222365,0.0217114239931107,-0.00759751116856933,0.000428943283623084,0.0502542331814766
793,-0.014911899343133,0.00905292481184006,0.0217268113046885,-0.00741383899003267,0.000192329971469007,0.0508950911462307
794,-0.0117374928668141,0.0113955372944474,0.0251710973680019,-0.00513544026762247,0.00346350646577775,0.0524537935853004
795,-0.00792641844600439,0.0133072650060058,0.0306673385202885,-0.000817612861283123,0.00951660424470901,0.055115457624197
796,-0.00563513953238726,0.0146451536566019,0.0363892577588558,0.00525076827034354,0.0167150739580393,0.0593196414411068
797,-0.00676551042124629,0.0148047599941492,0.0413445681333542,0.0117256129160523,0.0234123505651951,0.0636875480413437
798,-0.0110345054417849,0.0133319264277816,0.0440779477357864,0.0154219558462501,0.0274377595633268,0.0652067288756371
799,-0.0161840617656708,0.0101501476019621,0.0435493253171444,0.0135703673586249,0.0276107769459486,0.0612517520785332
800,-0.0196500904858112,0.00593014387413859,0.0411974266171455,0.00750706624239683,0.0252778045833111,0.052614338696003
801,-0.0203599911183119,0.00345463375560939,0.0391488820314407,0.00245952676050365,0.0218388009816408,0.0453652814030647
802,-0.0194325353950262,0.00412166211754084,0.0371652133762836,0.0013425195356831,0.0166499596089125,0.0433770716190338
803,-0.0188583731651306,0.00597466388717294,0.0338928289711475,0.00204809731803834,0.00973712280392647,0.0437468104064465
804,-0.0198639687150717,0.00704595260322094,0.0296533722430468,0.00211968505755067,0.00332820718176663,0.0434389337897301
805,-0.0204582661390305,0.00648718280717731,0.0255948361009359,0.00120241940021515,-0.000407106766942889,0.0419853217899799
806,-0.0173015743494034,0.00393480947241187,0.0215907394886017,-0.000707987695932388,-0.00163181032985449,0.0384773053228855
807,-0.0116559267044067,0.000919569458346814,0.0177669506520033,-0.00284140440635383,-0.00191909202840179,0.032762385904789
808,-0.00889261905103922,-0.000392881163861603,0.0150083051994443,-0.00448871776461601,-0.00183609896339476,0.026369608938694
809,-0.0117049599066377,0.000611223338637501,0.0143120056018233,-0.00576959643512964,-0.00095369660994038,0.0222692508250475
810,-0.017512233927846,0.0040752412751317,0.0176554750651121,-0.00506327347829938,0.000911077368073165,0.024418793618679
811,-0.0220956243574619,0.00899336207658052,0.0250207874923944,-0.00172776402905583,0.00407344242557883,0.0316385664045811
812,-0.0236509684473276,0.0133507456630468,0.032913014292717,0.00168096169363707,0.00789769366383553,0.0377121567726135
813,-0.0229607298970222,0.0166322030127048,0.0383889637887478,0.00317801372148097,0.011415128596127,0.0401406101882458
814,-0.0210882090032101,0.0185565669089556,0.0399307832121849,0.00180362444370985,0.014429347589612,0.0397234782576561
815,-0.0190593004226685,0.0185301676392555,0.0367194078862667,-0.00272852648049593,0.0147898811846972,0.0364634953439236
816,-0.0184935927391052,0.0169251374900341,0.029932152479887,-0.00871556624770164,0.00975646637380123,0.0319435968995094
817,-0.0192418973892927,0.0150559013709426,0.0238573048263788,-0.0125765223056078,0.00187049468513578,0.0302567128092051
818,-0.0196594148874283,0.0154035491868854,0.0221135653555393,-0.0120259746909142,-0.00390569888986647,0.0338518433272839
819,-0.018080085515976,0.0199588108807802,0.0243498980998993,-0.0084466552361846,-0.0056751687079668,0.0398343987762928
820,-0.0131153529509902,0.0269604176282883,0.0283239856362343,-0.00470448937267065,-0.0035367941018194,0.0422355309128761
821,-0.00702058337628841,0.0322154238820076,0.0307981669902802,-0.00287236738950014,0.000161338452016935,0.0384141206741333
822,-0.003751304699108,0.0333856865763664,0.0301740914583206,-0.00301560037769377,0.00216145138256252,0.0307910535484552
823,-0.00356451608240604,0.0302723497152328,0.0284944642335176,-0.00403790315613151,0.00162381958216429,0.0218906160444021
824,-0.00392486760392785,0.0240389946848154,0.0278258770704269,-0.00569915352389216,-2.44452730839839E-05,0.0120430113747716
825,-0.00360764027573168,0.0170595608651638,0.0276770945638418,-0.00857549253851175,-0.00105163629632443,0.00216387095861137
826,-0.00317156221717596,0.0121748056262732,0.0270733330398798,-0.0118273682892323,-0.000579244690015912,-0.0051108505576849
827,-0.00398381566628814,0.0110784247517586,0.0253267306834459,-0.0137196062132716,-0.000412077090004459,-0.00799982436001301
828,-0.00661861477419734,0.012131885625422,0.0217354111373425,-0.0145545359700918,-0.00345706031657755,-0.00750391185283661
829,-0.00973036605864763,0.010926210321486,0.017049441114068,-0.0157281290739775,-0.00906932540237904,-0.0060776979662478
830,-0.0121963424608111,0.00451781135052443,0.0124358059838414,-0.017822053283453,-0.0137322666123509,-0.00577037548646331
831,-0.0142359407618642,-0.00438096281141043,0.0076838955283165,-0.0197979100048542,-0.015627596527338,-0.00528244767338037
832,-0.016037167981267,-0.0110123166814446,0.00311737018637359,-0.0193964950740337,-0.0152459060773253,-0.0025614385958761
833,-0.0174244940280914,-0.0147132994607091,-0.000392946880310774,-0.0173847321420908,-0.0131370462477207,-0.00114474294241518
834,-0.0193262081593275,-0.0162811540067196,-0.00357894506305456,-0.0172894839197397,-0.0112876910716295,-0.00414233608171344
835,-0.0217377711087465,-0.0149449044838548,-0.00592961674556136,-0.0192928146570921,-0.0122751919552684,-0.00895443372428417
836,-0.0224130563437939,-0.0122557561844587,-0.00632528681308031,-0.0216530039906502,-0.0156018324196339,-0.0140939289703965
837,-0.0192083269357681,-0.0110408840700984,-0.00588978966698051,-0.0234018191695213,-0.0179251059889793,-0.0179439336061478
838,-0.0112153757363558,-0.0105031002312899,-0.00634323107078671,-0.0237522553652525,-0.0178966242820024,-0.0156648438423872
839,2.93088432954391E-05,-0.00928348954766989,-0.00845478381961584,-0.0239341724663973,-0.0163241624832153,-0.00842094514518976
840,0.00966203864663839,-0.00771787576377392,-0.01080740429461,-0.0254393424838781,-0.0129627855494618,-0.00290326541289687
841,0.0132913794368505,-0.0056242342106998,-0.0110778361558914,-0.027253795415163,-0.0080910986289382,-0.00153959880117327
842,0.0114261517301202,-0.00288721756078303,-0.00868124421685934,-0.0275324899703264,-0.00226376950740814,-0.00218196678906679
843,0.00679939752444625,-0.000664854364003986,-0.00510943634435534,-0.0258175488561392,0.00304734241217375,-0.00210221065208316
844,0.00071596831548959,-0.000475206645205617,-0.00224072928540409,-0.0229172818362713,0.00480693019926548,-0.000171837891684845
845,-0.00447382405400276,-0.00204452103935182,0.000577127211727202,-0.019121028482914,0.00427572568878531,0.00230646645650268
846,-0.00515064131468534,-0.0034904929343611,0.00604299549013376,-0.0138887651264668,0.00701313698664308,0.00292625231668353
847,-0.00175055174622685,-0.00317005743272603,0.0143320048227906,-0.00736946985125542,0.0130183892324567,0.00216403184458613
848,0.00233635026961565,-0.00112864526454359,0.0230696406215429,-0.000651947688311338,0.0181626528501511,0.00220465403981507
849,0.0051064882427454,0.000136826565722004,0.0300543867051601,0.00496252253651619,0.0213803667575121,0.00242236093617976
850,0.00700048916041851,-0.000153549321112223,0.0347689390182495,0.00897804088890553,0.0236781165003777,0.00198578648269176
851,0.010466136969626,0.000316840218147263,0.038633905351162,0.012133558280766,0.0268461387604475,0.00152013450860977
852,0.0148019045591354,0.00184776913374662,0.04116365686059,0.014551343396306,0.0293214861303568,0.00139298068825156
853,0.0164885930716991,0.00316496728919446,0.0406467951834202,0.0156168704852462,0.0276908241212368,0.00308368960395455
854,0.0155090000480413,0.00405715731903911,0.0380610786378384,0.0155391814187169,0.0231110006570816,0.00781059404835105
855,0.0141637725755572,0.00382646708749235,0.0354818068444729,0.0145568931475282,0.0190747361630201,0.0132500678300858
856,0.013643036596477,0.00205666129477322,0.0347790978848934,0.0133494678884745,0.0189340952783823,0.0173801854252815
857,0.0136878751218319,0.000533412443473935,0.0361734367907047,0.0127301858738065,0.021951500326395,0.0207061283290386
858,0.0148518746718764,0.000411613145843148,0.0382178649306297,0.0121111134067178,0.0233499817550182,0.0230844505131245
859,0.0181743782013655,-8.88232607394457E-05,0.0393743887543678,0.0107836928218603,0.02038106136024,0.0247468575835228
860,0.0204904787242413,-0.00292276591062546,0.0375320054590702,0.00869650952517986,0.0113882441073656,0.026494087651372
861,0.0188998226076365,-0.00795902963727713,0.0327818691730499,0.00587679632008076,0.000144396093674004,0.0256750322878361
862,0.0153769413009286,-0.013812649063766,0.027117608115077,0.00178150937426835,-0.00556164234876633,0.0189811084419489
863,0.0106342965736985,-0.0194265861064196,0.0217355359345675,-0.00376922613941133,-0.00515229161828756,0.00928228069096804
864,0.00316420919261873,-0.024935195222497,0.0172406323254108,-0.00997824966907501,-0.00229446683079004,0.00150952069088817
865,-0.00552778085693717,-0.0301729030907154,0.0137397507205606,-0.0151887219399214,0.000861798238474876,-0.00253955274820328
866,-0.0115410480648279,-0.0327413901686668,0.0114604318514466,-0.0169781800359488,0.00191184342838824,-0.000903034815564752
867,-0.0139470407739282,-0.0315183103084564,0.00974525418132544,-0.0147969350218773,-0.0020105903968215,0.0075477072969079
868,-0.0135548366233706,-0.0294891037046909,0.00797245278954506,-0.0102930711582303,-0.0107787204906344,0.0194693375378847
869,-0.0102362968027592,-0.0292221326380968,0.00659779272973537,-0.00595880765467882,-0.0213381983339787,0.0291218906641006
870,-0.00723657570779324,-0.030106334015727,0.00517449574545026,-0.0035953086335212,-0.0312585011124611,0.0341838113963604
871,-0.00952870026230812,-0.0310233756899834,0.00324245565570891,-0.00279603968374431,-0.0389805547893047,0.0364925190806389
872,-0.0175413396209478,-0.0318287946283817,0.00156693870667368,-0.0029211847577244,-0.0434401705861092,0.0370261147618294
873,-0.0282409638166428,-0.0326948054134846,0.000758704845793545,-0.00369281345047057,-0.0460695214569569,0.035975955426693
874,-0.0376393981277943,-0.0341421477496624,0.000605222652666271,-0.0042960443533957,-0.0486194044351578,0.0333761312067509
875,-0.0413808859884739,-0.0366624258458614,0.00081396906170994,-0.00431982800364494,-0.0482887253165245,0.0284282974898815
876,-0.0383139885962009,-0.0398035384714603,0.00107948447111994,-0.00423550605773926,-0.042877160012722,0.0220696143805981
877,-0.0311227273195982,-0.0420293286442757,0.00181604956742376,-0.00429374305531383,-0.0349765680730343,0.0172645896673203
878,-0.0230437479913235,-0.0427144877612591,0.00308441091328859,-0.00549916410818696,-0.0279952306300402,0.0147806704044342
879,-0.0161847900599241,-0.0431376546621323,0.00316639640368521,-0.00918110553175211,-0.0242649018764496,0.0131631251424551
880,-0.0125377243384719,-0.0446229055523872,0.000783817435149103,-0.0139468843117356,-0.0248093791306019,0.0127868186682463
881,-0.0133849931880832,-0.0466265305876732,-0.00367659074254334,-0.01704709418118,-0.029622046276927,0.0146237276494503
882,-0.0161529015749693,-0.0473717264831066,-0.0081340316683054,-0.0173156671226025,-0.035361535847187,0.0173803437501192
883,-0.0179635584354401,-0.0472865849733353,-0.0115418480709195,-0.0169091857969761,-0.0375910475850105,0.0171175301074982
884,-0.0197344403713942,-0.0478918626904488,-0.0153646050021052,-0.0190946664661169,-0.0364010520279408,0.0106867384165525
885,-0.0233714375644922,-0.0481926053762436,-0.0199748538434505,-0.0233222749084234,-0.0343818180263042,0.000557146151550114
886,-0.0289258230477571,-0.0466595254838467,-0.0242844987660646,-0.0270983427762985,-0.0335208922624588,-0.00800318829715252
887,-0.0341390445828438,-0.0437296964228153,-0.026416627690196,-0.0293827541172504,-0.0328780151903629,-0.0125132650136948
888,-0.0365057289600372,-0.0402937419712543,-0.0247307233512402,-0.02956822514534,-0.0302751939743757,-0.012455940246582
889,-0.0354645512998104,-0.0363617427647114,-0.0205148942768574,-0.0276360139250755,-0.0262378230690956,-0.00773232523351908
890,-0.0318419933319092,-0.0324340835213661,-0.0163257233798504,-0.0246530026197433,-0.02175322920084,-0.00100944540463388
891,-0.0272527989000082,-0.0290817115455866,-0.0133828409016132,-0.0216055307537317,-0.0164486933499575,0.00404461100697517
892,-0.0229175444692373,-0.0256482735276222,-0.0102407904341817,-0.0181471407413483,-0.00908967945724726,0.00710936263203621
893,-0.0198981072753668,-0.0211965069174767,-0.00533049833029509,-0.014136410318315,-0.00028919946635142,0.00994081888347864
894,-0.0211765076965094,-0.0148411691188812,-0.00150164775550365,-0.0116048436611891,0.0043972572311759,0.0145339276641607
895,-0.0272109694778919,-0.00872158259153366,-0.00205768994055688,-0.0133820772171021,0.00235521188005805,0.0185054559260607
896,-0.0304589308798313,-0.0063634398393333,-0.00512750074267387,-0.019475594162941,0.000487068755319342,0.016266705468297
897,-0.0224856398999691,-0.00689977034926414,-0.00837530009448528,-0.0262338854372501,0.00230967672541738,0.00876632239669561
898,-0.00490647461265326,-0.00763916317373514,-0.0129974605515599,-0.0305725280195475,0.00298786791972816,0.00114665704313666
899,0.0121370619162917,-0.00654074596241117,-0.0179317556321621,-0.0313141718506813,0.00264885975047946,-0.00331239984370768
900,0.0202606245875359,-0.00316846696659923,-0.0199067536741495,-0.0288714915513992,0.00528907589614391,-0.00385641003958881
901,0.0187925845384598,5.09826850247919E-06,-0.0191850252449512,-0.0256729926913977,0.0105639696121216,-0.00243592751212418
902,0.0120111834257841,0.00146079168189317,-0.017777256667614,-0.0232528764754534,0.0154462838545442,1.14873500933754E-05
903,0.00484720477834344,0.00299267959780991,-0.015611263923347,-0.0205481238663197,0.01761762984097,0.00414412142708898
904,9.54296920099296E-05,0.00598899181932211,-0.0127195045351982,-0.0167182851582766,0.0163424015045166,0.00739812338724732
905,-0.00320861348882318,0.0100063541904092,-0.0103974118828774,-0.0120540540665388,0.0118954284116626,0.00739432498812675
906,-0.00597102753818035,0.0148897431790829,-0.00791507121175528,-0.00633107218891382,0.00674169696867466,0.00672215968370438
907,-0.00694446451961994,0.0192326605319977,-0.00426653260365129,-0.000775984663050622,0.00346575118601322,0.00624225521460176
908,-0.00610416848212481,0.0204653386026621,-0.00183208344969898,0.000684529019054025,0.000916546036023647,0.0024778600782156
909,-0.00393750704824924,0.0193671770393848,-0.00218903739005327,-0.00290920445695519,-0.00265726144425571,-0.00449768221005797
910,0.000219409383134916,0.0180754233151674,-0.00300003704614937,-0.00810985267162323,-0.00507231568917632,-0.0113460216671228
911,0.00477841263636947,0.0157017521560192,-0.00324972276575863,-0.0127625009045005,-0.00455281836912036,-0.016584349796176
912,0.00655082194134593,0.0119538819417357,-0.00368898222222924,-0.0154882427304983,-0.00317731034010649,-0.0189013741910458
913,0.00566102284938097,0.00917930528521538,-0.00366870081052184,-0.014682806096971,-0.00271623930893838,-0.017539631575346
914,0.00552279129624367,0.00782142113894224,-0.00250042229890823,-0.011750384233892,-0.000870899588335305,-0.0152105959132314
915,0.00789619982242584,0.00643330393359065,-0.000847844465170056,-0.00961474422365427,0.00509985582903028,-0.0150230014696717
916,0.0105167729780078,0.00446893647313118,0.000424109835876152,-0.00930867344141006,0.0137247126549482,-0.0157328620553017
917,0.0112979523837566,0.00206544669345021,0.00194247951731086,-0.009831627830863,0.0221890285611153,-0.014466505497694
918,0.0104895941913128,0.00154624448623508,0.00304661993868649,-0.0102071603760123,0.0276374984532595,-0.0109705105423927
919,0.00876021012663841,0.00500424858182669,0.00153739657253027,-0.0101364953443408,0.0293541941791773,-0.0061160777695477
920,0.00680734124034643,0.0103049417957664,-0.00136406219098717,-0.00887953955680132,0.0295902378857136,-0.000693988578859717
921,0.00508266221731901,0.0142429685220122,-0.00318998657166958,-0.00740597909316421,0.0288726352155209,0.00250786729156971
922,0.00246607349254191,0.0152397230267525,-0.00479971524327993,-0.00825509428977966,0.0263301245868206,0.000766580342315137
923,-0.00119646114762872,0.01310726813972,-0.00790841039270163,-0.0115242088213563,0.0230886936187744,-0.00501094199717045
924,-0.00180202117189765,0.00911176577210426,-0.0131485629826784,-0.0163931529968977,0.0204803980886936,-0.0127551555633545
925,0.00233374256640673,0.00508653651922941,-0.0204841047525406,-0.0226991306990385,0.0168351791799068,-0.0200745742768049
926,0.0061861090362072,0.00269490131177008,-0.0267715062946081,-0.0271674301475286,0.0110835721716285,-0.0215086955577135
927,0.00522915180772543,0.00209509790875018,-0.0282848738133907,-0.0269266031682491,0.00499822525307536,-0.0153502868488431
928,-0.000169439619639888,0.00227428879588842,-0.0255396384745836,-0.024286761879921,8.37400948512368E-05,-0.00886545423418283
929,-0.00799468718469143,0.00303603475913405,-0.0211382806301117,-0.0215511228889227,-0.00350359175354242,-0.00793578661978245
930,-0.0173897352069616,0.00390654476359487,-0.0180387683212757,-0.0195777304470539,-0.00686166109517217,-0.0120607148855925
931,-0.0252197962254286,0.00380590371787548,-0.0189272407442331,-0.0201577171683311,-0.0118857575580478,-0.0192490369081497
932,-0.0265601575374603,0.00211357045918703,-0.0246101543307304,-0.0247019194066525,-0.0189913976937532,-0.0277456883341074
933,-0.022068340331316,-0.000941927719395608,-0.0327263586223125,-0.0316742286086082,-0.0250042919069529,-0.0352114289999008
934,-0.0177095830440521,-0.00462557794526219,-0.03902742639184,-0.0373277179896832,-0.0260345377027988,-0.0387574955821037
935,-0.016535259783268,-0.00713048968464136,-0.0410772264003754,-0.0394030623137951,-0.0211705137044191,-0.0370391085743904
936,-0.0168718304485083,-0.00641896855086088,-0.0389957800507545,-0.0381391420960426,-0.0127329817041755,-0.0330858714878559
937,-0.0170565694570541,-0.00349749135784805,-0.0344808325171471,-0.0352752432227135,-0.00442456174641848,-0.0316102169454098
938,-0.0171377714723349,-0.00118295627180487,-0.0295319128781557,-0.0331982485949993,0.00181616062764078,-0.0351795889437199
939,-0.0175233297049999,-0.000127324849017896,-0.0251767206937075,-0.0330162532627583,0.00555375916883349,-0.0430967509746552
940,-0.0182142835110426,0.00150797248352319,-0.0217248257249594,-0.0329947434365749,0.00574614712968469,-0.0496040359139442
941,-0.0199044123291969,0.00448321411386132,-0.0203425996005535,-0.0323988720774651,0.000754994980525225,-0.0501118153333664
942,-0.0225748904049397,0.00727142300456762,-0.0216060448437929,-0.0326353907585144,-0.00822453945875168,-0.0463524796068668
943,-0.0235571395605803,0.00911917071789503,-0.0236711744219065,-0.0329801365733147,-0.0163588970899582,-0.0408537313342094
944,-0.022004172205925,0.00987265352159739,-0.0257489196956158,-0.0325482375919819,-0.0218970440328121,-0.0352771654725075
945,-0.0211448483169079,0.00805440731346607,-0.0289736595004797,-0.0330266878008842,-0.0281030107289553,-0.0322160646319389
946,-0.0233908575028181,0.00232344632968307,-0.0339180156588554,-0.036595955491066,-0.0366608388721943,-0.0338064283132553
947,-0.028405450284481,-0.00664142658933997,-0.039396807551384,-0.0433500818908215,-0.0449957735836506,-0.0393574349582195
948,-0.034320130944252,-0.0154507793486118,-0.0424174815416336,-0.0500704944133759,-0.0503799691796303,-0.0451354831457138
949,-0.0386899001896381,-0.0204458590596914,-0.0412735715508461,-0.0527910627424717,-0.052909791469574,-0.0470923222601414
950,-0.0409013219177723,-0.0220870245248079,-0.0373459160327911,-0.0502199940383434,-0.0534261167049408,-0.0441120602190495
951,-0.0409088805317879,-0.0239588171243668,-0.0325771495699883,-0.0452135428786278,-0.0512658655643463,-0.0403972789645195
952,-0.035862073302269,-0.0267473515123129,-0.0277684796601534,-0.0428410097956657,-0.0458760783076286,-0.0417168997228146
953,-0.0247014909982681,-0.0267581176012754,-0.0240448713302612,-0.0453476123511791,-0.0380522534251213,-0.0489004850387573
954,-0.0139714740216732,-0.0221310574561358,-0.0230649933218956,-0.0504886955022812,-0.0306854043155909,-0.056985154747963
955,-0.0118370298296213,-0.0169204454869032,-0.0246874932199717,-0.0543225929141045,-0.0277680996805429,-0.0608124136924744
956,-0.0191830284893513,-0.0145879155024886,-0.0266351159662008,-0.0543864481151104,-0.029744666069746,-0.0594230145215988
957,-0.0312005449086428,-0.0126805435866117,-0.0272665116935968,-0.0514301061630249,-0.0338803082704544,-0.0541610792279243
958,-0.0437887348234653,-0.00949493516236544,-0.027558796107769,-0.0486994609236717,-0.0382263958454132,-0.0481380634009838
959,-0.0540538616478443,-0.00777643173933029,-0.0288940295577049,-0.0483703091740608,-0.0415177159011364,-0.0443937741219997
960,-0.0588824450969696,-0.0089556435123086,-0.0307382103055716,-0.0490693151950836,-0.0423443466424942,-0.0416233874857426
961,-0.0569656006991863,-0.0111414948478341,-0.0317090414464474,-0.0486482195556164,-0.0395490117371082,-0.0383112132549286
962,-0.0502299889922142,-0.0129713481292129,-0.0317966565489769,-0.0477059334516525,-0.0338026136159897,-0.0374499186873436
963,-0.0429354570806026,-0.0148231741040945,-0.0323761142790318,-0.0477096252143383,-0.027903076261282,-0.0410513877868652
964,-0.0381533280014992,-0.0161626487970352,-0.033989530056715,-0.0483000837266445,-0.0234862342476845,-0.0462492145597935
965,-0.0355914235115051,-0.0156743545085192,-0.0361330360174179,-0.048858966678381,-0.0210317838937044,-0.0495357029139996
966,-0.0335921980440617,-0.0129671506583691,-0.038149781525135,-0.0495762825012207,-0.0213674865663052,-0.0499652326107025
967,-0.0322144255042076,-0.00893993582576513,-0.0391000546514988,-0.0504766292870045,-0.0248262640088797,-0.0487314984202385
968,-0.0328155308961868,-0.00536904856562614,-0.0369299985468388,-0.0509561747312546,-0.0307130292057991,-0.0485095791518688
969,-0.0351220481097698,-0.00453483173623681,-0.0319503769278526,-0.0519246198236942,-0.0366673730313778,-0.0533833093941212
970,-0.0376069322228432,-0.00831282883882523,-0.0293791089206934,-0.0555548258125782,-0.0391827039420605,-0.0637722387909889
971,-0.0390601195394993,-0.0149363512173295,-0.0322827696800232,-0.060635831207037,-0.0378715842962265,-0.0731228515505791
972,-0.0383459664881229,-0.0199366863816977,-0.0382656417787075,-0.064266063272953,-0.0371946059167385,-0.0755314007401466
973,-0.0360157266259193,-0.0210281498730183,-0.0438547804951668,-0.0655873268842697,-0.0414171554148197,-0.0708764865994453
974,-0.0343048796057701,-0.0187849421054125,-0.0463492944836617,-0.0642235577106476,-0.0494892373681068,-0.0625094473361969
975,-0.0328990593552589,-0.015311598777771,-0.0447528623044491,-0.0607098303735256,-0.0552365705370903,-0.0544160753488541
976,-0.0311978664249182,-0.0136786513030529,-0.0421184189617634,-0.0582744441926479,-0.0565885938704014,-0.0495283044874668
977,-0.0297097880393267,-0.0152035718783736,-0.0425276979804039,-0.0594634227454662,-0.0577493086457253,-0.0494629852473736
978,-0.0270708780735731,-0.0191487334668636,-0.045527596026659,-0.0628755688667297,-0.059755839407444,-0.0532059594988823
979,-0.0242083054035902,-0.0239721909165382,-0.0482937879860401,-0.0655581206083298,-0.0615262538194656,-0.0562952943146229
980,-0.0231782142072916,-0.0264470800757408,-0.0489574074745178,-0.0660009682178497,-0.0633270591497421,-0.0553848929703236
981,-0.0223301444202662,-0.0246795862913132,-0.0464370660483837,-0.0642952919006348,-0.0644351989030838,-0.0503981858491898
982,-0.021474851295352,-0.0210489314049482,-0.0417746379971504,-0.0618633739650249,-0.0635090544819832,-0.0424671955406666
983,-0.0236832518130541,-0.0194198470562696,-0.0370423346757889,-0.0604797974228859,-0.0596039965748787,-0.0346686877310276
984,-0.0286219958215952,-0.0212791580706835,-0.0330452024936676,-0.0599220097064972,-0.053233876824379,-0.030751196667552
985,-0.0324036367237568,-0.0247283726930618,-0.0300208833068609,-0.0584471672773361,-0.0471917986869812,-0.030288714915514
986,-0.0340788401663303,-0.0260787606239319,-0.0282630007714033,-0.0557820498943329,-0.0451681055128574,-0.0291429776698351
987,-0.0347457975149155,-0.0221688617020845,-0.0270227529108524,-0.0527434274554253,-0.0473597496747971,-0.0259060598909855
988,-0.0332960598170757,-0.0134557588025928,-0.0245654955506325,-0.0497376210987568,-0.0495771057903767,-0.0236773435026407
989,-0.0290877781808376,-0.0038174765650183,-0.0208106078207493,-0.0475336313247681,-0.0489488020539284,-0.0252493303269148
990,-0.0238966848701239,0.00306342169642448,-0.0167290680110455,-0.044537678360939,-0.0456925891339779,-0.0278346948325634
991,-0.019135907292366,0.00520937098190188,-0.012547411955893,-0.0365856364369392,-0.0410455465316772,-0.0248896162956953
992,-0.0152338594198227,0.00350368674844503,-0.0096198869869113,-0.0263417400419712,-0.0367409586906433,-0.0168561264872551
993,-0.0134590426459908,0.000815991079434752,-0.00984415598213673,-0.0231150891631842,-0.0345698855817318,-0.0138589227572083
994,-0.0143094854429364,-0.00106852641329169,-0.0118272043764591,-0.0290350057184696,-0.0343365408480167,-0.0223147943615913
995,-0.0146170780062675,-0.00213893014006317,-0.0120444064959884,-0.0368075370788574,-0.0337098836898804,-0.0359737165272236
996,-0.0102099170908332,-0.00270570581778884,-0.00891520921140909,-0.0403311774134636,-0.0304926950484514,-0.0453519932925701
997,-0.000805311661679298,-0.00094054127112031,-0.00313206156715751,-0.0396460816264153,-0.0241286363452673,-0.0480066873133183
998,0.00818813964724541,0.00445976573973894,0.0028217697981745,-0.0375724919140339,-0.0180215388536453,-0.0458126701414585
999,0.00981598719954491,0.00992657337337732,0.00558142643421888,-0.0365668758749962,-0.0163743365556002,-0.0414826273918152
1000,0.00372612033970654,0.0111756697297096,0.00356300128623843,-0.0385006777942181,-0.0181462746113539,-0.0390759818255901
1001,-0.00382703938521445,0.00901952292770147,-0.00150480552110821,-0.043209008872509,-0.0197026804089546,-0.04045544937253
1002,-0.00907287653535604,0.00661466736346483,-0.00694065215066075,-0.0481264293193817,-0.0209648888558149,-0.0437560863792896
1003,-0.0135315395891666,0.00409940024837852,-0.0112340422347188,-0.0506095997989178,-0.0236893948167562,-0.046581819653511
1004,-0.0172236301004887,0.0018533430993557,-0.0138171836733818,-0.0495790131390095,-0.0269094556570053,-0.0461073964834213
1005,-0.0164668913930655,0.00193455861881375,-0.0153806768357754,-0.0458458140492439,-0.0292812418192625,-0.0424303896725178
1006,-0.0112535981461406,0.00475250231102109,-0.0152673609554768,-0.0397253409028053,-0.0299957916140556,-0.0386078953742981
1007,-0.00868020951747894,0.00960446242243052,-0.0126438615843654,-0.0329007990658283,-0.028442420065403,-0.0332725271582603
1008,-0.0136955725029111,0.0138892373070121,-0.0103467693552375,-0.0298652499914169,-0.0266881696879864,-0.0225053783506155
1009,-0.0225489810109138,0.0156578551977873,-0.0105734104290605,-0.0304213985800743,-0.0273124612867832,-0.00593325821682811
1010,-0.0300978161394596,0.0154477255418897,-0.0119404941797256,-0.0295844692736864,-0.0297497473657131,0.0106439292430878
1011,-0.0340835005044937,0.0123845543712378,-0.0119328359141946,-0.0253821387887001,-0.0293148159980774,0.0176365189254284
1012,-0.033509872853756,0.00664970465004444,-0.0102237919345498,-0.0204916372895241,-0.0235189162194729,0.0119663439691067
1013,-0.0315450094640255,0.00129432906396687,-0.0102589195594192,-0.0186081081628799,-0.0191966909915209,0.00141191901639104
1014,-0.0313584171235561,-0.00127762684132904,-0.0134162520989776,-0.0198544692248106,-0.0235482193529606,-0.00462863547727466
1015,-0.0297776982188225,-5.0996859499719E-06,-0.0158573463559151,-0.0211295820772648,-0.0329537950456142,-0.00464056059718132
1016,-0.0242489986121655,0.00383936706930399,-0.0158897191286087,-0.0216900650411844,-0.0402633585035801,-0.00416984502226114
1017,-0.0173503644764423,0.00715806055814028,-0.0154150249436498,-0.0226049777120352,-0.0434206947684288,-0.00738219916820526
1018,-0.0118249906226993,0.0084085687994957,-0.0154107436537743,-0.0233192835003138,-0.0437468849122524,-0.0127239758148789
1019,-0.00853005144745111,0.00777469761669636,-0.0167376454919577,-0.0235439352691174,-0.0444307699799538,-0.0181734804064035
1020,-0.00848049204796553,0.00492575159296393,-0.0203446540981531,-0.0241718497127295,-0.0482875630259514,-0.0248447563499212
1021,-0.011293021030724,0.000649538182187825,-0.0246817022562027,-0.0250385608524084,-0.053534023463726,-0.0316589400172234
1022,-0.0140833221375942,-0.0021552350372076,-0.0276452898979187,-0.0249043442308903,-0.0555432885885239,-0.0352127514779568
1023,-0.0158861968666315,-0.00275804661214352,-0.0296762362122536,-0.0234292764216661,-0.0531476698815823,-0.036125473678112
1024,-0.0173556823283434,-0.00293749454431236,-0.0311522874981165,-0.019288444891572,-0.0484348312020302,-0.0339250862598419
1025,-0.0178784262388945,-0.00406052218750119,-0.0314804427325726,-0.0110142286866903,-0.0430885441601276,-0.0249845739454031
1026,-0.0171289872378111,-0.00438920455053449,-0.0302667953073978,-0.00179070385638624,-0.0377801284193993,-0.011777033098042
1027,-0.0150717124342918,-0.000703732424881309,-0.0270371045917273,0.00287469429895282,-0.0315406173467636,-0.00295614777132869
1028,-0.0116369994357228,0.00521534122526646,-0.0235540103167295,0.000195256492588669,-0.0249522887170315,-0.00466251792386174
1029,-0.00729662552475929,0.00741030741482973,-0.0240143854171038,-0.00941734854131937,-0.0232978127896786,-0.0156221929937601
1030,-0.000498648674692959,0.00271036452613771,-0.0309357438236475,-0.0242744572460651,-0.0290897358208895,-0.0309142488986254
1031,0.00971212517470121,-0.00586078362539411,-0.0436356328427792,-0.0417847186326981,-0.0388728342950344,-0.0469686463475227
1032,0.0181655324995518,-0.0131395561620593,-0.0583971440792084,-0.0572285577654839,-0.0481183566153049,-0.0615179389715195
1033,0.0181444212794304,-0.0171276722103357,-0.0686606392264366,-0.06495001912117,-0.0537181682884693,-0.071978397667408
1034,0.00827901624143124,-0.0182923972606659,-0.0695113092660904,-0.0622505284845829,-0.0560712814331055,-0.0754506960511208
1035,-0.00700006866827607,-0.0181052293628454,-0.0627606511116028,-0.0516598075628281,-0.057234488427639,-0.0710530504584312
1036,-0.0205861628055573,-0.0183346271514893,-0.0539418235421181,-0.0385017804801464,-0.0564465895295143,-0.0594993568956852
1037,-0.0296336505562067,-0.0195351392030716,-0.0462059043347836,-0.026792561635375,-0.0538423918187618,-0.042185552418232
1038,-0.0370808430016041,-0.0208973027765751,-0.0400032624602318,-0.0186355095356703,-0.0533141456544399,-0.0245347954332829
1039,-0.0443693324923515,-0.021006315946579,-0.0350449308753014,-0.0149237513542175,-0.0556605085730553,-0.0137043921276927
1040,-0.0494428835809231,-0.0188481938093901,-0.0305506344884634,-0.014272702857852,-0.057755708694458,-0.0105014899745584
1041,-0.0498835742473602,-0.0151501651853323,-0.0260402001440525,-0.0153390718623996,-0.0562396980822086,-0.0120673608034849
1042,-0.0454931855201721,-0.0117648197337985,-0.0232967343181372,-0.0185605455189943,-0.0496977232396603,-0.0186960827559233
1043,-0.038327019661665,-0.00990221742540598,-0.0248650200664997,-0.0223019048571587,-0.0409214906394482,-0.0295312590897083
1044,-0.0300153996795416,-0.0104955863207579,-0.0294720437377691,-0.0240322723984718,-0.0312794558703899,-0.0404856279492378
1045,-0.0224672723561525,-0.0133297266438603,-0.032181978225708,-0.0230758991092443,-0.0185608044266701,-0.0464113913476467
1046,-0.0184042174369097,-0.0169500391930342,-0.0295074209570885,-0.0189883038401604,-0.00430906563997269,-0.043574932962656
1047,-0.0166265442967415,-0.0194565244019032,-0.0213964395225048,-0.0120814815163612,0.00626999419182539,-0.0348480977118015
1048,-0.0125883957371116,-0.0193498209118843,-0.0100806765258312,-0.00492470804601908,0.0110183637589216,-0.0277423672378063
1049,-0.00548749044537544,-0.0173400044441223,1.61098087119171E-05,-0.000837977277114987,0.00935389753431082,-0.0265416149049997
1050,0.00242731138132513,-0.0131987798959017,0.005819296464324,0.000119227879622485,-0.00113327265717089,-0.0290486365556717
1051,0.0118078971281648,-0.00522001925855875,0.010047116316855,0.00125936733093113,-0.0179594270884991,-0.0312136597931385
1052,0.0240388680249453,0.00418822187930346,0.0168444588780403,0.00435657287016511,-0.0321607813239098,-0.0308554098010063
1053,0.0345802381634712,0.00897486880421638,0.0244906153529882,0.00720754498615861,-0.0379954315721989,-0.0282955393195152
1054,0.0371735952794552,0.00770799443125725,0.0280772000551224,0.0071818046271801,-0.0366981625556946,-0.0262655206024647
1055,0.0328521877527237,0.00523648364469409,0.0263380222022533,0.00510764447972178,-0.0325209274888039,-0.0244977828115225
1056,0.0274658016860485,0.00412279833108187,0.0212920513004065,0.00253929500468075,-0.0275697205215693,-0.0210961271077394
1057,0.024118959903717,0.00300225103273988,0.0156750790774822,-0.00115710194222629,-0.0208792965859175,-0.0185310114175081
1058,0.0225200839340687,0.00249500060454011,0.0119562204927206,-0.00552214123308659,-0.0134361712262034,-0.0165931023657322
1059,0.022445123642683,0.00490668416023254,0.0112628070637584,-0.00772670144215226,-0.00952853169292212,-0.0113191762939096
1060,0.0247476436197758,0.0109741892665625,0.0133297387510538,-0.00583933992311358,-0.0118608716875315,-0.00396284647285938
1061,0.0292450319975615,0.0192830376327038,0.0169742200523615,-0.00077542953658849,-0.0181743670254946,0.00184441858436912
1062,0.0330400690436363,0.0268820114433765,0.02031284943223,0.0047496510669589,-0.0250125583261251,0.00628440780565143
1063,0.0351771824061871,0.0317350141704082,0.0232348125427961,0.00937330536544323,-0.0280506629496813,0.0107407309114933
1064,0.0374605543911457,0.0337802544236183,0.0276855994015932,0.0137479063123465,-0.0237129759043455,0.0141641302034259
1065,0.0398515500128269,0.0335680246353149,0.0335534960031509,0.0177943501621485,-0.0159596707671881,0.0149346217513084
1066,0.0429296605288982,0.0316203497350216,0.0387445129454136,0.0198222007602453,-0.00967496912926435,0.0116718281060457
1067,0.0484193526208401,0.029841173440218,0.0418469868600369,0.0191201623529196,-0.00322795426473022,0.00569428130984306
1068,0.055977638810873,0.0318197943270206,0.0438116863369942,0.0185394044965506,0.00627465499565005,0.00379129988141358
1069,0.0624459832906723,0.0377812422811985,0.0466186255216599,0.0206633601337671,0.0160979088395834,0.00888034608215094
1070,0.0645328685641289,0.0450530499219894,0.0495995432138443,0.0239130239933729,0.0204134192317724,0.0161895584315062
1071,0.0629617795348167,0.0527395568788052,0.0510959811508656,0.0266349613666534,0.0184126924723387,0.0231454093009233
1072,0.0591914132237434,0.0583960004150867,0.0513415485620499,0.0285627599805593,0.0137472525238991,0.0307584777474403
1073,0.0529000163078308,0.0589839778840542,0.0514306426048279,0.0292230658233166,0.00975320301949978,0.0386771857738495
1074,0.0474708639085293,0.0568692907691002,0.0528831034898758,0.0300010703504086,0.0104903290048242,0.0453167632222176
1075,0.0476260781288147,0.0572754479944706,0.0565632209181786,0.0331352949142456,0.0180213078856468,0.0489374436438084
1076,0.0526278950273991,0.061995517462492,0.0608635023236275,0.0380089320242405,0.0288178771734238,0.0482329800724983
1077,0.0617430135607719,0.0689983144402504,0.0640375167131424,0.0428958125412464,0.0392501689493656,0.0445806719362736
