,AF3,AF4,Fp1,Fp2,AF7,AF8
0,-0.0334267094731331,0.0104126902297139,0.0651568472385406,0.0344534665346146,0.041854951530695,-0.0216027721762657
1,-0.0477287247776985,0.000503209594171494,0.0529879070818424,0.0292564611881971,0.0303569119423628,-0.0146770225837827
2,-0.0617646835744381,-0.00952859781682491,0.0430464632809162,0.0286133084446192,0.0197612475603819,-0.00314845168031752
3,-0.067460224032402,-0.0167161095887423,0.0382428579032421,0.0297651756554842,0.0138060981407762,0.00406715366989374
4,-0.0643792524933815,-0.0182986613363028,0.038390789180994,0.0279132053256035,0.0135349351912737,0.000306716508930549
5,-0.0591097250580788,-0.0146995382383466,0.0390065759420395,0.0228283163160086,0.0142111275345087,-0.0120548391714692
6,-0.0581993125379086,-0.0104684149846435,0.0354305505752563,0.0155971022322774,0.0113452542573214,-0.0281089581549168
7,-0.0620873495936394,-0.00867600832134485,0.0292457677423954,0.00792461819946766,0.00766918994486332,-0.0434800274670124
8,-0.0688522309064865,-0.00807207264006138,0.0233837496489286,0.0014501764671877,0.00612905761227012,-0.0547612346708775
9,-0.0772850960493088,-0.00674534030258656,0.0182479750365019,-0.00389400008134544,0.00600478425621986,-0.0614375025033951
10,-0.0838944092392921,-0.0032948034349829,0.0148926703259349,-0.00691576488316059,0.00740721728652716,-0.0635252818465233
11,-0.0856351479887962,0.00226739817298949,0.0147543931379914,-0.00548808602616191,0.0113961817696691,-0.0607927776873112
12,-0.0858577117323875,0.00656020594760776,0.0157808400690556,-0.00212253886274993,0.0153362043201923,-0.0559158585965633
13,-0.0890989080071449,0.00780941965058446,0.01436473056674,-0.00182753265835345,0.0151421334594488,-0.0520891062915325
14,-0.0945960134267807,0.00737870903685689,0.00990712456405163,-0.00632167095318437,0.0111772641539574,-0.0503658913075924
15,-0.0997571051120758,0.00608682120218873,0.00432012183591723,-0.0139258475974202,0.00628701504319906,-0.0501269437372684
16,-0.103493295609951,0.00488193659111857,0.00024002963618841,-0.0212098844349384,0.00263503054156899,-0.0487472377717495
17,-0.106261514127254,0.00344074959866703,-0.00207096221856773,-0.0269137620925903,-0.000100085802841932,-0.0449204258620739
18,-0.108544819056988,0.00014990106865298,-0.00555062294006348,-0.0327125899493694,-0.0047794422134757,-0.0400336161255836
19,-0.110283441841602,-0.00500310538336635,-0.0122547270730138,-0.0394979454576969,-0.0130598498508334,-0.0361550040543079
20,-0.111691989004612,-0.0103905582800508,-0.0208808705210686,-0.0458966270089149,-0.0229931697249413,-0.0333866253495216
21,-0.112841166555882,-0.0143936146050692,-0.0283297784626484,-0.0498807318508625,-0.0300566833466291,-0.0296091660857201
22,-0.112738251686096,-0.0170603841543198,-0.0330826938152313,-0.0514532402157784,-0.0318300612270832,-0.0251997299492359
23,-0.11023785173893,-0.0191951598972082,-0.0368657596409321,-0.0530130490660667,-0.0316506326198578,-0.0225500948727131
24,-0.106938049197197,-0.0209028907120228,-0.0415826141834259,-0.0571621730923653,-0.0338968671858311,-0.0228816699236631
25,-0.105956710875034,-0.0219481326639652,-0.0460141077637672,-0.0640354827046394,-0.0383849032223225,-0.0271734520792961
26,-0.107722297310829,-0.0226089414209127,-0.0491746105253696,-0.0715636536478996,-0.043145839124918,-0.0354765877127647
27,-0.10861636698246,-0.0226190481334925,-0.0509812459349632,-0.0764715224504471,-0.0457487255334854,-0.0449357889592648
28,-0.106577351689339,-0.0217861104756594,-0.0500895455479622,-0.0763407796621323,-0.0440462194383144,-0.0522795878350735
29,-0.106279164552689,-0.0226198490709066,-0.0484355688095093,-0.073865182697773,-0.0410774238407612,-0.0564829930663109
30,-0.110179863870144,-0.0277454797178507,-0.0512709952890873,-0.0750566273927689,-0.0419740043580532,-0.059106606990099
31,-0.114490546286106,-0.0358725190162659,-0.0598636642098427,-0.0822004526853561,-0.0472706854343414,-0.0633819475769997
32,-0.119708091020584,-0.042585264891386,-0.0694315135478973,-0.0907628163695335,-0.0540311709046364,-0.0685465633869171
33,-0.130498349666595,-0.0459277369081974,-0.0757858976721764,-0.0955243483185768,-0.0602460838854313,-0.0709981918334961
34,-0.144413888454437,-0.0473504178225994,-0.0780910104513168,-0.0955856963992119,-0.0640198811888695,-0.0703544914722443
35,-0.153720900416374,-0.0482688285410404,-0.0770248696208,-0.0929174348711967,-0.0647251531481743,-0.0686394721269608
36,-0.155406445264816,-0.0490938238799572,-0.0752726197242737,-0.090638555586338,-0.0657866820693016,-0.0677978917956352
37,-0.151150122284889,-0.0487813614308834,-0.0746307820081711,-0.0906108319759369,-0.0693210288882256,-0.0677318498492241
38,-0.145035162568092,-0.0478882566094399,-0.0749553292989731,-0.0930242463946342,-0.0742028951644897,-0.0679906606674194
39,-0.141717255115509,-0.0496566332876682,-0.0762729868292809,-0.0976147651672363,-0.0793730244040489,-0.0697669237852097
40,-0.142836973071098,-0.0551451221108437,-0.0775813460350037,-0.103291474282742,-0.0839252546429634,-0.0729672759771347
41,-0.148385688662529,-0.0625990629196167,-0.0775947570800781,-0.109455183148384,-0.0876514315605164,-0.0764680728316307
42,-0.157773107290268,-0.070302814245224,-0.0770749971270561,-0.116765186190605,-0.0914648547768593,-0.0802096873521805
43,-0.168302327394485,-0.0773629620671272,-0.0781757384538651,-0.125500753521919,-0.0959800705313683,-0.084935188293457
44,-0.176258087158203,-0.083509661257267,-0.0824020206928253,-0.134974762797356,-0.101454935967922,-0.0913191512227058
45,-0.178259864449501,-0.0878159999847412,-0.0883541628718376,-0.142621606588364,-0.106930807232857,-0.0972966328263283
46,-0.174547806382179,-0.0904106721282005,-0.0941887199878693,-0.146914973855019,-0.11167947947979,-0.10029198974371
47,-0.169337466359138,-0.0932587459683418,-0.0996789559721947,-0.14847919344902,-0.116445936262608,-0.0999636650085449
48,-0.166017606854439,-0.096807949244976,-0.103639088571072,-0.146979480981827,-0.120016694068909,-0.0962293818593025
49,-0.165513411164284,-0.0991779714822769,-0.105073183774948,-0.143375426530838,-0.120299585163593,-0.0905302986502647
50,-0.165180966258049,-0.0975252613425255,-0.103909455239773,-0.139907509088516,-0.116421796381474,-0.0861263275146484
51,-0.161628261208534,-0.0909970179200172,-0.10035353153944,-0.137367188930511,-0.109298154711723,-0.0853619799017906
52,-0.155508011579514,-0.0812514871358871,-0.0956760719418526,-0.134751111268997,-0.102006897330284,-0.0872022211551666
53,-0.149310424923897,-0.0702318325638771,-0.0905172675848007,-0.129734635353088,-0.0965746641159058,-0.0870714634656906
54,-0.14353135228157,-0.0603769421577454,-0.0845337435603142,-0.121759578585625,-0.0927490070462227,-0.0821267291903496
55,-0.137965992093086,-0.0549954324960709,-0.0790618360042572,-0.114198297262192,-0.0904099941253662,-0.0753801465034485
56,-0.13452459871769,-0.0559945926070213,-0.0765062719583511,-0.110684052109718,-0.0909662619233131,-0.0705065280199051
57,-0.134560793638229,-0.0615826137363911,-0.077282726764679,-0.111066125333309,-0.0952692925930023,-0.0658446475863457
58,-0.135296985507011,-0.0678654238581657,-0.079611711204052,-0.112958125770092,-0.100097723305225,-0.0594166442751884
59,-0.131229043006897,-0.0711570903658867,-0.0810008570551872,-0.114018745720387,-0.0991701409220696,-0.0542439483106136
60,-0.119359403848648,-0.0693114697933197,-0.0798710361123085,-0.112525999546051,-0.0896876454353333,-0.0533309429883957
61,-0.103748366236687,-0.0652052909135818,-0.0775710493326187,-0.109341487288475,-0.0774017497897148,-0.0561722330749035
62,-0.0928883701562881,-0.0655428394675255,-0.076916866004467,-0.107076160609722,-0.0713838487863541,-0.0616268366575241
63,-0.0900366976857185,-0.0715001598000526,-0.0766355097293854,-0.104671239852905,-0.0728070735931396,-0.0667323246598244
64,-0.0904938727617264,-0.0787935107946396,-0.0741622000932693,-0.100067831575871,-0.0773702189326286,-0.0680263265967369
65,-0.0889411494135857,-0.084789477288723,-0.0709865838289261,-0.0950204208493233,-0.0831936746835709,-0.0667570754885674
66,-0.0842939019203186,-0.0877935588359833,-0.0685149878263474,-0.0906999781727791,-0.0881359502673149,-0.0656104609370232
67,-0.0797032788395882,-0.0877864807844162,-0.0665716230869293,-0.0867335647344589,-0.0905798375606537,-0.0652083456516266
68,-0.0783024951815605,-0.0869840681552887,-0.0648886859416962,-0.0832546800374985,-0.0917655155062675,-0.0638303309679031
69,-0.0790681168437004,-0.0860289707779884,-0.0623537823557854,-0.0797600224614143,-0.0917551666498184,-0.0585469827055931
70,-0.0801868513226509,-0.0855748727917671,-0.0592466555535793,-0.0770245641469955,-0.0907054394483566,-0.0522115305066109
71,-0.0819677636027336,-0.0876338854432106,-0.0572020523250103,-0.0773668810725212,-0.0910961702466011,-0.0515584759414196
72,-0.0846005007624626,-0.092300109565258,-0.0560584031045437,-0.0807570442557335,-0.0937627330422401,-0.057381559163332
73,-0.0867126062512398,-0.0966080501675606,-0.0542219616472721,-0.0842644646763802,-0.0959969013929367,-0.0646386295557022
74,-0.0853095725178719,-0.0960193127393723,-0.05002286657691,-0.0842164158821106,-0.0940070375800133,-0.0673290565609932
75,-0.0785882174968719,-0.0888443738222122,-0.043968703597784,-0.0799965336918831,-0.0875388756394386,-0.063582107424736
76,-0.0690200105309486,-0.0790899246931076,-0.0398376919329166,-0.0760569050908089,-0.0810372158885002,-0.0575605481863022
77,-0.0606610327959061,-0.071504108607769,-0.0408488065004349,-0.0766682997345924,-0.0781707987189293,-0.0536047928035259
78,-0.0544641688466072,-0.0658593475818634,-0.0457266643643379,-0.0802921131253242,-0.077892929315567,-0.0518493168056011
79,-0.050163634121418,-0.0594864934682846,-0.0505189634859562,-0.0826967880129814,-0.0775662958621979,-0.0505928993225098
80,-0.0495584346354008,-0.052227720618248,-0.0532922223210335,-0.0829032137989998,-0.0764537900686264,-0.0493089407682419
81,-0.0531905777752399,-0.0458778813481331,-0.0539544001221657,-0.0826597586274147,-0.074031226336956,-0.0486621595919132
82,-0.0581294856965542,-0.0409579314291477,-0.0523281283676624,-0.0826962813735008,-0.0689896941184998,-0.0485743656754494
83,-0.0606994405388832,-0.0362465605139732,-0.0491761490702629,-0.0825748965144157,-0.062189619988203,-0.0473146103322506
84,-0.0601276084780693,-0.0329078882932663,-0.0476352758705616,-0.0836300849914551,-0.0581401698291302,-0.0447829142212868
85,-0.057630393654108,-0.0342683307826519,-0.0506414100527763,-0.0873070508241653,-0.0590094178915024,-0.0429572053253651
86,-0.0535462014377117,-0.0406017005443573,-0.0565993301570416,-0.0917574763298035,-0.0602120198309422,-0.0416657403111458
87,-0.0499744974076748,-0.0500542856752872,-0.0626078993082047,-0.0954404920339584,-0.0588226057589054,-0.0403955541551113
88,-0.0496379323303699,-0.0607776269316673,-0.0680466964840889,-0.0987207591533661,-0.0581842064857483,-0.0412457324564457
89,-0.052667424082756,-0.0717928931117058,-0.0737072378396988,-0.10279244184494,-0.062928169965744,-0.0472270250320435
90,-0.0567878000438213,-0.0819424241781235,-0.0794614627957344,-0.108110643923283,-0.0731794312596321,-0.057650201022625
91,-0.0578280389308929,-0.0881016403436661,-0.0821723118424416,-0.111325427889824,-0.0821204036474228,-0.0669287517666817
92,-0.0543041341006756,-0.0892197787761688,-0.0802070796489716,-0.109594456851482,-0.0840951129794121,-0.0706680715084076
93,-0.0493952035903931,-0.0877979546785355,-0.0761802867054939,-0.104805700480938,-0.0803236737847328,-0.0686490759253502
94,-0.0474534332752228,-0.0862799063324928,-0.0730497241020203,-0.100579425692558,-0.0746492370963097,-0.0635959804058075
95,-0.0504842102527618,-0.0852172076702118,-0.0718720406293869,-0.0990408807992935,-0.0701604932546616,-0.0583618022501469
96,-0.0572085939347744,-0.084284171462059,-0.0722178071737289,-0.100173346698284,-0.0675306543707848,-0.0539520047605038
97,-0.0642149597406387,-0.0835099294781685,-0.0726050734519959,-0.102009408175945,-0.0645697414875031,-0.051234032958746
98,-0.0676235482096672,-0.0836517363786697,-0.0719425454735756,-0.102587752044201,-0.059897068887949,-0.0516605563461781
99,-0.0658038333058357,-0.0846314802765846,-0.0694169476628304,-0.100929714739323,-0.0541162118315697,-0.0541254095733166
100,-0.0606733821332455,-0.0857575833797455,-0.0660159289836884,-0.097761258482933,-0.0489581860601902,-0.0564577914774418
101,-0.0547173358500004,-0.0870037376880646,-0.0656494572758675,-0.0957282111048698,-0.0475544705986977,-0.058846689760685
102,-0.0503066293895245,-0.0871445909142494,-0.0694570541381836,-0.095614917576313,-0.0519717894494534,-0.0610993765294552
103,-0.0506677255034447,-0.0851529166102409,-0.07406996935606,-0.0958683639764786,-0.0609002895653248,-0.0628543347120285
104,-0.0561116151511669,-0.0831922739744186,-0.0767035484313965,-0.095641553401947,-0.07056874781847,-0.0655568465590477
105,-0.0639759600162506,-0.0844833850860596,-0.0777805745601654,-0.0950890779495239,-0.0779227614402771,-0.0697556883096695
106,-0.0718015730381012,-0.0896215513348579,-0.0782108977437019,-0.0941223874688149,-0.0812309309840202,-0.0735322758555412
107,-0.0767371952533722,-0.0965025499463081,-0.0769956484436989,-0.0924595892429352,-0.0791493132710457,-0.0746862813830376
108,-0.0755282938480377,-0.102232381701469,-0.0728987753391266,-0.0896821022033691,-0.0724866911768913,-0.0720268189907074
109,-0.0685948133468628,-0.105223037302494,-0.0676062703132629,-0.0861187800765038,-0.0658434852957726,-0.066693440079689
110,-0.0592119246721268,-0.105229988694191,-0.064039021730423,-0.0824973583221436,-0.0630955025553703,-0.06142483279109
111,-0.0488409996032715,-0.10297641903162,-0.0626618564128876,-0.0787559822201729,-0.0636242181062698,-0.0576553270220757
112,-0.0392601303756237,-0.10117281973362,-0.0627785101532936,-0.0756001546978951,-0.0656304806470871,-0.0556428469717503
113,-0.033510185778141,-0.101701088249683,-0.0632795393466949,-0.0738885700702667,-0.0663443878293037,-0.0547886565327644
114,-0.032999474555254,-0.102709494531155,-0.0631590932607651,-0.073114387691021,-0.0641689747571945,-0.0540981814265251
115,-0.0377804525196552,-0.101862154901028,-0.0630564019083977,-0.0729008540511131,-0.0622786320745945,-0.0533113069832325
116,-0.0476552061736584,-0.100506342947483,-0.0630551278591156,-0.0740629583597183,-0.0617481395602226,-0.0534199848771095
117,-0.0611879527568817,-0.102013535797596,-0.0607741661369801,-0.076317273080349,-0.0581948682665825,-0.055852722376585
118,-0.0737233385443687,-0.106842562556267,-0.0535260885953903,-0.0767059326171875,-0.0482059419155121,-0.0608249679207802
119,-0.0808471068739891,-0.111678101122379,-0.043571624904871,-0.0731391683220863,-0.0351533256471157,-0.0672508776187897
120,-0.0829854309558868,-0.112742431461811,-0.037981178611517,-0.0666464120149612,-0.0272886250168085,-0.0724157094955444
121,-0.0831067487597466,-0.110068686306477,-0.041301816701889,-0.0604979544878006,-0.029050188139081,-0.0753612890839577
122,-0.0825754255056381,-0.106185756623745,-0.0506758317351341,-0.0567779876291752,-0.0369923859834671,-0.0775771513581276
123,-0.0819278284907341,-0.101981833577156,-0.0597318410873413,-0.0542626529932022,-0.0453202202916145,-0.0775693356990814
124,-0.0823775380849838,-0.0972268059849739,-0.0648986399173737,-0.0515737757086754,-0.0511365048587322,-0.0731969997286797
125,-0.0832158848643303,-0.0917769968509674,-0.065843753516674,-0.0484252609312534,-0.054049726575613,-0.066279299557209
126,-0.0829098373651505,-0.0873807668685913,-0.065156988799572,-0.0461167171597481,-0.0569536872208118,-0.0619679726660252
127,-0.0792790576815605,-0.08432736992836,-0.0635915696620941,-0.0447570271790028,-0.0616970248520374,-0.0617672763764858
128,-0.0713081806898117,-0.0796335265040398,-0.0591733679175377,-0.0424002036452293,-0.0662306174635887,-0.0609955377876759
129,-0.0625236257910728,-0.0744715705513954,-0.0549597814679146,-0.0413001962006092,-0.0709814205765724,-0.0585773028433323
130,-0.0552541241049767,-0.0730037838220596,-0.0563864149153233,-0.0448607876896858,-0.0783617272973061,-0.0569693110883236
131,-0.0490165576338768,-0.0742987245321274,-0.0623664781451225,-0.0503145381808281,-0.0855449289083481,-0.0541061945259571
132,-0.0449278876185417,-0.0748162865638733,-0.067537397146225,-0.0533136054873466,-0.0866547301411629,-0.0476818531751633
133,-0.0440688207745552,-0.0751529112458229,-0.0700123459100723,-0.05431117862463,-0.081884078681469,-0.0407683737576008
134,-0.0443953573703766,-0.0778583586215973,-0.0711658447980881,-0.0557587221264839,-0.0760720372200012,-0.0373870208859444
135,-0.0423936881124973,-0.0817708000540733,-0.0714829862117767,-0.0576203763484955,-0.0716032907366753,-0.0375372990965843
136,-0.0364987961947918,-0.0832472741603851,-0.0701093077659607,-0.0582193024456501,-0.0677996501326561,-0.038718868046999
137,-0.0299028735607862,-0.0814380124211311,-0.0673603117465973,-0.0570344403386116,-0.0647782012820244,-0.0396419912576675
138,-0.0262961350381374,-0.0767707973718643,-0.0637918636202812,-0.0534619390964508,-0.0631818249821663,-0.0384268574416637
139,-0.0238374508917332,-0.067549467086792,-0.0574475005269051,-0.0453554652631283,-0.0603335984051228,-0.031631238758564
140,-0.0193953420966864,-0.0533105880022049,-0.0472509302198887,-0.0323593728244305,-0.0536146238446236,-0.0191203560680151
141,-0.0132621116936207,-0.0378111712634563,-0.0368165299296379,-0.0180356502532959,-0.0447418466210365,-0.00442438758909702
142,-0.00630975887179375,-0.0267402064055204,-0.0310036763548851,-0.00724000250920653,-0.036676324903965,0.00863131042569876
143,0.00235267821699381,-0.022046335041523,-0.0303056947886944,-0.00200103898532689,-0.030437620356679,0.0171632412821054
144,0.0113680446520448,-0.0214907675981522,-0.0321427062153816,-0.00147690414451063,-0.0275199133902788,0.018951628357172
145,0.0145357716828585,-0.0235186461359262,-0.0355580188333988,-0.0045179664157331,-0.0303313564509153,0.0128105403855443
146,0.00868512410670519,-0.0263912584632635,-0.038766086101532,-0.00830804090946913,-0.0355793908238411,0.00236217956990004
147,-0.00151628023013473,-0.0267536472529173,-0.0375669561326504,-0.00859180372208357,-0.0354474522173405,-0.0042127687484026
148,-0.010151001624763,-0.0229923333972692,-0.0307254511862993,-0.00430900370702147,-0.0271578244864941,-0.00366692687384784
149,-0.0145010706037283,-0.0167327411472797,-0.0218778178095818,0.00108198646921664,-0.0160815175622702,-0.00152986310422421
150,-0.015850517898798,-0.0108750462532043,-0.0164077058434486,0.00321909505873919,-0.0105431107804179,-0.00376342004165053
151,-0.0176500733941793,-0.00717150839045644,-0.0172985810786486,-5.58296551389503E-06,-0.0144982179626822,-0.0119093237444758
152,-0.0200171936303377,-0.00547108799219131,-0.022267697378993,-0.00725604314357042,-0.0252295639365911,-0.0244264826178551
153,-0.019292339682579,-0.00511223962530494,-0.025845954194665,-0.0142474956810474,-0.0358069464564323,-0.0369402766227722
154,-0.0139296874403954,-0.00642518280074,-0.0255697909742594,-0.0175688061863184,-0.0408476553857327,-0.0451117232441902
155,-0.00591809488832951,-0.00882272608578205,-0.0226284191012383,-0.0166176874190569,-0.0397352688014507,-0.046513743698597
156,0.00238282489590347,-0.00942754931747913,-0.0181366838514805,-0.0121888415887952,-0.0341899842023849,-0.0397202707827091
157,0.00965946353971958,-0.00614363001659513,-0.0133523307740688,-0.00635798182338476,-0.0260586179792881,-0.0277450755238533
158,0.0144522525370121,-0.00126928230747581,-0.0114745628088713,-0.00366725563071668,-0.018514784052968,-0.0196718834340572
159,0.015224339440465,0.0010404356289655,-0.0149869844317436,-0.00740113249048591,-0.0156500246375799,-0.0218512788414955
160,0.0148991737514734,0.0014536272501573,-0.0208785682916641,-0.0144608737900853,-0.0166944190859795,-0.0308593139052391
161,0.0188307240605354,0.00288394466042519,-0.0249738600105047,-0.0212314426898956,-0.0181067939847708,-0.0410351194441319
162,0.0287782549858093,0.00585501547902822,-0.0259256325662136,-0.0273391213268042,-0.0182767491787672,-0.0500496104359627
163,0.0418462492525578,0.0105075221508741,-0.021820705384016,-0.030768021941185,-0.0153621109202504,-0.055449865758419
164,0.0522389076650143,0.0161670707166195,-0.0114996414631605,-0.0290679987519979,-0.00881277397274971,-0.0557208508253098
165,0.0558939464390278,0.0197651349008083,0.00210834806784987,-0.0234052166342735,-0.00149344303645194,-0.0529999360442162
166,0.0527006275951862,0.0171965137124062,0.0122384866699576,-0.0188648775219917,0.00114543235395104,-0.0519041493535042
167,0.0467193648219109,0.00874836929142475,0.0138549357652664,-0.0188470017164946,-0.00383281405083835,-0.0547722578048706
168,0.0442987009882927,0.00139855360612273,0.00985742546617985,-0.0197599604725838,-0.0116860428825021,-0.0583787113428116
169,0.0464061610400677,-0.000504081952385604,0.00561243994161487,-0.0182809084653854,-0.017444746568799,-0.0598820857703686
170,0.047877985984087,-0.000453853630460799,0.00166028132662177,-0.0166680905967951,-0.0220435336232185,-0.0606969855725765
171,0.0457733310759068,-0.00319266668520868,-0.00346955819986761,-0.0173190664499998,-0.0270729120820761,-0.061820849776268
172,0.0413805283606052,-0.00952822901308537,-0.00958930980414152,-0.0201486498117447,-0.0325353741645813,-0.06255953758955
173,0.0374330691993237,-0.0162470173090696,-0.0146569050848484,-0.0230907499790192,-0.0381889566779137,-0.0618205033242702
174,0.0366762802004814,-0.0197396595031023,-0.0163431484252214,-0.0236997995525599,-0.0430524274706841,-0.0590063109993935
175,0.0386831536889076,-0.0200003255158663,-0.0149899497628212,-0.0223521199077368,-0.0464046113193035,-0.0558228306472301
176,0.040680218487978,-0.0185508038848639,-0.0127576552331448,-0.0208216030150652,-0.0478941649198532,-0.053712472319603
177,0.0414879024028778,-0.0156922545284033,-0.010734367184341,-0.0199226625263691,-0.046726506203413,-0.0514671467244625
178,0.0410978756844997,-0.011688350699842,-0.00899037439376116,-0.0201303418725729,-0.0426953472197056,-0.0475107654929161
179,0.0411609821021557,-0.00667336164042354,-0.00627405848354101,-0.0202743373811245,-0.035585779696703,-0.0412402115762234
180,0.0445364117622375,-0.000870687188580632,-0.000955569441430271,-0.0179352778941393,-0.0259238854050636,-0.0326247736811638
181,0.0498378276824951,0.00354552711360157,0.00497366348281503,-0.0136954449117184,-0.0178485903888941,-0.0240419320762157
182,0.0527249202132225,0.00425754953175783,0.00722655188292265,-0.0109802009537816,-0.0156602095812559,-0.0203959569334984
183,0.0528080128133297,0.0021264748647809,0.00500550214201212,-0.0115565471351147,-0.0183408074080944,-0.0231619700789452
184,0.0525684393942356,-0.00059676548698917,0.000823296082671732,-0.0148208728060126,-0.0221565365791321,-0.0280013661831617
185,0.0534540601074696,-0.00306143146008253,-0.00246798084117472,-0.0186598915606737,-0.0241073872894049,-0.0300625450909138
186,0.0540166310966015,-0.00586336478590965,-0.004004315007478,-0.0211961064487696,-0.0228769797831774,-0.0301479436457157
187,0.0516395829617977,-0.00882950518280268,-0.00470975181087852,-0.0217711143195629,-0.0186687167733908,-0.031633697450161
188,0.0493168830871582,-0.00895569566637278,-0.00342529150657356,-0.0185191947966814,-0.0110006630420685,-0.0331269092857838
189,0.0528225749731064,-0.00438816845417023,0.000922505452763289,-0.0106755457818508,-0.00165671820286661,-0.032528355717659
190,0.0611485540866852,0.00206148880533874,0.00608807429671288,-0.00119160080794245,0.00383616541512311,-0.0318307802081108
191,0.0694411545991898,0.00722923362627625,0.010564143769443,0.00753851281479001,0.00307049928233027,-0.0317392200231552
192,0.0775038450956345,0.0109518831595778,0.0149010261520743,0.0159498266875744,-0.000954183575231582,-0.0296088960021734
193,0.0862852483987808,0.0139076244086027,0.0191424731165171,0.025093087926507,-0.00401489902287722,-0.0245568752288818
194,0.0917058661580086,0.0164866577833891,0.0237340945750475,0.0354730412364006,-0.00259270658716559,-0.0178409907966852
195,0.0909211859107018,0.0189695134758949,0.0297826305031776,0.0463007241487503,0.00376098207198083,-0.0104685174301267
196,0.0865414142608643,0.0209794342517853,0.0368003062903881,0.0552570484578609,0.0107915448024869,-0.00477748177945614
197,0.0818069279193878,0.0208509583026171,0.0424564592540264,0.0595030523836613,0.0139069790020585,-0.00415349053218961
198,0.0800751745700836,0.0176990162581205,0.0459892861545086,0.0587471164762974,0.0138244340196252,-0.00819673761725426
199,0.0839697569608688,0.0139519963413477,0.0494111441075802,0.0569675341248512,0.0153373051434755,-0.0118288081139326
200,0.0897360071539879,0.0108538512140512,0.0519328340888023,0.0565151982009411,0.0194187182933092,-0.0125445490702987
201,0.0915711224079132,0.00689900619909167,0.0505980625748634,0.0560747534036636,0.02339749597013,-0.0117019573226571
202,0.0905378609895706,0.00355977076105773,0.0476508103311062,0.0567667819559574,0.0282312631607056,-0.0073176296427846
203,0.089593768119812,0.00312427990138531,0.0466926246881485,0.0599575378000736,0.0346592850983143,0.00243618641979992
204,0.0903212577104568,0.00569794559851289,0.0485440008342266,0.0643221810460091,0.0412992760539055,0.0140033280476928
205,0.0951731130480766,0.0109990024939179,0.0535691678524017,0.0697818621993065,0.0491630025207996,0.0244368202984333
206,0.102961592376232,0.017207957804203,0.0603136569261551,0.0769406706094742,0.0583239197731018,0.0344389453530312
207,0.110282920300961,0.022600319236517,0.0666797012090683,0.0851734355092049,0.0669725090265274,0.0454916916787624
208,0.114318057894707,0.0261238198727369,0.07072414457798,0.0915628001093864,0.0723647549748421,0.0556984953582287
209,0.112118907272816,0.0265053771436214,0.0709449723362923,0.0932820290327072,0.0719548687338829,0.060918316245079
210,0.105811223387718,0.0262013003230095,0.0703748762607574,0.0935246720910072,0.0686534345149994,0.0624907985329628
211,0.100563243031502,0.0284966882318258,0.07264494150877,0.0963972061872482,0.0675391107797623,0.0643849894404411
212,0.0957634672522545,0.0309916790574789,0.0745789632201195,0.0990551933646202,0.0682197585701942,0.0649410486221313
213,0.0897605419158936,0.0312477517873049,0.0718692094087601,0.0979970619082451,0.0686120167374611,0.0619594752788544
214,0.0852300003170967,0.0307017881423235,0.0655187293887138,0.0940864607691765,0.0687095671892166,0.0570678077638149
215,0.0830743238329887,0.0309924986213446,0.0592908374965191,0.0900799185037613,0.0683349445462227,0.0528513789176941
216,0.080815963447094,0.033837154507637,0.0575388818979263,0.0896283090114594,0.0687612295150757,0.0519735403358936
217,0.0762529745697975,0.0391260869801044,0.0609019100666046,0.0929097309708595,0.0706052780151367,0.0537958890199661
218,0.0679559707641602,0.0435088947415352,0.0643278807401657,0.0951215922832489,0.0704448968172073,0.0538110844790936
219,0.0569646209478378,0.045317430049181,0.0645405054092407,0.0937063321471214,0.0662988945841789,0.0501134097576141
220,0.0479983054101467,0.0462617464363575,0.0629997476935387,0.0907974168658257,0.0602651163935661,0.0451137870550156
221,0.0450340658426285,0.0480666756629944,0.061386127024889,0.0887993276119232,0.0556373111903667,0.0415418148040771
222,0.0490539111196995,0.0503604598343372,0.0595408640801907,0.0879289731383324,0.054571483284235,0.0399776771664619
223,0.058467298746109,0.0514897927641869,0.056605838239193,0.0872744247317314,0.056365605443716,0.0389245674014091
224,0.0675422847270966,0.0513746552169323,0.0538970418274403,0.0871467739343643,0.0592963770031929,0.0371970161795616
225,0.0702709630131722,0.0512090474367142,0.0540359765291214,0.0881042331457138,0.0624691322445869,0.034646600484848
226,0.0669242814183235,0.0512223728001118,0.0564554631710052,0.0894479602575302,0.065705843269825,0.0314482264220715
227,0.0606068186461926,0.0497425124049187,0.0570932701230049,0.08919657766819,0.0680656805634499,0.0270512811839581
228,0.0531875528395176,0.0455164536833763,0.0533012375235558,0.0854761153459549,0.0669929683208466,0.0209955852478743
229,0.0478472970426083,0.0405571088194847,0.0471194684505463,0.0799247696995735,0.0616220496594906,0.015864921733737
230,0.0465516820549965,0.0351999141275883,0.040570255368948,0.0746753066778183,0.0534180514514446,0.0127423014491796
231,0.0484997853636742,0.027508681640029,0.033817183226347,0.0699183568358421,0.0445729419589043,0.00966343376785517
232,0.0536342710256577,0.019462276250124,0.0293416809290648,0.0672476887702942,0.0379454381763935,0.00744385831058025
233,0.0604184716939926,0.0144526166841388,0.0284252017736435,0.0674163326621056,0.0341379344463348,0.0083973091095686
234,0.0647642463445663,0.0129024786874652,0.0276275277137756,0.0681037604808807,0.0310964323580265,0.0124911060556769
235,0.0644888505339623,0.0138943372294307,0.0239046160131693,0.0672775954008102,0.0289007350802422,0.0175551045686007
236,0.0610456727445126,0.0171709004789591,0.0183887984603643,0.0655607059597969,0.0295614283531904,0.0210596285760403
237,0.0571851246058941,0.0221393276005983,0.0134204681962729,0.0642561465501785,0.0317878238856792,0.0202873479574919
238,0.0551763437688351,0.0278727803379297,0.00994900241494179,0.0635387077927589,0.0327291637659073,0.0142802381888032
239,0.0567021332681179,0.0347712188959122,0.00920416973531246,0.0643365979194641,0.0330682173371315,0.00650602066889405
240,0.0605558454990387,0.0419296212494373,0.0109292408451438,0.0670897662639618,0.0345311090350151,0.000199651141883805
241,0.0629035905003548,0.045909620821476,0.0115027157589793,0.069712869822979,0.0366168953478336,-0.00523779774084687
242,0.0631104335188866,0.0455792024731636,0.00902211386710405,0.0708496868610382,0.0387243740260601,-0.0103025482967496
243,0.0650337561964989,0.0438255332410336,0.00594454258680344,0.0715840086340904,0.0425980128347874,-0.0131274200975895
244,0.0709394216537476,0.0436836965382099,0.00490109389647841,0.0733247920870781,0.0492583774030209,-0.012348317541182
245,0.0771927013993263,0.044449545443058,0.00534075731411576,0.0753333568572998,0.0549815706908703,-0.0100235044956207
246,0.078205443918705,0.0423190966248512,0.00566171621903777,0.074602372944355,0.0559709854424,-0.0107651967555285
247,0.0747649520635605,0.0365040078759193,0.00803892314434052,0.0705004408955574,0.0552900917828083,-0.0159695651382208
248,0.0716570541262627,0.0300718136131763,0.0151560474187136,0.0659330189228058,0.0571849048137665,-0.0222152359783649
249,0.0686719045042992,0.0247602723538876,0.0236741658300161,0.0636845454573631,0.0580512098968029,-0.0250704325735569
250,0.0641244500875473,0.0218769907951355,0.0279829613864422,0.0652007013559341,0.052265327423811,-0.0199123751372099
251,0.0606054775416851,0.0235140509903431,0.0271838754415512,0.0700021162629128,0.0413864552974701,-0.00500011164695024
252,0.060309361666441,0.0285976808518171,0.0241334270685911,0.0752217993140221,0.0307423286139965,0.0145448120310903
253,0.0617456547915936,0.0338606350123882,0.0204650778323412,0.0778819546103477,0.0228984467685223,0.0315700769424438
254,0.0635752826929092,0.0390217453241348,0.017362404614687,0.0782394856214523,0.0189377814531326,0.0440350137650967
255,0.0648055821657181,0.043524943292141,0.0152963092550635,0.0769727528095245,0.0181741286069155,0.0513869859278202
256,0.0639613717794418,0.0433653369545937,0.011794519610703,0.0721190720796585,0.0164644606411457,0.0506406500935555
257,0.0606611631810665,0.0376618690788746,0.00538723403587937,0.0635693147778511,0.0104815037921071,0.0428831093013287
258,0.0533622950315475,0.0294193383306265,-0.00251385546289384,0.0536856912076473,0.000559914973564446,0.0338113345205784
259,0.043026152998209,0.0222599152475595,-0.007715729996562,0.0457125306129456,-0.00812004785984755,0.0285369604825974
260,0.0341262966394424,0.0187274962663651,-0.00629624864086509,0.0427297987043858,-0.0105826770886779,0.0290540177375078
261,0.0273711476475,0.0175966825336218,-0.000495823274832219,0.0435692556202412,-0.00938829220831394,0.0330138765275478
262,0.0213809702545404,0.0180201716721058,0.0056251734495163,0.0456690862774849,-0.00818020198494196,0.0389257594943047
263,0.0155624579638243,0.0208232179284096,0.0106932213529944,0.0480463355779648,-0.00664502801373601,0.0470530986785889
264,0.00916756596416235,0.0240755192935467,0.012710495851934,0.0485729351639748,-0.00597003661096096,0.0544116534292698
265,0.00205565174110234,0.0250579547137022,0.00854574237018824,0.0451598018407822,-0.00999682582914829,0.057727936655283
266,-0.00349561148323119,0.024549338966608,-0.000675362593028694,0.0390217565000057,-0.0179797410964966,0.0572636760771275
267,-0.00432083196938038,0.0237521193921566,-0.00923440791666508,0.0321694687008858,-0.0242423266172409,0.0526593662798405
268,-0.00204748380929232,0.0210693832486868,-0.0139487739652395,0.0251021739095449,-0.0274496264755726,0.0434088557958603
269,-0.00120387098286301,0.0169401932507753,-0.0138258524239063,0.0204376615583897,-0.0290459115058184,0.034723624587059
270,-0.00321153132244945,0.014348660595715,-0.00800686981528997,0.0214415639638901,-0.0281434394419193,0.0326367020606995
271,-0.00736224045976996,0.0144387753680348,0.00100635993294418,0.0273832622915506,-0.0247477032244205,0.0371858589351177
272,-0.0134252365678549,0.0162206552922726,0.00874656718224287,0.033903531730175,-0.0206016395241022,0.0439068414270878
273,-0.021274708211422,0.0173909738659859,0.0120128886774182,0.0357470810413361,-0.0186374373733997,0.0471283830702305
274,-0.0300390105694532,0.0160820782184601,0.0101647367700934,0.0307121779769659,-0.0219273455440998,0.0437719561159611
275,-0.0369800254702568,0.0133845908567309,0.00656667118892074,0.0218288134783506,-0.0288093164563179,0.0359529815614223
276,-0.0374487675726414,0.0130071053281426,0.00676801521331072,0.0153965670615435,-0.0327061377465725,0.0294716469943523
277,-0.0295910984277725,0.0166646279394627,0.0124470526352525,0.0151624521240592,-0.0300569292157888,0.0280602052807808
278,-0.0184127185493708,0.0208611991256475,0.0187154244631529,0.0185796488076448,-0.024668775498867,0.0298475231975317
279,-0.0106603186577559,0.0215025525540113,0.0194795578718185,0.0210532788187265,-0.0214461088180542,0.0314435176551342
280,-0.00890425313264132,0.018379520624876,0.0130092604085803,0.0201651863753796,-0.0214199833571911,0.0307207703590393
281,-0.0114632993936539,0.0146592129021883,0.00262953410856426,0.0167637895792723,-0.0234273392707109,0.0275445021688938
282,-0.0141094233840704,0.0143715795129538,-0.006303945556283,0.0145859010517597,-0.0254824832081795,0.0256862994283438
283,-0.0147234313189983,0.0168936438858509,-0.0118799181655049,0.0153024671599269,-0.026557270437479,0.0282667949795723
284,-0.0118629988282919,0.017672935500741,-0.0149213783442974,0.0174063593149185,-0.0264680907130241,0.0336316749453545
285,-0.0025902334600687,0.0162581838667393,-0.015077299438417,0.0202878043055534,-0.0243610050529242,0.0391027294099331
286,0.00896503683179617,0.0160479843616486,-0.0125055378302932,0.0236352924257517,-0.0201996732503176,0.0434924550354481
287,0.0132183078676462,0.0172509290277958,-0.00963821448385715,0.0253472235053778,-0.0161151643842459,0.0456600226461887
288,0.00688811764121056,0.0165631119161844,-0.00970706343650818,0.0232055094093084,-0.0155025012791157,0.0438001900911331
289,-0.005705201998353,0.0128872832283378,-0.0133852818980813,0.0178204234689474,-0.0190288070589304,0.036666177213192
290,-0.0183793064206839,0.00858091283589602,-0.0184586215764284,0.0121079655364156,-0.0235363189131022,0.0252338517457247
291,-0.0257437415421009,0.00695486646145582,-0.0220221746712923,0.0089516481384635,-0.025382149964571,0.013650543987751
292,-0.0254792384803295,0.00960949715226889,-0.0222378466278315,0.00967647042125463,-0.0234583560377359,0.00676157465204597
293,-0.0199551228433847,0.0147365741431713,-0.0200441107153893,0.0133522106334567,-0.0205074269324541,0.00633475836366415
294,-0.0145628796890378,0.0189554169774055,-0.0180597752332687,0.0173434801399708,-0.020562220364809,0.00997985992580652
295,-0.0140236895531416,0.0199797954410315,-0.0184661373496056,0.0186574272811413,-0.0254437383264303,0.0128744430840015
296,-0.0184852872043848,0.0178353004157543,-0.0216398220509291,0.016474012285471,-0.0337037146091461,0.0117723513394594
297,-0.0254140123724937,0.0146611398085952,-0.0253959503024817,0.0127255311235785,-0.0416786409914494,0.007838468067348
298,-0.0315394103527069,0.0134870084002614,-0.0267852656543255,0.00936362612992525,-0.0455456376075745,0.00493447994813323
299,-0.0336696244776249,0.0151625974103808,-0.0257538147270679,0.0062106535769999,-0.0446397885680199,0.0041471729055047
300,-0.0327275767922401,0.0169039238244295,-0.0242004785686731,0.00192172836977988,-0.0415599755942822,0.00232930318452418
301,-0.033525638282299,0.0154115725308657,-0.0228356849402189,-0.00422547152265906,-0.0390869043767452,-0.00307887978851795
302,-0.037341270595789,0.0105580296367407,-0.0213638786226511,-0.0105918888002634,-0.0380065031349659,-0.0102476058527827
303,-0.0405974984169006,0.00400518905371428,-0.020078469067812,-0.0152186583727598,-0.0384345278143883,-0.0161497443914413
304,-0.0413730405271053,-0.00313870119862258,-0.0197124741971493,-0.0185973327606916,-0.0418245941400528,-0.0202730242162943
305,-0.0379666350781918,-0.0079437056556344,-0.0182426124811172,-0.0196905676275492,-0.0460406057536602,-0.02141447737813
306,-0.0301809627562761,-0.00818394683301449,-0.0139582380652428,-0.0169194936752319,-0.0474663339555264,-0.01791618950665
307,-0.0221925098448992,-0.00542861921712756,-0.00929858442395926,-0.0120663717389107,-0.0467617511749268,-0.0106296939775348
308,-0.0152621949091554,-0.00118331389967352,-0.00653889728710055,-0.00733597064390779,-0.0449556559324265,-0.00294905039481819
309,-0.00657707871869206,0.00420509278774261,-0.00508963735774159,-0.00329820578917861,-0.0414881110191345,0.000887310190591961
310,0.00634886417537928,0.00925496406853199,-0.00294306874275208,0.000672200869303197,-0.0352248325943947,0.000100030745670665
311,0.021775608882308,0.0105114923790097,-0.000311384297674522,0.00428715627640486,-0.0272603221237659,-0.00363754248246551
312,0.0341374687850475,0.00751496199518442,0.00267509464174509,0.00722857937216759,-0.0206278022378683,-0.00764529639855027
313,0.0411566235125065,0.00530521105974913,0.00961545202881098,0.0114499377086759,-0.0162722766399384,-0.00827258359640837
314,0.0433981381356716,0.00649559684097767,0.0201486349105835,0.0168724320828915,-0.0153971053659916,-0.00555221969261765
315,0.0411812141537666,0.00944721512496471,0.0277448911219835,0.0206558592617512,-0.01829544454813,-0.00235611712560058
316,0.0360526368021965,0.01249332819134,0.0283675733953714,0.0212036892771721,-0.0210099313408136,-0.000605862238444388
317,0.0282278787344694,0.0130616445094347,0.022851912304759,0.0175556000322104,-0.0222703516483307,-0.00147950346581638
318,0.0185415633022785,0.0104794427752495,0.0152483219280839,0.010755218565464,-0.0247159712016582,-0.00343289156444371
319,0.0123137924820185,0.00810631830245256,0.0107776820659637,0.00476932246237993,-0.0276416763663292,-0.0031247166916728
320,0.0134470043703914,0.00850602053105831,0.0112679488956928,0.00208286964334548,-0.0284416377544403,0.000236252992181107
321,0.0208490807563066,0.0115970680490136,0.0148043055087328,0.00244087213650346,-0.0266829151660204,0.00521948048844934
322,0.0312280096113682,0.014925048686564,0.018335958942771,0.00374525762163103,-0.023599948734045,0.00887842942029238
323,0.0389542616903782,0.0150654902681708,0.0192637834697962,0.0033897350076586,-0.0213541146367788,0.00777993910014629
324,0.0380059219896793,0.0115740559995174,0.0172521397471428,0.00084335298743099,-0.0210020877420902,0.00222937413491309
325,0.0290961898863316,0.00667916052043438,0.0142651293426752,-0.00233170296996832,-0.0203261766582727,-0.00280588702298701
326,0.0160500090569258,0.000896151119377464,0.0110466554760933,-0.00541963893920183,-0.0177581328898668,-0.00420049158856273
327,-0.000215398249565624,-0.00715252570807934,0.00608874717727304,-0.0098510030657053,-0.0162271112203598,-0.00526461517438293
328,-0.0162333380430937,-0.016279948875308,-0.000503925082739443,-0.0158141758292913,-0.0183940138667822,-0.00977747421711683
329,-0.0264000948518515,-0.0227949321269989,-0.00630046147853136,-0.0209705270826817,-0.022202305495739,-0.0165856536477804
330,-0.0292469915002584,-0.0249908231198788,-0.00993211008608341,-0.0238609295338392,-0.0239142403006554,-0.023043492808938
331,-0.0264854412525892,-0.0244472734630108,-0.012470368295908,-0.0257845502346754,-0.0221777986735106,-0.0282144472002983
332,-0.0203078761696815,-0.0242119580507278,-0.015272262506187,-0.02891556173563,-0.0184094663709402,-0.032715518027544
333,-0.0121960742399096,-0.0254623871296644,-0.0176022462546825,-0.0324353761970997,-0.0148010291159153,-0.0365137606859207
334,-0.00284468196332455,-0.0269924309104681,-0.0181422587484121,-0.0337579473853111,-0.013145656324923,-0.0385754704475403
335,0.00678499974310398,-0.0274752955883741,-0.0167288444936275,-0.0322457551956177,-0.0139214368537068,-0.039196390658617
336,0.0141920140013099,-0.026536850258708,-0.0140811894088984,-0.0288813374936581,-0.0159495286643505,-0.0393950454890728
337,0.0179377812892199,-0.0237811375409365,-0.0106856329366565,-0.0240340884774923,-0.0169656202197075,-0.0383445098996162
338,0.020476870238781,-0.0192524883896112,-0.00712518813088536,-0.0184063967317343,-0.0153182335197926,-0.035458642989397
339,0.0245128702372313,-0.0150064881891012,-0.00528442347422242,-0.0148052833974361,-0.0124240657314658,-0.0331037417054176
340,0.0296387914568186,-0.0123837869614363,-0.00683532655239105,-0.0151696810498834,-0.0116477543488145,-0.0335712023079395
341,0.0329495891928673,-0.0105852270498872,-0.0117272650822997,-0.018827835097909,-0.0150724966078997,-0.0372177213430405
342,0.0354820229113102,-0.00757465325295925,-0.0164789073169231,-0.0223753061145544,-0.0197205021977425,-0.0414585471153259
343,0.0401175320148468,-0.00378199340775609,-0.0180360544472933,-0.0234694946557283,-0.0210787765681744,-0.0437285453081131
344,0.0436569452285767,-0.002452134154737,-0.0171503257006407,-0.0232756938785315,-0.0185101795941591,-0.0444067977368832
345,0.0420365110039711,-0.00425144331529737,-0.0150323528796434,-0.0228287782520056,-0.01321024261415,-0.0438063554465771
346,0.0358335971832275,-0.00725207105278969,-0.0125922532752156,-0.0221551526337862,-0.00626663817092776,-0.0416979268193245
347,0.029135674238205,-0.00893182028084993,-0.00983748398721218,-0.0201762858778238,0.00272240815684199,-0.0377735085785389
348,0.0248892568051815,-0.00890657119452953,-0.00688055763021111,-0.0169367231428623,0.0139828426763415,-0.033609751611948
349,0.0230776909738779,-0.00951482262462378,-0.00350090069696307,-0.013710374943912,0.0269537847489119,-0.0317692384123802
350,0.0224310979247093,-0.0124811660498381,0.00216573267243803,-0.0104540614411235,0.0402747839689255,-0.03255370631814
351,0.0202815514057875,-0.0174959655851126,0.010264297015965,-0.00699931709095836,0.0499118901789188,-0.0350259430706501
352,0.0142981596291065,-0.0226262230426073,0.0169785004109144,-0.00403946824371815,0.0503901652991772,-0.0373701266944408
353,0.00520443450659513,-0.0253650154918432,0.0169195178896189,-0.00281904847361147,0.0379649512469769,-0.0374052561819553
354,-0.00304320408031344,-0.0247870665043592,0.00891989935189486,-0.00441487552598119,0.0158098582178354,-0.0350185967981815
355,-0.00609497725963593,-0.0221188273280859,-0.00259440531954169,-0.00891754124313593,-0.00627148058265448,-0.0316785722970963
356,-0.00173501519020647,-0.0169796366244555,-0.0108045358210802,-0.0136524941772223,-0.0190173983573914,-0.0268590040504932
357,0.00784798711538315,-0.00802021659910679,-0.0114336991682649,-0.0148963956162333,-0.0208942927420139,-0.0190326049923897
358,0.0165772251784801,0.0025492268614471,-0.00673071295022964,-0.0130705125629902,-0.0180128142237663,-0.00977994594722986
359,0.0194206219166517,0.0101918056607246,-0.00224042916670442,-0.0125034023076296,-0.0165852829813957,-0.00327892578206956
360,0.0159033723175526,0.0128166796639562,-0.000398167496314272,-0.0156336929649115,-0.0177528485655785,-0.00143627950455993
361,0.010559743270278,0.0127924215048552,0.00103712372947484,-0.0200579799711704,-0.0179945379495621,-0.00174037204124033
362,0.0087368031963706,0.0135348765179515,0.00460070138797164,-0.0224110707640648,-0.0147719755768776,-0.000604588014539331
363,0.0106475343927741,0.015327756293118,0.00911639630794525,-0.0230410695075989,-0.0110247144475579,0.00275068241171539
364,0.0133000202476978,0.0179295279085636,0.0132357608526945,-0.0226514134556055,-0.00970999617129564,0.00830825697630644
365,0.0146499602124095,0.0217525288462639,0.0176780857145786,-0.0197722259908915,-0.0101798996329308,0.0170824769884348
366,0.0127307148650289,0.0238818246871233,0.0212343167513609,-0.0159142110496759,-0.0129196895286441,0.0269834790378809
367,0.00732232118025422,0.0219059884548187,0.0225283224135637,-0.0142010888084769,-0.0188387427479029,0.0343497768044472
368,0.00173922837711871,0.0186556521803141,0.0228271521627903,-0.0139466160908341,-0.0266033448278904,0.0390928871929646
369,-0.00249324552714825,0.0159347783774138,0.0223710425198078,-0.0142593579366803,-0.0348985157907009,0.0411445312201977
370,-0.00877510849386454,0.0112477755174041,0.0194419585168362,-0.0169021096080542,-0.044126708060503,0.038612212985754
371,-0.0189429242163897,0.00475633284077048,0.0148630905896425,-0.0212071910500526,-0.0541653372347355,0.0339813753962517
372,-0.0291528925299644,-0.000320210412610322,0.0112867401912808,-0.0242983512580395,-0.063220426440239,0.0319410264492035
373,-0.0351530835032463,-0.00386827019974589,0.00867848191410303,-0.0259257908910513,-0.0710938572883606,0.0321795381605625
374,-0.038225531578064,-0.00698710745200515,0.00698030693456531,-0.0271009113639593,-0.077574111521244,0.03223667293787
375,-0.04271449893713,-0.00797256734222174,0.00843092985451221,-0.0271890312433243,-0.0792557150125504,0.0328576788306236
376,-0.049503393471241,-0.00627202494069934,0.0122902384027839,-0.0260312408208847,-0.0751544907689095,0.0349633172154427
377,-0.0537551455199718,-0.0045079686678946,0.015270821750164,-0.0249634459614754,-0.0695243403315544,0.0369338393211365
378,-0.0498516634106636,-0.00340938661247492,0.0175949204713106,-0.0239473711699247,-0.0661302506923676,0.0386673733592033
379,-0.0405570454895496,-0.00129887531511486,0.0208850186318159,-0.0222928039729595,-0.0654686391353607,0.0417513214051723
380,-0.0343541093170643,0.00127295858692378,0.023253969848156,-0.0206101648509502,-0.0673894062638283,0.0457731187343597
381,-0.0350822284817696,0.000886389112565666,0.0210437513887882,-0.0195916313678026,-0.0727447345852852,0.0487331338226795
382,-0.0409098118543625,-0.0049019530415535,0.0138790495693684,-0.0190675295889378,-0.080695204436779,0.0492589250206947
383,-0.0485624447464943,-0.0150337014347315,0.00439556920900941,-0.0187586359679699,-0.088699147105217,0.04742830991745
384,-0.0548708066344261,-0.0260347854346037,-0.00440616440027952,-0.0187638141214848,-0.0943856090307236,0.0447165705263615
385,-0.0574142187833786,-0.0342959687113762,-0.00925185810774565,-0.0184518806636333,-0.0950208380818367,0.0432502627372742
386,-0.0561279803514481,-0.0381837524473667,-0.0085954163223505,-0.0163199994713068,-0.0894738584756851,0.0448089800775051
387,-0.052682813256979,-0.0387384667992592,-0.00374354189261794,-0.0114638544619083,-0.0801253318786621,0.0505378134548664
388,-0.0484235882759094,-0.0378153920173645,0.00315699237398803,-0.00403729872778058,-0.0715937539935112,0.0604226291179657
389,-0.042602427303791,-0.0353617183864117,0.011392567306757,0.00566365150734782,-0.0657594725489616,0.0730467587709427
390,-0.0333352163434029,-0.0306271705776453,0.0211153607815504,0.0167132671922445,-0.0606378838419914,0.085520014166832
391,-0.0223296005278826,-0.0267884768545628,0.0296498201787472,0.0251811686903238,-0.0567144975066185,0.0923744067549706
392,-0.014703843742609,-0.028260862454772,0.0331377573311329,0.0267525408416986,-0.056976817548275,0.0892907157540321
393,-0.0129959965124726,-0.0339958518743515,0.0317499376833439,0.0221249125897884,-0.0617138221859932,0.0790234804153442
394,-0.0155139472335577,-0.0395084097981453,0.0286446958780289,0.0154975950717926,-0.068474106490612,0.0681777372956276
395,-0.0193404667079449,-0.0429984405636787,0.0260327085852623,0.00945595558732748,-0.0748848542571068,0.0600313469767571
396,-0.0226231403648853,-0.0450121015310287,0.0245828479528427,0.00460752984508872,-0.0805508270859718,0.0551734119653702
397,-0.0253270212560892,-0.0448393896222115,0.0250384770333767,0.00197874451987445,-0.0857722610235214,0.0545536205172539
398,-0.0277356076985598,-0.0415955521166325,0.0284734424203634,0.0024738407228142,-0.0883708968758583,0.0579376444220543
399,-0.0294415261596441,-0.0371171794831753,0.0335225500166416,0.00452948547899723,-0.0868366286158562,0.0618186295032501
400,-0.028925521299243,-0.033958662301302,0.0364845357835293,0.00519560929387808,-0.0840864926576614,0.0621569342911243
401,-0.0238114930689335,-0.0324758999049664,0.0350129269063473,0.00298063503578305,-0.0836969763040543,0.0585053078830242
402,-0.0173106975853443,-0.0321196243166924,0.0285934545099735,-0.00217792182229459,-0.0869040414690971,0.0517324842512608
403,-0.0173307042568922,-0.0326095670461655,0.0187771506607533,-0.00876618921756744,-0.0919036716222763,0.0416502133011818
404,-0.0238980501890183,-0.0331904105842113,0.00987216085195541,-0.0138928228989244,-0.0948549062013626,0.0298597179353237
405,-0.0301744528114796,-0.0322944931685925,0.00653606839478016,-0.0154640441760421,-0.0940777584910393,0.0208786334842443
406,-0.0340510681271553,-0.0293449368327856,0.00911218672990799,-0.0138339186087251,-0.0919643193483353,0.018021771684289
407,-0.0367398038506508,-0.02488305978477,0.0136038055643439,-0.0100601352751255,-0.0907275900244713,0.0205818396061659
408,-0.0370771363377571,-0.0184945147484541,0.0174727309495211,-0.00378013774752617,-0.0887263938784599,0.0259796138852835
409,-0.034142654389143,-0.0100940633565187,0.0208135992288589,0.00445932382717729,-0.0839104577898979,0.0325549244880676
410,-0.0285981297492981,-0.00141223624814302,0.0244438666850328,0.0128700593486428,-0.0758522525429726,0.0401872731745243
411,-0.0230815038084984,0.00452949106693268,0.0282646380364895,0.0193185303360224,-0.0654600113630295,0.0468914993107319
412,-0.0226498693227768,0.00531127257272601,0.0301158633083105,0.0211013369262218,-0.0559773407876492,0.0486181639134884
413,-0.0283762700855732,0.00250450382009149,0.0295500382781029,0.018636342138052,-0.0491849891841412,0.0452020391821861
414,-0.0359543077647686,-0.000215299485716969,0.0285420920699835,0.0151712242513895,-0.0437087453901768,0.0394332595169544
415,-0.0427960716187954,-0.00147482519969344,0.0269918087869883,0.0115723358467221,-0.0394803024828434,0.032560583204031
416,-0.0483700335025787,-0.000172040599863976,0.0250219069421291,0.00811707228422165,-0.0368421375751495,0.0271921511739492
417,-0.0519602559506893,0.00403402512893081,0.0248614884912968,0.00611116411164403,-0.0347563251852989,0.026450889185071
418,-0.054538082331419,0.00770384073257446,0.0264248289167881,0.00510829593986273,-0.0342514291405678,0.0293653551489115
419,-0.0580937191843987,0.00797994341701269,0.0283348895609379,0.00442879553884268,-0.0362277589738369,0.034086849540472
420,-0.0629507601261139,0.00470367725938559,0.0302454307675362,0.00339664844796062,-0.0375326462090015,0.038966428488493
421,-0.0655418485403061,-0.000503033224958926,0.0328534990549088,0.00211495952680707,-0.0345288254320621,0.0417645573616028
422,-0.062077671289444,-0.00462387129664421,0.0375961102545261,0.00268675875850022,-0.0282591320574284,0.0419165939092636
423,-0.0546065457165241,-0.00667151063680649,0.0438389182090759,0.00531380157917738,-0.023529589176178,0.0400822050869465
424,-0.047626756131649,-0.00748286675661802,0.0489189885556698,0.00812872778624296,-0.0231142546981573,0.0378257110714912
425,-0.0427821092307568,-0.0066092717461288,0.0516695491969585,0.0102592604234815,-0.0251675955951214,0.0376860201358795
426,-0.0399286225438118,-0.00287315621972084,0.0531768910586834,0.0116372406482697,-0.025290684774518,0.0409113839268684
427,-0.0400971546769142,0.00308632175438106,0.0532182157039642,0.0107612004503608,-0.0224486235529184,0.0451278872787952
428,-0.0440824516117573,0.0101511906832457,0.0506265163421631,0.00696010794490576,-0.0200158972293139,0.0482168272137642
429,-0.0490733757615089,0.0184626895934343,0.0473157651722431,0.00302010192535818,-0.0184778161346912,0.0519355162978172
430,-0.0508275665342808,0.0263770166784525,0.0455601066350937,0.000600866100285202,-0.015237232670188,0.0569078586995602
431,-0.0451762303709984,0.0306875370442867,0.0443037450313568,-0.00172316795215011,-0.00970435049384832,0.0607045851647854
432,-0.0302970167249441,0.0313852690160275,0.0428826883435249,-0.00377303455024958,-0.00245767994783819,0.0628355890512466
433,-0.0151186352595687,0.0303956978023052,0.0430723689496517,-0.00364031200297177,0.00541642773896456,0.0651971325278282
434,-0.0133894262835383,0.0272924620658159,0.045040387660265,-0.00210171844810247,0.0107803428545594,0.0688638240098953
435,-0.025880279019475,0.0214705429971218,0.0464983023703098,-0.00121251388918608,0.0105347791686654,0.0732482895255089
436,-0.0417079851031303,0.0142724206671119,0.0459879338741302,-0.00146200938615948,0.0045472108758986,0.0757268518209457
437,-0.0523229986429214,0.00791462324559689,0.0439598001539707,-0.00263436394743621,-0.00387842231430113,0.0739085599780083
438,-0.0560276843607426,0.00541342003270984,0.0418367721140385,-0.00366428238339722,-0.0104901185259223,0.069109708070755
439,-0.0562814697623253,0.0076682479120791,0.040395375341177,-0.00374734657816589,-0.0143284648656845,0.0636043325066566
440,-0.057896364480257,0.0110427159816027,0.0388410724699497,-0.00396259455010295,-0.0173170398920774,0.056685995310545
441,-0.0617414191365242,0.0117970686405897,0.035233061760664,-0.00550756882876158,-0.0204279776662588,0.0472833998501301
442,-0.0654025375843048,0.0104014063253999,0.0280529912561178,-0.00785583816468716,-0.0230256710201502,0.0376081615686417
443,-0.0671573057770729,0.0102210147306323,0.0202855374664068,-0.00857166945934296,-0.0226815473288298,0.0311419367790222
444,-0.0666181817650795,0.0133107043802738,0.0172736067324877,-0.00589987821877003,-0.0163106247782707,0.0285527519881725
445,-0.065579853951931,0.0178210809826851,0.0183540023863316,-0.00177708559203893,-0.00511110108345747,0.0277896206825972
446,-0.065175823867321,0.0217687860131264,0.0186844822019339,0.00144189642742276,0.00629985798150301,0.0284541808068752
447,-0.0630702301859856,0.026110889390111,0.0166820995509624,0.0041340827010572,0.0147011298686266,0.031954150646925
448,-0.0590854845941067,0.0315981730818748,0.0140140615403652,0.00658320495858788,0.0182011518627405,0.0368734523653984
449,-0.0555546544492245,0.0388261154294014,0.0132491616532207,0.00937856361269951,0.0168018862605095,0.0413811691105366
450,-0.0539875291287899,0.0475402437150478,0.0148710226640105,0.0135746579617262,0.0120036937296391,0.045956414192915
451,-0.0558187738060951,0.0541750825941563,0.0156166171655059,0.017640508711338,0.00468243658542633,0.0496603511273861
452,-0.0609485656023026,0.0556576550006866,0.0121085038408637,0.0188813842833042,-0.00397696672007442,0.0499045923352242
453,-0.0644351467490196,0.0529147051274776,0.00486595276743174,0.0169334169477224,-0.0109149813652039,0.0463087595999241
454,-0.060862097889185,0.0482147075235844,-0.00284405890852213,0.0134155880659819,-0.0119477240368724,0.0409035161137581
455,-0.053505290299654,0.0431125834584236,-0.00854755565524101,0.0100163714960217,-0.00499316630885005,0.0365485772490501
456,-0.0491118170320988,0.0397926792502403,-0.0106304781511426,0.00839200709015131,0.00886210147291422,0.0365616977214813
457,-0.0476900897920132,0.0390412732958794,-0.0099563105031848,0.00826011225581169,0.0245449021458626,0.0415461845695972
458,-0.0449073538184166,0.0399942845106125,-0.00902395136654377,0.00812065787613392,0.0363472066819668,0.0486389845609665
459,-0.040319561958313,0.042127650231123,-0.00813626125454903,0.00805090367794037,0.043739877641201,0.0556040592491627
460,-0.0379073359072208,0.0438354276120663,-0.00788696575909853,0.00740207079797983,0.0478336997330189,0.0621451996266842
461,-0.039503276348114,0.0438199676573277,-0.0109431073069572,0.00450194533914328,0.0470077432692051,0.0669102072715759
462,-0.0439002811908722,0.0429956801235676,-0.0187775436788797,-0.00043616010225378,0.0395544953644276,0.0655079334974289
463,-0.0507649593055248,0.0419277399778366,-0.0289136469364166,-0.00597100704908371,0.0264709331095219,0.0545794814825058
464,-0.0596782900393009,0.0405784100294113,-0.0351084396243095,-0.010246935300529,0.0114129120483994,0.0378624647855759
465,-0.0682940408587456,0.0400971099734306,-0.0325219444930553,-0.0110770184546709,-0.000387300213333219,0.0240225810557604
466,-0.0750009417533875,0.0420391224324703,-0.0236664619296789,-0.00736386748030782,-0.00578131852671504,0.0193210020661354
467,-0.0791331082582474,0.0464315563440323,-0.0149757321923971,-0.000275534577667713,-0.00500227371230721,0.0224610026925802
468,-0.0790434256196022,0.0506840869784355,-0.00895293988287449,0.00668461341410875,0.00213524978607893,0.0259150359779596
469,-0.0738763809204102,0.0519302748143673,-0.00350566697306931,0.0107976701110601,0.0158413872122765,0.0249681379646063
470,-0.0653920695185661,0.0491849929094315,0.00410302588716149,0.0125692766159773,0.0342550687491894,0.0214050021022558
471,-0.0536374486982822,0.0454457364976406,0.0154109243303537,0.0157678537070751,0.0555590465664864,0.0215956140309572
472,-0.0387718789279461,0.0451813638210297,0.026012621819973,0.0220441091805696,0.0723286718130112,0.0310600567609072
473,-0.0265739560127258,0.0479313507676125,0.0266450364142656,0.0257630161941051,0.0718920007348061,0.0453556254506111
474,-0.0216846186667681,0.0514413043856621,0.0153098870068789,0.0215591453015804,0.0520697124302387,0.0537089630961418
475,-0.0211802236735821,0.0561977066099644,-0.000686231127474457,0.0113612227141857,0.0239034648984671,0.0519939064979553
476,-0.0168737769126892,0.0629977434873581,-0.0133882695809007,0.00102529732976109,0.000333218922605738,0.0454258807003498
477,-0.00461104558780789,0.0700383186340332,-0.0194956418126822,-0.00470926705747843,-0.0121815912425518,0.0402341932058334
478,0.0102205527946353,0.0748037099838257,-0.0196864791214466,-0.00465153623372316,-0.0142069077119231,0.039430383592844
479,0.0219071973115206,0.0755174905061722,-0.0172767862677574,-0.00298531539738178,-0.00942873861640692,0.0425600036978722
480,0.0303854010999203,0.0712180659174919,-0.0155087318271399,-0.00566022051498294,-0.000352622766513377,0.0456246808171272
481,0.0359941646456718,0.0652003437280655,-0.0133308181539178,-0.0120476167649031,0.0128880897536874,0.0472604259848595
482,0.0341932587325573,0.0624096095561981,-0.0105775175616145,-0.0182717479765415,0.0269180871546268,0.0496414117515087
483,0.021758671849966,0.0627055168151855,-0.0113515211269259,-0.0244336444884539,0.0329269766807556,0.0521751530468464
484,0.00695921620354056,0.0638552010059357,-0.0137719251215458,-0.0294512361288071,0.0240391511470079,0.0540251061320305
485,0.00124866620171815,0.0652957782149315,-0.00926463957875967,-0.0292731244117022,0.0016979577485472,0.0581476576626301
486,0.00578714581206441,0.0670445039868355,0.00482056243345141,-0.0211965125054121,-0.0240027979016304,0.068981759250164
487,0.0128052113577724,0.0693658590316772,0.0217710845172405,-0.00601437781006098,-0.0413821339607239,0.0874122679233551
488,0.0186803229153156,0.0707289204001427,0.0328480340540409,0.00944678205996752,-0.0469072051346302,0.106692843139172
489,0.0283589903265238,0.0682891085743904,0.0345156192779541,0.0168674103915691,-0.0450324229896069,0.116555348038673
490,0.0405987873673439,0.0600114353001118,0.0294235721230507,0.0141328321769834,-0.0421872735023499,0.112014956772327
491,0.0415091626346111,0.0480323694646358,0.0231060292571783,0.00612324383109808,-0.0431827567517757,0.0992961823940277
492,0.0242205895483494,0.0413369126617908,0.0195958092808723,-6.33376184850931E-05,-0.0484692230820656,0.0908249020576477
493,-0.000198445966816507,0.0476417206227779,0.0178937986493111,-0.00155969045590609,-0.0551124885678291,0.0927951484918594
494,-0.0190370995551348,0.0651605576276779,0.0152093712240458,0.00014854637265671,-0.0584778375923634,0.103020884096622
495,-0.0286945607513189,0.0854327604174614,0.0114489868283272,0.00354153732769191,-0.0545148514211178,0.115902222692966
496,-0.0309450402855873,0.0996277704834938,0.00799880363047123,0.00722447503358126,-0.0468519777059555,0.124418810009956
497,-0.0274013541638851,0.103467762470245,0.00575244892388582,0.00930115953087807,-0.0448954999446869,0.123473986983299
498,-0.0202565472573042,0.0992532148957253,0.00524683436378837,0.0090094581246376,-0.0519907064735889,0.114022336900234
499,-0.0148089081048965,0.0918594747781754,0.00646457960829139,0.00670989463105798,-0.0616154223680496,0.1013008877635
500,-0.0113663738593459,0.0849428102374077,0.0103172454982996,0.00358902779407799,-0.0633448585867882,0.0898338556289673
501,-0.00518667278811336,0.0803839340806007,0.0196831934154034,0.00144405232276767,-0.0523403957486153,0.0815187990665436
502,0.000512273458298296,0.0759938806295395,0.0325869247317314,-0.00110407639294863,-0.0360524393618107,0.0746101140975952
503,-0.000870453426614404,0.0684079304337502,0.0396912358701229,-0.00746347196400166,-0.0274841655045748,0.0656327083706856
504,-0.00629357108846307,0.0591535568237305,0.0355789996683598,-0.016790809109807,-0.0318108685314655,0.0545933209359646
505,-0.00934034865349531,0.0512439198791981,0.0237933155149221,-0.0268793217837811,-0.0446886196732521,0.0440085493028164
506,-0.00800658203661442,0.0454365946352482,0.0104734413325787,-0.0371157415211201,-0.05886210501194,0.0363638363778591
507,-0.000500100781209767,0.0432617254555225,0.00174796197097749,-0.0438116304576397,-0.067573294043541,0.0344771146774292
508,0.0109353121370077,0.045123752206564,0.000217000255361199,-0.0439197197556496,-0.0684574469923973,0.0369311831891537
509,0.0172112472355366,0.0483528487384319,0.00269780773669481,-0.0399138778448105,-0.064946323633194,0.0382438041269779
510,0.0132477078586817,0.0501192286610603,0.00480274995788932,-0.035793200135231,-0.0618027932941914,0.0356812961399555
511,0.00316848512738943,0.0489544123411179,0.00466645509004593,-0.0341593995690346,-0.0612845867872238,0.0290593355894089
512,-0.00430874526500702,0.045931700617075,0.00340304826386273,-0.0356702581048012,-0.0632262974977493,0.018102552741766
513,-0.00521779619157314,0.0430542342364788,0.00267518917098641,-0.0390837751328945,-0.0664508268237114,0.00474299630150199
514,-0.005752376280725,0.0409271195530891,0.00349852326326072,-0.0418427959084511,-0.066661149263382,-0.00529933674260974
515,-0.0135812042281032,0.0387410521507263,0.00636608246713877,-0.0422108396887779,-0.0596947558224201,-0.00829954538494349
516,-0.0267867688089609,0.0353654883801937,0.0105394553393126,-0.0406796783208847,-0.0482899062335491,-0.00669327517971396
517,-0.0363338403403759,0.0319525189697742,0.0150356851518154,-0.0377390310168266,-0.036520604044199,-0.0047111320309341
518,-0.0373700819909573,0.0310820899903774,0.0199276022613049,-0.0337125360965729,-0.0242672543972731,-0.00452187517657876
519,-0.0347874835133553,0.0315425768494606,0.0244097393006086,-0.031663753092289,-0.0142931798473001,-0.00604385137557983
520,-0.0369424112141132,0.0298713948577642,0.0255023632198572,-0.0345899388194084,-0.0131320999935269,-0.00841155741363764
521,-0.0449308790266514,0.0270015802234411,0.0210171286016703,-0.0403650477528572,-0.0204789564013481,-0.0114479688927531
522,-0.0522097200155258,0.0265141930431128,0.0121904090046883,-0.0446002632379532,-0.0280514620244503,-0.0150175653398037
523,-0.0542202927172184,0.0280228145420551,0.00238313595764339,-0.0463616140186787,-0.0307912137359381,-0.0203527472913265
524,-0.0521519742906094,0.0281409043818712,-0.00560608925297856,-0.0477100387215614,-0.0309465918689966,-0.0300998613238335
525,-0.0472556985914707,0.027855671942234,-0.0104261869564652,-0.0488389246165752,-0.0303921662271023,-0.0425078421831131
526,-0.0397896766662598,0.0311293080449104,-0.0124755622819066,-0.0486108213663101,-0.0281298495829105,-0.052382118999958
527,-0.0316705852746964,0.0374595783650875,-0.0127694932743907,-0.0472010411322117,-0.0240885782986879,-0.057158600538969
528,-0.0219325423240662,0.0431222468614578,-0.0116148954257369,-0.0442046038806438,-0.0185994505882263,-0.0567097701132298
529,-0.00885871239006519,0.0452062115073204,-0.0100518669933081,-0.039245992898941,-0.0114989541471004,-0.0530455559492111
530,0.00203194888308644,0.0436418913304806,-0.00858431681990623,-0.0329268984496593,-0.00220001488924026,-0.0489649549126625
531,0.00364610971882939,0.0403372384607792,-0.00597104476764798,-0.0262334663420916,0.0106304436922073,-0.0461097620427608
532,-0.00369804119691253,0.0352175980806351,-0.0022006023209542,-0.0212252251803875,0.0261969398707151,-0.0458693504333496
533,-0.012877251021564,0.0275189131498337,0.00187522813212126,-0.0189007502049208,0.0401607602834702,-0.0480177253484726
534,-0.0176292080432177,0.0195022113621235,0.00727918557822704,-0.0172622706741095,0.0497921220958233,-0.0504010282456875
535,-0.0188979580998421,0.0132767343893647,0.0134397707879543,-0.0149346338585019,0.0543663874268532,-0.0529045760631561
536,-0.0207650437951088,0.0075954282656312,0.0150910597294569,-0.0141333816573024,0.051391888409853,-0.0581423304975033
537,-0.0235907007008791,0.00256996625103056,0.00941620673984289,-0.0165530275553465,0.0400487706065178,-0.0653894543647766
538,-0.0253869742155075,0.00091573252575472,0.000390534347388893,-0.0205479115247726,0.0241267494857311,-0.069424219429493
539,-0.0264720339328051,0.00293053174391389,-0.00668618036434054,-0.0232851337641478,0.0097057493403554,-0.0667169317603111
540,-0.0283847041428089,0.00598244927823544,-0.00979162007570267,-0.0230781901627779,0.00138128106482327,-0.0593464896082878
541,-0.0291897933930159,0.00855818949639797,-0.00946097634732723,-0.0198694709688425,0.000138026662170887,-0.0524384789168835
542,-0.0243061725050211,0.0115611823275685,-0.00714613450691104,-0.0142612541094422,0.00377503922209144,-0.048659723252058
543,-0.0123879406601191,0.0155318528413773,-0.00539159961044788,-0.00824262481182814,0.00835239235311747,-0.0485076233744621
544,0.00176759634632617,0.0197361931204796,-0.00590209336951375,-0.00451124412938952,0.0105391694232821,-0.0509852878749371
545,0.0101456604897976,0.023819150403142,-0.00789622962474823,-0.00413616560399532,0.00963190943002701,-0.0516762547194958
546,0.00993896555155516,0.0277326628565788,-0.0101575730368495,-0.00674439966678619,0.00756630068644881,-0.0478230193257332
547,0.00724896276369691,0.0300521925091743,-0.0134201357141137,-0.0110551677644253,0.00677926046773791,-0.0429608598351479
548,0.00749887246638536,0.029627712443471,-0.0175775829702616,-0.0131273018196225,0.00909547600895166,-0.0406431928277016
549,0.00767064746469259,0.0269234329462051,-0.0190262217074633,-0.00982938706874847,0.0136368367820978,-0.0396101512014866
550,0.00250028725713491,0.0211463812738657,-0.0167233776301146,-0.00546990102156997,0.0164673328399658,-0.0399896204471588
551,-0.00682790810242295,0.0128659894689918,-0.0132812056690454,-0.00465133273974061,0.0172989349812269,-0.0435088276863098
552,-0.0157589223235846,0.00582454865798354,-0.0100245494395494,-0.00574371684342623,0.0184152517467737,-0.0487327463924885
553,-0.0241046007722616,0.00158305920194834,-0.00783230923116207,-0.00781221687793732,0.018222963437438,-0.0552950613200665
554,-0.0340835712850094,-0.000367295375326648,-0.0062690288759768,-0.0113720921799541,0.0154253803193569,-0.0639678388834
555,-0.0445422232151031,0.000231208163313568,-0.00212533585727215,-0.0141307339072227,0.0125164547935128,-0.0720882043242455
556,-0.0516251660883427,0.00269441725686193,0.00518243853002787,-0.0139070441946387,0.0120427589863539,-0.0764499455690384
557,-0.0515568628907204,0.00514062820002437,0.0114954058080912,-0.0113900350406766,0.0151233468204737,-0.0769500434398651
558,-0.0428442880511284,0.00667779333889484,0.0135930366814137,-0.00768883107230067,0.0226485412567854,-0.0737017393112183
559,-0.0287583321332932,0.00789580680429935,0.0127853006124496,-0.0025377266574651,0.0352802686393261,-0.0652367919683456
560,-0.0155635634437203,0.00899642333388329,0.0114855403080583,0.00375840254127979,0.0505744628608227,-0.0542223788797855
561,-0.00852765236049891,0.00897319987416267,0.00931910704821348,0.00923632644116879,0.0623143725097179,-0.0479310154914856
562,-0.00769525486975908,0.00889514479786158,0.00605507381260395,0.0133091052994132,0.0669659525156021,-0.0483088791370392
563,-0.00988692324608564,0.0105464048683643,0.0021815171930939,0.0161205995827913,0.0644929930567741,-0.0512082688510418
564,-0.0156034603714943,0.0115546202287078,-0.00379260606132448,0.0158669799566269,0.0545308403670788,-0.0538165457546711
565,-0.0242036674171686,0.00925220083445311,-0.0110234403982759,0.0129746189340949,0.0402270406484604,-0.0542051494121552
566,-0.0304321814328432,0.00356661295518279,-0.0165452435612679,0.0100597962737083,0.0271873250603676,-0.0523616671562195
567,-0.0322652496397495,-0.00566635560244322,-0.0215517524629831,0.00644167559221387,0.0168243143707514,-0.0528938472270966
568,-0.0290091745555401,-0.0155833829194307,-0.0268551986664534,0.00199929275549948,0.010878530330956,-0.0572035908699036
569,-0.0162921193987131,-0.0204667411744595,-0.0280305147171021,0.000162122392794117,0.0140383187681437,-0.0607104785740376
570,0.00133984955027699,-0.0186784919351339,-0.0216306354850531,0.0024642669595778,0.0262530669569969,-0.0606040470302105
571,0.00999742187559605,-0.0115499785169959,-0.00825490616261959,0.00849712640047073,0.0435930192470551,-0.0568329356610775
572,0.00650035543367267,-0.00102676718961447,0.00827722810208797,0.0171094499528408,0.061847772449255,-0.0509733967483044
573,-0.00227328785695136,0.00832586921751499,0.0211462341248989,0.0245944615453482,0.0751689895987511,-0.0476594641804695
574,-0.00843056105077267,0.0134212588891387,0.0264464933425188,0.0286839529871941,0.0809141770005226,-0.0496568456292152
575,-0.00440733879804611,0.0165403615683317,0.0281786154955626,0.0316221006214619,0.083079494535923,-0.0540056824684143
576,0.00899806711822748,0.0199506022036076,0.0309615805745125,0.0350600108504295,0.0857327431440353,-0.0574765093624592
577,0.0217443965375423,0.0223339144140482,0.0337294302880764,0.0376912765204906,0.0899201557040215,-0.059529684484005
578,0.0263722501695156,0.0227406304329634,0.0352802239358425,0.0390962436795235,0.09599769115448,-0.059536837041378
579,0.0220963582396507,0.0217047892510891,0.0352267809212208,0.0386175811290741,0.100875332951546,-0.0591191239655018
580,0.0123515510931611,0.0216095373034477,0.0333885736763477,0.0354300327599049,0.101596802473068,-0.0611280798912048
581,0.00356348557397723,0.0257563702762127,0.0328430682420731,0.0327654480934143,0.10184471309185,-0.0633764490485191
582,0.000311014387989417,0.0335885807871819,0.0374521911144257,0.0353547036647797,0.106413282454014,-0.0610575973987579
583,0.00330187007784843,0.0425808466970921,0.0476749502122402,0.0445284433662891,0.115445710718632,-0.0524350628256798
584,0.0108198123052716,0.0511825419962406,0.0589194782078266,0.0574649050831795,0.125142380595207,-0.039334025233984
585,0.0206729676574469,0.0589619353413582,0.0671438351273537,0.0712051689624786,0.132760763168335,-0.0237652249634266
586,0.031495064496994,0.0653608441352844,0.0727345868945122,0.0833102241158485,0.138538599014282,-0.00958846416324377
587,0.0422275140881538,0.0685485005378723,0.0768256857991219,0.0908999964594841,0.144237771630287,-0.00261317868717015
588,0.0517688617110252,0.0695678815245628,0.0814222544431686,0.0958989784121513,0.153118133544922,-0.0005040765972808
589,0.0569809339940548,0.0708561465144157,0.0886988341808319,0.102817058563232,0.164194762706757,0.00574622489511967
590,0.0546599365770817,0.0716328769922256,0.0969172194600105,0.111827537417412,0.17214834690094,0.0207277555018663
591,0.0472886301577091,0.0714036598801613,0.10232837498188,0.120514906942844,0.175314590334892,0.0422890223562717
592,0.0413002520799637,0.0728167220950127,0.104864686727524,0.12789523601532,0.175893262028694,0.0638194605708122
593,0.0387995541095734,0.0773600116372108,0.107375420629978,0.134084478020668,0.175017639994621,0.0784111469984055
594,0.0365682877600193,0.081929087638855,0.109602317214012,0.138238102197647,0.171041429042816,0.0822280049324036
595,0.0350609198212624,0.0844852328300476,0.110359035432339,0.140576332807541,0.164896622300148,0.077054500579834
596,0.0390494093298912,0.0854962319135666,0.109835974872112,0.141317114233971,0.160695463418961,0.0683311522006989
597,0.0495224483311176,0.0825081989169121,0.10533245652914,0.136985242366791,0.157713785767555,0.0581311322748661
598,0.0605688020586967,0.0738917589187622,0.0943120792508125,0.125246554613113,0.150943949818611,0.0461927391588688
599,0.063661977648735,0.0630507543683052,0.0788631066679955,0.109372496604919,0.139777645468712,0.0338138788938522
600,0.0568668320775032,0.054476760327816,0.0644330829381943,0.0958807840943336,0.129454150795937,0.0239722449332476
601,0.0467308647930622,0.0506965778768063,0.0575852245092392,0.0898775234818459,0.125088542699814,0.0211978759616613
602,0.0391216985881329,0.0517355911433697,0.0611180923879147,0.0909941270947456,0.129083782434464,0.0277516841888428
603,0.0325029976665974,0.0545843243598938,0.0703470036387444,0.0943363532423973,0.139864727854729,0.0388458892703056
604,0.0246276203542948,0.0568536780774593,0.079705610871315,0.0967377573251724,0.152909860014915,0.0477511808276176
605,0.0204543098807335,0.0594310238957405,0.0888258218765259,0.0991270244121552,0.166161417961121,0.0535452701151371
606,0.0243952162563801,0.0626062378287315,0.0975701734423637,0.102366998791695,0.178581148386002,0.0586415939033031
607,0.0296862553805113,0.0639158561825752,0.102189995348454,0.103488072752953,0.185193732380867,0.0631162002682686
608,0.0265887677669525,0.0619168765842915,0.0988418385386467,0.0982368886470795,0.182011693716049,0.0647657066583633
609,0.0142972953617573,0.0579492077231407,0.0877184644341469,0.0868076905608177,0.170371726155281,0.0620018839836121
610,-0.00293273339048028,0.0534282624721527,0.0740290433168411,0.0745699480175972,0.154243156313896,0.0559836104512215
611,-0.0194865465164185,0.0500201806426048,0.0642625242471695,0.0680221393704414,0.13886234164238,0.0516696535050869
612,-0.028532300144434,0.0486364923417568,0.0604403093457222,0.068884588778019,0.127437114715576,0.0530654452741146
613,-0.0304258540272713,0.0461067333817482,0.0595923401415348,0.0728158876299858,0.118961565196514,0.057668149471283
614,-0.0330355279147625,0.0386260785162449,0.0589596442878246,0.0750682726502419,0.11263482272625,0.0590853355824947
615,-0.0373634807765484,0.0275764763355255,0.0602490492165089,0.0747349634766579,0.111904978752136,0.0531227290630341
616,-0.035381019115448,0.0176123324781656,0.0654230788350105,0.0736393257975578,0.119916461408138,0.0406459122896194
617,-0.024386340752244,0.0108812293037772,0.0710011720657349,0.0721682086586952,0.132556244730949,0.0252281688153744
618,-0.0124627808108926,0.00641382345929742,0.0710384771227837,0.068746343255043,0.140848815441132,0.0125950733199716
619,-0.00692072091624141,0.00392437726259232,0.0634515732526779,0.064220517873764,0.140329584479332,0.0113197015598416
620,-0.00614775298163295,0.00564825022593141,0.0542829893529415,0.0624758452177048,0.136141076683998,0.0246734227985144
621,-0.00565259158611298,0.0129502546042204,0.0527198947966099,0.0654171407222748,0.134266912937164,0.0449912287294865
622,-0.00656641460955143,0.0226624850183725,0.0588644072413445,0.0697029605507851,0.130590528249741,0.060530748218298
623,-0.0123004922643304,0.0296768974512815,0.0623799078166485,0.0698997601866722,0.116901583969593,0.0637452080845833
624,-0.0209290031343699,0.0321371555328369,0.0550206936895847,0.0647719576954842,0.0939394906163216,0.0557238832116127
625,-0.0300185196101666,0.0310776568949223,0.0388787724077702,0.057360514998436,0.0699579790234566,0.0441110767424107
626,-0.0401973985135555,0.0273183286190033,0.0209333673119545,0.0498582720756531,0.0509979613125324,0.0353609807789326
627,-0.0498193576931953,0.0227026343345642,0.00717765185981989,0.0435402169823647,0.0399634651839733,0.0320783108472824
628,-0.0552617534995079,0.0207528341561556,0.000574567588046193,0.0393323190510273,0.0372512564063072,0.0347829647362232
629,-0.055997122079134,0.0238637533038855,-0.000774552929215133,0.0354610867798328,0.0386037416756153,0.0410269238054752
630,-0.0543312728404999,0.0315985046327114,-5.0293547246838E-05,0.0302114505320787,0.0391478464007378,0.0465701818466187
631,-0.0515938214957714,0.0405618734657764,0.002339290920645,0.0254266019910574,0.0380737408995628,0.0503940619528294
632,-0.0466864220798016,0.0459024310112,0.00657811388373375,0.0226447638124228,0.0379053242504597,0.0538405142724514
633,-0.0396201238036156,0.0448014810681343,0.00991582311689854,0.0200840327888727,0.0409210883080959,0.0565513484179974
634,-0.0344538316130638,0.0387141667306423,0.00838770344853401,0.0166424605995417,0.0454229861497879,0.0581557899713516
635,-0.03287024050951,0.0321079306304455,0.00200016796588898,0.014444699510932,0.0462557151913643,0.0607711710035801
636,-0.0322128683328629,0.0287678558379412,-0.00540565513074398,0.0149641744792461,0.0393666215240955,0.0662269070744514
637,-0.0325904004275799,0.028356159105897,-0.0110142435878515,0.0163927655667067,0.0258353240787983,0.0729391947388649
638,-0.0362769663333893,0.0274038556963205,-0.0156763382256031,0.0158411785960197,0.010418102145195,0.0775468796491623
639,-0.0426155291497707,0.0239021368324757,-0.0206745509058237,0.0122813396155834,-0.00153590890113264,0.0783300250768662
640,-0.0465286672115326,0.0195831693708897,-0.0235563740134239,0.00779363652691245,-0.00587191339582205,0.07701276242733
641,-0.0406775549054146,0.0177491940557957,-0.0222191829234362,0.00499013159424067,-0.0036674365401268,0.0767301470041275
642,-0.0266308002173901,0.0194269102066755,-0.0204621627926826,0.00367273390293121,-0.0012980765895918,0.078536257147789
643,-0.019158199429512,0.022397618740797,-0.0239966157823801,0.00130981102120131,-0.0040800073184073,0.0805309042334557
644,-0.0279912576079369,0.0244564861059189,-0.0312790609896183,-0.00293721817433834,-0.0115295946598053,0.0804120004177094
645,-0.0464154034852982,0.0260071344673634,-0.0353059023618698,-0.00573495915159583,-0.0198731813579798,0.0793194025754929
646,-0.064706563949585,0.0286398343741894,-0.0331935659050941,-0.00338767538778484,-0.0269858092069626,0.0808286368846893
647,-0.0790830552577972,0.0338168181478977,-0.0252387877553701,0.00532165542244911,-0.031193096190691,0.087278239428997
648,-0.0842863246798515,0.042837355285883,-0.0120031656697392,0.0195530112832785,-0.0287538040429354,0.09830042719841
649,-0.0780360028147697,0.0536860078573227,0.00112766749225557,0.0340491756796837,-0.0195293705910444,0.108703188598156
650,-0.0689300000667572,0.0603975653648376,0.00610099080950022,0.0409123748540878,-0.00916924048215151,0.110470667481422
651,-0.0642021372914314,0.0596174076199532,0.00254968530498445,0.0378537960350513,0.000966821913607419,0.101318582892418
652,-0.0648645758628845,0.0524578131735325,-0.00396930240094662,0.0286547560244799,0.0128403333947062,0.0847356468439102
653,-0.0697950571775436,0.0429129153490067,-0.00988761615008116,0.0182214304804802,0.0244360286742449,0.0651010796427727
654,-0.0737949386239052,0.0359345376491547,-0.0143050914630294,0.00941840466111898,0.0330629460513592,0.0459405146539211
655,-0.0743035525083542,0.0326721332967281,-0.0173233058303595,0.0023928196169436,0.0370350293815136,0.0288838632404804
656,-0.0761456415057182,0.0313604101538658,-0.0170362908393145,-0.00155233033001423,0.0363196767866611,0.0164211876690388
657,-0.0841699838638306,0.0297414287924767,-0.0127468025311828,-0.00188226962927729,0.0317984484136105,0.0109086157754064
658,-0.0965466722846031,0.0263549257069826,-0.00882158800959587,-0.00144196138717234,0.0234367828816175,0.0119011690840125
659,-0.106403954327106,0.0214313492178917,-0.00930078141391277,-0.00256846705451608,0.0120281632989645,0.0156537257134914
660,-0.108131527900696,0.0145092597231269,-0.0152029478922486,-0.00659926747903228,-0.000759996531996876,0.015042501501739
661,-0.0990376397967339,0.00670647388324142,-0.0259143244475126,-0.0137803247198462,-0.0119599336758256,0.00618734629824758
662,-0.0830864533782005,0.0013623513514176,-0.0367472097277641,-0.0220722556114197,-0.0177116226404905,-0.00796718429774046
663,-0.0719002932310104,-0.00151163944974542,-0.041092325001955,-0.0288336183875799,-0.017539020627737,-0.0220241788774729
664,-0.0731505081057549,-0.0038604368455708,-0.0388024225831032,-0.0319451689720154,-0.0152009800076485,-0.030854681506753
665,-0.0847705379128456,-0.00656513078138232,-0.036032147705555,-0.0316502563655376,-0.0137066440656781,-0.0332569032907486
666,-0.0998547151684761,-0.00954157952219248,-0.0362869463860989,-0.030229527503252,-0.011458751745522,-0.0324049964547157
667,-0.11152046173811,-0.011531968601048,-0.0377141833305359,-0.0290000457316637,-0.00619326578453183,-0.030727207660675
668,-0.114436447620392,-0.011247287504375,-0.0374217592179775,-0.0276587586849928,0.000507003045640886,-0.027620866894722
669,-0.108091451227665,-0.00925351027399302,-0.0355241894721985,-0.0261476170271635,0.00461940281093121,-0.0222682617604733
670,-0.0986619219183922,-0.00831440929323435,-0.0354446806013584,-0.0261786170303822,0.00275547965429723,-0.0163632147014141
671,-0.0904668718576431,-0.00944122206419706,-0.0381399914622307,-0.0279905013740063,-0.00363426306284964,-0.0112658590078354
672,-0.0813243165612221,-0.0100950133055449,-0.0402673743665218,-0.0292147304862738,-0.00861035287380219,-0.00757072027772665
673,-0.0702504739165306,-0.00930695421993732,-0.0405402407050133,-0.0295501612126827,-0.00948149245232344,-0.00755216972902417
674,-0.0602528043091297,-0.0104326605796814,-0.0414223149418831,-0.0315464586019516,-0.00894822180271149,-0.0137495314702392
675,-0.0539872273802757,-0.017085587605834,-0.0452340766787529,-0.0370208993554115,-0.00973981805145741,-0.0275700390338898
676,-0.0481519997119904,-0.0274833384901285,-0.0506597869098186,-0.0436522923409939,-0.00997403357177973,-0.0458120480179787
677,-0.0346554294228554,-0.0350183621048927,-0.0522458180785179,-0.0455200858414173,-0.00389716029167175,-0.0600229166448116
678,-0.0154091119766235,-0.0368112660944462,-0.0478835329413414,-0.040887825191021,0.0103721972554922,-0.0661631897091866
679,-0.00260215811431408,-0.0341941565275192,-0.0407254621386528,-0.0333112999796867,0.0278321076184511,-0.0654394999146461
680,-0.00338869984261692,-0.0277949739247561,-0.031716600060463,-0.0250922404229641,0.0417026020586491,-0.0586599856615067
681,-0.0144613981246948,-0.0199589785188437,-0.0202008541673422,-0.0168868005275726,0.0493118949234486,-0.0493512414395809
682,-0.0256364308297634,-0.0135262543335557,-0.00814151391386986,-0.00917676463723183,0.0531091764569283,-0.0412134006619453
683,-0.0298472046852112,-0.00807980634272099,0.00136953173205256,-0.00262764887884259,0.0555598363280296,-0.0332084968686104
684,-0.0288549344986677,-0.00325738382525742,0.00529524497687817,0.000588078110013157,0.054888378828764,-0.0250852238386869
685,-0.0274264514446259,-0.00169006746727973,0.000703441153746098,-0.00253032869659364,0.0456244833767414,-0.0216787084937096
686,-0.0278874225914478,-0.00409341230988503,-0.0106335692107677,-0.0106615675613284,0.0271381735801697,-0.0255974680185318
687,-0.0295408684760332,-0.00644659111276269,-0.0223993193358183,-0.0170630868524313,0.00714443158358335,-0.0322547815740108
688,-0.0279293488711119,-0.00485015474259853,-0.0302509479224682,-0.0168294031172991,-0.00714005902409554,-0.0353255309164524
689,-0.0160119812935591,9.35650095925666E-05,-0.0337167680263519,-0.0119311660528183,-0.0137022854760289,-0.032616138458252
690,0.00839446298778057,0.00674869911745191,-0.0320950299501419,-0.00688207941129804,-0.0115988310426474,-0.0256127379834652
691,0.0368418619036675,0.016071368008852,-0.0236036367714405,-0.0037485477514565,-0.00111461337655783,-0.0157514326274395
692,0.0526977926492691,0.0259159374982119,-0.0122094759717584,-0.00367363728582859,0.00943494122475386,-0.00539603503420949
693,0.0431883931159973,0.0308634247630835,-0.00403582118451595,-0.00509029813110828,0.0112576121464372,0.00285482686012983
694,0.0142076397314668,0.0290030371397734,0.00171258498448879,-0.00367328058928251,0.00779189961031079,0.00834141578525305
695,-0.0177290700376034,0.0202838648110628,0.00588583340868354,-0.00121111527550966,0.00467653432860971,0.00702654104679823
696,-0.0429115332663059,0.00581495556980371,0.00476322323083878,-0.00371583504602313,-0.000111866924271453,-0.00597995147109032
697,-0.0574401691555977,-0.00877590756863356,-0.00288113439455628,-0.0109998639672995,-0.00749440491199493,-0.0260848328471184
698,-0.0598283000290394,-0.0180445034056902,-0.0136042796075344,-0.0185935832560062,-0.0128168873488903,-0.0430991426110268
699,-0.0525007508695126,-0.0208736211061478,-0.0219037011265755,-0.0233764853328466,-0.0127982888370752,-0.051201406866312
700,-0.040585033595562,-0.0183869693428278,-0.0245061907917261,-0.0241703540086746,-0.0101581867784262,-0.0508484281599522
701,-0.0274568479508162,-0.0123087977990508,-0.0221058633178473,-0.0217826068401337,-0.00860019586980343,-0.0462384335696697
702,-0.0134767480194569,-0.0050112004391849,-0.0170238260179758,-0.0190698504447937,-0.00817242916673422,-0.0415008626878262
703,0.00044600319233723,0.000346491578966379,-0.0115038249641657,-0.018517043441534,-0.00498153222724795,-0.0364560633897781
704,0.0129279252141714,0.000413929490605369,-0.0078583275899291,-0.0206402279436588,0.00507471198216081,-0.0300187543034554
705,0.0241215471178293,-0.00662210304290056,-0.00786624290049076,-0.0253276396542788,0.0201166141778231,-0.0249702576547861
706,0.0343832671642303,-0.0191700402647257,-0.0101769650354981,-0.0315645188093185,0.0348984524607658,-0.0233954135328531
707,0.0449977442622185,-0.0318942479789257,-0.0106543079018593,-0.0359467081725597,0.0455728992819786,-0.0239059906452894
708,0.0565394125878811,-0.0380289480090141,-0.00612846529111266,-0.0338594987988472,0.0476080849766731,-0.023328447714448
709,0.0624567158520222,-0.0341230146586895,0.00194333889521658,-0.0253975261002779,0.0366615131497383,-0.0200274586677551
710,0.0544910170137882,-0.0222871843725443,0.00918751582503319,-0.0157919712364674,0.0164243429899216,-0.0146773345768452
711,0.0339182205498219,-0.0087111908942461,0.0135895051062107,-0.00815758109092712,-0.00231037754565477,-0.00687859300523996
712,0.0103727141395211,-0.000560381158720702,0.0160787217319012,-0.00233332277275622,-0.0124368742108345,0.0023291374091059
713,-0.00580324698239565,-0.000957418000325561,0.0176846664398909,0.00153868400957435,-0.0123348645865917,0.00820486899465322
714,-0.0107318153604865,-0.00733463559299707,0.0162666365504265,0.00196328316815197,-0.003887755330652,0.00753722479566932
715,-0.0108830574899912,-0.0153241250663996,0.00849862303584814,-0.0019420487806201,0.00578249432146549,0.00146278797183186
716,-0.0141826281324029,-0.0219303853809834,-0.00243058358319104,-0.0082831010222435,0.00961156189441681,-0.00787822529673576
717,-0.019936503842473,-0.0278146918863058,-0.00998141244053841,-0.0159343350678682,0.00456418190151453,-0.0207381267100573
718,-0.0215775780379772,-0.0353186056017876,-0.0132478009909391,-0.0252907127141953,-0.007981869392097,-0.0365309454500675
719,-0.0163995735347271,-0.044275801628828,-0.0152981793507934,-0.0341206938028336,-0.0203246604651213,-0.0511704571545124
720,-0.0101515240967274,-0.0529170334339142,-0.0180184431374073,-0.03969606757164,-0.0234839171171188,-0.0611569620668888
721,-0.00647737877443433,-0.0585316047072411,-0.0214754231274128,-0.0414281152188778,-0.0152309741824865,-0.0647499337792397
722,-0.00137922435533255,-0.0591255389153957,-0.0257053188979626,-0.0402899123728275,-0.00251033250242472,-0.0617833398282528
723,0.00941399019211531,-0.0544623732566834,-0.0295252613723278,-0.0366989448666573,0.00871654041111469,-0.0535822026431561
724,0.0272286143153906,-0.0443181060254574,-0.0302213095128536,-0.029902458190918,0.0193629134446383,-0.0415325313806534
725,0.0489863492548466,-0.0315105877816677,-0.0274773314595222,-0.0218836665153503,0.0265682525932789,-0.0294666346162558
726,0.0660441964864731,-0.0228609703481197,-0.0238135904073715,-0.0170397218316793,0.0238163452595472,-0.0230417121201754
727,0.0674856603145599,-0.0234949178993702,-0.023020301014185,-0.0184092037379742,0.0109685268253088,-0.0246014799922705
728,0.0490582063794136,-0.0329862050712109,-0.028673954308033,-0.0258886609226465,-0.00649804715067148,-0.0315135829150677
729,0.0221586916595697,-0.0450625903904438,-0.0383520573377609,-0.0352130085229874,-0.0211948696523905,-0.0385396927595139
730,0.00588819617405534,-0.0519643388688564,-0.0434484966099262,-0.0419111922383308,-0.0258376020938158,-0.0435662120580673
731,0.00608017574995756,-0.0517024509608746,-0.0408746972680092,-0.0458884835243225,-0.0154698751866817,-0.0485911890864372
732,0.0111949322745204,-0.0475635267794132,-0.0380292758345604,-0.0471847988665104,0.0062692048959434,-0.0512460507452488
733,0.00984708033502102,-0.0419972874224186,-0.0414038151502609,-0.0434824228286743,0.0243544224649668,-0.0448916591703892
734,0.00250831712037325,-0.0363055765628815,-0.0475591756403446,-0.0351343415677547,0.0292200744152069,-0.0294313337653875
735,-0.00366762140765786,-0.031620666384697,-0.0505102872848511,-0.0250302664935589,0.025440689176321,-0.01124232634902
736,-0.00423089740797877,-0.0291265863925219,-0.0510285384953022,-0.0161680523306131,0.0176962800323963,0.00274428399279714
737,-0.000151798027218319,-0.0302832741290331,-0.0531914159655571,-0.0115187140181661,0.00693579390645027,0.00759265013039112
738,0.00462342007085681,-0.0342006124556065,-0.0581553168594837,-0.0119230952113867,-0.0033461160492152,0.00367419724352658
739,0.00596308475360274,-0.0380232930183411,-0.0642084777355194,-0.0158604141324759,-0.00907304603606462,-0.00490821478888392
740,0.0029925056733191,-0.0398860722780228,-0.0698599368333817,-0.0220433436334133,-0.00950696878135204,-0.0148451291024685
741,-0.0009856364922598,-0.0412524789571762,-0.0768774151802063,-0.0317023955285549,-0.00925110187381506,-0.0264487527310848
742,-0.00296935229562223,-0.043509516865015,-0.0857649892568588,-0.0446134470403194,-0.012948346324265,-0.0413298085331917
743,-0.00237159244716167,-0.045173417776823,-0.0918174907565117,-0.0555518977344036,-0.0179255269467831,-0.0559590943157673
744,-0.000735591747798026,-0.0482696928083897,-0.0937323868274689,-0.06162378937006,-0.0210232622921467,-0.0658281743526459
745,-0.00219320319592953,-0.0556432828307152,-0.0945656150579453,-0.0639562606811523,-0.0231853220611811,-0.0714020282030106
746,-0.00965489353984594,-0.0630627870559692,-0.093501940369606,-0.0616959109902382,-0.023525757715106,-0.0722505524754524
747,-0.0246308743953705,-0.067646712064743,-0.0908984765410423,-0.0572756975889206,-0.0219961907714605,-0.0698637366294861
748,-0.04355538636446,-0.0720113292336464,-0.0895682498812675,-0.0560299977660179,-0.0182859897613525,-0.0692073926329613
749,-0.0566249676048756,-0.0765679553151131,-0.0872999504208565,-0.0563854984939098,-0.00857045873999596,-0.070638120174408
750,-0.0592647381126881,-0.0801272168755531,-0.0800614058971405,-0.0548970140516758,0.00725779915228486,-0.0739532485604286
751,-0.0535293184220791,-0.082886166870594,-0.0679469928145409,-0.0524154417216778,0.0246558543294668,-0.0789756998419762
752,-0.0432576313614845,-0.0853111743927002,-0.0570129789412022,-0.0493581928312778,0.0374215431511402,-0.0820119678974152
753,-0.0342722535133362,-0.0875052064657211,-0.0543865449726582,-0.0457974150776863,0.0422594770789146,-0.0829812586307526
754,-0.0322184450924397,-0.0898351147770882,-0.0607544369995594,-0.0449109748005867,0.0395007766783237,-0.0867357105016708
755,-0.0370037332177162,-0.0929692760109901,-0.0718450546264648,-0.0489258281886578,0.0276212096214294,-0.0939778387546539
756,-0.0404151864349842,-0.0973072871565819,-0.0842625871300697,-0.0564663633704185,0.00665793241932988,-0.0997201353311539
757,-0.0354502759873867,-0.102103926241398,-0.0957637950778008,-0.0649746507406235,-0.0174630656838417,-0.100023292005062
758,-0.0271834041923285,-0.105537109076977,-0.103477343916893,-0.0722619667649269,-0.0366616696119308,-0.0961615890264511
759,-0.0244777575135231,-0.105618163943291,-0.104911714792252,-0.0769180580973625,-0.0428581722080708,-0.0926832109689713
760,-0.0288944318890572,-0.10202119499445,-0.099198006093502,-0.0782651826739311,-0.0303546991199255,-0.0925691351294518
761,-0.0377863198518753,-0.0986983925104141,-0.0879501476883888,-0.0776241272687912,-0.0041461605578661,-0.0959292128682137
762,-0.0469785965979099,-0.100147001445293,-0.0737121552228928,-0.0770126506686211,0.0218366552144289,-0.101596236228943
763,-0.0511090792715549,-0.105303540825844,-0.0588465183973312,-0.0759996026754379,0.0384784899652004,-0.108021810650826
764,-0.0511796027421951,-0.108420170843601,-0.0476030372083187,-0.0723393186926842,0.0448012538254261,-0.110877558588982
765,-0.0552741922438145,-0.10588264465332,-0.0450194105505943,-0.066291868686676,0.0397048331797123,-0.106112360954285
766,-0.0676684603095055,-0.0990589633584023,-0.051733311265707,-0.0623077154159546,0.0210650321096182,-0.0963384583592415
767,-0.0836767852306366,-0.0899239555001259,-0.0625166818499565,-0.064105361700058,-0.00727658765390515,-0.0867408886551857
768,-0.0934456288814545,-0.0797642394900322,-0.0711308866739273,-0.0706859305500984,-0.0360090136528015,-0.0792486518621445
769,-0.0897804796695709,-0.0688281655311584,-0.0733412504196167,-0.0759022459387779,-0.056355070322752,-0.0707803964614868
770,-0.0735719278454781,-0.0560230053961277,-0.0678087472915649,-0.073709636926651,-0.0649249330163002,-0.0564611293375492
771,-0.0528989173471928,-0.0426250770688057,-0.0582336634397507,-0.0652466416358948,-0.0658217519521713,-0.0369939431548119
772,-0.0367338471114635,-0.0336368791759014,-0.0526729039847851,-0.0579389035701752,-0.0672005116939545,-0.0192980132997036
773,-0.0296426974236965,-0.0350166484713554,-0.0568993799388409,-0.0603690184652805,-0.075974278151989,-0.011542378924787
774,-0.0314918048679829,-0.0452248342335224,-0.0639395192265511,-0.0721447989344597,-0.0892646983265877,-0.0149511052295566
775,-0.0370398499071598,-0.0533737950026989,-0.0602039806544781,-0.0806459933519363,-0.0934363529086113,-0.0200901553034782
776,-0.0366935580968857,-0.0528643503785133,-0.0446263924241066,-0.0769810155034065,-0.0805099457502365,-0.0175310932099819
777,-0.0272593591362238,-0.0476235002279282,-0.026718920096755,-0.0661883130669594,-0.0582623407244682,-0.00856026541441679
778,-0.0172592643648386,-0.0434268601238728,-0.0140742976218462,-0.0578042082488537,-0.0407936722040176,-0.00187764037400484
779,-0.0129343336448073,-0.0412730909883976,-0.0113914078101516,-0.0555520616471767,-0.0361190028488636,-0.00266219326294959
780,-0.0126268453896046,-0.0399006381630898,-0.0192445795983076,-0.0586564168334007,-0.0436375439167023,-0.00923668872565031
781,-0.0167218614369631,-0.0396165437996387,-0.0306791160255671,-0.0651951283216476,-0.0567375123500824,-0.0174419805407524
782,-0.0272643119096756,-0.0408214703202248,-0.0361866764724255,-0.0702885463833809,-0.0637311488389969,-0.0219323858618736
783,-0.0384513363242149,-0.0418772660195827,-0.0324758142232895,-0.068982370197773,-0.0546906925737858,-0.0186432227492332
784,-0.0400325506925583,-0.0420871712267399,-0.0262877959758043,-0.0642004460096359,-0.0351173207163811,-0.0108921257779002
785,-0.0290204212069511,-0.044076532125473,-0.0295661017298698,-0.0651712343096733,-0.0247728265821934,-0.00749717326834798
786,-0.0132781248539686,-0.0482669174671173,-0.0447163321077824,-0.0747402086853981,-0.0379632078111172,-0.0120222996920347
787,-0.00252290698699653,-0.0503249056637287,-0.0609285496175289,-0.0845330953598022,-0.0728835538029671,-0.0179545879364014
788,0.0009106794022955,-0.0467751026153564,-0.0696405693888664,-0.0842921361327171,-0.116278357803822,-0.0157050602138042
789,-0.00243219034746289,-0.0393464788794518,-0.0713533014059067,-0.0720314458012581,-0.151378810405731,-0.00357073405757546
790,-0.0105603570118546,-0.0333408676087856,-0.0700425878167152,-0.0557173453271389,-0.167610734701157,0.0105740977451205
791,-0.0146609963849187,-0.0311888493597507,-0.0688864141702652,-0.0449359230697155,-0.162827178835869,0.0184348654001951
792,-0.00671514496207237,-0.0309186894446611,-0.0687756687402725,-0.0429891496896744,-0.141501560807228,0.0166981890797615
793,0.0089488672092557,-0.0306932833045721,-0.067523717880249,-0.0475944355130196,-0.115430235862732,0.00707739731296897
794,0.0206761844456196,-0.0303495284169912,-0.0621832609176636,-0.0543607175350189,-0.0965740233659744,-0.00424754666164517
795,0.022512461990118,-0.0295121762901545,-0.0543287619948387,-0.058686550706625,-0.0882918164134026,-0.0111911073327065
796,0.0165280029177666,-0.0276748538017273,-0.051465205848217,-0.0608048774302006,-0.0860272645950317,-0.0155099034309387
797,0.0120924916118383,-0.0260152760893106,-0.0585561618208885,-0.065959669649601,-0.0827986672520638,-0.0231535490602255
798,0.0174068342894316,-0.0255529321730137,-0.0665133222937584,-0.0714994743466377,-0.0746642351150513,-0.0309039633721113
799,0.0226010214537382,-0.0272987019270658,-0.0625597983598709,-0.0671099126338959,-0.0642850995063782,-0.0307888928800821
800,0.0137650268152356,-0.0324774719774723,-0.0485272817313671,-0.0498657077550888,-0.0566758587956429,-0.0222385246306658
801,-0.00342181161977351,-0.0369570292532444,-0.0330239422619343,-0.0257374346256256,-0.0520603656768799,-0.00939987413585186
802,-0.015457957983017,-0.0352011285722256,-0.0192800294607878,-0.00339383352547884,-0.0475721620023251,0.00342740141786635
803,-0.0192244611680508,-0.0271247960627079,-0.0108407968655229,0.00964454934000969,-0.0440300852060318,0.0136557351797819
804,-0.0174002274870873,-0.0144972344860435,-0.011038888245821,0.0124119864776731,-0.0456324182450771,0.0233514551073313
805,-0.0113345766440034,-0.00182554323691875,-0.0163613110780716,0.0108685772866011,-0.0531254597008228,0.0344949774444103
806,-0.0021551966201514,0.00199095089919865,-0.0233618430793285,0.00760310795158148,-0.0626322701573372,0.0411598384380341
807,0.00780476862564683,-0.00549421925097704,-0.0315266810357571,-0.000481397029943764,-0.0687066540122032,0.0358419008553028
808,0.0135259889066219,-0.0161421578377485,-0.0390596836805344,-0.0124475080519915,-0.0682858675718308,0.0205118097364903
809,0.0107797449454665,-0.0228974483907223,-0.044794425368309,-0.0243089608848095,-0.0639803186058998,0.00336135295219719
810,0.00294543080963194,-0.025418134406209,-0.0477720946073532,-0.0343067236244679,-0.0583048760890961,-0.00863458309322596
811,-0.000633128569461405,-0.0251222159713507,-0.0469101071357727,-0.0408113747835159,-0.050291620194912,-0.011874333024025
812,0.00378504418767989,-0.0230763107538223,-0.0433865636587143,-0.0421703308820724,-0.0420221276581287,-0.00831455644220114
813,0.011587118729949,-0.0206526443362236,-0.0387488305568695,-0.0392395593225956,-0.0390756987035275,-0.00424141716212034
814,0.0177484508603811,-0.0184444114565849,-0.0346599668264389,-0.0354631096124649,-0.0444147549569607,-0.0046932497061789
815,0.0195695850998163,-0.0159930847585201,-0.034543838351965,-0.0353137999773026,-0.0563635230064392,-0.00982631184160709
816,0.0181179363280535,-0.0125294262543321,-0.0389934107661247,-0.0397937521338463,-0.0683657452464104,-0.0154860680922866
817,0.0164538063108921,-0.00761667313054204,-0.0430148281157017,-0.0440518110990524,-0.0726895555853844,-0.0185698270797729
818,0.0163936428725719,-0.00211973255500197,-0.0428646951913834,-0.0434976853430271,-0.0679032206535339,-0.0202837828546762
819,0.0197798702865839,0.00176401936914772,-0.0403637290000916,-0.0392339006066322,-0.058246772736311,-0.0233507007360458
820,0.0259081553667784,0.00290164514444768,-0.0382379703223705,-0.0355476401746273,-0.0475240014493465,-0.0287417974323034
821,0.0317226462066174,0.00376431993208826,-0.037218239158392,-0.03425083309412,-0.0383733212947845,-0.0344275832176209
822,0.0349771790206432,0.00791122019290924,-0.0373170003294945,-0.0331900790333748,-0.0340138040482998,-0.0353921614587307
823,0.0319428406655788,0.0135016981512308,-0.0385902225971222,-0.0309353433549404,-0.0370738543570042,-0.0285495519638062
824,0.0192485339939594,0.0162367597222328,-0.0407944284379482,-0.0294956862926483,-0.0475311130285263,-0.0188994947820902
825,0.00108226353768259,0.016059935092926,-0.0434135533869267,-0.0319373048841953,-0.0616483017802238,-0.0165633950382471
826,-0.0107590155676007,0.0125434333458543,-0.0466944314539433,-0.0400348976254463,-0.0741367489099503,-0.0285963490605354
827,-0.00968427397310734,0.00323121948167682,-0.0494630932807922,-0.0514925755560398,-0.0811956822872162,-0.0524994991719723
828,-0.000177500216523185,-0.00986346043646336,-0.0483456514775753,-0.0599675923585892,-0.0805302485823631,-0.0762215256690979
829,0.0118239428848028,-0.0195615235716105,-0.0423932410776615,-0.0600383915007114,-0.0723774284124374,-0.0881779491901398
830,0.0202955044806004,-0.0204674024134874,-0.0352194458246231,-0.0520992614328861,-0.0605552569031715,-0.0869518294930458
831,0.0207227244973183,-0.0129602625966072,-0.031114736571908,-0.0417228043079376,-0.0504133142530918,-0.0792040005326271
832,0.0149345025420189,-0.000301786058116704,-0.0331701301038265,-0.0347853451967239,-0.0472845435142517,-0.072139710187912
833,0.00704569322988391,0.014332621358335,-0.0426823012530804,-0.0332866385579109,-0.0525567047297955,-0.067335270345211
834,0.00119750725571066,0.0288176890462637,-0.0530833303928375,-0.0334810651838779,-0.0594012886285782,-0.0585530586540699
835,-0.000345697597367689,0.0411093272268772,-0.0537110939621925,-0.030769731849432,-0.0608498156070709,-0.0403034240007401
836,0.00140045664738864,0.0480312556028366,-0.0419994033873081,-0.0253398735076189,-0.0575659610331059,-0.0172372851520777
837,0.00864456128329039,0.0474651195108891,-0.0225704722106457,-0.0186428725719452,-0.0488979294896126,0.000490876263938844
838,0.0243825223296881,0.0394879095256329,-0.00258021755144,-0.0118571016937494,-0.0299248490482569,0.00585882319137454
839,0.0391624458134174,0.0259625054895878,0.00941654946655035,-0.00883679930120707,-0.00355840753763914,-0.0018517334247008
840,0.0407006740570068,0.0123620321974158,0.00992698036134243,-0.0111234104260802,0.0170424990355968,-0.0168678909540176
841,0.0291661228984594,0.00385447917506099,0.00210242951288819,-0.0159904267638922,0.0196586921811104,-0.0325363166630268
842,0.013489780947566,0.00108791643287987,-0.00810610875487328,-0.0207320228219032,0.00523792812600732,-0.0451972745358944
843,0.00210939650423825,0.0031414304394275,-0.0150304697453976,-0.0230226181447506,-0.0133251370862126,-0.0529802963137627
844,-0.00481598079204559,0.00974014215171337,-0.0160971134901047,-0.0209788978099823,-0.0248893015086651,-0.0552131235599518
845,-0.00989179313182831,0.019518218934536,-0.0115259736776352,-0.0154180452227592,-0.028365932404995,-0.0526353716850281
846,-0.00985456351190805,0.0289919488132,-0.00512507185339928,-0.0106099965050817,-0.0308696944266558,-0.047427698969841
847,-0.0033871796913445,0.035994078963995,-0.00167837145272642,-0.00948906037956476,-0.0390812046825886,-0.0403408668935299
848,0.00274714292027056,0.0403542295098305,-0.00132101506460458,-0.0114277005195618,-0.053413387387991,-0.0330214165151119
849,0.00397649500519037,0.0443728156387806,-0.000193749612662941,-0.0152240544557571,-0.0680227875709534,-0.0308452975004911
850,0.00143892015330493,0.0511673577129841,-7.4371178925503E-05,-0.0214435420930386,-0.0780705809593201,-0.03816894069314
851,-0.0022684819996357,0.058718740940094,-0.00749950995668769,-0.0295690111815929,-0.0844195038080215,-0.0536740534007549
852,-0.000273161160293967,0.0660358816385269,-0.0156310498714447,-0.032577607780695,-0.0829316675662994,-0.0664821863174438
853,0.00857004150748253,0.0766716375946999,-0.0116819282993674,-0.0251747444272041,-0.0650927573442459,-0.0646587535738945
854,0.0131201511248946,0.090979591012001,0.0030434257350862,-0.0125724412500858,-0.0336480289697647,-0.0495131611824036
855,0.00907785072922707,0.105948828160763,0.0204606521874666,-0.00367823545821011,-0.00501134851947427,-0.0333912335336208
856,0.00368265574797988,0.120490245521069,0.0343600325286388,-0.00414100848138332,0.00304355262778699,-0.0253587607294321
857,0.000890548399183899,0.135448515415192,0.0394483283162117,-0.0134752914309502,-0.0136690801009536,-0.0229581389576197
858,-0.00119750306475908,0.145676910877228,0.0372805409133434,-0.0234922468662262,-0.041407972574234,-0.0181482061743736
859,-0.00257371156476438,0.141835555434227,0.037339098751545,-0.0267640426754951,-0.0605749376118183,-0.00605135690420866
860,0.000693810638040304,0.121742203831673,0.0441543199121952,-0.0263117104768753,-0.0632392913103104,0.00725534046068788
861,0.0102045675739646,0.0934415087103844,0.0525332726538181,-0.026762617751956,-0.0548883229494095,0.010433129966259
862,0.0271527301520109,0.0678746849298477,0.0564208254218102,-0.0280985459685326,-0.0426132380962372,0.00105074176099151
863,0.0523457899689674,0.0482837930321693,0.0558631420135498,-0.0333632007241249,-0.0301929581910372,-0.0171623043715954
864,0.0722158178687096,0.0323203913867474,0.0578251071274281,-0.0442451611161232,-0.0173230469226837,-0.0394459813833237
865,0.0714099928736687,0.0194956101477146,0.0686686784029007,-0.0549878887832165,-0.00263433787040412,-0.0588803701102734
866,0.054539643228054,0.0123034063726664,0.0859541073441505,-0.0598631054162979,0.0117746684700251,-0.0700729563832283
867,0.0343587063252926,0.0137393530458212,0.0997001826763153,-0.0597772598266602,0.019208986312151,-0.070613756775856
868,0.0184511318802834,0.02340242639184,0.103131949901581,-0.0616200715303421,0.00965394824743271,-0.0574097484350204
869,0.0074549806304276,0.0368010625243187,0.0997773632407188,-0.0702086761593819,-0.0171011034399271,-0.0345911458134651
870,-0.00259531429037452,0.0476593561470509,0.0937419310212135,-0.0793841332197189,-0.0451495051383972,-0.0165064577013254
871,-0.0135809881612659,0.0491945967078209,0.0858566835522652,-0.0784396305680275,-0.0574355646967888,-0.00937581993639469
872,-0.0217564031481743,0.0360506772994995,0.0820371061563492,-0.0673271045088768,-0.0490592569112778,-0.00906442105770111
873,-0.0205768961459398,0.0110781034454703,0.0881676226854324,-0.0568673200905323,-0.0280076116323471,-0.0162174608558416
874,-0.010963742621243,-0.0142190996557474,0.10025379806757,-0.0547825917601585,-0.00950644258409739,-0.034472968429327
875,-0.000162192533025518,-0.0306582320481539,0.107787869870663,-0.0602742917835712,-0.0061766505241394,-0.0596545599400997
876,0.00948413740843534,-0.0374181382358074,0.103923380374908,-0.0708055421710014,-0.0196542646735907,-0.0794662237167358
877,0.0170035995543003,-0.0365966036915779,0.0925136879086494,-0.083403155207634,-0.0410748273134232,-0.0843516439199448
878,0.0172272901982069,-0.0309834182262421,0.0815136358141899,-0.0936783999204636,-0.0597373098134995,-0.0804439857602119
879,0.00874977838248014,-0.0273831561207771,0.0728654935956001,-0.100257083773613,-0.0720570012927055,-0.08180271089077
880,-0.005974056199193,-0.0308620538562536,0.0664480030536652,-0.10432193428278,-0.0781192034482956,-0.0904574990272522
881,-0.024429626762867,-0.0376767739653587,0.065656989812851,-0.10493078827858,-0.0747446417808533,-0.097989059984684
882,-0.0412906594574451,-0.0412824414670467,0.0742815881967545,-0.100630685687065,-0.0621357224881649,-0.0991333648562431
883,-0.0522619858384132,-0.0432096421718597,0.0896681696176529,-0.0942266434431076,-0.0466298572719097,-0.0966695994138718
884,-0.0551570653915405,-0.0506215579807758,0.103670187294483,-0.0896763503551483,-0.0310372412204742,-0.0958857089281082
885,-0.0542557463049889,-0.0645308569073677,0.111363030970097,-0.0887286141514778,-0.0145557411015034,-0.0992429032921791
886,-0.061464361846447,-0.0805964469909668,0.111317045986652,-0.094236709177494,-0.00133527489379048,-0.10865043848753
887,-0.0790982842445374,-0.0973686724901199,0.101171083748341,-0.109409958124161,-0.000650244124699384,-0.126242592930794
888,-0.0956520959734917,-0.112040862441063,0.0848781391978264,-0.129418462514877,-0.013167766854167,-0.1489078104496
889,-0.100785255432129,-0.117219537496567,0.0755978673696518,-0.140650764107704,-0.0282877963036299,-0.16476021707058
890,-0.0908132791519165,-0.111693128943443,0.0782722160220146,-0.135859802365303,-0.0413102693855762,-0.162883922457695
891,-0.0662042200565338,-0.101795360445976,0.0844999179244041,-0.121567651629448,-0.0555925630033016,-0.14631512761116
892,-0.0384278036653996,-0.0921043008565903,0.09078698605299,-0.106978565454483,-0.0697996541857719,-0.126767590641975
893,-0.0284191742539406,-0.084634467959404,0.0991864502429962,-0.0973854213953018,-0.0780637189745903,-0.113685123622417
894,-0.0431675054132938,-0.0796303525567055,0.105139680206776,-0.0950155630707741,-0.0769517198204994,-0.110661044716835
895,-0.0663492679595947,-0.0736232548952103,0.105694070458412,-0.0959865674376488,-0.0649247169494629,-0.112519569694996
896,-0.0789435431361198,-0.0647582411766052,0.104063160717487,-0.0952156409621239,-0.0485597997903824,-0.113809376955032
897,-0.0770720914006233,-0.0560796707868576,0.103999249637127,-0.092687226831913,-0.0417318530380726,-0.115746274590492
898,-0.0704541504383087,-0.0518418475985527,0.106542728841305,-0.0909193679690361,-0.0494735389947891,-0.120763212442398
899,-0.0688457563519478,-0.0545519888401031,0.108059488236904,-0.0917157307267189,-0.0645393803715706,-0.129991874098778
900,-0.0715824514627457,-0.0619723573327065,0.107869684696198,-0.0939765945076942,-0.0760211497545242,-0.142654925584793
901,-0.0706082880496979,-0.0686181038618088,0.110734559595585,-0.0960495173931122,-0.0760836079716682,-0.156810209155083
902,-0.0615463927388191,-0.0709814429283142,0.117873691022396,-0.0985128208994865,-0.0643250793218613,-0.169687494635582
903,-0.0512202195823193,-0.0696762874722481,0.122919626533985,-0.103340730071068,-0.051547609269619,-0.178023457527161
904,-0.0471734032034874,-0.0665985345840454,0.121713235974312,-0.109239973127842,-0.0492131300270557,-0.178097292780876
905,-0.0467507168650627,-0.0635307282209396,0.11931536346674,-0.111371271312237,-0.0562410168349743,-0.168508291244507
906,-0.0441295355558395,-0.0636339336633682,0.119167409837246,-0.109742626547813,-0.0657027661800385,-0.155813306570053
907,-0.0392830744385719,-0.067946694791317,0.118377938866615,-0.109191715717316,-0.0731803923845291,-0.148808673024178
908,-0.0368649140000343,-0.0729148462414742,0.11691277474165,-0.109388016164303,-0.0768075883388519,-0.148843571543694
909,-0.0376388765871525,-0.0754609033465385,0.119822129607201,-0.104467384517193,-0.0760323479771614,-0.152226060628891
910,-0.0389070212841034,-0.0756604373455048,0.131854563951492,-0.0926619693636894,-0.0690119415521622,-0.157673090696335
911,-0.0397494286298752,-0.0740659832954407,0.151483908295631,-0.0797249004244804,-0.0550541914999485,-0.165504828095436
912,-0.0362195447087288,-0.0729624554514885,0.16794553399086,-0.0729387626051903,-0.0384131483733654,-0.171742215752602
913,-0.0238466933369637,-0.0754955857992172,0.171419620513916,-0.0728999301791191,-0.0247801914811134,-0.168578177690506
914,-0.00872070994228125,-0.0794207975268364,0.163625851273537,-0.0750464871525764,-0.0211568344384432,-0.15513151884079
915,-9.92845598375425E-05,-0.0757331475615501,0.152953505516052,-0.0755477920174599,-0.0309629682451487,-0.139339148998261
916,0.00265309843234718,-0.0593492798507214,0.146201223134995,-0.0708229169249535,-0.0439297966659069,-0.126886948943138
917,0.00440506776794791,-0.0407239831984043,0.145274683833122,-0.0590324476361275,-0.0480835251510143,-0.120612844824791
918,0.00682006869465113,-0.0351503454148769,0.147766187787056,-0.0433849468827248,-0.0453452430665493,-0.123252853751183
919,0.0123156355693936,-0.0436446666717529,0.149179026484489,-0.0323954746127129,-0.0433015301823616,-0.133774966001511
920,0.0253322757780552,-0.0547865517437458,0.146840155124664,-0.035325076431036,-0.0442641824483871,-0.14871472120285
921,0.042717132717371,-0.0583201535046101,0.144749969244003,-0.0506284721195698,-0.0437009930610657,-0.163688689470291
922,0.0559201240539551,-0.0535249039530754,0.148666456341743,-0.0663390085101128,-0.0346313156187534,-0.174754172563553
923,0.0647697374224663,-0.0501960404217243,0.158056706190109,-0.0753617733716965,-0.0194787308573723,-0.180841475725174
924,0.073098249733448,-0.0562411732971668,0.16791869699955,-0.0770941972732544,-0.00796149577945471,-0.18025416135788
925,0.0792573392391205,-0.0655816718935966,0.172303542494774,-0.0695446655154228,-0.00232794671319425,-0.170171067118645
926,0.0795609354972839,-0.0675850436091423,0.168001085519791,-0.0526603236794472,-6.92622124915943E-05,-0.152127653360367
927,0.0737973898649216,-0.0607989728450775,0.15861564874649,-0.0328608863055706,-0.00174036144744605,-0.133234858512878
928,0.0659269914031029,-0.0492351837456226,0.151115745306015,-0.0165368057787418,-0.00714335311204195,-0.119242861866951
929,0.0603933408856392,-0.0353248976171017,0.14856693148613,-0.00482109980657697,-0.0140893505886197,-0.110329188406467
930,0.0563388578593731,-0.0224003940820694,0.148027464747429,0.00164332392159849,-0.0224982220679522,-0.105971932411194
931,0.0512688793241978,-0.0138748716562986,0.145122975111008,0.00175662944093347,-0.0333605036139488,-0.10571701079607
932,0.0486218929290771,-0.00633482821285725,0.140644043684006,-0.000129195293993689,-0.043230727314949,-0.105175793170929
933,0.0514845363795757,0.00459254626184702,0.13842536509037,-0.000216585744055919,-0.0461238287389278,-0.104471810162067
934,0.0572018511593342,0.012359818443656,0.138392046093941,-0.00270113116130233,-0.0407220460474491,-0.111383870244026
935,0.0629235953092575,0.00738834263756871,0.13874226808548,-0.0106900539249182,-0.0294877476990223,-0.126930207014084
936,0.0665970742702484,-0.00906173326075077,0.140037432312965,-0.0206255130469799,-0.0164623595774174,-0.144091933965683
937,0.0667556375265121,-0.0258864779025316,0.143252596259117,-0.0269663091748953,-0.00652943039312959,-0.157025396823883
938,0.0670561343431473,-0.0313458666205406,0.148172080516815,-0.025093199685216,-0.00161824282258749,-0.161656230688095
939,0.0709242448210716,-0.0239626839756966,0.152820482850075,-0.0156457871198654,-0.00251450180076063,-0.158313900232315
940,0.0748979225754738,-0.0127385519444942,0.154723852872849,-0.00525768753141165,-0.00887459702789783,-0.153075516223907
941,0.0736588910222054,-0.00419117789715528,0.153943195939064,0.0012785050785169,-0.018141895532608,-0.148836195468903
942,0.0672031417489052,0.00234547606669366,0.150222927331924,0.00377095118165016,-0.0289421249181032,-0.143260970711708
943,0.0593425557017326,0.00829559937119484,0.141051426529884,0.00304656126536429,-0.0386847965419292,-0.136487394571304
944,0.0516221523284912,0.0132378973066807,0.127967417240143,0.000532145728357136,-0.0427987687289715,-0.131151959300041
945,0.0458407625555992,0.0172603614628315,0.118627652525902,-0.000729138089809567,-0.0383088439702988,-0.1271932721138
946,0.046110849827528,0.0209903940558434,0.118735276162624,0.00203172117471695,-0.0257578007876873,-0.122450664639473
947,0.0534163489937782,0.0228538662195206,0.125195428729057,0.00782708823680878,-0.0113719133660197,-0.116588518023491
948,0.0638138949871063,0.0204701628535986,0.130024969577789,0.0127935381606221,-0.00280128256417811,-0.110070809721947
949,0.0733707100152969,0.0152100687846541,0.129369348287582,0.0157732702791691,-0.000305908935843036,-0.101132519543171
950,0.081525482237339,0.0114372130483389,0.125011116266251,0.0182340852916241,0.000827615207526833,-0.0899379104375839
951,0.0866609737277031,0.0125991767272353,0.118436895310879,0.0189624615013599,0.00127125263679773,-0.0819075256586075
952,0.0877551808953285,0.020408883690834,0.111122637987137,0.0172091145068407,0.000717146613169461,-0.0799362063407898
953,0.0881480723619461,0.0328004248440266,0.107245929539204,0.0169911719858646,0.00210595666430891,-0.0792375281453133
954,0.0888290256261826,0.0414568930864334,0.10811984539032,0.0203983411192894,0.00503966258838773,-0.0749321579933167
955,0.0892415642738342,0.0399406142532825,0.110834077000618,0.0250031873583794,0.00578888412564993,-0.0667099207639694
956,0.090997502207756,0.0309087857604027,0.11326526850462,0.0291747972369194,0.00518421549350023,-0.0581270977854729
957,0.0923204198479652,0.0204800069332123,0.114959418773651,0.0328855738043785,0.00836801249533892,-0.0547320395708084
958,0.0903424099087715,0.0125609142705798,0.115010604262352,0.035734761506319,0.0159365050494671,-0.057077694684267
959,0.0898882523179054,0.00921609532088041,0.112022586166859,0.0376586578786373,0.0226053390651941,-0.0606636255979538
960,0.0978481099009514,0.0122294165194035,0.106691025197506,0.0400643944740295,0.0255718007683754,-0.0631497204303741
961,0.11206291615963,0.0210377816110849,0.101185232400894,0.0431076474487782,0.0251797307282686,-0.0651559606194496
962,0.123669728636742,0.0319390706717968,0.0971540361642838,0.0448528788983822,0.021708071231842,-0.0661153346300125
963,0.126175463199615,0.0434585362672806,0.0970265120267868,0.047352135181427,0.0188209526240826,-0.0622892081737518
964,0.120744042098522,0.0564686432480812,0.101424507796764,0.0557095669209957,0.0206439215689898,-0.0513035282492638
965,0.113947384059429,0.0680961832404137,0.106019586324692,0.068368598818779,0.024344440549612,-0.0371602661907673
966,0.109099827706814,0.0730462372303009,0.105332896113396,0.07545205950737,0.0242127235978842,-0.0271988529711962
967,0.106190256774426,0.0712704434990883,0.0989049002528191,0.0702505633234978,0.0220963750034571,-0.0247686430811882
968,0.106375314295292,0.0665139108896255,0.0914415419101715,0.0574525333940983,0.0264282450079918,-0.0278638284653425
969,0.109141372144222,0.0590946413576603,0.0862244814634323,0.0452908501029015,0.0389930792152882,-0.0320699363946915
970,0.110915787518024,0.0496434047818184,0.0831091478466988,0.0386762581765652,0.0511800274252892,-0.0322129763662815
971,0.108553469181061,0.0439174175262451,0.0801941677927971,0.0393037050962448,0.0535559095442295,-0.0274728331714869
972,0.104912340641022,0.0471493527293205,0.0743333473801613,0.0427750274538994,0.0438094958662987,-0.0223970282822847
973,0.106113776564598,0.059378556907177,0.0633374452590942,0.0414110980927944,0.0265601277351379,-0.0195460636168718
974,0.113109938800335,0.0746683105826378,0.0497329495847225,0.03608313575387,0.00970803946256638,-0.0158428512513638
975,0.122395724058151,0.0828623697161675,0.0411829575896263,0.0362690649926662,0.00297262123785913,-0.00682466570287943
976,0.130265787243843,0.0757210552692413,0.0402221009135246,0.0444473661482334,0.00911632645875216,0.00510557275265455
977,0.13712802529335,0.0543800853192806,0.0395172461867332,0.053098302334547,0.0164730250835419,0.0128241116181016
978,0.145117908716202,0.0308706220239401,0.0346064157783985,0.0564558506011963,0.0132400738075376,0.0152570577338338
979,0.150162816047668,0.0159421879798174,0.0293939933180809,0.0540420599281788,0.00107379362452775,0.014831923879683
980,0.146179154515266,0.0107901031151414,0.0268037915229797,0.0479268915951252,-0.0115899899974465,0.0119911944493651
981,0.131909713149071,0.0144701134413481,0.0252853911370039,0.0419019721448421,-0.0191473923623562,0.00958834122866392
982,0.109967671334744,0.0247308146208525,0.0212647598236799,0.0364585779607296,-0.0236280970275402,0.00958785694092512
983,0.0866623297333717,0.0320264138281345,0.0102698653936386,0.0278935022652149,-0.0327557884156704,0.00727128470316529
984,0.0698636025190353,0.028324855491519,-0.00400189124047756,0.0192627590149641,-0.0465083830058575,0.00155794690363109
985,0.0622026026248932,0.0179345477372408,-0.00835206918418407,0.0197047479450703,-0.0553415790200233,0.000550238764844835
986,0.0621811114251614,0.010695930570364,0.000373164919437841,0.0312711447477341,-0.054744940251112,0.00947627238929272
987,0.0693360418081284,0.0111833270639181,0.0107049774378538,0.0484741702675819,-0.0462963096797466,0.024219274520874
