,AF3,AF4,Fp1,Fp2,AF7,AF8
0,0.0155038740485907,0.0134931327775121,-0.5,-0.0952611938118935,-0.5,-0.5
1,0.0196712110191584,0.0165382381528616,-0.5,-0.0917955487966537,-0.5,-0.5
2,0.0213166065514088,0.0188498422503471,-0.5,-0.0888778194785118,-0.5,-0.5
3,0.0207274481654167,0.0189965646713972,-0.5,-0.0867016687989235,-0.5,-0.5
4,0.0176056679338217,0.0165052693337202,-0.5,-0.0849769189953804,-0.5,-0.5
5,0.0119444048032165,0.0126836616545916,-0.5,-0.0821671560406685,-0.5,-0.5
6,0.00673379469662905,0.00978922192007303,-0.5,-0.0771818533539772,-0.5,-0.5
7,0.0046742158010602,0.00827035028487444,-0.5,-0.0713307783007622,-0.5,-0.5
8,0.00622219825163484,0.00842076446861029,-0.5,-0.0659067407250404,-0.5,-0.5
9,0.0110570387914777,0.0111080361530185,-0.5,-0.0609785914421082,-0.5,-0.5
10,0.0175035428255796,0.014753338880837,-0.5,-0.0570209100842476,-0.5,-0.5
11,0.0231835450977087,0.0167011432349682,-0.5,-0.0545045249164104,-0.5,-0.5
12,0.0260925088077784,0.0160101726651192,-0.5,-0.0536807179450989,-0.5,-0.5
13,0.0253593977540731,0.0131682204082608,-0.5,-0.054096631705761,-0.5,-0.5
14,0.0214293897151947,0.0080757737159729,-0.5,-0.0548866242170334,-0.5,-0.5
15,0.0156438425183296,0.00075447594281286,-0.5,-0.0557071566581726,-0.5,-0.5
16,0.00927624478936195,-0.00711724022403359,-0.5,-0.0566046983003616,-0.5,-0.5
17,0.00308105698786676,-0.0131963239982724,-0.5,-0.0570114701986313,-0.5,-0.5
18,-0.00216555083170533,-0.0162896048277617,-0.5,-0.0560393258929253,-0.5,-0.5
19,-0.00548982433974743,-0.0165142100304365,-0.5,-0.0536046028137207,-0.5,-0.5
20,-0.00580019550397992,-0.0140396310016513,-0.5,-0.0498778596520424,-0.5,-0.5
21,-0.00335949892178178,-0.0104916449636221,-0.5,-0.0461567379534245,-0.5,-0.5
22,0.000701172859407961,-0.00839566625654697,-0.5,-0.0442220009863377,-0.5,-0.5
23,0.00492300512269139,-0.00875059887766838,-0.5,-0.0445406436920166,-0.5,-0.5
24,0.00711974361911416,-0.0111461477354169,-0.5,-0.0464298911392689,-0.5,-0.5
25,0.00621526036411524,-0.0139691764488816,-0.5,-0.0482775270938873,-0.5,-0.5
26,0.00262849219143391,-0.0156389027833939,-0.5,-0.0487411022186279,-0.5,-0.5
27,-0.00232778326608241,-0.0159613098949194,-0.5,-0.0477631352841854,-0.5,-0.5
28,-0.00651006959378719,-0.0151379741728306,-0.5,-0.0459348186850548,-0.5,-0.5
29,-0.00807250663638115,-0.0129905492067337,-0.5,-0.043705377727747,-0.5,-0.5
30,-0.00658317049965262,-0.00998316146433353,-0.5,-0.0414290875196457,-0.5,-0.5
31,-0.00271544535644352,-0.00741591863334179,-0.5,-0.0394679866731167,-0.5,-0.5
32,0.0021337466314435,-0.00655616819858551,-0.5,-0.0386309958994389,-0.5,-0.5
33,0.00630130525678396,-0.00747134583070874,-0.5,-0.0395335555076599,-0.5,-0.5
34,0.00912511628121138,-0.00814679730683565,-0.5,-0.0408333204686642,-0.5,-0.5
35,0.0100582512095571,-0.0071507622487843,-0.5,-0.0408663265407085,-0.5,-0.5
36,0.00800683628767729,-0.00544175785034895,-0.5,-0.0399371311068535,-0.5,-0.5
37,0.00377199961803854,-0.00393023760989308,-0.5,-0.0388631038367748,-0.5,-0.5
38,0.000193585015949793,-0.00262236059643328,-0.5,-0.0372709184885025,-0.5,-0.5
39,-0.00092079263413325,-0.00113674730528146,-0.5,-0.0341661162674427,-0.5,-0.5
40,-0.00069576851092279,0.000512585858814418,-0.5,-0.0295943953096867,-0.5,-0.5
41,-0.00151147763244808,0.00092133623547852,-0.5,-0.0251323897391558,-0.5,-0.5
42,-0.0042730295099318,-0.000918190809898078,-0.5,-0.0222671013325453,-0.5,-0.5
43,-0.00741287413984537,-0.00306105590425432,-0.5,-0.0207030866295099,-0.5,-0.5
44,-0.00949481129646301,-0.00311108818277717,-0.5,-0.0199475158005953,-0.5,-0.5
45,-0.0115190669894218,-0.00150816712994128,-0.5,-0.0206627398729324,-0.5,-0.5
46,-0.0144446110352874,0.000375520001398399,-0.5,-0.022523695603013,-0.5,-0.5
47,-0.016941986978054,0.00293595064431429,-0.5,-0.0226914808154106,-0.5,-0.5
48,-0.0174529664218426,0.00635292707011104,-0.5,-0.0192741695791483,-0.5,-0.5
49,-0.016844779253006,0.00821886956691742,-0.493107348680496,-0.0145253455266356,-0.5,-0.5
50,-0.0162304043769836,0.00762948859483004,-0.473305493593216,-0.0102726342156529,-0.5,-0.5
51,-0.0161024443805218,0.00629469892010093,-0.453158050775528,-0.00591393746435642,-0.5,-0.5
52,-0.0172466784715652,0.00483258860185742,-0.434061020612717,-0.00156281981617212,-0.5,-0.5
53,-0.0194497406482697,0.00314414454624057,-0.417762607336044,0.0018518939614296,-0.5,-0.5
54,-0.0216929875314236,0.00212931376881897,-0.403567284345627,0.00448334123939276,-0.5,-0.5
55,-0.0235622655600309,0.00219753780402243,-0.388928323984146,0.00696475291624665,-0.5,-0.5
56,-0.0247450228780508,0.00275025609880686,-0.371419131755829,0.00896783173084259,-0.5,-0.5
57,-0.0226983446627855,0.0050676641985774,-0.348194897174835,0.011690391227603,-0.5,-0.5
58,-0.0163082759827375,0.00984302442520857,-0.319031536579132,0.0163023862987757,-0.5,-0.5
59,-0.00932596437633038,0.0145565988495946,-0.288689494132996,0.0210501980036497,-0.5,-0.5
60,-0.00537338061258197,0.016898337751627,-0.262086272239685,0.0238064453005791,-0.5,-0.5
61,-0.00452469429001212,0.0162825770676136,-0.240562409162521,0.0238838996738195,-0.5,-0.5
62,-0.00569198001176119,0.0129420403391123,-0.223056972026825,0.0221356861293316,-0.5,-0.5
63,-0.0088036572560668,0.00693996716290712,-0.208614453673363,0.0194184500724077,-0.5,-0.5
64,-0.0125693986192346,-0.000195598666323349,-0.1955756098032,0.01644541695714,-0.5,-0.5
65,-0.0139921484515071,-0.00546352844685316,-0.181020259857178,0.0145159065723419,-0.5,-0.5
66,-0.0118254944682121,-0.0080240610986948,-0.163175627589226,0.0141602773219347,-0.5,-0.5
67,-0.00727010471746325,-0.00870779622346163,-0.14226932823658,0.0151585452258587,-0.5,-0.5
68,-0.00188495870679617,-0.00772815430536866,-0.119973085820675,0.0173415802419186,-0.5,-0.5
69,0.00311686564236879,-0.00528042484074831,-0.0985794067382813,0.0201983656734228,-0.5,-0.5
70,0.00765839824452996,-0.00117843272164464,-0.0788289830088615,0.023952778428793,-0.5,-0.5
71,0.0120032643899322,0.00435343291610479,-0.06051966547966,0.0287756565958261,-0.5,-0.5
72,0.0142023768275976,0.00846431404352188,-0.0445040240883827,0.0326147489249706,-0.5,-0.485939919948578
73,0.0134358806535602,0.00971192214637995,-0.0307856965810061,0.0344869494438171,-0.5,-0.461601614952087
74,0.0115188341587782,0.00982604827731848,-0.0185186434537172,0.0353632941842079,-0.5,-0.440562576055527
75,0.00845407880842686,0.00894437916576862,-0.00857475679367781,0.0349988304078579,-0.5,-0.421038895845413
76,0.00397641863673925,0.00660647777840495,-0.00185628153849393,0.0337358117103577,-0.5,-0.401011079549789
77,-0.000436144939158112,0.00370065867900848,0.00250053475610912,0.0332886017858982,-0.5,-0.37721511721611
78,-0.00431362353265285,0.0001818052114686,0.00545761687681079,0.0335005037486553,-0.5,-0.349622637033463
79,-0.00814240612089634,-0.00434289965778589,0.00788191612809896,0.0328207239508629,-0.5,-0.321458429098129
80,-0.0109319286420941,-0.00819265004247427,0.0124139413237572,0.0316856391727924,-0.5,-0.294366747140884
81,-0.0112851820886135,-0.00897525623440742,0.022159131243825,0.031591422855854,-0.5,-0.269021242856979
82,-0.010668808594346,-0.00670763663947582,0.0367005914449692,0.0322142764925957,-0.5,-0.246960356831551
83,-0.0118583329021931,-0.00298773567192256,0.0525806173682213,0.0327533446252346,-0.5,-0.228480041027069
84,-0.015137935988605,0.00084380031330511,0.0674567446112633,0.0335679836571217,-0.5,-0.212093755602837
85,-0.0176590625196695,0.0042082741856575,0.0820790007710457,0.0357294715940952,-0.5,-0.195410624146461
86,-0.0168668013066053,0.00717072002589703,0.0979148000478745,0.0398802421987057,-0.5,-0.177010804414749
87,-0.0134079726412892,0.00963076297193766,0.114505231380463,0.0453157387673855,-0.5,-0.157904177904129
88,-0.0104032764211297,0.0103871608152986,0.129485964775085,0.0498246289789677,-0.5,-0.140689387917519
89,-0.00976805202662945,0.00873692147433758,0.14120851457119,0.0519234724342823,-0.5,-0.126636371016502
90,-0.010143325664103,0.00598105043172836,0.150597870349884,0.0526897720992565,-0.5,-0.114198386669159
91,-0.00998322293162346,0.00362682738341391,0.159230843186378,0.0534452050924301,-0.5,-0.101129114627838
92,-0.00850194692611694,0.00383623619563878,0.168645575642586,0.055234182626009,-0.5,-0.0851506218314171
93,-0.00523823313415051,0.00801695231348276,0.179545611143112,0.0588846877217293,-0.5,-0.0656954273581505
94,-0.00167482020333409,0.0131141366437078,0.190099477767944,0.0625986307859421,-0.5,-0.0461689122021198
95,0.000351267459336668,0.0157312173396349,0.198957741260529,0.0643510222434998,-0.5,-0.029763700440526
96,7.33559427317232E-05,0.0159897170960903,0.206503570079803,0.0642321184277534,-0.5,-0.0160952378064394
97,-0.00292055867612362,0.0149107770994306,0.212683364748955,0.0624700523912907,-0.5,-0.00364470505155623
98,-0.00757172703742981,0.0136181507259607,0.21814101934433,0.0598971769213676,-0.5,0.00865791458636522
99,-0.0126571916043758,0.0127841597422957,0.223619163036346,0.0573288649320602,-0.5,0.0205291025340557
100,-0.01880575530231,0.0113931056112051,0.228155925869942,0.0538985095918179,-0.5,0.0301667898893356
101,-0.0252277217805386,0.00938089657574892,0.232051506638527,0.0501134619116783,-0.5,0.0381540060043335
102,-0.0291877910494804,0.00814953166991472,0.237231403589249,0.0483510941267014,-0.5,0.0473139956593513
103,-0.0302973613142967,0.00775613961741328,0.24373072385788,0.0488051511347294,-0.5,0.0575505457818508
104,-0.0298669673502445,0.00785080343484879,0.250809639692307,0.0503255575895309,-0.5,0.0671698749065399
105,-0.028895303606987,0.0081393588334322,0.258281350135803,0.0522070564329624,-0.5,0.0760423392057419
106,-0.0280997920781374,0.0084290225058794,0.265555202960968,0.054006852209568,-0.5,0.085516169667244
107,-0.0279860254377127,0.00941910687834024,0.271478444337845,0.0555540882050991,-0.5,0.0970217734575272
108,-0.0280482433736324,0.0117839882150292,0.275992304086685,0.0567005649209023,-0.5,0.111083529889584
109,-0.026435025036335,0.0158592127263546,0.280825197696686,0.0578744933009148,-0.5,0.127425312995911
110,-0.024009820073843,0.0206637568771839,0.285655438899994,0.0584768578410149,-0.5,0.143501624464989
111,-0.0243617333471775,0.0244452189654112,0.288331419229507,0.0570997558534145,-0.5,0.15682852268219
112,-0.0282264184206724,0.0266109555959702,0.288884282112122,0.0540409274399281,-0.5,0.167709678411484
113,-0.0335807539522648,0.027587627992034,0.288690268993378,0.0502665936946869,-0.5,0.176719933748245
114,-0.039182111620903,0.028173727914691,0.288632214069366,0.046487782150507,-0.5,0.184246450662613
115,-0.0450025834143162,0.0283469222486019,0.289072275161743,0.0430055782198906,-0.5,0.191139951348305
116,-0.0505168884992599,0.0272131711244583,0.290402919054031,0.0398104377090931,-0.5,0.198609262704849
117,-0.0552631095051765,0.0236099231988192,0.292254060506821,0.0366319231688976,-0.5,0.207434266805649
118,-0.0597046241164207,0.0171044059097767,0.293770223855972,0.0331822521984577,-0.5,0.216751113533974
119,-0.0630019456148148,0.0101341335102916,0.296444445848465,0.0308979973196983,-0.5,0.226025834679604
120,-0.0639191567897797,0.00626898836344481,0.3017298579216,0.0313771665096283,-0.5,0.23622153699398
121,-0.0633836090564728,0.00660012941807508,0.307951152324677,0.0338906273245811,-0.5,0.248155400156975
122,-0.063127264380455,0.00940739084035158,0.313378304243088,0.0362986885011196,-0.5,0.261351138353348
123,-0.0636252909898758,0.011641432531178,0.318161189556122,0.037056278437376,-0.5,0.274335324764252
124,-0.0643626302480698,0.0108725745230913,0.322557508945465,0.0361015051603317,-0.5,0.285952180624008
125,-0.0638261064887047,0.00793877802789211,0.327441871166229,0.0351741909980774,-0.5,0.297040164470673
126,-0.0608562119305134,0.00537838879972696,0.333796828985214,0.0358009599149227,-0.5,0.308471471071243
127,-0.0570976249873638,0.00390953756868839,0.339943170547485,0.036906935274601,-0.5,0.318917006254196
128,-0.0552386045455933,0.00305561115965247,0.343068063259125,0.0366348810493946,-0.5,0.327535152435303
129,-0.0549944862723351,0.00321991741657257,0.343325704336166,0.0356392487883568,-0.5,0.336596190929413
130,-0.0531030036509037,0.00585083896294236,0.344531059265137,0.0370082594454288,-0.492161303758621,0.349216938018799
131,-0.0485142804682255,0.0109369410201907,0.349212348461151,0.0415691174566746,-0.477144598960876,0.364835381507874
132,-0.0443919859826565,0.0157320871949196,0.35518404841423,0.0460375659167767,-0.459430128335953,0.379626572132111
133,-0.043461624532938,0.0178653486073017,0.359500885009766,0.0475274249911308,-0.441209822893143,0.390671372413635
134,-0.04436269775033,0.0179052874445915,0.36239555478096,0.0464390851557255,-0.423194468021393,0.398160338401794
135,-0.0448060855269432,0.0167734995484352,0.364480376243591,0.0438810661435127,-0.405804395675659,0.403529077768326
136,-0.0446885079145432,0.0145077109336853,0.364890992641449,0.0407665632665157,-0.390414893627167,0.407790720462799
137,-0.0445273257791996,0.0116888452321291,0.363958895206451,0.0388574860990047,-0.377367168664932,0.411969780921936
138,-0.0443490780889988,0.00899398606270552,0.36295285820961,0.0386406667530537,-0.365367949008942,0.415994107723236
139,-0.0439729169011116,0.00689472816884518,0.362053662538528,0.0387531481683254,-0.353237986564636,0.41894805431366
140,-0.0439354069530964,0.00495006097480655,0.360634565353394,0.0379542224109173,-0.340943187475204,0.420670956373215
141,-0.0446542911231518,0.00223018485121429,0.359082281589508,0.0363161601126194,-0.328116685152054,0.421687662601471
142,-0.0456668026745319,-0.00155847461428493,0.358508378267288,0.0341779626905918,-0.314168840646744,0.422087609767914
143,-0.0463074557483196,-0.00588038004934788,0.359355479478836,0.0315931625664234,-0.298873156309128,0.421801388263702
144,-0.0454479269683361,-0.00873696617782116,0.362454563379288,0.0300269834697247,-0.280986756086349,0.42228776216507
145,-0.0441807582974434,-0.00959567632526159,0.367115169763565,0.0298864245414734,-0.261433392763138,0.424208879470825
146,-0.0451715849339962,-0.00966485869139433,0.370400130748749,0.0296123120933771,-0.243506506085396,0.426873713731766
147,-0.047202967107296,-0.00827169697731733,0.372129708528519,0.0294471979141235,-0.226952329277992,0.430983275175095
148,-0.0471156015992165,-0.00503713870421052,0.374716639518738,0.0303259324282408,-0.209403082728386,0.436367481946945
149,-0.0447222776710987,-0.00136503495741636,0.378624022006989,0.0315793938934803,-0.191939175128937,0.441334992647171
150,-0.041363500058651,0.00263640400953591,0.383179903030396,0.0327966921031475,-0.176862120628357,0.44623076915741
151,-0.0371930152177811,0.00787639338523149,0.388856887817383,0.0344824455678463,-0.163197323679924,0.452953159809113
152,-0.0322570130228996,0.0135955233126879,0.395537704229355,0.0362485460937023,-0.149309709668159,0.461920022964478
153,-0.0264085419476032,0.0190035980194807,0.402601838111877,0.0381066426634789,-0.134462296962738,0.47271591424942
154,-0.0184479225426912,0.025486908853054,0.411138921976089,0.041878592222929,-0.116775862872601,0.485401481389999
155,-0.00914538837969303,0.0333673059940338,0.421696871519089,0.0479814372956753,-0.0963981822133064,0.498500674962997
156,-0.0019289170159027,0.0398158133029938,0.431587070226669,0.0538314208388329,-0.0769834592938423,0.5
157,0.000239364264416508,0.0417091436684132,0.436596661806107,0.0560709424316883,-0.0622114725410938,0.5
158,-0.00207061553373933,0.0398293621838093,0.435900151729584,0.0545665733516216,-0.0525728762149811,0.5
159,-0.00434933556243777,0.0383696146309376,0.433894127607346,0.0532245188951492,-0.0438266396522522,0.5
160,-0.00363923446275294,0.0385662838816643,0.434064418077469,0.0537928752601147,-0.0329447090625763,0.5
161,-0.000527007912751287,0.0391059629619122,0.436115592718124,0.0545503348112106,-0.0223853997886181,0.5
162,0.00304662343114614,0.0397220402956009,0.438136726617813,0.0541765950620174,-0.0173187665641308,0.5
163,0.00481891399249434,0.0397447980940342,0.437959551811218,0.0524277500808239,-0.0217351578176022,0.5
164,0.00547939399257302,0.0389236584305763,0.436117827892303,0.0505643375217915,-0.0336326248943806,0.5
165,0.00742464233189821,0.0380700156092644,0.434670984745026,0.0495411455631256,-0.0464342869818211,0.5
166,0.011396593414247,0.0377984493970871,0.434629678726196,0.049109935760498,-0.0541708022356033,0.5
167,0.0174214709550142,0.0390605442225933,0.436900705099106,0.0501250810921192,-0.0545844808220863,0.5
168,0.0234057400375605,0.0416337996721268,0.440306514501572,0.0523642897605896,-0.0504580028355122,0.5
169,0.0266375597566366,0.044374942779541,0.44281467795372,0.0544603578746319,-0.0444083213806152,0.5
170,0.0278588775545359,0.047249685972929,0.444811820983887,0.0563677102327347,-0.0350993722677231,0.5
171,0.0286072120070457,0.0493346452713013,0.446970134973526,0.0574948079884052,-0.0217027571052313,0.5
172,0.0286734215915203,0.0491541549563408,0.448699474334717,0.0572323873639107,-0.00645567616447806,0.5
173,0.0270195715129375,0.0467617735266685,0.448183119297028,0.0557331703603268,0.00783581659197807,0.5
174,0.0236099828034639,0.0437650084495544,0.444715410470963,0.0532423108816147,0.0205249972641468,0.5
175,0.0195933096110821,0.0414940565824509,0.439525485038757,0.0500213019549847,0.0324965417385101,0.5
176,0.0160850584506989,0.0399445071816444,0.433762431144714,0.0461850836873055,0.0442980192601681,0.5
177,0.0139052337035537,0.0388430692255497,0.428574562072754,0.0423091165721416,0.0552546568214893,0.5
178,0.0122996801510453,0.0370614305138588,0.42403906583786,0.0381998643279076,0.0635285973548889,0.5
179,0.0102331787347794,0.0338910892605782,0.419081151485443,0.0333553440868855,0.0687245950102806,0.5
180,0.00844751670956612,0.0307062324136496,0.413300633430481,0.0288088954985142,0.0726447552442551,0.5
181,0.00756921991705894,0.0287460703402758,0.406956613063812,0.0256923791021109,0.0773667991161346,0.5
182,0.00675256457179785,0.0270994007587433,0.400141805410385,0.0237699002027512,0.083751767873764,0.5
183,0.00507647357881069,0.0236926674842834,0.392750918865204,0.0217950660735369,0.0911507084965706,0.5
184,0.00308301416225731,0.018096175044775,0.385863125324249,0.0192710645496845,0.0994831547141075,0.5
185,0.00211010710336268,0.0121688041836023,0.38165670633316,0.0171366166323423,0.109867796301842,0.5
186,0.00180181907489896,0.00688329618424177,0.380259364843369,0.0153526309877634,0.121960036456585,0.5
187,0.00043332829955034,0.00148883694782853,0.379158943891525,0.0128034986555576,0.133348703384399,0.5
188,-0.00189171137753874,-0.00313565158285201,0.376906424760818,0.00975020602345467,0.142080202698708,0.5
189,-0.00359130091965199,-0.00570932449772954,0.374046295881271,0.00641070818528533,0.14851313829422,0.5
190,-0.00308143720030785,-0.00614610547199845,0.372061610221863,0.00305259576998651,0.155769124627113,0.5
191,0.000216488260775805,-0.00444600684568286,0.372448772192001,0.00163080904167145,0.165811359882355,0.5
192,0.00426336191594601,-0.00228101527318358,0.374134123325348,0.00236025173217058,0.175835683941841,0.5
193,0.00681486539542675,-0.00124968006275594,0.374569028615952,0.00351564539596438,0.183168902993202,0.5
194,0.00850376673042774,-0.000398290547309443,0.373343050479889,0.00469343643635511,0.189174324274063,0.5
195,0.0106290401890874,0.00102696381509304,0.371323525905609,0.00556242046877742,0.195553749799728,0.5
196,0.0127290999516845,0.00274172495119274,0.369278788566589,0.00548860291019082,0.202602878212929,0.5
197,0.0139016192406416,0.00516597740352154,0.368576526641846,0.00533915637061,0.210941314697266,0.5
198,0.0135635873302817,0.00775481946766377,0.369033366441727,0.00542363757267594,0.220135271549225,0.5
199,0.0120008885860443,0.00875311903655529,0.368465840816498,0.00435842573642731,0.228827923536301,0.5
200,0.0102225365117192,0.00814448390156031,0.366215467453003,0.00203130766749382,0.237073838710785,0.5
201,0.00833902321755886,0.00776639906689525,0.363721460103989,0.000563143577892333,0.24532325565815,0.5
202,0.0052725519053638,0.00811113324016333,0.360912352800369,0.000623682804871351,0.252084225416183,0.5
203,0.0014455933123827,0.00796481966972351,0.356539577245712,0.000701578217558563,0.256909549236298,0.5
204,-0.000194907392142341,0.00768892001360655,0.351765930652618,0.000626232416834682,0.26285994052887,0.5
205,0.000969265354797244,0.00820702221244574,0.347398698329926,0.000680896104313433,0.270673245191574,0.5
206,0.00196507107466459,0.00829345919191837,0.341954857110977,-0.000251891469815746,0.277728825807571,0.5
207,0.00188344239722937,0.00752933835610747,0.336153566837311,-0.00200622086413205,0.284309774637222,0.5
208,0.00224978476762772,0.00714126462116838,0.332799732685089,-0.0028999934438616,0.292535096406937,0.5
209,0.00186099612619728,0.00669705355539918,0.331825643777847,-0.00299894739873707,0.300363272428513,0.5
210,-0.0012674598256126,0.00542762689292431,0.331441700458527,-0.0031137855257839,0.303601384162903,0.5
211,-0.00504025584086776,0.00426151696592569,0.332258343696594,-0.00220511457882822,0.303090959787369,0.5
212,-0.00708604231476784,0.00347626744769514,0.334518998861313,0.000458142720162869,0.303557336330414,0.5
213,-0.00897483248263597,0.00156778376549482,0.335442453622818,0.00276540708728135,0.307146191596985,0.5
214,-0.011604574508965,-0.00162766582798213,0.334004670381546,0.00312771950848401,0.313812226057053,0.5
215,-0.013578032143414,-0.00491015845909715,0.331737607717514,0.00197410630062222,0.322751700878143,0.5
216,-0.0135319801047444,-0.00710430601611733,0.329680800437927,0.000185244047315791,0.333056747913361,0.5
217,-0.0118689769878984,-0.00670929066836834,0.327248692512512,-0.000898852071259171,0.342994779348373,0.5
218,-0.0114482687786222,-0.0037894060369581,0.322209089994431,-0.00139085471164435,0.349237084388733,0.5
219,-0.0129541493952274,-4.46065459982492E-05,0.314362078905106,-0.00224937708117068,0.352601796388626,0.5
220,-0.0146339079365134,0.00300375046208501,0.30680650472641,-0.0027649998664856,0.35691836476326,0.5
221,-0.0158804878592491,0.0044827638193965,0.303018808364868,-0.00148847338277847,0.362533241510391,0.5
222,-0.0165312010794878,0.00398011691868305,0.303094029426575,0.00133197044488043,0.368084490299225,0.5
223,-0.0158794224262238,0.00210228771902621,0.303559631109238,0.00417833402752876,0.373563855886459,0.5
224,-0.0138286594301462,0.000372334499843419,0.302957206964493,0.00731166452169418,0.37812528014183,0.5
225,-0.0110374446958303,-0.00022145378170535,0.301719129085541,0.0111045138910413,0.379252195358276,0.5
226,-0.00780443707481027,0.000328272173646837,0.298680633306503,0.0135767916217446,0.375471115112305,0.5
227,-0.00464725447818637,0.000431788037531078,0.294804155826569,0.0135507443919778,0.36946713924408,0.5
228,-0.0014141786377877,-0.00132780708372593,0.294171988964081,0.0126127200201154,0.369162291288376,0.5
229,0.00269702146761119,-0.00375254289247096,0.296894609928131,0.0115355839952827,0.379362851381302,0.5
230,0.00584313599392772,-0.00607129139825702,0.297641754150391,0.00855267886072397,0.393052637577057,0.5
231,0.00456312811002135,-0.00837266258895397,0.292178899049759,0.00450741732493043,0.397640764713287,0.5
232,-0.00150816363748163,-0.00950896460562944,0.282538652420044,0.00244292663410306,0.388280272483826,0.5
233,-0.00858104787766933,-0.0105777373537421,0.276598781347275,0.00133842881768942,0.371879309415817,0.5
234,-0.0125630898401141,-0.0140490019693971,0.277335405349731,-0.00206126994453371,0.358975678682327,0.5
235,-0.0126708745956421,-0.0191099569201469,0.279204934835434,-0.00605572294443846,0.356896281242371,0.5
236,-0.00964915379881859,-0.0231465995311737,0.278161913156509,-0.00666297040879726,0.367670744657516,0.5
237,-0.00321463565342128,-0.0243252720683813,0.272653996944427,-0.00736013567075133,0.384733885526657,0.5
238,0.00474567385390401,-0.0234344583004713,0.261983186006546,-0.0137483887374401,0.396718114614487,0.5
239,0.00927096791565418,-0.0234502535313368,0.247800573706627,-0.0224197153002024,0.397534400224686,0.5
240,0.00947475899010897,-0.0254780743271112,0.23409740626812,-0.0281442478299141,0.39147612452507,0.495386719703674
241,0.00981537904590368,-0.0272480808198452,0.22539134323597,-0.0315546840429306,0.388167649507523,0.490293711423874
242,0.0112999733537436,-0.0255958009511232,0.220945045351982,-0.032248243689537,0.38721290230751,0.498491764068604
243,0.0106157995760441,-0.0204806756228209,0.216110453009605,-0.0297686755657196,0.377877444028854,0.5
244,0.00532098114490509,-0.014899892732501,0.207889959216118,-0.0281124170869589,0.35440668463707,0.5
245,-0.00327950692735612,-0.0107809165492654,0.197363585233688,-0.0291381757706404,0.325402438640594,0.5
246,-0.0100587038323283,-0.00865138880908489,0.18805705010891,-0.0305161811411381,0.307322382926941,0.5
247,-0.0122887538745999,-0.00833068694919348,0.181367233395576,-0.030690448358655,0.303088366985321,0.5
248,-0.0106801940128207,-0.00904656760394573,0.175570547580719,-0.0330367796123028,0.303359061479568,0.481179147958755
249,-0.00675992155447602,-0.0103673683479428,0.165073409676552,-0.0424838364124298,0.303528130054474,0.459722757339478
250,-0.00333532760851085,-0.0120825255289674,0.145627677440643,-0.0577082745730877,0.302781373262405,0.444811165332794
251,-0.00141287292353809,-0.0146020911633968,0.124595522880554,-0.0728327557444572,0.300630122423172,0.436424374580383
252,0.000974150781985372,-0.0178073458373547,0.114059798419476,-0.0827729851007462,0.297927051782608,0.428594440221787
253,0.0051261056214571,-0.0199715532362461,0.11570543050766,-0.0861629843711853,0.293343991041183,0.418854951858521
254,0.00967201497405767,-0.019994892179966,0.122129045426846,-0.0850414782762527,0.282488197088242,0.410377532243729
255,0.0112246349453926,-0.0190771240741014,0.124739207327366,-0.0825409665703774,0.262217909097672,0.405832827091217
256,0.00745028676465154,-0.0199475809931755,0.119055472314358,-0.0830171629786491,0.234160706400871,0.401659697294235
257,0.000324954948155209,-0.0234613846987486,0.108301937580109,-0.0881090834736824,0.205626666545868,0.394523411989212
258,-0.00591715890914202,-0.0268837604671717,0.0992657691240311,-0.0941267386078835,0.184345915913582,0.387442529201508
259,-0.00874352734535933,-0.0279390309005976,0.0955663919448853,-0.0978757664561272,0.172055631875992,0.383417814970016
260,-0.00818551797419786,-0.0275032054632902,0.0960850268602371,-0.0997290164232254,0.165275424718857,0.380961894989014
261,-0.00627654418349266,-0.0275617372244596,0.0976929813623428,-0.101240068674088,0.159324184060097,0.376790583133698
262,-0.00396983977407217,-0.0294625610113144,0.0981649607419968,-0.104318507015705,0.154111057519913,0.368309408426285
263,4.75380038551521E-05,-0.0333012230694294,0.0964987576007843,-0.109517700970173,0.155731111764908,0.35580974817276
264,0.0057729771360755,-0.0376169756054878,0.0933570489287376,-0.113901481032372,0.165330305695534,0.343290537595749
265,0.0104290256276727,-0.0420916117727757,0.0899643301963806,-0.116252608597279,0.174302026629448,0.332343459129334
266,0.0121201053261757,-0.0463594309985638,0.0861547142267227,-0.11758279800415,0.176272600889206,0.323775231838226
267,0.0118850395083427,-0.0478325858712196,0.0814842358231544,-0.116301715373993,0.171545147895813,0.321593850851059
268,0.0117830298841,-0.0464817360043526,0.0764406323432922,-0.112421669065952,0.163672313094139,0.324005722999573
269,0.0135450242087245,-0.0448248609900475,0.0720409825444222,-0.108616292476654,0.15875655412674,0.32568371295929
270,0.0175603665411472,-0.0444931648671627,0.0692751556634903,-0.10603854060173,0.160145506262779,0.326166659593582
271,0.0225694756954908,-0.0462326183915138,0.06914272159338,-0.104654252529144,0.165641784667969,0.326197564601898
272,0.0272937752306461,-0.0498523190617561,0.0716187581419945,-0.104260236024857,0.173216089606285,0.325619488954544
273,0.0315663702785969,-0.0542190037667751,0.0747427493333817,-0.1046077683568,0.183620825409889,0.325293809175491
274,0.0342714041471481,-0.0580705218017101,0.0758521258831024,-0.105503477156162,0.195409223437309,0.32588329911232
275,0.0339585915207863,-0.0605931431055069,0.0747108608484268,-0.106132075190544,0.206376925110817,0.326551645994186
276,0.0315524153411388,-0.0612767040729523,0.0736373886466026,-0.105465479195118,0.216956451535225,0.32686647772789
277,0.029592901468277,-0.0597824454307556,0.074398085474968,-0.103593915700912,0.227610066533089,0.327550739049912
278,0.0298353675752878,-0.0562494769692421,0.0769867822527885,-0.100931227207184,0.237955927848816,0.32850193977356
279,0.0310327485203743,-0.0517017729580402,0.0792586207389832,-0.0980328395962715,0.246088609099388,0.329074501991272
280,0.0307640489190817,-0.0479069948196411,0.0784290209412575,-0.0970590114593506,0.250970482826233,0.329776465892792
281,0.0288704037666321,-0.0465722791850567,0.0750443190336227,-0.098952054977417,0.254995077848434,0.331160336732864
282,0.0267010759562254,-0.0483245588839054,0.0720288306474686,-0.101054839789867,0.260445445775986,0.33249831199646
283,0.0251585729420185,-0.0513072945177555,0.0704833939671516,-0.100146740674973,0.267049372196198,0.33401757478714
284,0.0232488159090281,-0.0532742850482464,0.0694126710295677,-0.0958605259656906,0.272894710302353,0.336520045995712
285,0.0191439092159271,-0.0551718547940254,0.067221499979496,-0.0910545885562897,0.27768462896347,0.338311493396759
286,0.0139279272407293,-0.0579347833991051,0.0638778656721115,-0.0878192111849785,0.284821182489395,0.338570088148117
287,0.00982798635959625,-0.0586416684091091,0.0603796578943729,-0.0851359963417053,0.295076966285706,0.341244071722031
288,0.00698711443692446,-0.0538614206016064,0.0572275556623936,-0.0808462351560593,0.305080056190491,0.351050764322281
289,0.00485955132171512,-0.0454062595963478,0.0543619506061077,-0.0748990699648857,0.313292562961578,0.366745680570602
290,0.00365257915109396,-0.0389170497655869,0.0504863299429417,-0.0706332921981812,0.319760233163834,0.38161313533783
291,0.00424019899219275,-0.0364189520478249,0.0458408556878567,-0.0700797736644745,0.326215028762817,0.390992671251297
292,0.00731238396838307,-0.035649485886097,0.0434394814074039,-0.0712909623980522,0.33627524971962,0.395384222269058
293,0.0122914891690016,-0.0356147363781929,0.0445542372763157,-0.0725534036755562,0.35121351480484,0.397077262401581
294,0.0174559783190489,-0.0367629192769527,0.047068178653717,-0.0739327371120453,0.3686663210392,0.398556172847748
295,0.0205695945769548,-0.0381073281168938,0.0484166815876961,-0.0750955492258072,0.38514119386673,0.402570128440857
296,0.0201252438127995,-0.0379029400646687,0.0474668405950069,-0.0745236799120903,0.398259222507477,0.411111980676651
297,0.0173431411385536,-0.0360679402947426,0.0445561036467552,-0.0713157802820206,0.40815743803978,0.423178970813751
298,0.0141745274886489,-0.0348762944340706,0.0405763499438763,-0.0670777186751366,0.416928052902222,0.433859020471573
299,0.0108164036646485,-0.0355671606957912,0.0363440066576004,-0.0634078830480576,0.425330191850662,0.440080165863037
300,0.00788990408182144,-0.0371000580489635,0.0325872749090195,-0.0605633743107319,0.432449579238892,0.443697154521942
301,0.00715917116031051,-0.038773987442255,0.0301561988890171,-0.0587331876158714,0.43945387005806,0.446994751691818
302,0.00909458193928003,-0.0399350561201572,0.0303484909236431,-0.0573738478124142,0.449033111333847,0.451014488935471
303,0.012774083763361,-0.0392801351845264,0.0339457355439663,-0.0554436109960079,0.461434096097946,0.456130057573318
304,0.0161132831126451,-0.0365344472229481,0.0396987274289131,-0.0526428557932377,0.473595649003983,0.461954444646835
305,0.0165767017751932,-0.032727837562561,0.0451765954494476,-0.0495156459510326,0.482668101787567,0.468303203582764
306,0.0139420870691538,-0.0287403706461191,0.049116387963295,-0.0466241128742695,0.488906174898148,0.474979847669601
307,0.0105871977284551,-0.0248781777918339,0.0519496910274029,-0.0440559722483158,0.494660973548889,0.480993002653122
308,0.00891483295708895,-0.0211630817502737,0.0543514899909496,-0.0421553552150726,0.5,0.485435634851456
309,0.00824782904237509,-0.0182026848196983,0.0557460822165012,-0.0415695123374462,0.5,0.487698942422867
310,0.00641579134389758,-0.0168548095971346,0.0554479546844959,-0.0417195074260235,0.5,0.487956643104553
311,0.0033050999045372,-0.0170351937413216,0.0538434088230133,-0.0414691790938377,0.5,0.48766502737999
312,0.000191723403986543,-0.018260071054101,0.0516471825540066,-0.0411038734018803,0.5,0.487690806388855
313,-0.000861859531141818,-0.0186301860958338,0.0504491664469242,-0.0410839170217514,0.5,0.488499492406845
314,0.000520782778039575,-0.016541438177228,0.0516885295510292,-0.0409682840108871,0.5,0.490749210119247
315,0.00107461388688535,-0.014079874381423,0.0545771755278111,-0.0405690968036652,0.5,0.494471341371536
316,-0.000632171635515988,-0.01390475127846,0.0577707700431347,-0.0400399826467037,0.5,0.499069333076477
317,-0.0031608312856406,-0.0165516491979361,0.0598196871578693,-0.0394730865955353,0.5,0.5
318,-0.00523716257885098,-0.0205204207450151,0.0596688017249107,-0.0385818742215633,0.5,0.5
319,-0.00535521004348993,-0.0232655685395002,0.0583527237176895,-0.0374050140380859,0.5,0.5
320,-0.00386270228773355,-0.0240794122219086,0.056815791875124,-0.037197470664978,0.5,0.5
321,-0.00314663536846638,-0.0237389467656612,0.0553463101387024,-0.0379984080791473,0.5,0.5
322,-0.00366565608419478,-0.022110965102911,0.0546154044568539,-0.0376310981810093,0.5,0.5
323,-0.00351029401645064,-0.0189190488308668,0.055118590593338,-0.0347116850316525,0.5,0.5
324,-0.00245330762118101,-0.0152974436059594,0.0565363764762878,-0.0304005555808544,0.5,0.5
325,-0.00254702544771135,-0.0121270045638084,0.0575896911323071,-0.0263117123395205,0.5,0.5
326,-0.00503636477515101,-0.0093142306432128,0.0568767376244068,-0.02272136695683,0.5,0.5
327,-0.0092975702136755,-0.00798048544675112,0.0541327148675919,-0.0200012624263763,0.5,0.5
328,-0.0138327768072486,-0.00888889376074076,0.0505117699503899,-0.0186670012772083,0.5,0.5
329,-0.0166097227483988,-0.00996328983455896,0.0476293005049229,-0.0179216153919697,0.5,0.5
330,-0.0161147005856037,-0.00919157266616821,0.0468123033642769,-0.0163901541382074,0.5,0.5
331,-0.013845301233232,-0.00744185177609324,0.0479015335440636,-0.0139148887246847,0.5,0.5
332,-0.0120664993301034,-0.00669468007981777,0.0494374856352806,-0.0118402363732457,0.5,0.5
333,-0.0107772508636117,-0.00716326991096139,0.0505618415772915,-0.0108377933502197,0.5,0.5
334,-0.00944430008530617,-0.00775126786902547,0.0508119501173496,-0.0101459734141827,0.5,0.5
335,-0.00841420888900757,-0.00822955463081598,0.0494777783751488,-0.00934265274554491,0.5,0.5
336,-0.00873527582734823,-0.00969793181866407,0.0458814576268196,-0.00938251335173845,0.5,0.5
337,-0.0112943528220057,-0.0132071701809764,0.0401102863252163,-0.0113408723846078,0.5,0.5
338,-0.0153800500556827,-0.0183164030313492,0.0337871946394444,-0.0145325446501374,0.5,0.5
339,-0.0193657781928778,-0.0233337171375752,0.0291279461234808,-0.0167673602700233,0.5,0.5
340,-0.0218680240213871,-0.0262375958263874,0.027643533423543,-0.0156336035579443,0.5,0.5
341,-0.022921197116375,-0.0267236530780792,0.0287257581949234,-0.0111377406865358,0.5,0.5
342,-0.0240381043404341,-0.0262210480868816,0.0300405770540237,-0.00576404528692365,0.5,0.5
343,-0.0256654042750597,-0.0257008895277977,0.0299883149564266,-0.00180482282303274,0.5,0.5
344,-0.0263199117034674,-0.0251260716468096,0.0291677452623844,0.00015454700042028,0.5,0.5
345,-0.0246413443237543,-0.0241676568984985,0.0292836204171181,0.00156388245522976,0.5,0.5
346,-0.020747983828187,-0.0228606034070253,0.0312753655016422,0.00418202625587583,0.5,0.5
347,-0.0161101073026657,-0.0214025545865297,0.0348725542426109,0.00832751300185919,0.5,0.5
348,-0.0122457426041365,-0.0198487360030413,0.0385862328112125,0.0127541655674577,0.5,0.5
349,-0.00882310792803764,-0.0172111894935369,0.0414398051798344,0.0166313517838717,0.5,0.5
350,-0.00563653046265244,-0.0123209618031979,0.0437253974378109,0.0200501382350922,0.5,0.5
351,-0.00432668160647154,-0.00602891575545073,0.0450134985148907,0.0225814692676067,0.5,0.5
352,-0.00598222948610783,-0.000566725502721965,0.0437144786119461,0.0236231926828623,0.5,0.5
353,-0.00909546297043562,0.00339667941443622,0.0402215123176575,0.0238064024597406,0.5,0.5
354,-0.0104604503139853,0.00703483214601874,0.0378457941114903,0.0246738810092211,0.5,0.5
355,-0.00823337491601706,0.0106891579926014,0.0385561808943748,0.0267330389469862,0.5,0.5
356,-0.00335212703794241,0.0133991874754429,0.0413097217679024,0.0293497946113348,0.5,0.5
357,0.00242091086693108,0.0148278940469027,0.0444688051939011,0.0325490608811378,0.5,0.5
358,0.00789088010787964,0.015367723070085,0.046465203166008,0.03642737865448,0.5,0.5
359,0.012665712274611,0.0157467871904373,0.0464785806834698,0.0404282063245773,0.5,0.5
360,0.0168861467391253,0.0174488797783852,0.0454511418938637,0.0447729341685772,0.5,0.5
361,0.0192463733255863,0.0199201703071594,0.0433045476675034,0.0487708710134029,0.5,0.5
362,0.0189097672700882,0.0208907183259726,0.0394951850175858,0.0506146922707558,0.5,0.5
363,0.0172686669975519,0.0200617536902428,0.0355768389999866,0.050392422825098,0.5,0.5
364,0.0147980367764831,0.0184076484292746,0.0315241292119026,0.0491729751229286,0.5,0.5
365,0.011400081217289,0.0176419354975224,0.024293439462781,0.0471268109977245,0.5,0.5
366,0.00744902342557907,0.0194093249738216,0.0134348999708891,0.0439070500433445,0.5,0.5
367,0.00285828299820423,0.0221426412463188,0.00372203276492655,0.0389973670244217,0.5,0.5
368,-0.000986730447039008,0.0224362872540951,-0.00129147607367486,0.031551007181406,0.5,0.5
369,-0.001447674469091,0.0197524297982454,-0.00415868265554309,0.0221027284860611,0.5,0.5
370,0.00202773022465408,0.016134899109602,-0.00595655525103211,0.0136736081913114,0.5,0.496917694807053
371,0.00676465965807438,0.0124482810497284,-0.00339153315871954,0.00833779480308294,0.5,0.480904132127762
372,0.0096946032717824,0.00894070137292147,0.00294065941125155,0.00533816544339061,0.5,0.468488961458206
373,0.0113739222288132,0.00568194547668099,0.00947748217731714,0.000378576223738492,0.5,0.4582259953022
374,0.0158455111086369,0.00262151705101132,0.0166251119226217,-0.0128194028511643,0.5,0.438254177570343
375,0.0234708543866873,0.00196103355847299,0.0258460454642773,-0.0285423845052719,0.5,0.422316491603851
376,0.027338920161128,0.00535122491419315,0.0333898924291134,-0.0305553451180458,0.5,0.434166461229324
377,0.0234430953860283,0.0116464719176292,0.0365220233798027,-0.0200423989444971,0.5,0.461573004722595
378,0.0159208085387945,0.0189826674759388,0.0365369319915771,-0.0132857104763389,0.5,0.481123805046082
379,0.0126092033460736,0.0244037266820669,0.0316941626369953,-0.0188646335154772,0.485328137874603,0.479395568370819
380,0.0190916247665882,0.0245818477123976,0.0246958583593369,-0.0395873598754406,0.485507369041443,0.452429920434952
381,0.0291865598410368,0.0201613251119852,0.0195258017629385,-0.0645418241620064,0.483415722846985,0.411471366882324
382,0.02769560739398,0.0152890654280782,0.00420839106664062,-0.0696914196014404,0.446097850799561,0.366304606199265
383,0.00868911016732454,0.00810971390455961,-0.0236488655209541,-0.05463857203722,0.357741802930832,0.310504525899887
384,-0.0166036076843739,-0.00731982104480267,-0.0396642424166203,-0.0432782955467701,0.249228075146675,0.244798064231873
385,-0.034537598490715,-0.0247010365128517,-0.0378414019942284,-0.0489171072840691,0.180215030908585,0.207164347171783
386,-0.0401839576661587,-0.0316063649952412,-0.0438836514949799,-0.063193567097187,0.19059157371521,0.224972993135452
387,-0.0319518037140369,-0.0289981830865145,-0.0671495720744133,-0.0821726247668266,0.272231549024582,0.271012306213379
388,-0.0162300392985344,-0.0286736134439707,-0.0789108127355576,-0.101303957402706,0.362561404705048,0.303329586982727
389,-0.00882027484476566,-0.0346131101250649,-0.0608441270887852,-0.0932113230228424,0.397408366203308,0.307447701692581
390,-0.0119518619030714,-0.037873912602663,-0.0421856753528118,-0.0569442138075829,0.384104579687119,0.289818793535233
391,-0.0113026034086943,-0.0391251444816589,-0.0407111831009388,-0.0335273109376431,0.361430287361145,0.230624422430992
392,-0.0047960733063519,-0.0494252182543278,-0.0370022356510162,-0.0371914133429527,0.32572078704834,0.0947085097432137
393,-0.00535372924059629,-0.0574009828269482,-0.038503959774971,-0.0445746816694736,0.253512620925903,-0.0883812755346298
394,-0.0135041372850537,-0.0435576662421227,-0.0660057961940765,-0.0507748126983643,0.158789083361626,-0.279684454202652
395,-0.019621891900897,-0.017036110162735,-0.104187965393066,-0.0528486669063568,0.0742504075169563,-0.5
396,-0.0221277270466089,0.00209749932400882,-0.130882665514946,-0.0414151959121227,-0.00763613870367408,-0.5
397,-0.021786505356431,0.00889455247670412,-0.144368037581444,-0.0310828629881144,-0.129455268383026,-0.5
398,-0.0174915418028831,0.00949685648083687,-0.154091820120811,-0.032149039208889,-0.344846904277802,-0.5
399,-0.010443951934576,0.0102521069347858,-0.166384071111679,-0.0491322837769985,-0.5,-0.5
400,-0.00198057666420937,0.0117608876898885,-0.185499623417854,-0.0965590849518776,-0.5,-0.5
401,0.00862235575914383,0.0107363956049085,-0.222606405615807,-0.193815261125565,-0.5,-0.5
402,0.0209949817508459,0.00613079592585564,-0.293653190135956,-0.372593522071838,-0.5,-0.5
403,0.0281099155545235,-0.00252036983147264,-0.418835371732712,-0.5,-0.5,-0.5
404,0.0217695068567991,-0.016480840742588,-0.5,-0.5,-0.5,-0.5
405,0.0034938077442348,-0.0325384028255939,-0.5,-0.5,-0.5,-0.5
406,-0.0206214990466833,-0.0450924597680569,-0.5,-0.5,-0.5,-0.5
407,-0.0433879494667053,-0.0517096295952797,-0.5,-0.5,-0.5,-0.5
408,-0.0570962317287922,-0.0532587170600891,-0.5,-0.5,-0.5,-0.5
409,-0.0598537400364876,-0.0502835065126419,-0.5,-0.5,-0.5,-0.5
410,-0.0545398369431496,-0.046273373067379,-0.5,-0.5,-0.5,-0.5
411,-0.0497048161923885,-0.0475478172302246,-0.5,-0.5,-0.5,-0.5
412,-0.0554383173584938,-0.0531713888049126,-0.5,-0.5,-0.5,-0.5
413,-0.071109913289547,-0.0598230771720409,-0.5,-0.5,-0.5,-0.5
414,-0.0891995429992676,-0.065283827483654,-0.5,-0.5,-0.5,-0.5
415,-0.104652620851994,-0.0633434951305389,-0.5,-0.5,-0.5,-0.5
416,-0.116082966327667,-0.0542066842317581,-0.5,-0.5,-0.5,-0.5
417,-0.126689329743385,-0.0508220717310905,-0.5,-0.5,-0.5,-0.5
418,-0.140172138810158,-0.0642014965415001,-0.5,-0.5,-0.5,-0.5
419,-0.15682153403759,-0.0911490619182587,-0.5,-0.5,-0.5,-0.5
420,-0.175898879766464,-0.121872156858444,-0.5,-0.5,-0.5,-0.5
421,-0.195937409996986,-0.153262212872505,-0.5,-0.5,-0.5,-0.5
422,-0.214796483516693,-0.187518805265427,-0.5,-0.5,-0.5,-0.5
423,-0.232801467180252,-0.224901095032692,-0.5,-0.5,-0.5,-0.5
424,-0.253251731395721,-0.264875501394272,-0.5,-0.5,-0.5,-0.5
425,-0.27664577960968,-0.30619078874588,-0.5,-0.5,-0.5,-0.5
426,-0.298798203468323,-0.345792949199677,-0.5,-0.5,-0.5,-0.5
427,-0.317112654447556,-0.381746888160706,-0.5,-0.5,-0.5,-0.5
428,-0.331774711608887,-0.413546919822693,-0.5,-0.5,-0.5,-0.5
429,-0.342435747385025,-0.441545575857162,-0.5,-0.5,-0.5,-0.5
430,-0.348354876041412,-0.467214584350586,-0.5,-0.5,-0.5,-0.5
431,-0.349328368902206,-0.490178346633911,-0.5,-0.5,-0.5,-0.5
432,-0.346215754747391,-0.5,-0.5,-0.5,-0.5,-0.5
433,-0.340793490409851,-0.5,-0.5,-0.5,-0.5,-0.5
434,-0.334204375743866,-0.5,-0.5,-0.5,-0.5,-0.5
435,-0.325659483671188,-0.5,-0.5,-0.5,-0.5,-0.5
436,-0.314098834991455,-0.5,-0.5,-0.5,-0.5,-0.5
437,-0.301099419593811,-0.499397069215775,-0.5,-0.5,-0.5,-0.5
438,-0.28685188293457,-0.475319266319275,-0.5,-0.5,-0.5,-0.5
439,-0.267722815275192,-0.443358689546585,-0.5,-0.5,-0.5,-0.5
440,-0.242853671312332,-0.408410251140594,-0.5,-0.5,-0.5,-0.5
441,-0.215772539377213,-0.376584112644196,-0.5,-0.5,-0.5,-0.5
442,-0.19069205224514,-0.350264132022858,-0.5,-0.5,-0.5,-0.5
443,-0.169845148921013,-0.327798515558243,-0.5,-0.5,-0.5,-0.5
444,-0.152896299958229,-0.30536076426506,-0.5,-0.5,-0.5,-0.5
445,-0.13757860660553,-0.276993960142136,-0.5,-0.5,-0.5,-0.5
446,-0.120629861950874,-0.237401008605957,-0.5,-0.5,-0.5,-0.5
447,-0.102083496749401,-0.188087567687035,-0.5,-0.5,-0.5,-0.5
448,-0.0845323204994202,-0.135341435670853,-0.5,-0.5,-0.5,-0.5
449,-0.069699190557003,-0.0849755555391312,-0.5,-0.5,-0.5,-0.5
450,-0.0597387254238129,-0.0406772755086422,-0.5,-0.5,-0.5,-0.5
451,-0.0544930472970009,-0.00248539610765874,-0.5,-0.5,-0.5,-0.5
452,-0.0507307276129723,0.0307321343570948,-0.5,-0.5,-0.5,-0.5
453,-0.0459660179913044,0.0582900308072567,-0.5,-0.5,-0.5,-0.5
454,-0.0396991372108459,0.0780526176095009,-0.5,-0.5,-0.5,-0.5
455,-0.0332285426557064,0.0892966315150261,-0.5,-0.5,-0.5,-0.5
456,-0.0262395478785038,0.0966848284006119,-0.5,-0.5,-0.5,-0.5
457,-0.0165737494826317,0.106399297714233,-0.5,-0.5,-0.5,-0.5
458,-0.00363821326754987,0.121137581765652,-0.5,-0.5,-0.5,-0.5
459,0.0104962447658181,0.139865547418594,-0.5,-0.5,-0.5,-0.5
460,0.0226909108459949,0.158450424671173,-0.5,-0.5,-0.5,-0.5
461,0.0330686569213867,0.174432128667831,-0.5,-0.5,-0.5,-0.5
462,0.0433646403253078,0.18828172981739,-0.5,-0.5,-0.5,-0.5
463,0.0530383512377739,0.200018525123596,-0.5,-0.5,-0.5,-0.5
464,0.061477392911911,0.209706053137779,-0.5,-0.5,-0.5,-0.5
465,0.0693086162209511,0.21854555606842,-0.5,-0.5,-0.5,-0.5
466,0.0772075802087784,0.22700922191143,-0.5,-0.5,-0.5,-0.5
467,0.084806501865387,0.23277373611927,-0.5,-0.5,-0.5,-0.5
468,0.0910527631640434,0.233832582831383,-0.5,-0.5,-0.5,-0.5
469,0.0947665572166443,0.231138542294502,-0.5,-0.5,-0.5,-0.5
470,0.0943898856639862,0.226124599575996,-0.5,-0.5,-0.5,-0.5
471,0.0897131487727165,0.220065981149673,-0.5,-0.5,-0.5,-0.5
472,0.083464227616787,0.215337470173836,-0.5,-0.5,-0.5,-0.5
473,0.079596571624279,0.214253351092339,-0.5,-0.5,-0.5,-0.5
474,0.0799166336655617,0.216608837246895,-0.5,-0.5,-0.5,-0.5
475,0.0836547911167145,0.220716968178749,-0.5,-0.5,-0.5,-0.5
476,0.088890053331852,0.225061163306236,-0.5,-0.5,-0.5,-0.5
477,0.0932487398386002,0.228031754493713,-0.5,-0.5,-0.5,-0.5
478,0.095319390296936,0.228538826107979,-0.5,-0.5,-0.5,-0.5
479,0.0945651233196259,0.225706443190575,-0.5,-0.5,-0.5,-0.5
480,0.0907098352909088,0.21931280195713,-0.5,-0.5,-0.5,-0.5
481,0.085131548345089,0.211106717586517,-0.5,-0.5,-0.5,-0.5
482,0.0802811086177826,0.203410297632217,-0.5,-0.5,-0.5,-0.5
483,0.077260747551918,0.197168380022049,-0.5,-0.5,-0.5,-0.5
484,0.0762113481760025,0.192198634147644,-0.5,-0.5,-0.5,-0.5
485,0.0769807025790215,0.188081786036491,-0.5,-0.5,-0.5,-0.5
486,0.0786556899547577,0.184733211994171,-0.5,-0.5,-0.5,-0.5
487,0.0821074992418289,0.184136584401131,-0.5,-0.5,-0.5,-0.5
488,0.0886496230959892,0.187734544277191,-0.468669176101685,-0.5,-0.5,-0.5
489,0.0955603793263435,0.192567199468613,-0.380167692899704,-0.5,-0.5,-0.5
490,0.100052870810032,0.196085929870605,-0.290616661310196,-0.5,-0.5,-0.5
491,0.102425009012222,0.198715195059776,-0.197411388158798,-0.5,-0.5,-0.5
492,0.103559516370296,0.200041100382805,-0.10127579420805,-0.5,-0.5,-0.5
493,0.103779450058937,0.198710396885872,-0.00576189020648599,-0.5,-0.5,-0.5
494,0.102195382118225,0.19405809044838,0.0847048759460449,-0.5,-0.5,-0.5
495,0.0990167781710625,0.187583938241005,0.167734906077385,-0.5,-0.5,-0.5
496,0.0966787338256836,0.182651534676552,0.245434790849686,-0.5,-0.5,-0.5
497,0.0963726192712784,0.181064158678055,0.321649581193924,-0.5,-0.5,-0.5
498,0.0976305529475212,0.182405561208725,0.399125307798386,-0.5,-0.5,-0.5
499,0.100765533745289,0.186097458004951,0.479922026395798,-0.5,-0.5,-0.5
500,0.106410436332226,0.191883221268654,0.5,-0.5,-0.5,-0.5
501,0.113973744213581,0.199187502264977,0.5,-0.5,-0.5,-0.5
502,0.121708631515503,0.206664651632309,0.5,-0.5,-0.5,-0.5
503,0.126360446214676,0.211453631520271,0.5,-0.5,-0.5,-0.5
504,0.126543715596199,0.211882829666138,0.5,-0.5,-0.5,-0.5
505,0.125080108642578,0.209932371973991,0.5,-0.5,-0.5,-0.5
506,0.124116256833076,0.207827940583229,0.5,-0.5,-0.5,-0.5
507,0.12395728379488,0.206250414252281,0.5,-0.5,-0.5,-0.5
508,0.124514944851398,0.204187586903572,0.5,-0.5,-0.5,-0.5
509,0.123618580400944,0.198460549116135,0.5,-0.5,-0.5,-0.5
510,0.119860671460629,0.188153862953186,0.5,-0.5,-0.5,-0.5
511,0.115884311497211,0.177331075072289,0.5,-0.5,-0.5,-0.5
512,0.113469853997231,0.169051975011826,0.5,-0.5,-0.5,-0.5
513,0.111904263496399,0.162809938192368,0.5,-0.5,-0.5,-0.5
514,0.111360050737858,0.158199533820152,0.5,-0.5,-0.5,-0.5
515,0.110521979629993,0.154130086302757,0.5,-0.5,-0.5,-0.5
516,0.10749451816082,0.148681640625,0.5,-0.5,-0.5,-0.5
517,0.104610189795494,0.14201819896698,0.5,-0.5,-0.5,-0.5
518,0.104790061712265,0.136124566197395,0.5,-0.5,-0.5,-0.5
519,0.10680677741766,0.132574468851089,0.5,-0.5,-0.5,-0.5
520,0.10772867500782,0.130608379840851,0.5,-0.5,-0.5,-0.5
521,0.104974880814552,0.127218216657639,0.5,-0.5,-0.5,-0.5
522,0.0980824083089828,0.121073447167873,0.5,-0.5,-0.5,-0.5
523,0.0911822840571404,0.115254200994968,0.5,-0.5,-0.5,-0.5
524,0.0885498970746994,0.113517388701439,0.5,-0.5,-0.5,-0.5
525,0.0901341438293457,0.116276763379574,0.5,-0.5,-0.5,-0.5
526,0.0934053659439087,0.120658844709396,0.5,-0.5,-0.5,-0.5
527,0.0963341817259789,0.123388737440109,0.5,-0.5,-0.5,-0.5
528,0.099034495651722,0.124350801110268,0.5,-0.5,-0.5,-0.5
529,0.101324826478958,0.123971708118916,0.5,-0.5,-0.5,-0.5
530,0.102088831365108,0.120902270078659,0.5,-0.5,-0.5,-0.5
531,0.102283164858818,0.116095319390297,0.5,-0.5,-0.5,-0.5
532,0.102239191532135,0.111526198685169,0.5,-0.5,-0.5,-0.5
533,0.100687831640244,0.10703156888485,0.5,-0.5,-0.5,-0.5
534,0.0979364067316055,0.102437652647495,0.5,-0.5,-0.5,-0.5
535,0.0946407020092011,0.0979894921183586,0.5,-0.5,-0.5,-0.5
536,0.0913317129015923,0.0935941785573959,0.5,-0.5,-0.5,-0.5
537,0.0888309702277184,0.0892688035964966,0.5,-0.5,-0.5,-0.5
538,0.0859201848506927,0.08409783244133,0.5,-0.5,-0.5,-0.5
539,0.081162266433239,0.0772590562701225,0.5,-0.5,-0.5,-0.5
540,0.077057771384716,0.0708798766136169,0.5,-0.5,-0.5,-0.5
541,0.0759146064519882,0.0669069364666939,0.5,-0.5,-0.5,-0.289476215839386
542,0.0757243260741234,0.0645356103777885,0.5,-0.5,-0.5,-0.0223510712385178
543,0.0745897442102432,0.0633804053068161,0.5,-0.5,-0.5,0.238911017775536
544,0.0724576115608215,0.0641043707728386,0.5,-0.5,-0.5,0.491963535547256
545,0.0698803886771202,0.066913016140461,0.5,-0.5,-0.5,0.5
546,0.0681226328015327,0.0713743716478348,0.5,-0.5,-0.5,0.5
547,0.0682331845164299,0.0773822367191315,0.5,-0.5,-0.5,0.5
548,0.0702559053897858,0.084296777844429,0.5,-0.5,-0.5,0.5
549,0.0726500898599625,0.0892811119556427,0.5,-0.5,-0.5,0.5
550,0.073855884373188,0.0904638320207596,0.5,-0.5,-0.5,0.5
551,0.0734370425343513,0.088290236890316,0.5,-0.5,-0.5,0.5
552,0.0715102627873421,0.0837183445692062,0.5,-0.5,-0.5,0.5
553,0.0689101442694664,0.0784133970737457,0.5,-0.5,-0.5,0.5
554,0.0657439529895782,0.0726303234696388,0.5,-0.5,-0.5,0.5
555,0.0631200969219208,0.0663316175341606,0.5,-0.5,-0.5,0.5
556,0.0633772015571594,0.0618939958512783,0.5,-0.5,-0.5,0.5
557,0.0645298063755035,0.0596463792026043,0.5,-0.5,-0.5,0.5
558,0.062016386538744,0.0571468099951744,0.5,-0.5,-0.5,0.5
559,0.0561130903661251,0.0540802851319313,0.5,-0.5,-0.352944314479828,0.5
560,0.0519695766270161,0.0517176948487759,0.5,-0.478795498609543,-0.0872877389192581,0.5
561,0.0516682490706444,0.0494026690721512,0.5,-0.372929722070694,0.184677049517632,0.5
562,0.0520821027457714,0.0463751703500748,0.5,-0.267706125974655,0.454997032880783,0.5
563,0.0514459758996964,0.0438480637967587,0.5,-0.159044519066811,0.5,0.5
564,0.0508230812847614,0.0430712699890137,0.5,-0.0447215214371681,0.5,0.5
565,0.0502747148275375,0.0437260530889034,0.5,0.0740619897842407,0.5,0.5
566,0.0497142858803272,0.0451191663742065,0.5,0.19366018474102,0.5,0.5
567,0.050215020775795,0.0478478483855724,0.5,0.310810774564743,0.5,0.5
568,0.0510398373007774,0.0517510734498501,0.5,0.423152774572372,0.5,0.5
569,0.0507077947258949,0.0560018084943295,0.5,0.5,0.5,0.5
570,0.0491721071302891,0.0603711977601051,0.5,0.5,0.5,0.5
571,0.0469680577516556,0.0636195093393326,0.5,0.5,0.5,0.5
572,0.0458731427788734,0.0641882494091988,0.5,0.5,0.5,0.5
573,0.0469642765820026,0.0618890374898911,0.5,0.5,0.5,0.5
574,0.0492665469646454,0.0578850358724594,0.5,0.5,0.5,0.5
575,0.0515140295028687,0.0535028502345085,0.5,0.5,0.5,0.5
576,0.0521340668201447,0.0489418059587479,0.5,0.5,0.5,0.5
577,0.0499522164463997,0.0427704676985741,0.5,0.5,0.5,0.5
578,0.0456419102847576,0.0346825495362282,0.5,0.5,0.5,0.5
579,0.0408310778439045,0.0258288867771626,0.5,0.5,0.5,0.5
580,0.0370686799287796,0.015546552836895,0.5,0.5,0.5,0.5
581,0.0349941812455654,0.00368076306767762,0.5,0.5,0.5,0.5
582,0.0337321422994137,-0.00694983405992389,0.5,0.5,0.5,0.5
583,0.0335058681666851,-0.0133663034066558,0.5,0.5,0.5,0.5
584,0.0355512984097004,-0.0153960017487407,0.5,0.5,0.5,0.5
585,0.0389153063297272,-0.0149699477478862,0.5,0.5,0.5,0.5
586,0.0418826192617416,-0.014083880931139,0.5,0.5,0.5,0.5
587,0.044140912592411,-0.0138567257672548,0.5,0.5,0.5,0.5
588,0.04632917791605,-0.0139481145888567,0.5,0.5,0.5,0.5
589,0.0494770407676697,-0.0133251966908574,0.5,0.5,0.5,0.5
590,0.0529131814837456,-0.0122779300436378,0.5,0.5,0.5,0.5
591,0.0549451485276222,-0.0123018268495798,0.5,0.5,0.5,0.5
592,0.0556228160858154,-0.0142890512943268,0.5,0.5,0.5,0.5
593,0.0558443665504456,-0.0173940397799015,0.5,0.5,0.5,0.5
594,0.0562791489064693,-0.0191546846181154,0.5,0.5,0.5,0.5
595,0.0564344339072704,-0.0188054386526346,0.5,0.5,0.5,0.5
596,0.0554601401090622,-0.01822180300951,0.5,0.5,0.5,0.5
597,0.0539313443005085,-0.0192131139338017,0.5,0.5,0.5,0.5
598,0.0518685393035412,-0.0228436626493931,0.5,0.5,0.5,0.5
599,0.0481474027037621,-0.0294437501579523,0.5,0.5,0.5,0.5
600,0.043638851493597,-0.0376846864819527,0.5,0.5,0.5,0.5
601,0.0403708331286907,-0.0438992157578468,0.5,0.5,0.5,0.5
602,0.0381031222641468,-0.0446453727781773,0.5,0.5,0.5,0.5
603,0.0358293764293194,-0.0405761487782002,0.5,0.5,0.5,0.5
604,0.0335935465991497,-0.0355555266141891,0.5,0.5,0.5,0.5
605,0.0321343615651131,-0.0318019092082977,0.5,0.5,0.5,0.5
606,0.0325409062206745,-0.0291319340467453,0.5,0.5,0.5,0.5
607,0.0336709544062614,-0.0284818913787603,0.5,0.5,0.5,0.5
608,0.0325907804071903,-0.0307949837297201,0.5,0.5,0.5,0.5
609,0.0290020946413279,-0.0345694869756699,0.5,0.5,0.5,0.5
610,0.0251943059265614,-0.0385870039463043,0.5,0.5,0.5,0.5
611,0.0222338549792767,-0.043648898601532,0.5,0.5,0.5,0.5
612,0.018933080136776,-0.0498104356229305,0.5,0.5,0.5,0.5
613,0.0149168111383915,-0.0551502332091331,0.5,0.5,0.5,0.5
614,0.0110719241201878,-0.0589633397758007,0.5,0.5,0.5,0.5
615,0.00784903112798929,-0.0630201026797295,0.5,0.5,0.5,0.5
616,0.00529120489954948,-0.0671627968549728,0.5,0.5,0.5,0.5
617,0.00300441775470972,-0.0687601417303085,0.5,0.5,0.5,0.5
618,0.000808516109827906,-0.0681285783648491,0.5,0.5,0.5,0.5
619,-0.0010347388451919,-0.067487895488739,0.5,0.5,0.5,0.5
620,-0.00218993192538619,-0.0676247328519821,0.5,0.5,0.5,0.5
621,-0.0019130096770823,-0.0687367990612984,0.5,0.5,0.5,0.5
622,0.000512581958901137,-0.0699566006660461,0.5,0.5,0.5,0.5
623,0.00410078652203083,-0.0695777088403702,0.5,0.5,0.5,0.5
624,0.00743936281651258,-0.0660456791520119,0.5,0.5,0.5,0.5
625,0.0105809569358826,-0.059851162135601,0.5,0.5,0.5,0.5
626,0.012750300578773,-0.0545725934207439,0.5,0.5,0.5,0.5
627,0.0119529217481613,-0.0530590377748013,0.5,0.5,0.5,0.5
628,0.00939007103443146,-0.0536508187651634,0.5,0.5,0.5,0.5
629,0.00750432768836617,-0.0540671609342098,0.5,0.5,0.5,0.5
630,0.00433926656842232,-0.0559023655951023,0.5,0.5,0.5,0.5
631,-0.00241121207363904,-0.0600980073213577,0.5,0.5,0.5,0.5
632,-0.0114081585779786,-0.0646950230002403,0.5,0.5,0.5,0.5
633,-0.020024748519063,-0.0677191019058228,0.5,0.5,0.5,0.5
634,-0.0265060625970364,-0.0687141120433807,0.5,0.5,0.5,0.5
635,-0.0307082775980234,-0.0688571780920029,0.5,0.5,0.5,0.5
636,-0.033958338201046,-0.0698719769716263,0.5,0.5,0.5,0.5
637,-0.0369936674833298,-0.0726132914423943,0.5,0.5,0.5,0.5
638,-0.0381737574934959,-0.0750754028558731,0.5,0.5,0.5,0.5
639,-0.0361319854855537,-0.074047788977623,0.5,0.5,0.5,0.5
640,-0.0300733130425215,-0.0692783072590828,0.5,0.5,0.5,0.5
641,-0.0192710664123297,-0.0626100897789001,0.5,0.5,0.5,0.5
642,-0.00618850626051426,-0.0554564706981182,0.5,0.5,0.5,0.5
643,0.00481707509607077,-0.0493265427649021,0.5,0.5,0.5,0.5
644,0.0106891402974725,-0.0457514338195324,0.5,0.5,0.5,0.5
645,0.0112917656078935,-0.045513603836298,0.5,0.5,0.5,0.5
646,0.00892696902155876,-0.0493138432502747,0.5,0.5,0.5,0.5
647,0.00494728283956647,-0.0558481030166149,0.5,0.5,0.5,0.5
648,-0.000814946019090712,-0.0606142170727253,0.5,0.5,0.5,0.5
649,-0.00770826544612646,-0.0610069185495377,0.5,0.5,0.5,0.5
650,-0.014748826622963,-0.0589877851307392,0.5,0.5,0.5,0.5
651,-0.0210569724440575,-0.0572404526174068,0.5,0.5,0.5,0.5
652,-0.0247309971600771,-0.056742250919342,0.5,0.5,0.5,0.5
653,-0.0247320588678122,-0.0572612509131432,0.5,0.5,0.5,0.5
654,-0.0221967622637749,-0.059088546782732,0.5,0.5,0.5,0.5
655,-0.0187926311045885,-0.0634397268295288,0.5,0.5,0.5,0.5
656,-0.0159396044909954,-0.0690043047070503,0.5,0.5,0.5,0.5
657,-0.0150474747642875,-0.0720463618636131,0.5,0.5,0.5,0.5
658,-0.0157654751092196,-0.0713717415928841,0.5,0.5,0.5,0.5
659,-0.0172059219330549,-0.0692406445741653,0.5,0.5,0.5,0.5
660,-0.0203151889145374,-0.0674527734518051,0.5,0.5,0.5,0.5
661,-0.0245163291692734,-0.0653554275631905,0.5,0.5,0.5,0.5
662,-0.0267722215503454,-0.0623518899083138,0.5,0.5,0.5,0.5
663,-0.0256610624492168,-0.0597335360944271,0.5,0.5,0.5,0.5
664,-0.0229805782437325,-0.0575799718499184,0.5,0.5,0.5,0.5
665,-0.0219564940780401,-0.0550691038370132,0.5,0.5,0.5,0.5
666,-0.0245088078081608,-0.0538678728044033,0.5,0.5,0.5,0.5
667,-0.0296188481152058,-0.0551987253129482,0.5,0.5,0.5,0.5
668,-0.0340680964291096,-0.0572679415345192,0.5,0.5,0.5,0.5
669,-0.0349257290363312,-0.0589358024299145,0.5,0.5,0.5,0.5
670,-0.0323442742228508,-0.0586939938366413,0.5,0.5,0.5,0.5
671,-0.0285575874149799,-0.0528425425291061,0.5,0.5,0.5,0.5
672,-0.0252725165337324,-0.0437947027385235,0.5,0.5,0.5,0.5
673,-0.0233977269381285,-0.0388274937868118,0.5,0.5,0.5,0.5
674,-0.0232098419219255,-0.0399525426328182,0.5,0.5,0.5,0.5
675,-0.0240647383034229,-0.043701745569706,0.5,0.5,0.5,0.5
676,-0.023889796808362,-0.0463696494698524,0.5,0.5,0.5,0.5
677,-0.0207363124936819,-0.0468946397304535,0.5,0.5,0.5,0.5
678,-0.0169300269335508,-0.0456698499619961,0.5,0.5,0.5,0.5
679,-0.0165289230644703,-0.0443121045827866,0.5,0.5,0.5,0.5
680,-0.0192726217210293,-0.0453504137694836,0.5,0.5,0.5,0.5
681,-0.0225640125572681,-0.0476643405854702,0.5,0.5,0.5,0.5
682,-0.0249002110213041,-0.0482969805598259,0.5,0.5,0.5,0.5
683,-0.0260212793946266,-0.0483810156583786,0.5,0.5,0.5,0.5
684,-0.0251087341457605,-0.0489073470234871,0.5,0.5,0.5,0.5
685,-0.0215774551033974,-0.0482702478766441,0.5,0.5,0.5,0.5
686,-0.018269307911396,-0.0466851182281971,0.5,0.5,0.5,0.5
687,-0.0186643172055483,-0.045651625841856,0.5,0.5,0.5,0.5
688,-0.0227208379656076,-0.0462854392826557,0.5,0.5,0.5,0.5
689,-0.0278472136706114,-0.0495819039642811,0.5,0.5,0.5,0.5
690,-0.0321356877684593,-0.0546200983226299,0.5,0.5,0.5,0.5
691,-0.0365530848503113,-0.0592113062739372,0.5,0.5,0.5,0.5
692,-0.0421406030654907,-0.0626324415206909,0.5,0.5,0.5,0.5
693,-0.0473181158304214,-0.0649588331580162,0.5,0.5,0.5,0.5
694,-0.0499031506478786,-0.0659991353750229,0.5,0.5,0.5,0.5
695,-0.0494048967957497,-0.0649165362119675,0.5,0.5,0.5,0.5
696,-0.0461982041597366,-0.0598768442869186,0.5,0.5,0.5,0.5
697,-0.0400042310357094,-0.0509334281086922,0.5,0.5,0.5,0.5
698,-0.03191252425313,-0.0420687198638916,0.5,0.5,0.5,0.5
699,-0.0239167660474777,-0.0363537445664406,0.5,0.5,0.5,0.5
700,-0.0178417004644871,-0.0327964387834072,0.5,0.5,0.5,0.5
701,-0.0149182062596083,-0.0295899733901024,0.5,0.5,0.5,0.5
702,-0.0142606599256396,-0.0255643501877785,0.5,0.5,0.5,0.5
703,-0.0145423403009772,-0.0204962119460106,0.5,0.5,0.5,0.5
704,-0.015441270545125,-0.0162166450172663,0.5,0.5,0.5,0.5
705,-0.0168946050107479,-0.0146066760644317,0.5,0.5,0.5,0.5
706,-0.0190780106931925,-0.0161136444658041,0.5,0.5,0.5,0.5
707,-0.0218009427189827,-0.0208009369671345,0.5,0.5,0.5,0.5
708,-0.0232824999839067,-0.0279187560081482,0.5,0.5,0.5,0.5
709,-0.0238218810409307,-0.0346054062247276,0.5,0.5,0.5,0.5
710,-0.0251428075134754,-0.0377739407122135,0.5,0.5,0.5,0.5
711,-0.0259041655808687,-0.0369802750647068,0.5,0.5,0.5,0.5
712,-0.0252644289284945,-0.0342675782740116,0.5,0.5,0.5,0.5
713,-0.0244115348905325,-0.0307016894221306,0.5,0.5,0.5,0.5
714,-0.0246182102710009,-0.0250932369381189,0.5,0.5,0.5,0.5
715,-0.0262968055903912,-0.0175108052790165,0.5,0.5,0.5,0.5
716,-0.0288499873131514,-0.0113177550956607,0.5,0.5,0.5,0.5
717,-0.0319082178175449,-0.0091886967420578,0.5,0.5,0.5,0.5
718,-0.0337786562740803,-0.008266088552773,0.5,0.5,0.5,0.5
719,-0.0318137146532536,-0.00580133497714996,0.5,0.5,0.5,0.5
720,-0.0261097922921181,-0.00346226058900356,0.5,0.5,0.5,0.5
721,-0.0194135457277298,-0.00271704769693315,0.5,0.5,0.5,0.5
722,-0.0140616148710251,-0.00334189808927476,0.5,0.5,0.5,0.5
723,-0.0124215492978692,-0.00545366806909442,0.5,0.5,0.5,0.5
724,-0.0149915404617786,-0.00813976768404245,0.5,0.5,0.5,0.5
725,-0.018060177564621,-0.00816627312451601,0.5,0.5,0.5,0.5
726,-0.0190692823380232,-0.00523236440494657,0.5,0.5,0.5,0.5
727,-0.0185509957373142,-0.00316627556458116,0.5,0.5,0.5,0.5
728,-0.0178721621632576,-0.00461484724655747,0.5,0.5,0.5,0.5
729,-0.0182934496551752,-0.00807303562760353,0.5,0.5,0.5,0.5
730,-0.019634747877717,-0.0109053933992982,0.5,0.5,0.5,0.5
731,-0.0206434242427349,-0.0113567505031824,0.5,0.5,0.5,0.5
732,-0.0217264611274004,-0.0085732713341713,0.5,0.5,0.5,0.5
733,-0.0243217255920172,-0.00533632142469287,0.5,0.5,0.5,0.5
734,-0.0273856595158577,-0.00457218522205949,0.5,0.5,0.5,0.5
735,-0.0287208501249552,-0.00640685111284256,0.5,0.5,0.5,0.5
736,-0.0274563170969486,-0.00986839458346367,0.5,0.5,0.5,0.5
737,-0.0250470656901598,-0.0124878603965044,0.5,0.5,0.5,0.5
738,-0.0234863180667162,-0.012269495986402,0.5,0.5,0.5,0.5
739,-0.0222320258617401,-0.0101901795715094,0.5,0.5,0.5,0.5
740,-0.0199144184589386,-0.00924210529774427,0.5,0.5,0.5,0.5
741,-0.0167051330208778,-0.0096986461430788,0.5,0.5,0.5,0.5
742,-0.0156420134007931,-0.00863572116941214,0.5,0.5,0.5,0.5
743,-0.0194653403013945,-0.00537236966192722,0.5,0.5,0.5,0.5
744,-0.0240675806999207,-0.000688836502376944,0.5,0.5,0.5,0.5
745,-0.023729357868433,0.00550995720550418,0.5,0.5,0.5,0.5
746,-0.0204486381262541,0.0115812281146646,0.5,0.5,0.5,0.5
747,-0.0188749134540558,0.0144818890839815,0.5,0.5,0.5,0.5
748,-0.0202208198606968,0.0138676986098289,0.5,0.5,0.5,0.5
749,-0.0239412114024162,0.0114676812663674,0.5,0.5,0.5,0.5
750,-0.0272566508501768,0.00674662459641695,0.5,0.5,0.5,0.5
751,-0.0280887465924025,0.000680342258419842,0.5,0.5,0.5,0.5
752,-0.0287154037505388,-0.0012657722691074,0.5,0.5,0.5,0.5
753,-0.0311725176870823,0.00189980363938957,0.5,0.5,0.5,0.5
754,-0.0337510295212269,0.00491980230435729,0.5,0.5,0.5,0.5
755,-0.0327037200331688,0.00422795582562685,0.5,0.5,0.5,0.5
756,-0.0280050728470087,-0.000776925007812679,0.5,0.5,0.5,0.5
757,-0.0246152076870203,-0.00843585096299648,0.5,0.5,0.5,0.5
758,-0.0256343092769384,-0.0145119475200772,0.5,0.5,0.5,0.5
759,-0.0291702561080456,-0.0171776935458183,0.497690111398697,0.5,0.5,0.5
760,-0.0312019214034081,-0.0185363590717316,0.488274127244949,0.5,0.5,0.5
761,-0.0299246869981289,-0.0199222229421139,0.4805808365345,0.5,0.5,0.5
762,-0.026722552254796,-0.0208772942423821,0.473343551158905,0.5,0.5,0.5
763,-0.0236278604716063,-0.0213274974375963,0.466969847679138,0.5,0.5,0.5
764,-0.0222422294318676,-0.0215057879686356,0.4619100689888,0.5,0.5,0.5
765,-0.0227973889559507,-0.0213635955005884,0.458199888467789,0.5,0.5,0.5
766,-0.0237196814268827,-0.0221654828637838,0.455676257610321,0.5,0.5,0.5
767,-0.0234983637928963,-0.0239792298525572,0.452771067619324,0.5,0.5,0.5
768,-0.0218357350677252,-0.02480249106884,0.44957172870636,0.5,0.5,0.5
769,-0.0203980077058077,-0.025540379807353,0.445988088846207,0.5,0.5,0.5
770,-0.021318756043911,-0.0270503852516413,0.439483255147934,0.5,0.5,0.5
771,-0.0238761305809021,-0.0277927685528994,0.430226624011993,0.5,0.5,0.5
772,-0.0251966584473848,-0.0278169550001621,0.420901119709015,0.5,0.5,0.5
773,-0.0254235751926899,-0.0283142644912004,0.411596745252609,0.5,0.5,0.5
774,-0.0277632158249617,-0.0296487603336573,0.40052518248558,0.5,0.5,0.5
775,-0.0330336838960648,-0.0308097265660763,0.387028902769089,0.5,0.5,0.5
776,-0.0388679541647434,-0.0310936067253351,0.37261900305748,0.5,0.5,0.5
777,-0.0428574718534946,-0.0322486087679863,0.360332548618317,0.5,0.5,0.5
778,-0.0458706356585026,-0.0361738912761211,0.350799798965454,0.5,0.5,0.5
779,-0.0491613000631332,-0.0402039885520935,0.342389404773712,0.5,0.5,0.5
780,-0.0512410216033459,-0.0403250530362129,0.334707945585251,0.5,0.5,0.5
781,-0.0518653728067875,-0.0372522361576557,0.327355861663818,0.5,0.5,0.5
782,-0.0509408302605152,-0.032943420112133,0.319723874330521,0.5,0.5,0.5
783,-0.0476840250194073,-0.0279356762766838,0.312381654977798,0.5,0.5,0.5
784,-0.0436946898698807,-0.0241406690329313,0.30558779835701,0.5,0.5,0.5
785,-0.039757315069437,-0.0227939486503601,0.298070758581162,0.5,0.5,0.5
786,-0.0352438651025295,-0.0233751852065325,0.288976848125458,0.5,0.5,0.5
787,-0.0316326580941677,-0.0268283504992723,0.279875814914703,0.5,0.5,0.5
788,-0.031201308593154,-0.0319138914346695,0.272113829851151,0.5,0.5,0.5
789,-0.0351749286055565,-0.034670352935791,0.264147251844406,0.5,0.5,0.5
790,-0.0415370799601078,-0.0354610271751881,0.253508538007736,0.5,0.5,0.5
791,-0.0446828827261925,-0.0371614508330822,0.240051373839378,0.5,0.5,0.5
792,-0.0423799976706505,-0.0402950309216976,0.227389618754387,0.5,0.5,0.5
793,-0.037742055952549,-0.0432220362126827,0.220016688108444,0.5,0.5,0.5
794,-0.0338581129908562,-0.0431435219943523,0.217358127236366,0.5,0.5,0.5
795,-0.0314710289239883,-0.0405269004404545,0.215264886617661,0.5,0.5,0.5
796,-0.0297531075775623,-0.0385174714028835,0.213083937764168,0.5,0.5,0.5
797,-0.0274440534412861,-0.0374048054218292,0.212632656097412,0.5,0.5,0.5
798,-0.024176562204957,-0.0366025865077972,0.21376745402813,0.5,0.5,0.5
799,-0.0214384831488132,-0.0353424176573753,0.214785784482956,0.5,0.5,0.5
800,-0.0201862566173077,-0.0308442488312721,0.214502602815628,0.5,0.5,0.5
801,-0.0195064730942249,-0.0226165503263474,0.212700873613358,0.5,0.5,0.5
802,-0.0189926028251648,-0.0143376383930445,0.209390863776207,0.5,0.5,0.5
803,-0.0189967602491379,-0.00903699826449156,0.205400541424751,0.5,0.5,0.5
804,-0.0195556618273258,-0.00673091690987349,0.202446445822716,0.5,0.5,0.5
805,-0.0194791480898857,-0.00614464841783047,0.201793596148491,0.5,0.5,0.5
806,-0.0175283830612898,-0.00630752136930823,0.203393638134003,0.5,0.5,0.5
807,-0.0146919758990407,-0.00688597094267607,0.205081015825272,0.5,0.5,0.5
808,-0.0116383135318756,-0.00720138195902109,0.203718811273575,0.5,0.5,0.5
809,-0.00822293665260077,-0.00678109936416149,0.198842316865921,0.5,0.5,0.5
810,-0.00657866103574634,-0.00603974610567093,0.19325490295887,0.5,0.5,0.5
811,-0.00785937253385782,-0.00615675514563918,0.189679533243179,0.5,0.5,0.5
812,-0.00990873482078314,-0.0069303922355175,0.188128009438515,0.5,0.5,0.5
813,-0.0115629937499762,-0.00676274998113513,0.185614019632339,0.5,0.5,0.5
814,-0.0126076405867934,-0.00766729330644012,0.180632561445236,0.5,0.5,0.5
815,-0.0131995547562838,-0.0111685004085302,0.173774912953377,0.5,0.5,0.5
816,-0.0146688800305128,-0.0140032842755318,0.164174318313599,0.5,0.5,0.5
817,-0.016491761431098,-0.0144431097432971,0.153074100613594,0.5,0.5,0.5
818,-0.0183437019586563,-0.0149057358503342,0.143754556775093,0.5,0.5,0.5
819,-0.0209827963262796,-0.0173363368958235,0.137320816516876,0.5,0.5,0.5
820,-0.0227451659739017,-0.0198925491422415,0.133643239736557,0.5,0.5,0.5
821,-0.0218811258673668,-0.0201048608869314,0.132549524307251,0.5,0.5,0.5
822,-0.0188841111958027,-0.0175053626298904,0.133105516433716,0.5,0.5,0.5
823,-0.0156448800116777,-0.0122782830148935,0.133439153432846,0.5,0.5,0.5
824,-0.0131787545979023,-0.00587076554074883,0.132364988327026,0.5,0.5,0.5
825,-0.00995669327676296,-0.00107772916089743,0.130078345537186,0.5,0.5,0.5
826,-0.00583076663315296,0.00125346519052982,0.126424506306648,0.5,0.5,0.5
827,-0.00298079522326589,0.0031071740668267,0.120645925402641,0.5,0.5,0.5
828,-0.000885228859260678,0.00522824795916677,0.11450383067131,0.5,0.5,0.5
829,0.00237755943089724,0.00796243827790022,0.110847301781178,0.5,0.5,0.5
830,0.00549395103007555,0.0128481006249785,0.108734719455242,0.5,0.5,0.5
831,0.00630829809233546,0.0189872235059738,0.105344079434872,0.5,0.5,0.5
832,0.00611954648047686,0.0245250295847654,0.100294776260853,0.5,0.5,0.5
833,0.00763453124091029,0.0290119554847479,0.0957663580775261,0.5,0.5,0.5
834,0.0103116016834974,0.0325307808816433,0.0931064784526825,0.5,0.5,0.5
835,0.0134014524519444,0.0344599932432175,0.0922901853919029,0.5,0.5,0.5
836,0.0185678228735924,0.0337856821715832,0.0931404754519463,0.5,0.5,0.5
837,0.0240693520754576,0.0323996059596539,0.0933386534452438,0.5,0.5,0.5
838,0.0262535233050585,0.0334481373429298,0.0904238224029541,0.5,0.5,0.5
839,0.0243001990020275,0.0348655357956886,0.0844179913401604,0.5,0.5,0.5
840,0.0191548131406307,0.0322421453893185,0.0766471773386002,0.5,0.5,0.5
841,0.0136748095974326,0.026875713840127,0.0690946206450462,0.5,0.5,0.5
842,0.0107043776661158,0.0233623161911964,0.0625094249844551,0.5,0.5,0.5
843,0.00939345080405474,0.0228910110890865,0.0556596927344799,0.5,0.5,0.5
844,0.00825340393930674,0.0237288121134043,0.0489816851913929,0.5,0.5,0.5
845,0.00955827627331018,0.0253135580569506,0.0452111288905144,0.5,0.5,0.5
846,0.0140659138560295,0.0272117722779512,0.0445137731730938,0.5,0.5,0.5
847,0.0183562841266394,0.0275523699820042,0.0436794683337212,0.5,0.5,0.5
848,0.0198036469519138,0.0255845226347446,0.0396342389285564,0.5,0.5,0.5
849,0.0170027799904346,0.0214468408375978,0.0319303832948208,0.5,0.5,0.5
850,0.0106669254601002,0.0158049911260605,0.0237393230199814,0.5,0.5,0.5
851,0.00335103506222367,0.00993374641984701,0.0181597378104925,0.5,0.5,0.5
852,-0.00415333965793252,0.00437446450814605,0.0145127540454268,0.5,0.5,0.5
853,-0.0103055825456977,0.00145107472781092,0.0116795040667057,0.5,0.5,0.5
854,-0.0120294382795691,0.00334436446428299,0.0098220519721508,0.5,0.5,0.5
855,-0.00939861405640841,0.00762844271957874,0.00902431551367044,0.5,0.5,0.5
856,-0.00661321403458714,0.0112047074362636,0.00896425358951092,0.5,0.5,0.5
857,-0.00678948825225234,0.0132570508867502,0.00886649638414383,0.5,0.5,0.5
858,-0.00787825416773558,0.0137148592621088,0.00848179124295712,0.5,0.5,0.5
859,-0.00694632669910789,0.0137350186705589,0.00714640319347382,0.5,0.5,0.5
860,-0.00445817923173308,0.0150144184008241,0.00432811118662357,0.5,0.5,0.5
861,-0.00282762106508017,0.0166073441505432,0.000828589661978185,0.5,0.5,0.5
862,-0.00293918163515627,0.0177208688110113,-0.00172719487454742,0.5,0.5,0.5
863,-0.00240982323884964,0.0199646148830652,-0.0015524165937677,0.5,0.5,0.5
864,0.000535271188709885,0.022493876516819,0.000716459064278752,0.5,0.5,0.5
865,0.00590684963390231,0.0232883151620626,0.00324716349132359,0.5,0.5,0.5
866,0.013726282864809,0.0233344733715057,0.00471944687888026,0.5,0.5,0.5
867,0.0216934867203236,0.024026732891798,0.00344859901815653,0.5,0.5,0.5
868,0.0271366108208895,0.0256089717149735,0.000198082489077933,0.5,0.5,0.5
869,0.0301077235490084,0.0276802629232407,-0.00274086743593216,0.5,0.5,0.5
870,0.0322164595127106,0.028790969401598,-0.00582686439156532,0.5,0.5,0.5
871,0.0347845405340195,0.0287798512727022,-0.00949106179177761,0.5,0.5,0.5
872,0.0383515246212482,0.0298240277916193,-0.0113839292898774,0.5,0.5,0.5
873,0.0427013859152794,0.032888762652874,-0.0107750343158841,0.5,0.5,0.5
874,0.0461953543126583,0.0362564474344254,-0.00976421404629946,0.5,0.5,0.5
875,0.0482968389987946,0.0378109812736511,-0.00972441677004099,0.5,0.5,0.5
876,0.0492257326841354,0.0370199903845787,-0.01155308727175,0.5,0.5,0.5
877,0.0468146577477455,0.0342127047479153,-0.0168720688670874,0.5,0.5,0.5
878,0.040457010269165,0.029992138966918,-0.0252858772873878,0.5,0.5,0.5
879,0.0354668311774731,0.0265109855681658,-0.0319209210574627,0.5,0.5,0.5
880,0.0364545248448849,0.0261559970676899,-0.0328893177211285,0.5,0.5,0.5
881,0.0419348850846291,0.0287078302353621,-0.0297287702560425,0.5,0.5,0.5
882,0.0482117421925068,0.0317165069282055,-0.025470370426774,0.5,0.5,0.5
883,0.0526560992002487,0.0329609103500843,-0.0219027753919363,0.5,0.5,0.5
884,0.0554406978189945,0.0325471833348274,-0.0200876127928495,0.5,0.5,0.5
885,0.0578686706721783,0.0314680971205235,-0.0206276345998049,0.5,0.5,0.5
886,0.0599858239293098,0.0285909622907639,-0.0229514632374048,0.5,0.5,0.5
887,0.0608930177986622,0.0245476420968771,-0.0266152806580067,0.5,0.5,0.5
888,0.0589965283870697,0.0219011679291725,-0.0321004875004292,0.5,0.5,0.5
889,0.0544681958854198,0.0204545520246029,-0.0385669022798538,0.5,0.5,0.5
890,0.0498947948217392,0.0194432009011507,-0.0449117869138718,0.5,0.5,0.5
891,0.0471218712627888,0.0182512942701578,-0.050724383443594,0.5,0.5,0.5
892,0.0448521785438061,0.0147988330572844,-0.055351909250021,0.5,0.5,0.5
893,0.0402641892433167,0.0081997187808156,-0.060191098600626,0.5,0.5,0.5
894,0.0331892296671867,0.00135053042322397,-0.0671343058347702,0.5,0.5,0.5
895,0.0274254828691483,-0.00268388981930912,-0.0745237246155739,0.5,0.5,0.5
896,0.0264974664896727,-0.00380752678029239,-0.0789885967969894,0.5,0.5,0.5
897,0.0291947331279516,-0.00200275611132383,-0.0785709619522095,0.5,0.5,0.5
898,0.033873725682497,0.00296113826334476,-0.0735975056886673,0.5,0.5,0.5
899,0.0402345582842827,0.0084736654534936,-0.0668397769331932,0.5,0.5,0.5
900,0.046449638903141,0.0112985214218497,-0.0614806450903416,0.5,0.5,0.5
901,0.0514826141297817,0.0110231675207615,-0.0583457909524441,0.5,0.5,0.5
902,0.0555811747908592,0.00884075276553631,-0.0574455596506596,0.5,0.5,0.5
903,0.0573581084609032,0.00583595177158713,-0.0603756383061409,0.5,0.5,0.5
904,0.0556486696004868,0.00374517636373639,-0.0667709857225418,0.5,0.5,0.5
905,0.0521966964006424,0.00337494979612529,-0.0730582997202873,0.5,0.5,0.5
906,0.0486333705484867,0.00232860399410129,-0.0781668648123741,0.5,0.5,0.5
907,0.0460844449698925,-0.000747117213904858,-0.0826961696147919,0.5,0.5,0.5
908,0.04435059055686,-0.00438435934484005,-0.0865938514471054,0.5,0.5,0.5
909,0.0403990484774113,-0.00661348737776279,-0.0903174579143524,0.5,0.5,0.5
910,0.0331685319542885,-0.00660025980323553,-0.092388354241848,0.5,0.5,0.5
911,0.0253704395145178,-0.00673341378569603,-0.0910554155707359,0.5,0.5,0.5
912,0.0188961550593376,-0.00916354916989803,-0.0885765179991722,0.5,0.5,0.5
913,0.0130802495405078,-0.0122602935880423,-0.088372066617012,0.5,0.5,0.5
914,0.0075158248655498,-0.0155511246994138,-0.0907621458172798,0.5,0.5,0.5
915,0.00345569802448154,-0.0200042370706797,-0.0949598923325539,0.5,0.5,0.5
916,0.0024280974175781,-0.0241298582404852,-0.101198114454746,0.5,0.5,0.5
917,0.00423058774322271,-0.0263751391321421,-0.108703017234802,0.5,0.5,0.5
918,0.00628881808370352,-0.0264933239668608,-0.115225814282894,0.5,0.5,0.5
919,0.00691054435446858,-0.0245678666979074,-0.118024818599224,0.5,0.5,0.5
920,0.00738819083198905,-0.0212145708501339,-0.116387218236923,0.5,0.5,0.5
921,0.00800158455967903,-0.0173778999596834,-0.112899042665958,0.5,0.5,0.5
922,0.00790487229824066,-0.0145558314397931,-0.110088028013706,0.5,0.5,0.5
923,0.00874402560293674,-0.013665939681232,-0.107616662979126,0.5,0.5,0.5
924,0.0113195767626166,-0.0122490562498569,-0.103289261460304,0.5,0.5,0.5
925,0.0131125608459115,-0.00772008299827576,-0.0978654250502586,0.5,0.5,0.5
926,0.0122594749554992,-0.00244642444886267,-0.0941900983452797,0.5,0.5,0.5
927,0.00925457663834095,-0.000880883366335183,-0.091666616499424,0.5,0.5,0.5
928,0.00568420765921474,-0.00361046963371336,-0.0883934497833252,0.5,0.5,0.5
929,0.00154375960119069,-0.00744519010186195,-0.0857332572340965,0.5,0.5,0.5
930,-0.0040741809643805,-0.00962702371180058,-0.0857091620564461,0.5,0.5,0.5
931,-0.00862154364585876,-0.00882318615913391,-0.0866326466202736,0.5,0.5,0.5
932,-0.00861245486885309,-0.0057159080170095,-0.0860362350940704,0.5,0.5,0.5
933,-0.00393144227564335,-0.002422661986202,-0.084446482360363,0.5,0.5,0.5
934,0.00325881317257881,0.00115227955393493,-0.0830551907420158,0.5,0.5,0.5
935,0.0103770950809121,0.00546674150973558,-0.082060232758522,0.5,0.5,0.5
936,0.0153543567284942,0.00884978286921978,-0.0818315595388412,0.5,0.5,0.5
937,0.0170596670359373,0.010097486898303,-0.0819800719618797,0.5,0.5,0.5
938,0.0155550688505173,0.0101544894278049,-0.0811972245573998,0.5,0.5,0.5
939,0.0118233161047101,0.0109652280807495,-0.0798143073916435,0.5,0.5,0.5
940,0.00766378501430154,0.0128318946808577,-0.0791301876306534,0.5,0.5,0.5
941,0.00542788486927748,0.0140567244961858,-0.0800620689988136,0.5,0.5,0.5
942,0.0053620645776391,0.0141631932929158,-0.0829176232218742,0.5,0.5,0.5
943,0.00464709848165512,0.0139135615900159,-0.0861829519271851,0.5,0.5,0.5
944,0.00165184610523283,0.0126844579353929,-0.0876623317599297,0.5,0.5,0.5
945,-0.00153464497998357,0.0106105096638203,-0.0863557532429695,0.5,0.5,0.5
946,-0.00221993587911129,0.0101362243294716,-0.0823331773281097,0.5,0.5,0.5
947,0.000459303322713822,0.0118399327620864,-0.0766066089272499,0.5,0.5,0.5
948,0.00552101014181972,0.0134186604991555,-0.0706856101751328,0.5,0.5,0.5
949,0.0111575238406658,0.0148783512413502,-0.0653998330235481,0.5,0.5,0.5
950,0.0159033425152302,0.0179788935929537,-0.0612997263669968,0.5,0.5,0.5
951,0.0180730950087309,0.0212929453700781,-0.059745404869318,0.5,0.5,0.5
952,0.0158036630600691,0.0217819549143314,-0.0631070584058762,0.5,0.5,0.5
953,0.00938128121197224,0.0192780923098326,-0.0711857825517654,0.5,0.5,0.5
954,0.00223412038758397,0.0158464889973402,-0.0795729383826256,0.5,0.5,0.5
955,-0.00223371782340109,0.0125058991834521,-0.0850949957966805,0.495622515678406,0.5,0.5
956,-0.00367616373114288,0.0101642115041614,-0.0872691497206688,0.48507958650589,0.5,0.5
957,-0.00275590503588319,0.00984893087297678,-0.0858619511127472,0.479006141424179,0.5,0.5
958,0.000803815259132534,0.0109136588871479,-0.0816999077796936,0.475639492273331,0.5,0.5
959,0.00531684001907706,0.0123144136741757,-0.0774885714054108,0.471235036849976,0.5,0.5
960,0.00820513069629669,0.0140312118455768,-0.0749316066503525,0.465048372745514,0.5,0.5
961,0.00992245320230722,0.0164982303977013,-0.0735735148191452,0.458266317844391,0.5,0.5
962,0.0114753879606724,0.0191775187849998,-0.0734495967626572,0.450554698705673,0.5,0.5
963,0.0123177096247673,0.0208557844161987,-0.0746235921978951,0.441668570041656,0.5,0.5
964,0.0125369243323803,0.021877771243453,-0.07551209628582,0.434372067451477,0.5,0.5
965,0.0124663403257728,0.0227609630674124,-0.0754394233226776,0.430665910243988,0.5,0.5
966,0.0107414647936821,0.0222728010267019,-0.075722724199295,0.428897947072983,0.5,0.5
967,0.00661638285964727,0.0200465004891157,-0.0763709768652916,0.427013546228409,0.5,0.5
968,0.00224943947978318,0.0175066683441401,-0.0762190371751785,0.423737764358521,0.5,0.5
969,0.000854846381116658,0.0166939236223698,-0.0745813250541687,0.419373512268066,0.5,0.5
970,0.00308819790370762,0.0180541388690472,-0.0716507136821747,0.415346086025238,0.5,0.5
971,0.00595649052411318,0.0190969947725534,-0.068768285214901,0.411065250635147,0.5,0.5
972,0.00525731965899467,0.0182881020009518,-0.0681534186005592,0.404666870832443,0.5,0.5
973,-0.000642058905214071,0.0167530179023743,-0.0702788531780243,0.396442085504532,0.5,0.5
974,-0.00856657605618238,0.0162192601710558,-0.0715228766202927,0.38977575302124,0.5,0.491337954998016
975,-0.0144091174006462,0.0177286863327026,-0.0694642215967178,0.386612951755524,0.5,0.485034972429276
976,-0.0171425901353359,0.0199902653694153,-0.0657744631171227,0.384726792573929,0.5,0.480072468519211
977,-0.017782049253583,0.0201384983956814,-0.0629563853144646,0.381143361330032,0.493853598833084,0.474440157413483
978,-0.0181079506874084,0.0168826393783093,-0.0625766441226006,0.375415056943893,0.484159827232361,0.467771232128143
979,-0.0189571920782328,0.0117051871493459,-0.0639823451638222,0.369297295808792,0.471063822507858,0.461314171552658
980,-0.0194938387721777,0.00737115554511547,-0.0654222667217255,0.363985359668732,0.456368446350098,0.456603586673737
981,-0.019989375025034,0.00471557397395372,-0.0670510679483414,0.35867714881897,0.440994828939438,0.453733652830124
982,-0.0202926490455866,0.00328382314182818,-0.0685757994651794,0.353009432554245,0.426632791757584,0.451410412788391
983,-0.0186902899295092,0.00347330095246434,-0.0684305131435394,0.348055630922318,0.416674077510834,0.44831770658493
984,-0.015454426407814,0.00486219581216574,-0.0665903836488724,0.343944251537323,0.412778794765472,0.443394035100937
985,-0.0116505548357964,0.0066335890442133,-0.0628136023879051,0.340656131505966,0.414409309625626,0.437101274728775
986,-0.00748393731191754,0.00884125102311373,-0.056944414973259,0.338460862636566,0.418101966381073,0.431853353977203
987,-0.0032508831936866,0.0119040673598647,-0.0505406633019447,0.336936324834824,0.419457763433456,0.430222809314728
988,-0.00011784984235419,0.0153357069939375,-0.0457603894174099,0.335017412900925,0.415766507387161,0.432163149118423
989,0.000159037779667415,0.0174878146499395,-0.0439885556697845,0.331036150455475,0.40678545832634,0.434626847505569
990,-0.00278007704764605,0.0182192754000425,-0.0443242713809013,0.325144708156586,0.395614594221115,0.435595393180847
991,-0.00823692977428436,0.018573297187686,-0.044487077742815,0.319498240947723,0.385132282972336,0.435155540704727
992,-0.0148698436096311,0.0192770007997751,-0.0427322648465633,0.315525263547897,0.376230627298355,0.433871150016785
993,-0.0197024140506983,0.0219894759356976,-0.0388455651700497,0.313766628503799,0.37039577960968,0.433341443538666
994,-0.0213409680873156,0.026825737208128,-0.0347444899380207,0.313732862472534,0.367467612028122,0.43390479683876
995,-0.0223997235298157,0.0302467495203018,-0.0329611971974373,0.313347905874252,0.363981693983078,0.432668834924698
996,-0.0245845783501863,0.029745951294899,-0.0336638689041138,0.311363130807877,0.358461320400238,0.427247852087021
997,-0.025744179263711,0.0270693674683571,-0.0345270745456219,0.309387236833572,0.353730142116547,0.418698966503143
998,-0.0244628954678774,0.0251188892871141,-0.0345723517239094,0.308914333581924,0.351168870925903,0.410653352737427
999,-0.021762453019619,0.0250738617032766,-0.0344369672238827,0.308850288391113,0.349432289600372,0.406467735767365
1000,-0.0180679056793451,0.0271580033004284,-0.0331997685134411,0.308245122432709,0.348414748907089,0.40700289607048
1001,-0.0136629519984126,0.0312175769358873,-0.0299458056688309,0.307518064975739,0.347077012062073,0.411116570234299
1002,-0.0100043406710029,0.0354921706020832,-0.0262478720396757,0.306363075971603,0.341710835695267,0.415811002254486
1003,-0.00741893891245127,0.0382992252707481,-0.0235161371529102,0.304113954305649,0.331862717866898,0.417843371629715
1004,-0.00503049790859222,0.0406274348497391,-0.0210418589413166,0.300942808389664,0.321142971515656,0.417286336421967
1005,-0.00326811615377665,0.042853657156229,-0.0187132246792316,0.296421587467194,0.31153193116188,0.415702104568481
1006,-0.00291881430894136,0.0437981262803078,-0.0175543241202831,0.289746552705765,0.303201705217361,0.414430260658264
1007,-0.00422874605283141,0.0428197681903839,-0.0184153243899345,0.281346559524536,0.29536709189415,0.414268910884857
1008,-0.0068464414216578,0.039673812687397,-0.0209728199988604,0.273019760847092,0.287685930728912,0.413852214813232
1009,-0.00924464594572783,0.0358311645686626,-0.023333054035902,0.266896486282349,0.281735956668854,0.412367224693298
1010,-0.0102145122364163,0.033482626080513,-0.0242034178227186,0.263365983963013,0.278708040714264,0.410947889089584
1011,-0.0093228118494153,0.0335770696401596,-0.0231997519731522,0.261716246604919,0.278020769357681,0.410504668951035
1012,-0.00726524880155921,0.0352793261408806,-0.0206295680254698,0.261003077030182,0.277359455823898,0.410029351711273
1013,-0.00659846002236009,0.0359634645283222,-0.0182774197310209,0.259197950363159,0.274882346391678,0.40736049413681
1014,-0.00961621850728989,0.0336517877876759,-0.0179351810365915,0.254450708627701,0.271109759807587,0.402023583650589
1015,-0.0150596834719181,0.0295298993587494,-0.0187093447893858,0.247801274061203,0.268366068601608,0.396278977394104
1016,-0.0192136224359274,0.0260602328926325,-0.0180700458586216,0.242316842079163,0.268099427223206,0.392484903335571
1017,-0.0217038225382566,0.0228768214583397,-0.016930628567934,0.237941905856133,0.267861485481262,0.389573961496353
1018,-0.0241351090371609,0.0194978434592485,-0.0173769649118185,0.232814028859138,0.265272229909897,0.385844230651855
1019,-0.0260377563536167,0.0175199285149574,-0.0188878756016493,0.227132022380829,0.26072171330452,0.381998926401138
1020,-0.0269660297781229,0.0176618508994579,-0.0214680843055248,0.221959367394447,0.254653066396713,0.379704564809799
1021,-0.026679128408432,0.0200855582952499,-0.024614168331027,0.21890415251255,0.248794302344322,0.38014081120491
1022,-0.0252613201737404,0.0237150955945253,-0.026321230456233,0.218141064047813,0.244687929749489,0.381321460008621
1023,-0.0243811123073101,0.025248009711504,-0.026316873729229,0.21716096997261,0.240662157535553,0.378874480724335
1024,-0.0255347471684217,0.022784449160099,-0.0255217142403126,0.214148253202438,0.234918534755707,0.371065616607666
1025,-0.0280750058591366,0.0182263068854809,-0.0237898342311382,0.210267037153244,0.228628039360046,0.361313104629517
1026,-0.0298198722302914,0.0146448230370879,-0.0209237672388554,0.20778352022171,0.225099995732307,0.354278683662415
1027,-0.0301901344209909,0.0126614468172193,-0.0185210239142179,0.20653772354126,0.2256128937006,0.350679129362106
1028,-0.0299433562904596,0.0113882143050432,-0.0177813079208136,0.205135524272919,0.228242382407188,0.34973555803299
1029,-0.0298391729593277,0.0105837360024452,-0.0186233725398779,0.203087970614433,0.229952856898308,0.351148933172226
1030,-0.0309932697564363,0.0105645973235369,-0.0214961543679237,0.200063779950142,0.228569701313972,0.353342652320862
1031,-0.0330681391060352,0.011829542927444,-0.0257391706109047,0.197146356105804,0.225345477461815,0.355638682842255
1032,-0.0346487388014793,0.0142016308382154,-0.0293095465749502,0.196246102452278,0.223431184887886,0.358994394540787
1033,-0.0347574539482594,0.0165679752826691,-0.0310566686093807,0.196791172027588,0.223659917712212,0.362575858831406
1034,-0.0334382988512516,0.0178153458982706,-0.0315339528024197,0.196508973836899,0.223210066556931,0.364048451185226
1035,-0.0319708809256554,0.0174927767366171,-0.0322219543159008,0.194584488868713,0.220410734415054,0.362862557172775
1036,-0.0312719605863094,0.0155421961098909,-0.0337082967162132,0.191860616207123,0.218499600887299,0.359942227602005
1037,-0.0312752202153206,0.0125290276482701,-0.0354416705667973,0.189093261957169,0.219817072153091,0.356535404920578
1038,-0.0325248539447784,0.00874443724751472,-0.0380231328308582,0.18556609749794,0.220575943589211,0.353682368993759
1039,-0.0357825011014938,0.00309709366410971,-0.0423317812383175,0.180128484964371,0.217041492462158,0.350966840982437
1040,-0.0392495170235634,-0.00348680024035275,-0.0456923097372055,0.174518048763275,0.21182881295681,0.348575443029404
1041,-0.0397752448916435,-0.00700633833184838,-0.0445875525474548,0.172254309058189,0.20832733809948,0.34883114695549
1042,-0.0371902510523796,-0.00628528883680701,-0.0401825569570065,0.17331425845623,0.205172508955002,0.351984083652496
1043,-0.0342546664178371,-0.00432027503848076,-0.0361543595790863,0.174422726035118,0.199795424938202,0.356257796287537
1044,-0.0326908715069294,-0.00333864404819906,-0.0337894670665264,0.173848301172256,0.192845806479454,0.361475735902786
1045,-0.032359104603529,-0.003768794471398,-0.0322970040142536,0.172190025448799,0.186455965042114,0.367359191179276
1046,-0.0332150496542454,-0.00599851319566369,-0.0310359932482243,0.170553207397461,0.180566266179085,0.372887015342712
1047,-0.034370232373476,-0.00926877092570066,-0.0288556236773729,0.170066431164742,0.175067290663719,0.378380119800568
1048,-0.0343462601304054,-0.0116996392607689,-0.0246699191629887,0.171020358800888,0.172045171260834,0.384921997785568
1049,-0.033723957836628,-0.0127312652766705,-0.0196313597261906,0.172252520918846,0.171984374523163,0.391945689916611
1050,-0.0337531082332134,-0.0126077365130186,-0.015340686775744,0.173120334744453,0.17190457880497,0.397640079259872
1051,-0.0348495952785015,-0.012251871638,-0.012782814912498,0.174113661050797,0.168096005916595,0.400869786739349
1052,-0.0367390029132366,-0.01310152746737,-0.0119577376171947,0.175974518060684,0.160757273435593,0.401151359081268
1053,-0.0382844358682632,-0.0147914318367839,-0.0114190140739083,0.17844258248806,0.154564574360847,0.397921651601791
1054,-0.0389675125479698,-0.0162395983934402,-0.0112825706601143,0.178939521312714,0.152274534106255,0.390597194433212
1055,-0.0393236391246319,-0.0177921466529369,-0.0132192196324468,0.175511732697487,0.15241202712059,0.37984311580658
1056,-0.0401506200432777,-0.0201365891844034,-0.0176584664732218,0.169490247964859,0.1517683416605,0.368382811546326
1057,-0.0413850471377373,-0.0220149774104357,-0.0224022418260574,0.164822623133659,0.147891953587532,0.360605686903
1058,-0.0417716316878796,-0.0212839934974909,-0.0249827541410923,0.163937970995903,0.141355827450752,0.359158217906952
1059,-0.040510505437851,-0.0184282176196575,-0.0268995575606823,0.163212612271309,0.134500652551651,0.361381709575653
1060,-0.0378902778029442,-0.0157192759215832,-0.0293178539723158,0.158312380313873,0.129139870405197,0.361991912126541
1061,-0.0348715558648109,-0.0136765586212277,-0.0297622513025999,0.151112005114555,0.125233188271523,0.358916759490967
1062,-0.0323330126702785,-0.0116848163306713,-0.027819549664855,0.146380111575127,0.120311819016933,0.353123098611832
1063,-0.03066411241889,-0.0106671657413244,-0.0260480288416147,0.145174592733383,0.111574523150921,0.343712449073792
1064,-0.0302176047116518,-0.0121605889871717,-0.0269965790212154,0.143783330917358,0.0993929356336594,0.331091910600662
1065,-0.0312521792948246,-0.0162676796317101,-0.0325028821825981,0.139402061700821,0.0871795117855072,0.319888979196548
1066,-0.0333669185638428,-0.0220857821404934,-0.0429634228348732,0.133173182606697,0.0788072720170021,0.312104761600494
1067,-0.0352697968482971,-0.0282620992511511,-0.0560823902487755,0.126919612288475,0.0764598026871681,0.306089460849762
1068,-0.0358926579356194,-0.0329980589449406,-0.0674126371741295,0.121724799275398,0.0782374665141106,0.301619678735733
1069,-0.0364187471568584,-0.0359274223446846,-0.0748284682631493,0.116828620433807,0.0795027166604996,0.298448383808136
1070,-0.0383897013962269,-0.0380127839744091,-0.0791119337081909,0.110734641551971,0.0781343653798103,0.294294834136963
1071,-0.0409804843366146,-0.0386040657758713,-0.0801372975111008,0.105761349201202,0.0750845894217491,0.288811147212982
1072,-0.0431546419858933,-0.0369657315313816,-0.0778959020972252,0.104608073830605,0.0710165873169899,0.28351017832756
1073,-0.0444492176175117,-0.0340236164629459,-0.0742360725998878,0.105182990431786,0.0680931732058525,0.277962356805801
1074,-0.0439168773591518,-0.0306539498269558,-0.0698037520051003,0.105151988565922,0.0697245374321938,0.271028250455856
1075,-0.0420013442635536,-0.0282410588115454,-0.0645792335271835,0.104491233825684,0.0756275504827499,0.262658655643463
1076,-0.0408202409744263,-0.0283664241433144,-0.0625951662659645,0.101522944867611,0.0822680667042732,0.253413826227188
1077,-0.0412223190069199,-0.0305264890193939,-0.0680191665887833,0.0940280854701996,0.0863440334796906,0.243368282914162
1078,-0.0418245643377304,-0.0321807563304901,-0.0782902836799622,0.083527535200119,0.085934653878212,0.232473284006119
1079,-0.0409929305315018,-0.0311032626777887,-0.087496429681778,0.0745921730995178,0.081263855099678,0.222479715943336
1080,-0.0393972918391228,-0.0280559081584215,-0.0933486819267273,0.0697715356945992,0.0738629400730133,0.215877056121826
1081,-0.0384759791195393,-0.0251169074326754,-0.0964034348726273,0.0682515427470207,0.0647572055459023,0.213153839111328
1082,-0.0377550609409809,-0.0226941220462322,-0.0969743579626083,0.0685373470187187,0.0550031661987305,0.211672857403755
1083,-0.0368993803858757,-0.0211350470781326,-0.0959990844130516,0.0688271373510361,0.0456645898520947,0.207260981202126
1084,-0.0361417979001999,-0.0209369827061892,-0.0939812064170837,0.0684148520231247,0.0375107079744339,0.199101462960243
1085,-0.0354823544621468,-0.02165780775249,-0.0906408131122589,0.0680679082870483,0.0302322376519442,0.189984008669853
1086,-0.0346978381276131,-0.0226892661303282,-0.0871089100837708,0.067583940923214,0.0227509532123804,0.182419821619987
1087,-0.0326451733708382,-0.0227481555193663,-0.0844785645604134,0.066645972430706,0.0160415563732386,0.179177194833755
1088,-0.0290779024362564,-0.0211314670741558,-0.0821848660707474,0.0662884712219238,0.0122402375563979,0.181994646787643
1089,-0.0252235718071461,-0.0187417790293694,-0.0801839232444763,0.0676499456167221,0.0110579766333103,0.189308568835258
1090,-0.0223594103008509,-0.0164988916367292,-0.0789214074611664,0.0705400630831718,0.0097836796194315,0.19819001853466
1091,-0.0207503605633974,-0.014849491417408,-0.0775392949581146,0.0722928792238235,0.00859578605741262,0.205474197864532
1092,-0.0188206229358912,-0.0130362883210182,-0.0766374096274376,0.0696624293923378,0.0125619731843472,0.210810676217079
1093,-0.0154039151966572,-0.00989449117332697,-0.0767104476690292,0.0647258907556534,0.0235221646726131,0.217957258224487
1094,-0.011938932351768,-0.00629886565729976,-0.0738195106387138,0.064708486199379,0.0358415544033051,0.228648588061333
1095,-0.0113895377144217,-0.00505462288856506,-0.0665313005447388,0.0720191821455956,0.0433354526758194,0.23927104473114
1096,-0.01424056943506,-0.00766932172700763,-0.0591562800109386,0.0815116986632347,0.0466055907309055,0.246531590819359
1097,-0.0174125004559755,-0.0126902619376779,-0.0537968464195728,0.0890313312411308,0.0504693649709225,0.251827836036682
1098,-0.0188743397593498,-0.0179014131426811,-0.0486619360744953,0.0940184369683266,0.0564459823071957,0.256888031959534
1099,-0.0186765789985657,-0.0212486013770103,-0.0422610007226467,0.0967989191412926,0.0627297610044479,0.261779874563217
1100,-0.0178350955247879,-0.0216861627995968,-0.0352250263094902,0.0982821434736252,0.0667555779218674,0.267522066831589
1101,-0.0180717725306749,-0.0205182489007711,-0.0297878962010145,0.0995859950780869,0.0665924027562141,0.275716185569763
1102,-0.0196156054735184,-0.0196107961237431,-0.0277041345834732,0.101002603769302,0.0638698041439056,0.287914603948593
1103,-0.0203608032315969,-0.0189999379217625,-0.0295223221182823,0.102244973182678,0.0636630430817604,0.305957794189453
1104,-0.0188892297446728,-0.0184728633612394,-0.0335394591093063,0.103693246841431,0.0689498335123062,0.328379213809967
1105,-0.0165235120803118,-0.0197926629334688,-0.0343373939394951,0.106995515525341,0.0776151418685913,0.346981257200241
1106,-0.0156646557152271,-0.0251581575721502,-0.0288443379104137,0.112296432256699,0.0859841406345367,0.353059053421021
1107,-0.0173175819218159,-0.0344650857150555,-0.0211323443800211,0.116884171962738,0.092774324119091,0.347417891025543
1108,-0.0200500022619963,-0.0445467904210091,-0.0158514808863401,0.119629360735416,0.0989060997962952,0.338762730360031
1109,-0.0225327964872122,-0.0521906241774559,-0.0134176360443234,0.121732592582703,0.104147881269455,0.334161281585693
1110,-0.0246926788240671,-0.0561049208045006,-0.0119528407230973,0.123754091560841,0.107702694833279,0.335838109254837
1111,-0.0260308180004358,-0.0562259256839752,-0.0092187374830246,0.125192552804947,0.111549705266953,0.342425376176834
1112,-0.0261202678084373,-0.0542348921298981,-0.0050604185089469,0.124771982431412,0.118425086140633,0.350343823432922
1113,-0.0240701716393232,-0.0520723015069962,-0.00102024257648736,0.121529400348663,0.129244014620781,0.356520235538483
1114,-0.0192403960973024,-0.0505468174815178,0.00211581820622087,0.11590202152729,0.142949908971787,0.360061198472977
1115,-0.0137861846014857,-0.0499273128807545,0.00430149445310235,0.10994865745306,0.156639352440834,0.362575709819794
1116,-0.0106567572802305,-0.0500852353870869,0.00666023511439562,0.106670677661896,0.167707219719887,0.367457419633865
1117,-0.0106871062889695,-0.0511815845966339,0.0109752882272005,0.107569023966789,0.174915373325348,0.37617427110672
1118,-0.0130086969584227,-0.0534189604222775,0.0174846686422825,0.111700534820557,0.17843122780323,0.385786145925522
1119,-0.0178325418382883,-0.0576823279261589,0.023458244279027,0.115683577954769,0.178942367434502,0.390678405761719
1120,-0.0249691102653742,-0.0640410631895065,0.0260106176137924,0.116701155900955,0.178313508629799,0.388919413089752
1121,-0.030790401622653,-0.0693291127681732,0.0263977367430925,0.116469874978065,0.181246876716614,0.385314166545868
1122,-0.0328686125576496,-0.0716602951288223,0.0260495003312826,0.116831608116627,0.189512252807617,0.383524626493454
1123,-0.0329829081892967,-0.0727389752864838,0.0234397295862436,0.116616494953632,0.198941364884377,0.382585495710373
1124,-0.0330172739923,-0.0737729445099831,0.0192514229565859,0.115804485976696,0.205867871642113,0.382068544626236
1125,-0.0335133336484432,-0.0743102058768272,0.0162570178508759,0.115954086184502,0.210198283195496,0.382462233304977
1126,-0.0340230613946915,-0.0733831375837326,0.0160138867795467,0.118082299828529,0.214568167924881,0.383554071187973
1127,-0.0330143496394157,-0.071207158267498,0.0188218243420124,0.121673531830311,0.221803665161133,0.38436222076416
1128,-0.0296173319220543,-0.0687777996063232,0.0236064922064543,0.125671163201332,0.23183511197567,0.384999334812164
1129,-0.0251056905835867,-0.0655191093683243,0.0280651953071356,0.130076631903648,0.242351651191711,0.388252347707748
1130,-0.023070614784956,-0.0620923079550266,0.0286137163639069,0.133524239063263,0.249045461416245,0.394626647233963
1131,-0.0254202485084534,-0.0604670122265816,0.0237284693866968,0.134415924549103,0.248970910906792,0.401751786470413
1132,-0.029581418260932,-0.0601951293647289,0.0167205594480038,0.134155362844467,0.245301023125649,0.408950984477997
1133,-0.0319798327982426,-0.0591049119830132,0.0119632864370942,0.135546639561653,0.243132844567299,0.416919976472855
1134,-0.0313700772821903,-0.0558589659631252,0.0110057294368744,0.14011912047863,0.243435427546501,0.426001191139221
1135,-0.0289670899510384,-0.051436074078083,0.0128107629716396,0.147141546010971,0.244735017418861,0.434976041316986
1136,-0.0267412737011909,-0.0479196272790432,0.0157160088419914,0.155118882656097,0.247893437743187,0.441296190023422
1137,-0.0255924910306931,-0.0467263422906399,0.0185640677809715,0.162558972835541,0.256490886211395,0.442950338125229
1138,-0.0249964576214552,-0.0477200448513031,0.021093113347888,0.167809024453163,0.271554112434387,0.440307468175888
1139,-0.0241186879575253,-0.0484259948134422,0.0235344357788563,0.170836582779884,0.288249760866165,0.437504947185516
1140,-0.0234535969793797,-0.0470321513712406,0.0251688808202744,0.172620952129364,0.299860954284668,0.438251197338104
1141,-0.0234406031668186,-0.0445370487868786,0.0257894862443209,0.173938289284706,0.304269015789032,0.442246407270432
1142,-0.0236187968403101,-0.0427849255502224,0.0267632156610489,0.17533603310585,0.304204165935516,0.447375148534775
1143,-0.0239146389067173,-0.0426139496266842,0.0292252264916897,0.176446303725243,0.302715480327606,0.45126023888588
1144,-0.0233993101865053,-0.0429690666496754,0.0337615832686424,0.177476465702057,0.302289098501205,0.45286238193512
1145,-0.0207614991813898,-0.0424479767680168,0.0392634607851505,0.179390415549278,0.303972601890564,0.45332807302475
1146,-0.0166369918733835,-0.0410121493041515,0.0424999557435513,0.1820038408041,0.306215435266495,0.454827278852463
1147,-0.0132032791152596,-0.0391156040132046,0.0408031083643436,0.184638202190399,0.307486802339554,0.459077447652817
1148,-0.0118308709934354,-0.0362529903650284,0.0346368961036205,0.187839388847351,0.308220982551575,0.466075927019119
1149,-0.0125907426699996,-0.0321963429450989,0.0267388913780451,0.19177109003067,0.309650927782059,0.473911553621292
1150,-0.0146110085770488,-0.0286269970238209,0.0194158758968115,0.194542109966278,0.312643259763718,0.480188399553299
1151,-0.015951119363308,-0.0272899903357029,0.0137718059122562,0.194252386689186,0.316741704940796,0.483456164598465
1152,-0.0156768057495356,-0.0280092135071754,0.00958820432424545,0.19069716334343,0.320159107446671,0.48358416557312
1153,-0.0154467979446054,-0.0301744267344475,0.00541210686787963,0.185024201869965,0.321889460086823,0.481855779886246
1154,-0.0157584715634584,-0.0323693491518497,0.00176160247065127,0.180392920970917,0.32359254360199,0.481329947710037
1155,-0.0145824169740081,-0.032345537096262,0.0012727826833725,0.179929971694946,0.327645629644394,0.484189450740814
1156,-0.0113590210676193,-0.0301350075751543,0.00440322561189532,0.182951509952545,0.334035307168961,0.48877614736557
1157,-0.00682325335219502,-0.0267829988151789,0.00931000895798206,0.187075778841972,0.341362774372101,0.492688089609146
1158,-0.00157204724382609,-0.0232496056705713,0.013734127394855,0.190294310450554,0.348056018352509,0.494843631982803
1159,0.00293606333434582,-0.0215848926454782,0.0155439218506217,0.19025793671608,0.352569729089737,0.493823915719986
1160,0.00595382135361433,-0.0219081323593855,0.0149551555514336,0.187241956591606,0.355328112840652,0.490360170602798
1161,0.00865919888019562,-0.0216256994754076,0.014773353934288,0.184427201747894,0.359000772237778,0.487909972667694
1162,0.0118897408246994,-0.0196788255125284,0.0162971969693899,0.182961642742157,0.364217728376389,0.487891733646393
1163,0.0154193984344602,-0.0167233236134052,0.0187031105160713,0.181642636656761,0.368384957313538,0.490263313055038
1164,0.0179666746407747,-0.0129157118499279,0.0210745204240084,0.179671376943588,0.369577586650848,0.496011525392532
1165,0.0184459015727043,-0.00764538906514645,0.023755069822073,0.178433209657669,0.368645906448364,0.5
1166,0.0179642923176289,-0.00108108774293214,0.0278767738491297,0.180300548672676,0.367532819509506,0.5
1167,0.0181065127253532,0.00490582128986716,0.0328136943280697,0.185111790895462,0.366725713014603,0.5
1168,0.0189413800835609,0.00844315811991692,0.0367208756506443,0.190433740615845,0.365875571966171,0.5
1169,0.0202684830874205,0.00876643694937229,0.0389908850193024,0.194349735975266,0.366058051586151,0.5
1170,0.0221550185233355,0.00588330393657088,0.0400795824825764,0.195891231298447,0.368853837251663,0.5
1171,0.0235615018755198,0.00121139280963689,0.0403168722987175,0.194992035627365,0.373762190341949,0.5
1172,0.0234059374779463,-0.00260472903028131,0.0398966744542122,0.193076893687248,0.378738880157471,0.5
1173,0.0214785281568766,-0.00475284596905112,0.0385021716356277,0.191806942224503,0.381734788417816,0.5
1174,0.0177860278636217,-0.00649075955152512,0.0355336368083954,0.192155137658119,0.38139596581459,0.5
1175,0.0136419041082263,-0.00823928974568844,0.0318551138043404,0.19470089673996,0.378971338272095,0.5
1176,0.0114852134138346,-0.00892930664122105,0.0296939630061388,0.199379950761795,0.377612322568893,0.5
1177,0.0105895632877946,-0.00874972809106112,0.0291133746504784,0.203838557004929,0.377390384674072,0.5
1178,0.00795354787260294,-0.00867526233196259,0.0285503622144461,0.205526545643806,0.376293122768402,0.5
1179,0.0037099989131093,-0.00743822753429413,0.0281010568141937,0.205361068248749,0.374345004558563,0.5
1180,0.000225848183617927,-0.00423325272276998,0.0282054450362921,0.204474478960037,0.372170388698578,0.5
1181,-0.000545697170309722,-0.000143915312946774,0.0288497973233461,0.202064380049706,0.3701131939888,0.5
1182,0.00256527028977871,0.0047761220484972,0.030934976413846,0.199097603559494,0.370032340288162,0.5
1183,0.00825125817209482,0.0102611919865012,0.0345024690032005,0.198018297553062,0.372772186994553,0.5
1184,0.0143869500607252,0.0154246501624584,0.0381754785776138,0.200128644704819,0.375783950090408,0.5
1185,0.0207785181701183,0.0206792019307613,0.0419052951037884,0.205450057983398,0.377460241317749,0.5
1186,0.0267859250307083,0.0255067180842161,0.0459057986736298,0.211896136403084,0.378217101097107,0.5
1187,0.0307437181472778,0.0284759216010571,0.0488676652312279,0.216414719820023,0.377793997526169,0.5
1188,0.0311352051794529,0.0290638767182827,0.0488391481339931,0.216817110776901,0.374591827392578,0.5
1189,0.0280195865780115,0.0275751389563084,0.045511893928051,0.212899640202522,0.368334323167801,0.5
1190,0.0244096498936415,0.0255547389388084,0.0417898669838905,0.207621887326241,0.36182302236557,0.5
1191,0.022048270329833,0.0235154926776886,0.0398601479828358,0.203889176249504,0.356238007545471,0.5
1192,0.0190524104982615,0.0200828872621059,0.0381722934544086,0.201077684760094,0.350629359483719,0.5
1193,0.0138579029589891,0.0157390255481005,0.0352991186082363,0.197665557265282,0.34536024928093,0.5
1194,0.00727443350479007,0.0129189938306808,0.0326425544917583,0.194536402821541,0.34094649553299,0.5
1195,0.00107172189746052,0.0123022925108671,0.0320717170834541,0.193628191947937,0.33697584271431,0.5
1196,-0.00305072544142604,0.01304982136935,0.0337644033133984,0.195713877677917,0.333826184272766,0.494295090436935
1197,-0.00357129657641053,0.0151679562404752,0.0367438271641731,0.199772879481316,0.33394068479538,0.487685292959213
1198,-0.000256235798588023,0.0187589377164841,0.0399075970053673,0.203079462051392,0.339695066213608,0.483126580715179
1199,0.00583101715892553,0.0232948139309883,0.0430117212235928,0.20359443128109,0.350364327430725,0.482486307621002
1200,0.0127819208428264,0.0273507740348578,0.0458328984677792,0.201565504074097,0.36195096373558,0.485386997461319
1201,0.0179814286530018,0.0290134474635124,0.0466785728931427,0.198235780000687,0.369854271411896,0.487913906574249
1202,0.0203957930207253,0.0280150528997183,0.0443802811205387,0.194977939128876,0.371802896261215,0.486960768699646
1203,0.0214904639869928,0.0254483260214329,0.0399897955358028,0.192327424883842,0.36893305182457,0.483403235673904
1204,0.022198436781764,0.0216919798403978,0.0348008722066879,0.189107283949852,0.3636294901371,0.47891229391098
1205,0.0217626206576824,0.0165548231452703,0.0291196797043085,0.183859139680862,0.35777685046196,0.474517077207565
1206,0.0199789684265852,0.0104716653004289,0.0238790288567543,0.176751419901848,0.353071123361588,0.471709609031677
1207,0.0171822812408209,0.00396418012678623,0.0202625095844269,0.169150829315186,0.349180400371552,0.471279591321945
1208,0.0145464949309826,-0.00173408491536975,0.0189426355063915,0.163082897663116,0.344865709543228,0.474375247955322
1209,0.0141971781849861,-0.00398392975330353,0.0208674110472202,0.160751804709435,0.340501487255096,0.483650475740433
1210,0.0156340934336185,-0.00180303060915321,0.0257547665387392,0.162074238061905,0.336049377918243,0.5
1211,0.0166294239461422,0.00309516675770283,0.0322686284780502,0.165006577968597,0.332031458616257,0.5
1212,0.0166920311748981,0.00819459278136492,0.0394941419363022,0.16796438395977,0.330302536487579,0.5
1213,0.0165822543203831,0.0121671287342906,0.0464289039373398,0.170412018895149,0.331221103668213,0.5
1214,0.0168856885284185,0.015400305390358,0.0517950095236301,0.172242924571037,0.333465456962585,0.5
1215,0.0168725401163101,0.0178503431379795,0.0541909150779247,0.172858610749245,0.335185348987579,0.5
1216,0.01614710688591,0.0193084850907326,0.0533489622175694,0.171910732984543,0.335621356964111,0.5
1217,0.0159267652779818,0.0200925972312689,0.0506979897618294,0.169351369142532,0.335304111242294,0.5
1218,0.0176185946911573,0.0211454145610332,0.0486312285065651,0.165679603815079,0.33551287651062,0.5
1219,0.0212300475686789,0.0235365014523268,0.0486978814005852,0.162245258688927,0.33713561296463,0.5
1220,0.024213619530201,0.0264480616897345,0.0503180436789989,0.159957155585289,0.338850080966949,0.5
1221,0.0242285262793303,0.0284675378352404,0.0527258142828941,0.159323647618294,0.340115547180176,0.49344739317894
1222,0.0222949832677841,0.0298636797815561,0.055835984647274,0.160393476486206,0.342250406742096,0.486902683973312
1223,0.0206344723701477,0.0316637568175793,0.0593075156211853,0.162264227867126,0.343935281038284,0.483234107494354
1224,0.0198063850402832,0.0332178622484207,0.0626371204853058,0.163431867957115,0.342136651277542,0.481644988059998
1225,0.0190646946430206,0.0324928611516953,0.0650959610939026,0.162558689713478,0.336666435003281,0.479556232690811
1226,0.0179426968097687,0.028789646923542,0.0661213099956512,0.159446388483047,0.329996883869171,0.4764044880867
1227,0.0166638027876616,0.0236472170799971,0.0664161741733551,0.154919371008873,0.324322581291199,0.475209653377533
1228,0.0155049506574869,0.0193863529711962,0.0672608613967896,0.150138109922409,0.320195376873016,0.478891521692276
1229,0.0144827514886856,0.0172203537076712,0.0688724294304848,0.145989537239075,0.316888093948364,0.486959636211395
1230,0.0132270101457834,0.0167711619287729,0.0703667551279068,0.142571479082108,0.313580542802811,0.49677187204361
1231,0.0114887151867151,0.0173329692333937,0.0712926313281059,0.14033930003643,0.310846269130707,0.5
1232,0.00862282607704401,0.0173442289233208,0.0710889399051666,0.139321222901344,0.308654308319092,0.5
1233,0.00427524652332067,0.0149306496605277,0.0691689550876617,0.138141885399818,0.305679678916931,0.5
1234,0.000111096844193526,0.0107609564438462,0.066832609474659,0.136120811104774,0.302075207233429,0.5
1235,-0.00151921645738184,0.0072250422090292,0.0661117807030678,0.134212762117386,0.299446374177933,0.5
1236,0.00024250776914414,0.00528769753873348,0.0673979520797729,0.133628472685814,0.298794239759445,0.498642891645432
1237,0.00391279626637697,0.00368692888878286,0.069554790854454,0.134317919611931,0.299566507339478,0.491011142730713
1238,0.00723895058035851,0.00121354055590928,0.0718840286135674,0.135990425944328,0.301191389560699,0.483781933784485
1239,0.00855429470539093,-0.00247760419733822,0.0735856294631958,0.138384878635406,0.302881389856339,0.477865308523178
1240,0.00847047753632069,-0.00617991387844086,0.0743200182914734,0.141764983534813,0.303603380918503,0.474325954914093
1241,0.0100092962384224,-0.00699273776262999,0.0759990364313126,0.14799764752388,0.30442014336586,0.473796278238297
1242,0.0132181644439697,-0.00470399344339967,0.0793685913085938,0.156570300459862,0.306515693664551,0.474686712026596
1243,0.0143593102693558,-0.00263748341239989,0.0818688124418259,0.162928089499474,0.308663457632065,0.474197566509247
1244,0.0128193683922291,-0.00267197797074914,0.0818517580628395,0.164155036211014,0.30968114733696,0.472329199314117
1245,0.0122165502980351,-0.00338189513422549,0.0813011229038239,0.162699401378632,0.309984058141708,0.47356703877449
1246,0.0133905587717891,-0.00403701746836305,0.0816685631871223,0.161587402224541,0.309115886688232,0.480764210224152
1247,0.0138191878795624,-0.00550204608589411,0.0821410790085793,0.160665065050125,0.306095331907272,0.490720331668854
1248,0.0120654124766588,-0.00783545430749655,0.0822479724884033,0.15910904109478,0.301062256097794,0.498442947864532
1249,0.0084947356954217,-0.0106875924393535,0.0818012207746506,0.156581416726112,0.294080376625061,0.5
1250,0.00478130299597979,-0.0135232582688332,0.0810984522104263,0.1532112210989,0.286212384700775,0.497218072414398
1251,0.00326098850928247,-0.0147290835157037,0.082006074488163,0.150561824440956,0.28130242228508,0.490834593772888
1252,0.00587256299331784,-0.0125595647841692,0.086484931409359,0.151120647788048,0.28266254067421,0.484861552715302
1253,0.0116351395845413,-0.00822071544826031,0.0930969268083572,0.155213072896004,0.287828177213669,0.479536801576614
1254,0.0180446412414312,-0.00401995982974768,0.0984822437167168,0.160596802830696,0.29216805100441,0.474167615175247
1255,0.0245555341243744,-0.000233976054005325,0.101637952029705,0.16501247882843,0.294766306877136,0.469571262598038
1256,0.0304903294891119,0.00281255668960512,0.102923467755318,0.166636541485786,0.295880973339081,0.465432941913605
1257,0.0346445478498936,0.0048714354634285,0.10350875556469,0.165126606822014,0.296133786439896,0.460618674755096
1258,0.0367319099605083,0.00645511783659458,0.10431382805109,0.16195248067379,0.296978950500488,0.455448150634766
1259,0.0358087569475174,0.00703914137557149,0.10349115729332,0.158082008361816,0.297597438097,0.450650572776794
1260,0.0320189036428928,0.00700428104028106,0.100706063210964,0.154651656746864,0.297512859106064,0.447736382484436
1261,0.0283757746219635,0.00876354891806841,0.0990581884980202,0.153670623898506,0.299072206020355,0.449550330638886
1262,0.0271648801863194,0.0125578893348575,0.100006319582462,0.155361175537109,0.303106635808945,0.455937951803207
1263,0.0276965145021677,0.0149659104645252,0.101381994783878,0.157256349921227,0.306890577077866,0.461945623159409
1264,0.0279968921095133,0.0132097043097019,0.100346378982067,0.156864926218987,0.307053595781326,0.463592112064362
1265,0.0274621583521366,0.00896369107067585,0.0971657857298851,0.154753059148788,0.303640425205231,0.463557213544846
1266,0.02571190148592,0.00496497564017773,0.0932519808411598,0.151964232325554,0.298875838518143,0.466452181339264
1267,0.0217434205114841,0.00119639444164932,0.088670626282692,0.147741034626961,0.294636607170105,0.470940440893173
1268,0.0169048439711332,-0.00227283826097846,0.0845900252461433,0.143274113535881,0.293102204799652,0.472977697849274
1269,0.0127799576148391,-0.00495451642200351,0.0815132260322571,0.140472263097763,0.293541550636292,0.470196604728699
1270,0.00836890656501055,-0.00726405484601855,0.077495314180851,0.138552382588387,0.291651606559753,0.461256086826324
1271,0.00391917629167438,-0.00812925584614277,0.0730771198868752,0.137552723288536,0.286526560783386,0.448174774646759
1272,0.00148684286978096,-0.0063950726762414,0.071179524064064,0.139323189854622,0.281676322221756,0.435683012008667
1273,0.00120449648238719,-0.00318621867336333,0.0723010450601578,0.143853157758713,0.279449880123138,0.426785469055176
1274,0.00175553187727928,-0.000751100247725844,0.075282596051693,0.148880913853645,0.280361652374268,0.421510845422745
1275,0.00199849088676274,-0.00168701563961804,0.0795532539486885,0.151647686958313,0.284467816352844,0.417066603899002
1276,0.00150629668496549,-0.00629186071455479,0.0856306999921799,0.15144145488739,0.291009545326233,0.41086745262146
1277,0.0014919675886631,-0.011313053779304,0.0946450009942055,0.150513991713524,0.29865163564682,0.403554767370224
1278,0.00350458640605211,-0.0131490556523204,0.106185704469681,0.151193618774414,0.305178552865982,0.397477596998215
1279,0.00637547066435218,-0.0103918053209782,0.116126142442226,0.153150379657745,0.306709796190262,0.394750416278839
1280,0.00800491124391556,-0.00383265153504908,0.119338639080524,0.154288053512573,0.30084028840065,0.395917952060699
1281,0.00914153084158897,0.0047448705881834,0.115415319800377,0.153885692358017,0.289949744939804,0.400469571352005
1282,0.0118968784809113,0.0142478132620454,0.109421662986279,0.154091835021973,0.279525548219681,0.409890711307526
1283,0.0158572662621737,0.0235413946211338,0.106448478996754,0.156460478901863,0.273632854223251,0.424727469682693
1284,0.0180733967572451,0.0300202108919621,0.106550343334675,0.158639416098595,0.271987438201904,0.440075278282166
1285,0.0189570356160402,0.0330692455172539,0.108452968299389,0.15863211452961,0.27364593744278,0.450293183326721
1286,0.0219193529337645,0.034001849591732,0.112452961504459,0.156748130917549,0.278774261474609,0.45240706205368
1287,0.0264263413846493,0.0325605310499668,0.11712621897459,0.152711763978004,0.285750180482864,0.445313215255737
1288,0.0287312753498554,0.0282594263553619,0.1197774335742,0.146425724029541,0.291382700204849,0.43079462647438
1289,0.0275388266891241,0.0228707268834114,0.119623914361,0.140066862106323,0.293779164552689,0.413410842418671
1290,0.0245536826550961,0.0195840932428837,0.118128895759583,0.136691987514496,0.29324197769165,0.398023575544357
1291,0.0216684658080339,0.0201534945517778,0.1169807985425,0.137013018131256,0.290911704301834,0.387480944395065
1292,0.0204034149646759,0.0236218422651291,0.116902433335781,0.139391645789146,0.28902131319046,0.381655305624008
1293,0.0201515294611454,0.0265552587807179,0.116760089993477,0.141176089644432,0.289040148258209,0.377062261104584
1294,0.0183863285928965,0.026487685739994,0.115541264414787,0.141196668148041,0.290195137262344,0.371108114719391
1295,0.0150291193276644,0.0243390705436468,0.114601664245129,0.140854611992836,0.291337549686432,0.364871174097061
1296,0.0117224724963307,0.0216879695653915,0.114839248359203,0.140613183379173,0.291253983974457,0.35904386639595
1297,0.0089244544506073,0.0194255746901035,0.115635596215725,0.139708459377289,0.288914114236832,0.352740317583084
1298,0.00646694004535675,0.0184524413198233,0.116520315408707,0.138430431485176,0.284296572208405,0.346125096082687
1299,0.0043151592835784,0.0189159326255322,0.117261454463005,0.137558251619339,0.278758972883224,0.340603202581406
1300,0.00282318098470569,0.0196298155933619,0.117539748549461,0.137101039290428,0.274146616458893,0.3362036049366
1301,0.00147611950524151,0.0188691839575768,0.115918561816216,0.135648891329765,0.269990384578705,0.330785363912582
1302,-0.00153874082025141,0.015371267683804,0.110146708786488,0.131361961364746,0.263769000768662,0.323204517364502
1303,-0.00583512708544731,0.0100769707933068,0.100959219038486,0.12512780725956,0.256447583436966,0.316638052463531
1304,-0.00820156559348106,0.00616047950461507,0.0931297019124031,0.120721004903317,0.253066807985306,0.316259354352951
1305,-0.00676424708217382,0.00513313757255673,0.0909860953688622,0.120160959661007,0.255631178617477,0.323233813047409
1306,-0.00279832491651177,0.0052222516387701,0.0941830724477768,0.121851690113544,0.260673105716705,0.334281116724014
1307,0.00101298210211098,0.00408371770754457,0.0986748784780502,0.122977122664452,0.264038562774658,0.34540468454361
1308,0.00300383544526994,0.00136375101283193,0.101619131863117,0.122158899903297,0.264252543449402,0.35429772734642
1309,0.00307176122441888,-0.0015359662938863,0.102180033922195,0.12012080103159,0.260784327983856,0.360426962375641
1310,0.00185941741801798,-0.00349954073317349,0.0998430997133255,0.117738701403141,0.253778696060181,0.363427191972733
1311,0.000475721957627684,-0.00437313644215465,0.096041776239872,0.115348823368549,0.245886147022247,0.362531960010529
1312,-0.000798994267825037,-0.00440167402848601,0.0933038517832756,0.11360078305006,0.240035563707352,0.357257783412933
1313,-0.00264989864081144,-0.00347284972667694,0.0920986756682396,0.113383874297142,0.236275732517242,0.348921746015549
1314,-0.00451624533161521,-0.00193200795911253,0.0915797203779221,0.114799402654171,0.232958674430847,0.339343458414078
1315,-0.00530171766877174,-0.00129177642520517,0.0913199260830879,0.116770371794701,0.229941755533218,0.328012436628342
1316,-0.00509493285790086,-0.00158281077165157,0.0909482836723328,0.118795320391655,0.228477239608765,0.314976900815964
1317,-0.00419669924303889,-0.00125375180505216,0.089674323797226,0.121261648833752,0.228574067354202,0.302920579910278
1318,-0.00293876510113478,-4.1007217078004E-05,0.0868163481354713,0.123333923518658,0.228473231196404,0.293514221906662
1319,-0.0013344525359571,0.00191872660070658,0.0832882598042488,0.124012127518654,0.2273850440979,0.287433564662933
1320,0.00112888682633638,0.00519015267491341,0.080969512462616,0.124010913074017,0.225832611322403,0.285964161157608
1321,0.00374245061539114,0.00928777270019054,0.0804172679781914,0.123770467936993,0.223366931080818,0.288157790899277
1322,0.00487104384228587,0.012325975112617,0.0808323994278908,0.122521795332432,0.219178915023804,0.290199011564255
1323,0.00438388669863343,0.0135250138118863,0.081534780561924,0.120402298867702,0.215006351470947,0.289441376924515
1324,0.00308341579511762,0.0136544117704034,0.0814385041594505,0.11795749515295,0.213943287730217,0.285426586866379
1325,0.00153319688979536,0.0129344398155808,0.0790578797459602,0.115108996629715,0.216130807995796,0.27803111076355
1326,0.00138171156868339,0.0116660818457603,0.0750095993280411,0.112298615276814,0.220136299729347,0.268675893545151
1327,0.00373725430108607,0.0108184358105063,0.0708349198102951,0.110316075384617,0.224477648735046,0.260590791702271
