,AF3,AF4,Fp1,Fp2,AF7,AF8
0,-0.0195855740457773,-0.0152738364413381,-0.0140528548508883,-0.0107401022687554,-0.0258980356156826,-0.00920119229704142
1,-0.0201000776141882,-0.0151601359248161,-0.0142856435850263,-0.00996534060686827,-0.0277629233896732,-0.00813994742929935
2,-0.0217885859310627,-0.0162596479058266,-0.0159151591360569,-0.0111506730318069,-0.0295319426804781,-0.00849227607250214
3,-0.0226871315389872,-0.0174497403204441,-0.0175225082784891,-0.0131747154518962,-0.028969356790185,-0.00933046080172062
4,-0.02186618745327,-0.0179712418466806,-0.0181028004735708,-0.0147396372631192,-0.0256615895777941,-0.0111643690615892
5,-0.0203393865376711,-0.0182176902890205,-0.0177447684109211,-0.0154374493286014,-0.0214067306369543,-0.0144822606816888
6,-0.0196632407605648,-0.0187381394207478,-0.0173884462565184,-0.0161307696253061,-0.0186541210860014,-0.0187258757650852
7,-0.0209252443164587,-0.0197675172239542,-0.0181817002594471,-0.0182794854044914,-0.0190040171146393,-0.0226489529013634
8,-0.0229646805673838,-0.0205484759062529,-0.0194915682077408,-0.0209285821765661,-0.0212909318506718,-0.0244062393903732
9,-0.0230387318879366,-0.0198725666850805,-0.0194506458938122,-0.0209415685385466,-0.0223144050687552,-0.0231584776192904
10,-0.0210243910551071,-0.018345769494772,-0.0184766538441181,-0.0180865861475468,-0.0216723401099443,-0.0212369412183762
11,-0.0189367812126875,-0.0175404883921146,-0.0180797874927521,-0.0153948497027159,-0.0213630963116884,-0.0215161181986332
12,-0.018159007653594,-0.0180598776787519,-0.0185232032090425,-0.0149037772789598,-0.0222086906433105,-0.0232833866029978
13,-0.0183401424437761,-0.0189146790653467,-0.019093532115221,-0.0157028026878834,-0.0233515184372664,-0.023590549826622
14,-0.0177696626633406,-0.0185461565852165,-0.0189967453479767,-0.0164751280099154,-0.0233063772320747,-0.021728903055191
15,-0.0156484823673964,-0.0167536120861769,-0.0182305350899696,-0.0173057727515697,-0.021879680454731,-0.0192658361047506
16,-0.0136366039514542,-0.0152658261358738,-0.0179454907774925,-0.0184169039130211,-0.0208939723670483,-0.0180883146822453
17,-0.0130964601412416,-0.0153793403878808,-0.0186938811093569,-0.0193226914852858,-0.0211008340120316,-0.0187979880720377
18,-0.0120741277933121,-0.0153018748387694,-0.0185148399323225,-0.0186858270317316,-0.0202984120696783,-0.0189379174262285
19,-0.00952720455825329,-0.0138124264776707,-0.0170451756566763,-0.0172707065939903,-0.0179302468895912,-0.0169080011546612
20,-0.00660996371880174,-0.0117366528138518,-0.0157719757407904,-0.0169401224702597,-0.0154895577579737,-0.0141626354306936
21,-0.00336467195302248,-0.00886415224522352,-0.0138724064454436,-0.0159810557961464,-0.0130326114594936,-0.0111252032220364
22,1.80101906153141E-05,-0.00520710041746497,-0.0107114901766181,-0.0119937108829618,-0.0105136251077056,-0.00774748250842094
23,0.00202678260393441,-0.00238526449538767,-0.00792134087532759,-0.00574290798977017,-0.00895620416849852,-0.00623619602993131
24,0.00221805786713958,-0.00122212362475693,-0.00639228196814656,0.000424288475187495,-0.00834729243069887,-0.00688538141548634
25,0.00193906400818378,-0.000793587299995124,-0.00492565101012588,0.00467962073162198,-0.006993617862463,-0.00635300856083632
26,0.00174504553433508,-0.000691383087541908,-0.00268063321709633,0.00680985162034631,-0.00487348716706038,-0.00362891610711813
27,0.00175717985257506,-0.000975597940851003,-0.000221533220610581,0.00779022416099906,-0.00352326477877796,-0.000839509128127247
28,0.00206072605215013,-0.00160328869242221,0.000850984244607389,0.00677459919825196,-0.00370618607848883,-0.000385201739845797
29,0.00194000964984298,-0.0023459552321583,-0.000806057418230921,0.00253796274773777,-0.00592129537835717,-0.00292886886745691
30,0.00151142675895244,-0.00204614968970418,-0.0039655608125031,-0.00247954064980149,-0.00983209256082773,-0.00518165295943618
31,0.00118858146015555,-0.000809242483228445,-0.00616704858839512,-0.00537356734275818,-0.0135671012103558,-0.00464021135121584
32,0.000457355432445183,-0.000386454805266112,-0.00679292157292366,-0.00667181285098195,-0.0155082633718848,-0.00347473146393895
33,-0.000827229057904333,-0.00104653695598245,-0.00677836686372757,-0.00802654027938843,-0.0160338561981916,-0.0040149106644094
34,-0.00204140273854136,-0.00156438339035958,-0.00695868907496333,-0.00966247823089361,-0.0163036771118641,-0.00626666378229856
35,-0.00336168054491282,-0.00157084967941046,-0.00801531504839659,-0.0108871944248676,-0.0169664081186056,-0.00937473028898239
36,-0.00527957547456026,-0.000995055655948818,-0.00989574193954468,-0.010414183139801,-0.0179642029106617,-0.010871347039938
37,-0.00732094561681151,0.000601107720285654,-0.0118209710344672,-0.00763414008542895,-0.0188324730843306,-0.00797238294035196
38,-0.00946646090596914,0.002001051325351,-0.0135770523920655,-0.00467728730291128,-0.0196788087487221,-0.00288152298890054
39,-0.0117552857846022,0.00153836526442319,-0.014627325348556,-0.00360055104829371,-0.020269688218832,-0.00137636216823012
40,-0.0133209889754653,-0.000157985239638947,-0.0143476389348507,-0.00374529138207436,-0.0201555266976357,-0.00518509745597839
41,-0.0136960605159402,-0.00150445336475968,-0.0135546689853072,-0.00423429114744067,-0.0195581838488579,-0.0105990273877978
42,-0.0132312374189496,-0.00221364479511976,-0.0136872744187713,-0.00576455192640424,-0.0186269637197256,-0.0134603241458535
43,-0.0130368685349822,-0.00323724071495235,-0.0156798306852579,-0.0091000460088253,-0.0181016493588686,-0.0123115759342909
44,-0.0149195082485676,-0.00578036066144705,-0.0196920782327652,-0.0136828534305096,-0.0198709517717361,-0.0095348171889782
45,-0.0192468874156475,-0.00965261086821556,-0.0244313906878233,-0.0171441212296486,-0.0243776105344296,-0.00882125087082386
46,-0.0243376828730106,-0.0136310206726193,-0.028396762907505,-0.0178454164415598,-0.0297366045415401,-0.0110309021547437
47,-0.0286245942115784,-0.0175279453396797,-0.0313070714473724,-0.0177917666733265,-0.0340782217681408,-0.0152640668675303
48,-0.0303693506866694,-0.0207344330847263,-0.0323505364358425,-0.0186287946999073,-0.0355837643146515,-0.0202525667846203
49,-0.0292890723794699,-0.0225806180387735,-0.0318130552768707,-0.0202467702329159,-0.0339270047843456,-0.0247431639581919
50,-0.0284203998744488,-0.0242248736321926,-0.0325732082128525,-0.0234117619693279,-0.0323355682194233,-0.0279442071914673
51,-0.0293074809014797,-0.0259587615728378,-0.0352723859250546,-0.0271839126944542,-0.0329139530658722,-0.0285740252584219
52,-0.0297824628651142,-0.0263119321316481,-0.0366558991372585,-0.0284718833863735,-0.0334527902305126,-0.0258415881544352
53,-0.0279905796051025,-0.0249548517167568,-0.0343034639954567,-0.0263112336397171,-0.0316080003976822,-0.021011158823967
54,-0.0245366580784321,-0.0237099230289459,-0.029579808935523,-0.0235378090292215,-0.0274027157574892,-0.0168762542307377
55,-0.0206028334796429,-0.0236080046743155,-0.0249629225581884,-0.0224545076489449,-0.0217821020632982,-0.0141084138303995
56,-0.0163546241819859,-0.0232541933655739,-0.0212321560829878,-0.0214110352098942,-0.0159770846366882,-0.0108639262616634
57,-0.0119781969115138,-0.0217247568070889,-0.0180668942630291,-0.0179257895797491,-0.0116625921800733,-0.008271767757833
58,-0.00762303825467825,-0.0191126670688391,-0.0147540392354131,-0.0109541490674019,-0.0094824368134141,-0.00922251213341951
59,-0.0027130723465234,-0.0149505408480763,-0.0106581095606089,-0.00106206047348678,-0.00764855789020658,-0.0115756597369909
60,0.00256438297219574,-0.00940402317792177,-0.00591209810227156,0.00873898807913065,-0.00455956254154444,-0.00936560612171888
61,0.00658778008073568,-0.0044594663195312,-0.00196335092186928,0.0141381481662393,-0.00138931558467448,-0.00146663398481905
62,0.00853321701288223,-0.00165171921253204,-0.000399055512389168,0.0139173809438944,0.000355268508428708,0.00704193999990821
63,0.00959910079836845,-0.000283442466752604,-0.000296062353299931,0.0112627893686295,0.00119367497973144,0.0122622838243842
64,0.00999169424176216,-0.00027090372168459,-0.000589285686146468,0.00803476851433516,0.00127947679720819,0.0140057234093547
65,0.00962265394628048,-0.00167211517691612,-0.00136878667399287,0.003540123347193,0.000868448812980205,0.0140744298696518
66,0.0102417031303048,-0.00281976093538105,-0.00163828243967146,-0.00177251233253628,0.00213293684646487,0.0138474330306053
67,0.0108870705589652,-0.00412578601390123,-0.00249746162444353,-0.0076307225972414,0.00383273814804852,0.0112455850467086
68,0.0087777515873313,-0.00749931577593088,-0.00624638702720404,-0.0138207254931331,0.00203552097082138,0.00405801879242063
69,0.0054804403334856,-0.0114176273345947,-0.0108305094763637,-0.0176471993327141,-0.00232425564900041,-0.00496279215440154
70,0.00470148073509336,-0.0129945334047079,-0.0121668837964535,-0.0171172469854355,-0.0047129443846643,-0.0119161773473024
71,0.0065568177960813,-0.012941962108016,-0.00954117067158222,-0.0144303971901536,-0.00331445364281535,-0.0172695964574814
72,0.00908996257930994,-0.0124988416209817,-0.00505654513835907,-0.0114956013858318,0.000124666825286113,-0.0209671389311552
73,0.0114899566397071,-0.0106232389807701,-0.00100079399999231,-0.00753124244511127,0.00301191490143538,-0.0204319357872009
74,0.01257314812392,-0.00814471673220396,0.000396421237383038,-0.00338938040658832,0.00274771288968623,-0.0173155553638935
75,0.0115154031664133,-0.00752586638554931,-0.00144814047962427,-0.00121592660434544,-0.00134773668833077,-0.016308356076479
76,0.00934885535389185,-0.00910872686654329,-0.00478468229994178,-0.001523103332147,-0.00690746260806918,-0.0192209370434284
77,0.00609388435259461,-0.012314229272306,-0.00838970392942429,-0.00449849292635918,-0.0121882110834122,-0.0247130412608385
78,0.00136020942591131,-0.0164418909698725,-0.0121099185198545,-0.00989765860140324,-0.0170225743204355,-0.0300060529261827
79,-0.0033343534450978,-0.0201196614652872,-0.01561707444489,-0.0156568698585033,-0.0206596590578556,-0.0330829098820686
80,-0.00597932608798146,-0.0221680495887995,-0.0180743597447872,-0.0195484459400177,-0.0220247879624367,-0.0338713675737381
81,-0.00649834470823407,-0.0223392173647881,-0.0192469712346792,-0.0212389715015888,-0.0217213798314333,-0.0328822545707226
82,-0.00686063943430781,-0.0213208869099617,-0.0202107783406973,-0.0222935359925032,-0.0217202007770538,-0.030734121799469
83,-0.00721961120143533,-0.0185680538415909,-0.0207343995571136,-0.0226959493011236,-0.0218317694962025,-0.0272026117891073
84,-0.00708010885864496,-0.0142220361158252,-0.020382871851325,-0.0211850553750992,-0.0211987104266882,-0.022914931178093
85,-0.00773917930200696,-0.010822587646544,-0.0202464889734983,-0.0186317935585976,-0.0205771718174219,-0.0204810611903667
86,-0.00932283420115709,-0.00914965756237507,-0.0202514287084341,-0.0159114487469196,-0.0195019133388996,-0.0197949316352606
87,-0.010165954940021,-0.00725095765665174,-0.0185712613165379,-0.0118411118164659,-0.016143161803484,-0.0175049286335707
88,-0.00915087200701237,-0.00355753162875772,-0.0142394136637449,-0.00547421351075172,-0.0106996195390821,-0.012022964656353
89,-0.00669338600710034,0.00196856213733554,-0.00883634388446808,0.0022643010597676,-0.0060617639683187,-0.00452039949595928
90,-0.00348300044424832,0.00835518445819616,-0.00534744141623378,0.00859979540109634,-0.00463422061875463,0.00202203076332808
91,-0.000179074311745353,0.0135415326803923,-0.00641560181975365,0.009655243717134,-0.0068263285793364,0.00292054330930114
92,0.00207197130657732,0.0158804785460234,-0.0118671134114265,0.00485982839018106,-0.012132765725255,-0.00287948385812342
93,0.00222985586151481,0.0155020719394088,-0.0182238183915615,-0.00198481325060129,-0.0190211068838835,-0.010397607460618
94,0.000397778494516388,0.0139280799776316,-0.0223146211355925,-0.00698770955204964,-0.0245698597282171,-0.013799199834466
95,-0.00140177761204541,0.013530227355659,-0.0230851098895073,-0.00790261570364237,-0.0259295310825109,-0.010151032358408
96,-0.00211204285733402,0.0144654614850879,-0.0218156352639198,-0.00602292874827981,-0.0236921031028032,-0.00226594810374081
97,-0.00205804849974811,0.0150009570643306,-0.019101532176137,-0.00345217529684305,-0.019920589402318,0.00455240672454238
98,-0.00114110240247101,0.0142388101667166,-0.0137371188029647,0.00032166947494261,-0.0145855871960521,0.00851138308644295
99,-0.00106492394115776,0.0111214425414801,-0.0079038729891181,0.00412609474733472,-0.00881596282124519,0.00911641400307417
100,-0.00289377989247441,0.00644258968532085,-0.0047037610784173,0.00591924693435431,-0.00450844783335924,0.00646255165338516
101,-0.00509706372395158,0.00275248009711504,-0.00438158819451928,0.00587509572505951,-0.00217628432437778,0.00252511631697416
102,-0.0068394890986383,0.000790735939517617,-0.00661114789545536,0.00495990552008152,-0.00226003164425492,-0.00163202011026442
103,-0.00871003419160843,-0.000558685162104666,-0.0106430342420936,0.00350454822182655,-0.00487601850181818,-0.00714264158159494
104,-0.0115654161199927,-0.00305375619791448,-0.014805993065238,0.000839162617921829,-0.00894193351268768,-0.0145294610410929
105,-0.0148029867559671,-0.00640489673241973,-0.017046308144927,-0.00238964217714965,-0.0123314671218395,-0.0196264218539
106,-0.0167640522122383,-0.00851899012923241,-0.0162135846912861,-0.00430045556277037,-0.0132882939651608,-0.0179405156522989
107,-0.0166384000331163,-0.00864831265062094,-0.0124758034944534,-0.00387011119164526,-0.010861961171031,-0.0119485780596733
108,-0.0139998104423285,-0.00675099203363061,-0.00629036128520966,-0.000774294370785356,-0.00449927942827344,-0.00622017215937376
109,-0.0100867627188563,-0.0038459321949631,0.000108636559161823,0.00282270670868456,0.00376943126320839,-0.00259828637354076
110,-0.00754958065226674,-0.00193302193656564,0.0033998757135123,0.00364534906111658,0.0102534238249063,-0.00166554958559573
111,-0.00682191830128431,-0.00146164163015783,0.00294932606630027,0.00141387013718486,0.0139757320284843,-0.00266147451475263
112,-0.00649673026055098,-0.00188386172521859,0.000609884271398187,-0.00215575820766389,0.0164713393896818,-0.00422075111418962
113,-0.00561645813286304,-0.00245692511089146,-0.00217391503974795,-0.00507018901407719,0.0183042865246534,-0.00550176529213786
114,-0.00453246897086501,-0.00264739547856152,-0.00583846727386117,-0.00613105297088623,0.017908601090312,-0.006384143140167
115,-0.00410946412011981,-0.00288698100484908,-0.0103364652022719,-0.00567921018227935,0.0149819357320666,-0.00722956657409668
116,-0.00455710990354419,-0.0037034444976598,-0.0135284336283803,-0.00422806944698095,0.0118955532088876,-0.00746803171932697
117,-0.00551438191905618,-0.00495476182550192,-0.0131461955606937,-0.00168829795438796,0.010761477984488,-0.00488198129460216
118,-0.00603649113327265,-0.00606954237446189,-0.00864853244274855,0.00200093747116625,0.0124101880937815,0.00145757349673659
119,-0.00478872563689947,-0.00630203075706959,-0.00184662418905646,0.0058771651238203,0.0167100299149752,0.00833452958613634
120,-0.00128410069737583,-0.00486117228865623,0.00448861718177795,0.00826182216405869,0.0219861604273319,0.0116243567317724
121,0.00275939307175577,-0.00204075686633587,0.0073951780796051,0.00800124183297157,0.0252193193882704,0.0100095476955175
122,0.00454931426793337,0.000720606767572463,0.00459200609475374,0.00456477142870426,0.0240716207772493,0.00451786909252405
123,0.00271154078654945,0.00192172173410654,-0.00352633185684681,-0.00239009666256607,0.0190335065126419,-0.00352734629996121
124,-0.000795005587860942,0.00211437116377056,-0.0128181986510754,-0.0105080138891935,0.0136821959167719,-0.0109438523650169
125,-0.00311413430608809,0.00342279113829136,-0.0179413817822933,-0.0151673443615437,0.0109068155288696,-0.0126579971984029
126,-0.00419850554317236,0.00576773565262556,-0.0175365842878819,-0.0150088565424085,0.0101008992642164,-0.00804664567112923
127,-0.00466038845479488,0.00829230900853872,-0.0139180170372128,-0.0118067851290107,0.00996863096952438,-0.00116277660708874
128,-0.00478797871619463,0.010954056866467,-0.0100735733285546,-0.00761084770783782,0.0094925444573164,0.00411236006766558
129,-0.00540999695658684,0.0129990270361304,-0.00831865612417459,-0.00404421053826809,0.00723645882681012,0.00638834340497851
130,-0.00630347058176994,0.0135908424854279,-0.00826733838766813,-0.00169001985341311,0.00385066657327116,0.00646022194996476
131,-0.00605291873216629,0.0129046719521284,-0.00687749683856964,-0.00016149424482137,0.00285745086148381,0.00501124188303947
132,-0.00484816031530499,0.0111026521772146,-0.00320152705535293,0.000501618545968086,0.0056225317530334,0.00198162836022675
133,-0.00441065989434719,0.00846332497894764,6.35391988907941E-05,-0.000269387412117794,0.00909381918609142,-0.00129307969473302
134,-0.00552521785721183,0.0059232939966023,0.000580471765715629,-0.00232759863138199,0.0101256845518947,-0.00259029166772962
135,-0.00751700391992927,0.00424700742587447,-0.00143018399830908,-0.00432849954813719,0.00842323340475559,-0.00157350266817957
136,-0.00805501639842987,0.00459883222356439,-0.00355696701444685,-0.00424465350806713,0.00654155202209949,0.000860591942910105
137,-0.00638412451371551,0.00691195903345943,-0.00435800710693002,-0.00189046305604279,0.006556854583323,0.00341207976453006
138,-0.00542575865983963,0.00878046825528145,-0.00451079616323113,0.00139168405439705,0.00725658936426044,0.00491919834166765
139,-0.00784793775528669,0.00819296389818192,-0.00457698246464133,0.00450693350285292,0.00650740042328835,0.00527610676363111
140,-0.0126887736842036,0.00574236875399947,-0.00418016687035561,0.00658157700672746,0.00485882116481662,0.00554023310542107
141,-0.0162372253835201,0.00410920847207308,-0.00178812781814486,0.00807302352041006,0.00575646851211786,0.00784660596400499
142,-0.0164287835359573,0.00439341086894274,0.00254881149157882,0.00932050496339798,0.0104126203805208,0.0122394226491451
143,-0.014583557844162,0.00476733827963471,0.00585823599249125,0.00880292151123285,0.0154872117564082,0.0147804925218225
144,-0.0129315219819546,0.00395081518217921,0.00586732663214207,0.00559397228062153,0.017454843968153,0.0125709306448698
145,-0.0115888407453895,0.00399402109906077,0.00353843788616359,0.00224364339374006,0.0168787948787212,0.00836896151304245
146,-0.00923582818359137,0.00699983816593885,0.00154427567031235,0.00216735573485494,0.0168720409274101,0.00673591438680887
147,-0.0066729923710227,0.0110320569947362,0.000701488752383739,0.00435732817277312,0.0176511406898499,0.00847386289387941
148,-0.00569042935967445,0.0133317895233631,7.84954245318659E-05,0.00570767698809505,0.0168681424111128,0.0120429815724492
149,-0.00602628942579031,0.0141178127378225,-0.000135880836751312,0.00619758851826191,0.0145430164411664,0.0165391396731138
150,-0.0067474702373147,0.0142645156010985,0.000825915718451142,0.00732983462512493,0.0129984049126506,0.0210586842149496
151,-0.00860390905290842,0.0126998024061322,0.00189609604422003,0.00878471508622169,0.0128944534808397,0.0230166465044022
152,-0.0120136458426714,0.00873003341257572,0.00174532399978489,0.00959365908056498,0.0129897464066744,0.0193949416279793
153,-0.0151861039921641,0.00386629276908934,0.0012227373663336,0.00942530389875174,0.0125149991363287,0.010584513656795
154,-0.0165392793715,-4.85870768898167E-05,0.00154295668471605,0.0082329660654068,0.0117883700877428,0.000587432296015322
155,-0.0161871016025543,-0.00209602131508291,0.00283097964711487,0.00730039132758975,0.0116815734654665,-0.00602327473461628
156,-0.0154251400381327,-0.0026040596421808,0.00457184249535203,0.00792640447616577,0.0122299790382385,-0.00656084017828107
157,-0.0161157995462418,-0.00350404204800725,0.00538503564894199,0.00843720510601997,0.012299713678658,-0.00256554340012372
158,-0.0183563623577356,-0.0063607906922698,0.00465336348861456,0.00670737540349364,0.0119120767340064,0.00174003257416189
159,-0.0195808261632919,-0.00939349271357059,0.00367705966345966,0.00396546116098762,0.0118569377809763,0.00458399904891849
160,-0.0186921339482069,-0.00998707674443722,0.0025663641281426,0.00164228980429471,0.010604758746922,0.0064192870631814
161,-0.0172886289656162,-0.00833688583225012,-0.000600213650614023,-0.00145693542435765,0.00675649801269174,0.00656038848683238
162,-0.0154761904850602,-0.00520141748711467,-0.00541315553709865,-0.00521390233188868,0.00275454414077103,0.0047898143529892
163,-0.0122767146676779,-0.000705154961906374,-0.00817337818443775,-0.0064454828388989,0.00152815552428365,0.00324560911394656
164,-0.00861602090299129,0.00391214294359088,-0.00620843423530459,-0.00258350418880582,0.00354673783294857,0.00367664638906717
165,-0.00621606688946486,0.00664359703660011,-0.000284249981632456,0.00507631851360202,0.00787009578198195,0.00537576014176011
166,-0.00586057547479868,0.00596529757604003,0.00647554825991392,0.0115794921293855,0.0124379154294729,0.00628270534798503
167,-0.00661397539079189,0.00240887212567031,0.0113416258245707,0.0129541754722595,0.0153777841478586,0.00545876333490014
168,-0.00667417980730534,-0.00120714725926518,0.013077100738883,0.00948095042258501,0.0154937552288175,0.00406844913959503
169,-0.00525868032127619,-0.00277833896689117,0.0119124464690685,0.00389297492802143,0.0128832180052996,0.00247715879231691
170,-0.0031013039406389,-0.00259654154069722,0.00958354026079178,-0.00113958981819451,0.00975323095917702,0.00011675430869218
171,-0.00202549016103148,-0.00194641156122088,0.00767086120322347,-0.00429665669798851,0.00752065237611532,-0.00118179118726403
172,-0.00227420520968735,-0.000984895625151694,0.00767235504463315,-0.00498939398676157,0.00684211915358901,0.00111594598274678
173,-0.00226547429338098,0.000702018674928695,0.0104212276637554,-0.00306403613649309,0.00853242818266153,0.00599757442250848
174,-0.00122567755170166,0.00289400201290846,0.014793979935348,0.000794807740021497,0.0118663618341088,0.0102479532361031
175,0.000561843509785831,0.00498769385740161,0.0185914672911167,0.00494900206103921,0.0149467829614878,0.011200150474906
176,0.00222845445387065,0.0059915971942246,0.0196599643677473,0.00744436541572213,0.0161013826727867,0.00764441909268498
177,0.00334571744315326,0.00584412785246968,0.0182330794632435,0.00827484205365181,0.015292982570827,0.00191283680032939
178,0.00381322135217488,0.00522165698930621,0.016777403652668,0.00895490404218435,0.0139218056574464,-0.00207254197448492
179,0.00327771157026291,0.00466471072286367,0.0168047305196524,0.0106585025787354,0.0129584744572639,-0.0023736422881484
180,0.00279357517138124,0.00587192596867681,0.0180970840156078,0.0139623750001192,0.0129677373915911,0.00147541577462107
181,0.0037891254760325,0.00978387333452702,0.0193728804588318,0.0177932642400265,0.0143679557368159,0.00858473870903254
182,0.00563317770138383,0.01426044665277,0.0196978282183409,0.0197791326791048,0.0168927684426308,0.0160085633397102
183,0.00754563696682453,0.0174325201660395,0.0201989393681288,0.0197754446417093,0.0198990236967802,0.0207003001123667
184,0.00951852649450302,0.0193189922720194,0.0221782829612494,0.01954978518188,0.0224134866148233,0.0209759976714849
185,0.0114134596660733,0.0206568762660027,0.025205947458744,0.0198387317359447,0.0241587515920401,0.0182536672800779
186,0.0119963455945253,0.0218456238508224,0.0276952292770147,0.0202884878963232,0.0246747713536024,0.0179938077926636
187,0.0102344108745456,0.0224619023501873,0.0285221915692091,0.0204159431159496,0.0231341775506735,0.0239759590476751
188,0.00771856820210814,0.0226140040904284,0.027750950306654,0.020262498408556,0.0209532622247934,0.0331686809659004
189,0.00606881640851498,0.022582121193409,0.0253145471215248,0.0197326503694057,0.0197142772376537,0.0396325252950192
190,0.00538576953113079,0.0219856929033995,0.0212398786097765,0.0179990958422422,0.0190272461622953,0.0406433045864105
191,0.00497785629704595,0.0202014334499836,0.0164058189839125,0.0149605646729469,0.0177997779101133,0.0367633774876595
192,0.0036976826377213,0.0171550437808037,0.0119632827118039,0.0118984738364816,0.0152314947918057,0.0292692817747593
193,0.00179441715590656,0.0140388291329145,0.0094594256952405,0.0107355080544949,0.0121881533414125,0.0196198150515556
194,0.000923079147469252,0.0121954837813973,0.0106119252741337,0.0125588476657867,0.0109193064272404,0.00959622208029032
195,1.09333568616421E-05,0.0102004148066044,0.0136884562671185,0.0141001855954528,0.010873805731535,-0.000514268351253122
196,-0.00268415198661387,0.00720842741429806,0.0152670424431562,0.012062631547451,0.00977995153516531,-0.00822270382195711
197,-0.00517814885824919,0.00584969250485301,0.0151602933183312,0.00841354299336672,0.00759153673425317,-0.00835604500025511
198,-0.00605733878910542,0.00686806114390492,0.0144932018592954,0.00522215617820621,0.00512246834114194,-0.00122802972327918
199,-0.00549230957403779,0.00933550391346216,0.0147894583642483,0.00342110800556839,0.0036620176397264,0.00940465275198221
200,-0.00380634889006615,0.0126298759132624,0.0169908795505762,0.0042354566976428,0.00382211105898023,0.0204035621136427
201,-0.00277306814678013,0.01462406758219,0.0196204073727131,0.00672953575849533,0.00454518059268594,0.028068520128727
202,-0.00314987427555025,0.0136493183672428,0.0215607509016991,0.00893336813896894,0.00587488850578666,0.029188135638833
203,-0.00330006517469883,0.010306159965694,0.0234058070927858,0.0107304137200117,0.00863888114690781,0.0222330093383789
204,-0.00224043568596244,0.00627215439453721,0.0251430049538612,0.012610069476068,0.011414110660553,0.00980585627257824
205,-0.00144889787770808,0.00273345364257693,0.025215357542038,0.0135389724746346,0.011538365855813,-0.00126358447596431
206,-0.0010469505796209,0.00120671733748168,0.0237786062061787,0.0138757918030024,0.00961118564009666,-0.00479585444554687
207,0.000922613136935979,0.00329179153777659,0.0229787956923246,0.0155648188665509,0.00829926133155823,-0.000307529902784154
208,0.00321117322891951,0.00744529580697417,0.0221647024154663,0.0171683728694916,0.00712941633537412,0.0073512140661478
209,0.00255709420889616,0.00987271405756474,0.0188069771975279,0.0155520625412464,0.00406276201829314,0.0131224868819118
210,-0.000557170948013663,0.00939869321882725,0.0138445533812046,0.0115835480391979,-0.000136276838020422,0.0153775010257959
211,-0.00355911557562649,0.00739819230511785,0.0102323014289141,0.00848853401839733,-0.00366072659380734,0.0144892726093531
212,-0.00617521395906806,0.00400691805407405,0.00844474509358406,0.00663567706942558,-0.00632724817842245,0.00983836688101292
213,-0.00722949579358101,0.000384908693376929,0.00873853731900454,0.00583129096776247,-0.00712086725980043,0.00254604336805642
214,-0.00475138938054442,-0.000953706214204431,0.0116406744346023,0.00683989003300667,-0.00523101538419724,-0.00377005175687373
215,-0.000815481937024742,-0.000474779430078343,0.0146453008055687,0.00763413449749351,-0.00305061601102352,-0.00763591565191746
216,0.00145030627027154,-0.000208909303182736,0.0147031117230654,0.0058956341817975,-0.00287111476063728,-0.00992147717624903
217,0.000921824772376567,-0.00137766369152814,0.011501501314342,0.00251068361103535,-0.0049096392467618,-0.0112801631912589
218,-0.00283622182905674,-0.00471329782158136,0.0068362751044333,-0.00058895128313452,-0.00855591055005789,-0.0116672571748495
219,-0.00817855447530746,-0.0089223850518465,0.00401225918903947,-0.00122446613386273,-0.0115520674735308,-0.0102506382390857
220,-0.0115525154396892,-0.0112877767533064,0.00570816919207573,0.00186168658547103,-0.0113955633714795,-0.00676259165629745
221,-0.011194996535778,-0.0111033236607909,0.0103845465928316,0.00632367795333266,-0.00873422250151634,-0.00357246887870133
222,-0.00822468008846045,-0.00962099060416222,0.0133072910830379,0.00818798504769802,-0.0069514000788331,-0.00442029023543
223,-0.00436948658898473,-0.00786237698048353,0.0120429750531912,0.00627710064873099,-0.0078277476131916,-0.0103212874382734
224,-0.00084610958583653,-0.00647062202915549,0.00871094036847353,0.00290456833317876,-0.00966366846114397,-0.01808812469244
225,0.00164125207811594,-0.00536864716559649,0.00675663119181991,0.00143824005499482,-0.0101147731766105,-0.0228723511099815
226,0.00278402585536242,-0.00429790932685137,0.00668438384309411,0.00262817484326661,-0.00862472783774138,-0.0229870546609163
227,0.00263054412789643,-0.00409988686442375,0.00626931665465236,0.00352173368446529,-0.00612840568646789,-0.0221348870545626
228,0.00244609848596156,-0.00453925644978881,0.00471576396375895,0.00206478731706738,-0.00371871655806899,-0.0238407235592604
229,0.00301569839939475,-0.00462301820516586,0.00279196910560131,-0.00104998995084316,-0.00250316481105983,-0.0273650139570236
230,0.00429550046101213,-0.00388014502823353,0.00117304257582873,-0.00358212064020336,-0.00250931899063289,-0.0290145985782146
231,0.00618721405044198,-0.00207783887162805,0.000199258443899453,-0.00322006037458777,-0.00243659759871662,-0.0265223756432533
232,0.00834920350462198,0.000205842196010053,0.000240130510064773,0.000223731069127098,-0.000742946460377425,-0.022208895534277
233,0.0108762998133898,0.00181851268280298,0.0017879995284602,0.00499939685687423,0.0032038486097008,-0.0197922401130199
234,0.0133636379614472,0.0016897035529837,0.003640525508672,0.00844268314540386,0.00761949643492699,-0.0212851092219353
235,0.0147635666653514,5.70628208151902E-06,0.00303419260308146,0.00854616332799196,0.00982445199042559,-0.0265977941453457
236,0.0148668317124248,-0.00223380606621504,-0.000738926406484097,0.00530089344829321,0.00913637317717075,-0.0341333337128162
237,0.0145215643569827,-0.0042800703085959,-0.00516555178910494,0.000160304727614857,0.00775031559169292,-0.0412705652415752
238,0.0148537941277027,-0.00535119231790304,-0.00776894204318523,-0.00487216981127858,0.0085558220744133,-0.0450384989380836
239,0.0153124248608947,-0.00598334753885865,-0.00874611828476191,-0.00874491967260838,0.0108820823952556,-0.0453820638358593
240,0.0135015435516834,-0.00853750016540289,-0.00972412526607513,-0.0120982257649302,0.011564907617867,-0.0465667247772217
241,0.00908206775784492,-0.0135112619027495,-0.0112174805253744,-0.0150897456333041,0.00977165997028351,-0.0515854097902775
242,0.00504856137558818,-0.0179162286221981,-0.012764148414135,-0.0159467402845621,0.00693455943837762,-0.0576737113296986
243,0.00369860953651369,-0.0191959403455257,-0.0137940784916282,-0.013320604339242,0.00430772732943296,-0.0604936517775059
244,0.00453591300174594,-0.0177060402929783,-0.013360358774662,-0.00846616458147764,0.00275894929654896,-0.0587540604174137
245,0.00661335047334433,-0.0146922040730715,-0.0107369627803564,-0.00346551253460348,0.00342084909789264,-0.0534026101231575
246,0.00932619441300631,-0.0112986918538809,-0.00673411460593343,0.000382796046324074,0.0066547472961247,-0.0462532676756382
247,0.0119688361883163,-0.00883511640131474,-0.00291369203478098,0.00217380654066801,0.011741797439754,-0.0399909168481827
248,0.0140005024150014,-0.00797478575259447,-0.000399337150156498,0.00197047553956509,0.0171395093202591,-0.0371664315462112
249,0.0150962807238102,-0.00811770278960466,0.000724674900993705,0.00206613191403449,0.0208751186728477,-0.0380075611174107
250,0.0153010711073875,-0.00815724674612284,0.00154090719297528,0.00469511281698942,0.0224916078150272,-0.0403837040066719
251,0.0150937298312783,-0.00788644887506962,0.00285414955578744,0.00816716067492962,0.0230100937187672,-0.0423097983002663
252,0.0148201659321785,-0.00776638370007277,0.00422751344740391,0.00942563079297543,0.022727083414793,-0.0433379150927067
253,0.0141706205904484,-0.00827437918633223,0.00482359062880278,0.00827639922499657,0.0214524064213037,-0.0446025095880032
254,0.0133857671171427,-0.00955807697027922,0.00489889737218618,0.00628241756930947,0.0198924001306295,-0.0470077358186245
255,0.0125490762293339,-0.0117279142141342,0.00442566256970167,0.00400835648179054,0.0175429061055183,-0.0496551766991615
256,0.010598880238831,-0.0150179462507367,0.00200987816788256,0.000295044883387163,0.0129836415871978,-0.0517026521265507
257,0.00816847570240498,-0.0185724589973688,-0.00196107709780335,-0.00536025129258633,0.00799165479838848,-0.0529878064990044
258,0.00824174657464027,-0.0204504579305649,-0.00445183366537094,-0.0103176888078451,0.00629384350031614,-0.0528454482555389
259,0.0120165096595883,-0.0197915770113468,-0.00385571294464171,-0.0117177804931998,0.00876013748347759,-0.0511686354875565
260,0.0174262188374996,-0.0176458153873682,-0.00122337986249477,-0.00969186704605818,0.0133197028189898,-0.0483064576983452
261,0.0227432958781719,-0.0147470608353615,0.00264107435941696,-0.00516050541773438,0.018172251060605,-0.0433064475655556
262,0.027343537658453,-0.0116029176861048,0.00704479916021228,0.00071587273851037,0.0225793439894915,-0.0368813462555408
263,0.0297184567898512,-0.0104005392640829,0.0100530497729778,0.00506509840488434,0.0257657561451197,-0.0343322157859802
264,0.0286637488752604,-0.0129086831584573,0.0108649944886565,0.00687203463166952,0.0270933303982019,-0.040317740291357
265,0.0256767757236958,-0.0174395497888327,0.0114805437624455,0.00861993432044983,0.0274514332413673,-0.0522702075541019
266,0.0234116278588772,-0.0203139912337065,0.0129831340163946,0.0111563196405768,0.0277896616607904,-0.0614991970360279
267,0.0216453559696674,-0.0202381331473589,0.013342110440135,0.0122009133920074,0.0266334004700184,-0.0617555789649487
268,0.0182644985616207,-0.0188589002937078,0.0106278592720628,0.00969982612878084,0.02222147770226,-0.0542886629700661
269,0.0135756507515907,-0.0173073820769787,0.00541072152554989,0.00411554146558046,0.0154123483225703,-0.0425375401973724
270,0.00971105415374041,-0.0157498810440302,0.0003278078220319,-0.0022250316105783,0.0093854172155261,-0.0293837431818247
271,0.00785506889224052,-0.0145130446180701,-0.00194267358165234,-0.00684597343206406,0.00714309699833393,-0.0186013635247946
272,0.0081827687099576,-0.0135351559147239,-0.000629532965831459,-0.00864380970597267,0.00897725112736225,-0.0128927575424314
273,0.0109871039167047,-0.0122436843812466,0.00344505859538913,-0.00857637356966734,0.0136501621454954,-0.013014979660511
274,0.0168518852442503,-0.00985894072800875,0.00923625845462084,-0.0070348558947444,0.0203337259590626,-0.0174295864999294
275,0.0235415678471327,-0.00734276277944446,0.0146281672641635,-0.00429562898352742,0.0265164151787758,-0.0231734178960323
276,0.0265445988625288,-0.00695631699636579,0.0172047782689333,-0.00158978987019509,0.0287150666117668,-0.0278546344488859
277,0.0250108651816845,-0.00840828195214272,0.0170726776123047,0.0015975454589352,0.0267264861613512,-0.0294898748397827
278,0.0213700067251921,-0.010085379704833,0.0151001652702689,0.00518634030595422,0.022779194638133,-0.0280934032052755
279,0.0181406810879707,-0.0111964177340269,0.0122700612992048,0.00746108032763004,0.0195344109088182,-0.0259768329560757
280,0.016980953514576,-0.0111880041658878,0.010464072227478,0.00858591310679913,0.0188809894025326,-0.0244774781167507
281,0.0167229827493429,-0.0107104349881411,0.00927270110696554,0.00878135114908218,0.0190094206482172,-0.0231762230396271
282,0.0158857312053442,-0.00985327269881964,0.00736154429614544,0.00756639102473855,0.0171258449554443,-0.0204134248197079
283,0.0157612822949886,-0.0069830403663218,0.00593376997858286,0.00609665829688311,0.0142585914582014,-0.0142872519791126
284,0.0168720576912165,-0.00290208961814642,0.00618979800492525,0.00487002544105053,0.0126771619543433,-0.00706646218895912
285,0.0173750258982182,-0.000665345403831452,0.00748893478885293,0.00280470866709948,0.0123522682115436,-0.0042328704148531
286,0.0166035499423742,-0.000439111434388906,0.00902049895375967,0.000687300111167133,0.0126429339870811,-0.00592078547924757
287,0.0155849624425173,-0.0001810737157939,0.0103608220815659,0.000740443647373468,0.0132097033783793,-0.00707190856337547
288,0.0143484976142645,0.000242478068685159,0.0109034748747945,0.00305357528850436,0.0129165127873421,-0.00586308818310499
289,0.0126929050311446,0.000213256294955499,0.0108125926926732,0.00609466386958957,0.0114860972389579,-0.0043719788081944
290,0.0105943772941828,-0.000551653560250998,0.0101364608854055,0.00791074894368649,0.00921173393726349,-0.00400540279224515
291,0.00754214683547616,-0.00259829452261329,0.00816558115184307,0.00686446484178305,0.00613549677655101,-0.00434804381802678
292,0.00494746398180723,-0.00463396124541759,0.00631088577210903,0.00433197803795338,0.00395957985892892,-0.00326137570664287
293,0.00466480199247599,-0.00467927381396294,0.00618331599980593,0.00300617655739188,0.00367023027502,0.00131798768416047
294,0.00563795259222388,-0.00304105295799673,0.00613782368600369,0.00287791527807713,0.00294309528544545,0.00782367493957281
295,0.00656008999794722,-0.000861539505422115,0.00497044622898102,0.00291251414455473,0.000379444914869964,0.0124498708173633
296,0.00767019204795361,0.000816413783468306,0.00401559146121144,0.00292640598490834,-0.00210269074887037,0.0128925554454327
297,0.00819090660661459,8.06258249212988E-05,0.00357924844138324,0.00203999341465533,-0.00321871321648359,0.00842533074319363
298,0.00730664096772671,-0.00347939226776361,0.00328401732258499,-3.95265124097932E-05,-0.00309681473299861,0.000774211075622588
299,0.00703276041895151,-0.00640695216134191,0.00461252965033054,-0.000910743197891861,-0.00075951311737299,-0.00485909869894385
300,0.00893956609070301,-0.00599652947857976,0.00794202368706465,0.000815823150333017,0.00388343376107514,-0.00517428945749998
301,0.0120635582134128,-0.00344524602405727,0.0115971686318517,0.0033868420869112,0.00904740951955318,-0.00152939301915467
302,0.0155844669789076,-0.000599355669692159,0.0153807792812586,0.00605419790372252,0.0139449685811996,0.00438649579882622
303,0.0179090537130833,0.000648640154395252,0.019205566495657,0.00877030473202467,0.0177563969045877,0.0106669794768095
304,0.0175735745579004,-0.00105164328124374,0.0217940546572208,0.0100952703505754,0.0192508660256863,0.0144773805513978
305,0.0159936342388391,-0.0045221708714962,0.0227409191429615,0.00938859116286039,0.0188072100281715,0.0146398553624749
306,0.0146098900586367,-0.00795948319137096,0.0222361702471972,0.00765118841081858,0.0173870772123337,0.0121251158416271
307,0.0141784818843007,-0.00979760754853487,0.0216501392424107,0.00738229136914015,0.0165924709290266,0.0099905077368021
308,0.0162317026406527,-0.00856633111834526,0.0232909582555294,0.0104164369404316,0.0186030510812998,0.0111746480688453
309,0.0203444417566061,-0.0052171959541738,0.0267553348094225,0.0146117890253663,0.0234356615692377,0.0148437554016709
310,0.0238328631967306,-0.00237727072089911,0.0295701809227467,0.0171603113412857,0.028843754902482,0.0185255110263824
311,0.0242109093815088,-0.00177651655394584,0.0300711020827293,0.0184632893651724,0.0317047461867332,0.0218410510569811
312,0.0212049148976803,-0.00284625380299985,0.0283599961549044,0.0202888529747725,0.0303798634558916,0.0259625930339098
313,0.0173451267182827,-0.00370086776092649,0.0264142528176308,0.0230205375701189,0.0272669550031424,0.030141357332468
314,0.0144770620390773,-0.00460234796628356,0.0254859980195761,0.024746872484684,0.0253575965762138,0.0310333520174026
315,0.0122182797640562,-0.00688764825463295,0.0249626301229,0.0237187948077917,0.0246082618832588,0.0278686229139566
316,0.0100729325786233,-0.0100077576935291,0.0241627544164658,0.0205889400094748,0.0237850956618786,0.0240205582231283
317,0.00843394640833139,-0.0121559463441372,0.0232391636818647,0.0182730033993721,0.0223750472068787,0.022654427215457
318,0.00821533240377903,-0.0119273671880364,0.0230976324528456,0.0195069052278996,0.0213979780673981,0.0242373589426279
319,0.0094033507630229,-0.00970479659736156,0.0241775084286928,0.0227137114852667,0.0222326721996069,0.0278817936778069
320,0.0111023597419262,-0.00683532934635878,0.0257910117506981,0.0241701416671276,0.0242420230060816,0.033764474093914
321,0.0126660754904151,-0.00402201199904084,0.0265261996537447,0.0225534867495298,0.0254110675305128,0.0418705008924007
322,0.0143892029300332,-0.00105014711152762,0.0260041821748018,0.0194800645112991,0.0253788307309151,0.0501525439321995
323,0.0168418828397989,0.00216254754923284,0.0252483915537596,0.0172058138996363,0.025185227394104,0.0549264140427113
324,0.0194783918559551,0.00471423240378499,0.024711973965168,0.016187459230423,0.0247794277966022,0.0533087104558945
325,0.0220380276441574,0.00645442074164748,0.0251509658992291,0.0165516380220652,0.0245922021567822,0.0467502065002918
326,0.0245850589126349,0.00792744196951389,0.0270655825734138,0.0183304157108068,0.0254570804536343,0.0389352068305016
327,0.026697363704443,0.00897570047527552,0.0296294819563627,0.0210500005632639,0.0269855931401253,0.0322882309556007
328,0.0273829754441977,0.0086609311401844,0.0318098776042461,0.0238645356148481,0.028134835883975,0.0278197638690472
329,0.0256749279797077,0.00656690401956439,0.0326871424913406,0.0252226926386356,0.0280280541628599,0.0250024180859327
330,0.0221307761967182,0.00363672687672079,0.0317810140550137,0.0240636151283979,0.0265952441841364,0.0221010632812977
331,0.0185035634785891,0.00136281072627753,0.0298509001731873,0.0206623841077089,0.0246332734823227,0.019529651850462
332,0.0161806344985962,0.000796620675828308,0.0279537606984377,0.0165073405951262,0.0228719394654036,0.0202099811285734
333,0.014802448451519,0.00106255360879004,0.025630921125412,0.0121874790638685,0.0206053126603365,0.0237616784870625
334,0.0132527407258749,0.000540227862074971,0.0225889068096876,0.00718199322000146,0.0171396266669035,0.0259719621390104
335,0.0117816785350442,-0.000431096093961969,0.0198085736483335,0.00253883097320795,0.013441227376461,0.0246314201503992
336,0.0121977915987372,0.000250790471909568,0.0188816767185926,0.00105531746521592,0.0114634558558464,0.0219930931925774
337,0.0143406223505735,0.00288622523657978,0.0199260469526052,0.00361149432137609,0.0115360673516989,0.0206274352967739
338,0.0153363719582558,0.00552022317424417,0.0205341447144747,0.00807602051645517,0.0110748400911689,0.0207966528832912
339,0.0141605213284492,0.00732143269851804,0.0194292087107897,0.0127264885231853,0.00794160272926092,0.0219286028295755
340,0.0115800583735108,0.0076359286904335,0.0171259511262178,0.0158748608082533,0.00286423927173018,0.02212536893785
341,0.00792680121958256,0.00564134633168578,0.0143318679183722,0.0157793089747429,-0.00250673969276249,0.0197683237493038
342,0.00469313468784094,0.0033552311360836,0.0128035619854927,0.0144252767786384,-0.00640375446528196,0.0168500114232302
343,0.00380254909396172,0.00327473459765315,0.0136106982827187,0.0143181197345257,-0.00696106953546405,0.0164476428180933
344,0.00480792205780745,0.00453724712133408,0.0149011481553316,0.0136988610029221,-0.00463965674862266,0.0185677036643028
345,0.00612793164327741,0.00503175426274538,0.0150240762159228,0.0108072515577078,-0.0012579980539158,0.0208062678575516
346,0.00731632439419627,0.00454351026564837,0.0150920618325472,0.00748589495196939,0.00235266797244549,0.0215047150850296
347,0.00821536406874657,0.00418694736436009,0.0160619076341391,0.00641158223152161,0.0051577826961875,0.0214969012886286
348,0.00830950122326612,0.00473438343033195,0.0170786008238792,0.00859871134161949,0.00624091830104589,0.0224657543003559
349,0.00725492835044861,0.00587176764383912,0.0171822495758533,0.0127312056720257,0.0058248401619494,0.0242163147777319
350,0.0047008004039526,0.0060590011999011,0.0159860700368881,0.0157246794551611,0.00404812162742019,0.0247397609055042
351,0.00216036685742438,0.00545546086505055,0.0147380670532584,0.0166142676025629,0.00232428289018571,0.0241102036088705
352,0.00201230170205235,0.0061754509806633,0.0154279908165336,0.0179136712104082,0.00308727053925395,0.0250138062983751
353,0.00311836623586714,0.00739951245486736,0.017240209504962,0.0203451588749886,0.00568929081782699,0.0268493816256523
354,0.00325871794484556,0.0069970041513443,0.0177441891282797,0.0215175077319145,0.00731356162577868,0.0268000792711973
355,0.00245726178400218,0.0053475396707654,0.015738021582365,0.0201091710478067,0.00610026111826301,0.0249141585081816
356,0.00107726629357785,0.00285206199623644,0.0119443200528622,0.0167575050145388,0.00211483822204173,0.0214245822280645
357,-0.0013097821502015,-0.00089743360877037,0.00868175271898508,0.0131374374032021,-0.00273303245194256,0.0161784626543522
358,-0.00454065995290875,-0.00516078295186162,0.00790755171328783,0.011347102932632,-0.00597978383302689,0.011172354221344
359,-0.00669199926778674,-0.00820143707096577,0.010193906724453,0.0119586922228336,-0.00569017697125673,0.0087263323366642
360,-0.00654008705168962,-0.00893858447670937,0.0137996440753341,0.0126610500738025,-0.0024736023042351,0.00995831191539764
361,-0.00586251821368933,-0.00828436948359013,0.0153765929862857,0.0107055762782693,0.000107354811916593,0.0145083563402295
362,-0.00596858793869615,-0.00759170018136501,0.0145424716174603,0.00678680557757616,0.000533643295057118,0.0207202024757862
363,-0.00553518859669566,-0.00695343967527151,0.0143064334988594,0.00378522556275129,0.00115454092156142,0.0262462273240089
364,-0.00297937681898475,-0.00552504882216454,0.0170026663690805,0.00371672096662223,0.0040738363750279,0.029828330501914
365,0.00160076818428934,-0.00287408195436001,0.0220260079950094,0.00669040065258741,0.00865581817924976,0.0322956591844559
366,0.00537636457011104,-0.000927497341763228,0.0254230573773384,0.00991871114820242,0.0114688398316503,0.0330796986818314
367,0.00643152138218284,-0.000777164357714355,0.024825731292367,0.0115304458886385,0.0105121685191989,0.0313728824257851
368,0.0056532365269959,-0.00131626613438129,0.0218470953404903,0.0120901232585311,0.00721896067261696,0.0282694157212973
369,0.00367230176925659,-0.00228116544894874,0.0183738693594933,0.01174062397331,0.00312419165857136,0.0242289211601019
370,0.0013017903547734,-0.0034883301705122,0.0158940386027098,0.0112150683999062,-0.000734450644813478,0.0195776466280222
371,-0.000666461419314146,-0.00474879657849669,0.0143110556527972,0.0109827443957329,-0.00416601356118917,0.015048936009407
372,-0.00278779841028154,-0.00594619615003467,0.0120277311652899,0.0102410484105349,-0.00802756659686565,0.0117435799911618
373,-0.00480149826034904,-0.00583246909081936,0.0097658708691597,0.00895269867032766,-0.0115105547010899,0.0117110665887594
374,-0.00518643949180841,-0.00391435343772173,0.00940275378525257,0.0070381173864007,-0.0122135663405061,0.0142109906300902
375,-0.00403683260083199,-0.00211334275081754,0.00998298358172178,0.0034021579194814,-0.0099620632827282,0.0142308752983809
376,-0.00324429129250348,-0.00203826790675521,0.00905044749379158,-0.00170347292441875,-0.00770740723237395,0.0102650262415409
377,-0.00439551565796137,-0.00301950518041849,0.00609540939331055,-0.00571839930489659,-0.00841688551008701,0.00724702188745141
378,-0.00686208158731461,-0.00354308821260929,0.00355594977736473,-0.00595881976187229,-0.0110621433705091,0.00853304471820593
379,-0.00872773863375187,-0.00309116789139807,0.00365546299144626,-0.00301743927411735,-0.0121954865753651,0.0116563113406301
380,-0.00913672428578138,-0.00247785937972367,0.00562280975282192,-0.000696316885296255,-0.0105422614142299,0.013227554038167
381,-0.00801069010049105,-0.00214687548577785,0.00736567331478,-0.00141595699824393,-0.00715045444667339,0.0133327143266797
382,-0.00589579902589321,-0.00137022708076984,0.0076053342781961,-0.0035388795658946,-0.00425347546115518,0.0141646377742291
383,-0.00404751813039184,0.000193807267351076,0.00616564974188805,-0.00431588618084788,-0.00400153500959277,0.0162200126796961
384,-0.00364118465222418,0.00125308893620968,0.00304297381080687,-0.00383482780307531,-0.00709213502705097,0.0165433287620544
385,-0.00462642032653093,0.000614524469710886,-0.000473289168439806,-0.00357170077040792,-0.0118622398003936,0.0130065772682428
386,-0.00514509901404381,-0.000652514339890331,-0.00122519058641046,-0.00358125357888639,-0.01490084733814,0.00809297244995832
387,-0.00385517021641135,-0.000957828829996288,0.00190879963338375,-0.00286614173091948,-0.0143989790230989,0.00496057095006108
388,-0.000967078551184386,0.000322996755130589,0.0071333940140903,5.52814854017925E-05,-0.0111590288579464,0.00462625687941909
389,0.00224754121154547,0.00283859414048493,0.0115499813109636,0.00422649690881372,-0.00776583049446344,0.00726510863751173
390,0.0033742468804121,0.0049354424700141,0.012233211658895,0.00569552881643176,-0.00746352365240455,0.0124321365728974
391,0.00165232480503619,0.00532787758857012,0.00927645247429609,0.0030126569326967,-0.0104284193366766,0.0184214524924755
392,-0.00117771804798394,0.00402005249634385,0.00514235580340028,-0.00195454363711178,-0.0137932794168592,0.0223575681447983
393,-0.00324011500924826,0.00198090053163469,0.00156495172996074,-0.00670606829226017,-0.0157347619533539,0.022637439891696
394,-0.00357176130637527,0.000440068717580289,-0.000969214423093945,-0.00943934544920921,-0.0164733100682497,0.0202030651271343
395,-0.00248244404792786,-0.000711977772880346,-0.00291706365533173,-0.00996033754199743,-0.0163612198084593,0.0169715750962496
396,-0.000817483873106539,-0.00242187338881195,-0.00445596734061837,-0.00906523317098618,-0.0150183280929923,0.013917675241828
397,-0.000218410204979591,-0.00552041083574295,-0.00607537105679512,-0.00867503974586725,-0.0137293618172407,0.00916807726025581
398,-0.00192101940046996,-0.00969507172703743,-0.00873395055532455,-0.0100747169926763,-0.0147292017936707,0.00117908348329365
399,-0.0042701531201601,-0.0129862679168582,-0.0118123516440392,-0.0121050979942083,-0.0176560021936893,-0.00724791036918759
400,-0.00623153988271952,-0.0149211380630732,-0.0145962322130799,-0.0145729323849082,-0.0215390659868717,-0.0131093515083194
401,-0.00838303565979004,-0.0163838155567646,-0.0167883317917585,-0.017615120857954,-0.0252903420478106,-0.0160849634557962
402,-0.00931063294410706,-0.0166166741400957,-0.0164153836667538,-0.0186843890696764,-0.0256391614675522,-0.016218613833189
403,-0.00753044616430998,-0.0148610202595592,-0.0121866222470999,-0.0165181830525398,-0.0210125986486673,-0.0140345133841038
404,-0.00454683601856232,-0.0125892478972673,-0.00653107697144151,-0.0142401866614819,-0.0144243417307734,-0.0115828132256866
405,-0.00233777542598546,-0.0113625871017575,-0.00226336740888655,-0.0144158462062478,-0.00924582872539759,-0.00985628180205822
406,-0.000515125226229429,-0.0101836128160357,0.000923100742511451,-0.015162949450314,-0.00568142160773277,-0.00674704601988196
407,0.00128209823742509,-0.00782602466642857,0.00365963019430637,-0.0143398009240627,-0.0030599853489548,-0.000970751803833991
408,0.00194510305300355,-0.00539779430255294,0.00527027295902371,-0.0124555379152298,-0.00135519809555262,0.0050297318957746
409,0.00117542955558747,-0.00441227620467544,0.0055523831397295,-0.0104848677292466,-0.000252311729127541,0.00843631196767092
410,-0.000176377448951826,-0.00517339911311865,0.0050192722119391,-0.00854979269206524,0.000432014203397557,0.00843732338398695
411,-0.00072544114664197,-0.00645669596269727,0.00501398835331202,-0.00602140929549932,0.00153956853318959,0.00589001690968871
412,0.000389865948818624,-0.00653925491496921,0.00658519519492984,-0.00268658436834812,0.00400571990758181,0.00326291471719742
413,0.0015991956461221,-0.00603026384487748,0.00802632141858339,-0.000344331201631576,0.00617512641474605,0.00245374860242009
414,0.000746872916352004,-0.0068012923002243,0.00735602574422956,-0.000773116771597415,0.00603722175583243,0.00222479901276529
415,-0.00198010448366404,-0.00888032838702202,0.00545007269829512,-0.00274721602909267,0.00411715544760227,0.000831836834549904
416,-0.00467641092836857,-0.0107405539602041,0.00380218029022217,-0.00387814803980291,0.00209130230359733,-0.000328109483234584
417,-0.00510164257138968,-0.0101307481527328,0.00348409963771701,-0.00277941185049713,0.0016822008183226,0.00177346367854625
418,-0.00284163188189268,-0.00609712721779943,0.0050548161379993,0.000835768471006304,0.00319759175181389,0.00766232796013355
419,-2.24996474571526E-05,-0.000707193161360919,0.00748170120641589,0.0061255763284862,0.0048807580024004,0.0145450383424759
420,0.00147839903365821,0.00352990999817848,0.00956021528691053,0.0113258296623826,0.00532917259261012,0.0192809458822012
421,0.0016775110270828,0.00615322357043624,0.0109451161697507,0.0143891703337431,0.00488101318478584,0.0211178343743086
422,0.000710641208570451,0.00706586381420493,0.0104701975360513,0.0136864120140672,0.00375243183225393,0.0207240730524063
423,-0.00224914005957544,0.0053199827671051,0.00646114954724908,0.00880864914506674,0.000891235074959695,0.0173318460583687
424,-0.00642377510666847,0.00143063871655613,0.000392431422369555,0.00182060897350311,-0.00333704589866102,0.0103573119267821
425,-0.00920011103153229,-0.00233031809329987,-0.00349316373467445,-0.00361219118349254,-0.00658611627295613,0.00264621619135141
426,-0.00947136618196964,-0.00428325403481722,-0.0034525056835264,-0.00531568331643939,-0.00775006227195263,-0.00147860962897539
427,-0.00780013389885426,-0.0041354545392096,-0.00100626610219479,-0.00417253188788891,-0.007039790507406,-0.000201741815544665
428,-0.00476550310850143,-0.00272164959460497,0.00219276221469045,-0.00218199426308274,-0.0046836631372571,0.00450606225058436
429,-0.00175154895987362,-0.00147996819578111,0.00456872303038836,8.12599464552477E-05,-0.0022721909917891,0.00952640175819397
430,-0.000436247151810676,-0.00108133908361197,0.00505101727321744,0.0029189286287874,-0.00170743220951408,0.0139360083267093
431,-0.000899751379620284,-0.00139041931834072,0.00403303885832429,0.00582986092194915,-0.00273545878008008,0.017097745090723
432,-0.00237116171047091,-0.00277991173788905,0.00257538515143096,0.00728008011355996,-0.00386927183717489,0.0165535043925047
433,-0.00451530609279871,-0.00566007383167744,0.00145859806798398,0.0055704596452415,-0.0045384056866169,0.0116590075194836
434,-0.00698424130678177,-0.00893163587898016,0.000527409662026912,0.000966607651207596,-0.00499287620186806,0.00589975528419018
435,-0.00866320915520191,-0.0104697681963444,-0.000848611700348556,-0.00418566400185227,-0.00498283701017499,0.0030395716894418
436,-0.00948548782616854,-0.0102033652365208,-0.00370522565208375,-0.00885100848972797,-0.00544246193021536,0.00232903379946947
437,-0.0101433433592319,-0.00964954122900963,-0.00764714879915118,-0.0126831913366914,-0.00722516141831875,0.000878599530551583
438,-0.0100191254168749,-0.00856402609497309,-0.0101426979526877,-0.0143570955842733,-0.0089054936543107,-0.000570930249523371
439,-0.00926609337329865,-0.00611329544335604,-0.0105421701446176,-0.0138594871386886,-0.0103120701387525,0.00118768296670169
440,-0.00878885947167873,-0.0027719612699002,-0.0104212528094649,-0.0126569550484419,-0.0123787149786949,0.00723338779062033
441,-0.00917540676891804,-0.000440364790847525,-0.0113814352080226,-0.0126302596181631,-0.0153256999328732,0.0136517826467752
442,-0.0097763380035758,4.59772272733971E-05,-0.0130727691575885,-0.0138411577790976,-0.0182674713432789,0.0156076503917575
443,-0.00862909108400345,0.000321536237606779,-0.0134228114038706,-0.0142888333648443,-0.0193442311137915,0.0137783559039235
444,-0.00663720024749637,0.000431834225310013,-0.0124317351728678,-0.0139997377991676,-0.0189314763993025,0.0107428571209311
445,-0.00658196117728949,-0.00125338276848197,-0.011318888515234,-0.0144216306507587,-0.0185316354036331,0.00705067673698068
446,-0.00915408413857222,-0.00488576246425509,-0.010886512696743,-0.0163898020982742,-0.0183001402765512,0.00298311002552509
447,-0.0128625314682722,-0.00894739292562008,-0.0118556646630168,-0.0195323005318642,-0.0182526037096977,-7.43062337278388E-05
448,-0.0144544001668692,-0.010351063683629,-0.0124242985621095,-0.020136795938015,-0.0176184512674809,0.0010390387615189
449,-0.0121529586613178,-0.00764448568224907,-0.0103934435173869,-0.0155931450426579,-0.0155949965119362,0.00739884283393621
450,-0.00818937178701162,-0.0034865690395236,-0.00740461517125368,-0.00891155935823917,-0.0132335498929024,0.0151879116892815
451,-0.00492877699434757,-0.000353090552380309,-0.00566496141254902,-0.00364820379763842,-0.0111850192770362,0.0203696079552174
452,-0.00198666774667799,0.00221894891001284,-0.00451410701498389,-0.000126657003420405,-0.00834168959408998,0.0220035202801228
453,0.000857126200571656,0.00497758062556386,-0.00327596999704838,0.00239162356592715,-0.00506501831114292,0.0216259937733412
454,0.00182967132423073,0.00687378086149693,-0.00277954037301242,0.00413688737899065,-0.00420244177803397,0.0207752138376236
455,0.000213105930015445,0.00673839077353477,-0.00312264333479106,0.00545805366709828,-0.00672962469980121,0.019580053165555
456,-0.00158754352014512,0.00561473472043872,-0.00300102750770748,0.00656947074458003,-0.00941040739417076,0.0187482312321663
457,-0.00139338441658765,0.00509670656174421,-0.00210905075073242,0.0062126200646162,-0.00949757546186447,0.0188211873173714
458,-0.00040910579264164,0.00478006573393941,-0.00241235876455903,0.0032102707773447,-0.0085897957906127,0.0185819081962109
459,-0.000982177443802357,0.00321839540265501,-0.0053766556084156,-0.00171728350687772,-0.00918400567024946,0.0165616441518068
460,-0.00312455766834319,0.000360881414962932,-0.00953791942447424,-0.00689693912863731,-0.011035542935133,0.0126799140125513
461,-0.00424772128462791,-0.00156596954911947,-0.0117636462673545,-0.0100256046280265,-0.0119445268064737,0.00901332031935453
462,-0.00311991153284907,-0.00125295401085168,-0.0112035637721419,-0.0106717646121979,-0.011127782985568,0.00682045333087444
463,-0.000959584373049438,0.000589228526223451,-0.0090522114187479,-0.0105220088735223,-0.00926520396023989,0.00574431195855141
464,0.00111663166899234,0.0032627631444484,-0.00583151308819652,-0.00965286325663328,-0.00672304630279541,0.00584825873374939
465,0.00188156496733427,0.00550417741760612,-0.00273011275567114,-0.00811599567532539,-0.00499518262222409,0.00617800839245319
466,0.00101896573323756,0.00656976364552975,-0.00125605845823884,-0.00742500321939588,-0.00542562175542116,0.00620888406410813
467,-0.000332465773681179,0.00705628003925085,-0.00128710642457008,-0.00818986538797617,-0.00706920074298978,0.00720692845061421
468,-0.00184381590224802,0.00684339459985495,-0.00196687853895128,-0.00980940274894238,-0.00833167694509029,0.00937708374112844
469,-0.00429784739390016,0.00530460895970464,-0.00348024652339518,-0.011926157400012,-0.0091952970251441,0.0112544214352965
470,-0.00710308039560914,0.00385127821937203,-0.00542902341112494,-0.0134273702278733,-0.0100081190466881,0.0129426838830113
471,-0.00879049114882946,0.00429486203938723,-0.00623690523207188,-0.012454055249691,-0.0103470394387841,0.0159584954380989
472,-0.0101079577580094,0.00527381431311369,-0.00623223045840859,-0.0097877811640501,-0.0104580502957106,0.0187795031815767
473,-0.0124560203403234,0.00447109015658498,-0.00693825166672468,-0.00751320598646998,-0.0106374658644199,0.0180988665670156
474,-0.0145355062559247,0.00283812102861702,-0.00752816163003445,-0.00483313389122486,-0.00975437089800835,0.0145527487620711
475,-0.014376524835825,0.002586126094684,-0.00604619504883885,-0.000763932475820184,-0.00691387290135026,0.011439555324614
476,-0.012254967354238,0.00360482558608055,-0.00295247929170728,0.00279587879776955,-0.00333022559061646,0.00967967975884676
477,-0.0089848255738616,0.00536853261291981,0.000154089764691889,0.00421940209344029,-0.000389937194995582,0.00872431416064501
478,-0.00624031573534012,0.00721258018165827,0.0017611684743315,0.00331160146743059,0.000619326950982213,0.00860137213021517
479,-0.00573392864316702,0.00802474375814199,0.000993413385003805,0.000428884814027697,-0.000826868636067957,0.0096994349732995
480,-0.00705099897459149,0.0075200186111033,-0.00173995783552527,-0.00400760537013412,-0.00361413788050413,0.0109192803502083
481,-0.00859940145164728,0.00651039788499475,-0.00487309601157904,-0.00878382101655006,-0.00609545037150383,0.0106022926047444
482,-0.00914398767054081,0.00611352128908038,-0.00679857935756445,-0.0115717723965645,-0.00680531561374664,0.00984378065913916
483,-0.0100839743390679,0.00568297505378723,-0.00933932792395353,-0.0122370179742575,-0.00746384961530566,0.00987620558589697
484,-0.0125780608505011,0.00487175071612,-0.0139059415087104,-0.0114362649619579,-0.0102115701884031,0.0108316345140338
485,-0.015009768307209,0.00450250133872032,-0.0179412383586168,-0.00884359702467918,-0.0132288429886103,0.0124186296015978
486,-0.0171768590807915,0.00315120024606586,-0.0204972866922617,-0.00655150786042213,-0.0150063773617148,0.0115570183843374
487,-0.0194929782301188,9.63187776505947E-05,-0.0215484667569399,-0.00577710242941976,-0.0157144386321306,0.0076770200394094
488,-0.01949692517519,-0.00125306169502437,-0.0187909305095673,-0.00394305214285851,-0.0140797700732946,0.00622638268396258
489,-0.0161424465477467,0.000831890036351979,-0.012795745395124,-0.00107082596514374,-0.010126686654985,0.00919510517269373
490,-0.0126948328688741,0.00341346533969045,-0.00803835690021515,-0.000182674499228597,-0.00748388888314366,0.0123830949887633
491,-0.0119800642132759,0.00411780411377549,-0.00673704268410802,-0.00148405064828694,-0.00843525025993586,0.0129892285913229
492,-0.0134384026750922,0.00371091347187757,-0.00692453002557158,-0.00273807486519217,-0.011005200445652,0.0123124970123172
493,-0.0158987753093243,0.00263972766697407,-0.00679109245538712,-0.00344184623099864,-0.01300741545856,0.0114698195829988
494,-0.0190209280699492,0.000133664536406286,-0.00721461279317737,-0.00487481337040663,-0.0145826619118452,0.00931171234697104
495,-0.0214847754687071,-0.00258186459541321,-0.00831147003918886,-0.00653627142310143,-0.0158817879855633,0.00601852405816317
496,-0.0223590526729822,-0.00406310660764575,-0.00871780421584845,-0.00726187182590365,-0.016639344394207,0.00342890014871955
497,-0.022698761895299,-0.00496514653787017,-0.00910324603319168,-0.00801485497504473,-0.0176615156233311,0.00293982937000692
498,-0.0228804610669613,-0.00563638610765338,-0.0106961987912655,-0.00937741529196501,-0.0192693099379539,0.00420222664251924
499,-0.0222337543964386,-0.00596496695652604,-0.0124755864962935,-0.010448950342834,-0.020591888576746,0.00406066095456481
500,-0.0205614566802979,-0.0060766595415771,-0.0124568650498986,-0.0106581738218665,-0.0205594729632139,0.000632564362604171
501,-0.0182156730443239,-0.00561018381267786,-0.0100539568811655,-0.00974580738693476,-0.0187864936888218,-0.00364188337698579
502,-0.0153540754690766,-0.003847238374874,-0.00653871847316623,-0.00830441247671843,-0.015907496213913,-0.00524866161867976
503,-0.0114334393292665,-0.000732843123842031,-0.00323264277540147,-0.00795643031597137,-0.0122781628742814,-0.00362437264993787
504,-0.00762994727119803,0.00194071175064892,-0.00166446773800999,-0.00961396284401417,-0.00929256714880466,-0.00172687973827124
505,-0.00519173592329025,0.00324552413076162,-0.00186779955402017,-0.0116780623793602,-0.00787101499736309,-0.00111111789010465
506,-0.00303161633200943,0.00427866261452436,-0.0012108163209632,-0.0112503636628389,-0.00636421842500567,-0.00111394736450166
507,-0.00146798999048769,0.00454609049484134,0.000735549780074507,-0.00834100134670734,-0.00452741654589772,-0.00327728455886245
508,-0.00169781630393118,0.00286736176349223,0.00218825694173574,-0.0055876444093883,-0.00352743314579129,-0.00844543799757957
509,-0.00255157169885933,0.000480218732263893,0.00275865895673633,-0.00427001947537065,-0.0032685708720237,-0.0131749473512173
510,-0.00327870319597423,-0.000990464468486607,0.00209777778945863,-0.00452682236209512,-0.00409779930487275,-0.014232992194593
511,-0.0048880442045629,-0.00185800879262388,-0.000546689319889992,-0.0068374308757484,-0.00701773958280683,-0.0121586797758937
512,-0.00745164416730404,-0.00319364410825074,-0.00436124810948968,-0.0107857817783952,-0.0111015196889639,-0.00926589034497738
513,-0.00967343710362911,-0.0048968312330544,-0.00741411140188575,-0.0139017002657056,-0.013725602068007,-0.00674828141927719
514,-0.00959097966551781,-0.0051362244412303,-0.00787443853914738,-0.0126110855489969,-0.013167342171073,-0.00482340203598142
515,-0.00713591231033206,-0.00351723772473633,-0.00576148834079504,-0.00654485449194908,-0.0108501296490431,-0.00496621569618583
516,-0.00511093204841018,-0.0024232012219727,-0.00359671539627016,0.000514340819790959,-0.00977374333888292,-0.00803386606276035
517,-0.00506361853331327,-0.00266817538067698,-0.00341451889835298,0.00506951194256544,-0.0106186717748642,-0.0105721279978752
518,-0.00559002114459872,-0.00235702586360276,-0.00470586493611336,0.00575436418876052,-0.0114209046587348,-0.00768758077174425
519,-0.00510918535292149,-0.000732558954041451,-0.00577009608969092,0.00304398639127612,-0.0106977978721261,-0.00064812955679372
520,-0.00459093833342195,-0.000150363353895955,-0.00625317730009556,-0.00247704214416444,-0.00966779422014952,0.00272055179812014
521,-0.00482466863468289,-0.00163117924239486,-0.00628875801339746,-0.00920704286545515,-0.00910202320665121,-0.000745768193155527
522,-0.00447607599198818,-0.00302363419905305,-0.00554118352010846,-0.0134340459480882,-0.00824122596532106,-0.00636780774220824
523,-0.00343295745551586,-0.00359017984010279,-0.00456189317628741,-0.013338441029191,-0.00764961633831263,-0.0106890788301826
524,-0.00226661586202681,-0.0036339161451906,-0.00353859690949321,-0.009642468765378,-0.00780495861545205,-0.0129309622570872
525,-0.000818587839603424,-0.00281187263317406,-0.0021503425668925,-0.0044082049280405,-0.00876553449779749,-0.0119316009804606
526,0.000604468514211476,-0.0012991497060284,-0.000769267557188869,-0.000600106548517942,-0.0106642786413431,-0.00799254234880209
527,0.00193048769142479,0.000300787389278412,0.000399112730519846,0.000497784873005003,-0.0115497345104814,-0.00395075930282474
528,0.00339641165919602,0.00141217117197812,0.00154586613643914,0.000223947776248679,-0.00958429649472237,-0.00234859879128635
529,0.00409932248294353,0.00162955117411911,0.00238859630189836,0.000185484110261314,-0.00643386924639344,-0.00339428731240332
530,0.00311948847956955,0.00125711248256266,0.00222704722546041,0.00124895491171628,-0.00499522080644965,-0.00547018554061651
531,0.000161322052008472,0.000563452602364123,0.000143463155836798,0.00289291143417358,-0.0068015051074326,-0.0066664251498878
532,-0.00383214699104428,2.85201967926696E-05,-0.00352122006006539,0.00346598192118108,-0.0103130731731653,-0.00520033622160554
533,-0.00631484435871243,0.00107505067717284,-0.00672481395304203,0.0029569452162832,-0.011936659924686,-0.00068532582372427
534,-0.00597901502624154,0.00381181458942592,-0.00792576931416988,0.00303966552019119,-0.0103439530357718,0.00384201295673847
535,-0.00413726875558496,0.00666995579376817,-0.00760265905410051,0.00463560502976179,-0.00734218582510948,0.00549227884039283
536,-0.00346584245562553,0.00814479496330023,-0.00758003629744053,0.00602159276604652,-0.00565251661464572,0.00439094891771674
537,-0.00491187628358603,0.00805364083498716,-0.00762601895257831,0.00553166540339589,-0.00566611252725124,0.00230801803991199
538,-0.00729993917047977,0.00707780569791794,-0.00685958936810493,0.00373326917178929,-0.00648317905142903,0.00101493648253381
539,-0.00984043348580599,0.00533705716952682,-0.00669409288093448,0.000676087918691337,-0.00846167467534542,-0.000318413629429415
540,-0.0120334196835756,0.00306406803429127,-0.00773280253633857,-0.00358958542346954,-0.0113700507208705,-0.00354202371090651
541,-0.0132917379960418,0.00108180625829846,-0.00902524683624506,-0.00769664859399199,-0.0141679085791111,-0.00737583078444004
542,-0.0132474983111024,0.000181632451131009,-0.00956451799720526,-0.0102819548919797,-0.0155570385977626,-0.00821736827492714
543,-0.0121378311887383,0.000393230700865388,-0.00913399830460548,-0.0108799757435918,-0.0148589815944433,-0.00502081587910652
544,-0.00998071394860744,0.00151115760672838,-0.00794337689876556,-0.00925779808312655,-0.012390966527164,-0.00075055321212858
545,-0.00638541486114264,0.00355410599149764,-0.00561230769380927,-0.00525159249082208,-0.00868444982916117,0.00147843698505312
546,-0.00213019852526486,0.00644364440813661,-0.00263405940495431,-3.11641742882784E-05,-0.00509726721793413,0.00204092357307673
547,0.00165442505385727,0.0100474283099175,-0.000202988434466533,0.00432704901322722,-0.00216447282582521,0.00364580098539591
548,0.00454455567523837,0.0135967377573252,0.00166792247910053,0.00645665964111686,0.00104952440597117,0.00707516726106405
549,0.00673814164474607,0.0162618719041348,0.00388243864290416,0.00653786584734917,0.0047918101772666,0.0107276178896427
550,0.00801494251936674,0.0172536354511976,0.00613130815327168,0.0050899381749332,0.00772598152980208,0.0120487855747342
551,0.00803190190345049,0.0162603259086609,0.00791518576443195,0.0030450711492449,0.00944209191948175,0.00961093697696924
552,0.00730465771630406,0.0141937350854278,0.00939953699707985,0.00176455441396683,0.0111607052385807,0.00451022339984775
553,0.00559428706765175,0.0115140723064542,0.00935394782572985,0.00113540014717728,0.0123506374657154,-0.00129711360204965
554,0.00251007662154734,0.00841365475207567,0.00684392917901278,0.000692039029672742,0.0117041394114494,-0.0050821527838707
555,-0.000696852221153677,0.00560280820354819,0.00297203566879034,0.000223992188693956,0.00986987538635731,-0.00535769294947386
556,-0.00253908173181117,0.00336722005158663,-0.000846868264488876,-0.00104732008185238,0.00824199710041285,-0.004502406809479
557,-0.00225531938485801,0.00250764703378081,-0.00345965102314949,-0.0020996246021241,0.00739985750988126,-0.00401945225894451
558,0.00119495578110218,0.00484287878498435,-0.00316658616065979,0.000345132924849167,0.00797577202320099,-0.00153024552855641
559,0.00657060416415334,0.00939802546054125,-0.000204360781935975,0.00588058121502399,0.00958849024027586,0.00373727572150528
560,0.00980091746896505,0.01214799284935,0.00224322034046054,0.00914824288338423,0.00972550269216299,0.00854269228875637
561,0.0101238703355193,0.0117810061201453,0.00291579240001738,0.00763170095160604,0.00789228547364473,0.0109322611242533
562,0.0098619107156992,0.0101665994152427,0.00277820508927107,0.00359719339758158,0.00599733972921968,0.0120718404650688
563,0.00911034364253283,0.00815991964191198,0.00117845460772514,-0.0011912623886019,0.00378903024829924,0.0122197633609176
564,0.00680513679981232,0.00543975876644254,-0.00250554946251214,-0.00573894195258617,-0.000208801109693013,0.0104627814143896
565,0.00363330356776714,0.0020334655418992,-0.00614874670282006,-0.00845116097480059,-0.00457754312083125,0.0067041739821434
566,0.00182029488496482,-0.00118602707516402,-0.00664494652301073,-0.00870489794760942,-0.0057636727578938,0.00219358340837061
567,0.00223257788456976,-0.00284791248850524,-0.00401210784912109,-0.00731722265481949,-0.00328608741983771,-0.000805981748271734
568,0.0025877223815769,-0.00309739168733358,-0.00189011241309345,-0.00623272219672799,-0.00105725775938481,-0.00234006135724485
569,0.00148983078543097,-0.00327571132220328,-0.0016879818867892,-0.00587719492614269,-0.00164151517674327,-0.00528026092797518
570,0.000555443053599447,-0.00383679824881256,-0.000628952926490456,-0.00328365550376475,-0.00291311205364764,-0.0100009320303798
571,0.00110606208909303,-0.00432459125295281,0.00339110963977873,0.00324508431367576,-0.00146842526737601,-0.0121668959036469
572,0.00172638962976635,-0.00485580321401358,0.00875831115990877,0.0101658934727311,0.00254986016079783,-0.00884413626044989
573,-4.19088755734265E-05,-0.00587476463988423,0.0112621290609241,0.012203429825604,0.00510667962953448,-0.00215157517232001
574,-0.00391435623168945,-0.00669866474345326,0.00787007994949818,0.00745000690221787,0.00274348887614906,0.00360233010724187
575,-0.00779035314917564,-0.0069062914699316,-0.00143313955049962,-0.00231442390941083,-0.00501249637454748,0.00483316602185369
576,-0.0113109722733498,-0.0075483969412744,-0.0146249048411846,-0.0142638180404902,-0.0164005663245916,0.00121617096010596
577,-0.0140034146606922,-0.00790011789649725,-0.0269529931247234,-0.0246673915535212,-0.0271300729364157,-0.00300781056284904
578,-0.0136770969256759,-0.00509230419993401,-0.0328814648091793,-0.0292929522693157,-0.0326459929347038,-0.00214873603545129
579,-0.0102499127388,0.000745011726394296,-0.0309946220368147,-0.0271818842738867,-0.0324468240141869,0.0041583008132875
580,-0.00641062343493104,0.00634777871891856,-0.0242135431617498,-0.0214620493352413,-0.0292686428874731,0.0111139602959156
581,-0.00471574114635587,0.00865709036588669,-0.0175091437995434,-0.0168216843158007,-0.0260826516896486,0.0142993805930018
582,-0.00647982861846685,0.00628768047317863,-0.0147528713569045,-0.0160427745431662,-0.0249578040093184,0.0119993733242154
583,-0.0109360162168741,0.000717203773092479,-0.0155691336840391,-0.0176772829145193,-0.0263615492731333,0.00665054237470031
584,-0.0155783826485276,-0.00470483070239425,-0.0176336355507374,-0.0187122765928507,-0.0296551994979382,0.00276767276227474
585,-0.0188201647251844,-0.00799254607409239,-0.0199958421289921,-0.0184593871235847,-0.034078411757946,0.00174773274920881
586,-0.0207355432212353,-0.00923260953277349,-0.0218595992773771,-0.0173531118780375,-0.038217555731535,0.00253866752609611
587,-0.0214154217392206,-0.0089845797047019,-0.0219976846128702,-0.0149448523297906,-0.0401196666061878,0.00439163204282522
588,-0.0208044555038214,-0.00858627073466778,-0.0201166979968548,-0.0118387537077069,-0.0387954562902451,0.00495208473876119
589,-0.0186701621860266,-0.00894928723573685,-0.0166126172989607,-0.00955497194081545,-0.0346772707998753,0.00236451951786876
590,-0.0146944420412183,-0.00886383838951588,-0.0127335982397199,-0.00856833159923553,-0.02937544696033,-0.000570622330997139
591,-0.0109778428450227,-0.00825775414705276,-0.0115341944620013,-0.00940932892262936,-0.0259932223707438,-0.00137225643265992
592,-0.0096340449526906,-0.00800115708261728,-0.014354994520545,-0.0116901220753789,-0.0262957382947207,-0.000885193643625826
593,-0.00898728426545858,-0.00689559057354927,-0.0178818237036467,-0.0131117049604654,-0.0276393312960863,0.000614303455222398
594,-0.00730473967269063,-0.00420103268697858,-0.0188709143549204,-0.0126673858612776,-0.0268757194280624,0.00400186842307448
595,-0.00511919148266315,-0.000863259367179126,-0.0176356807351112,-0.0110980877652764,-0.0244344100356102,0.00991446804255247
596,-0.0029899962246418,0.00281373667530715,-0.0153096346184611,-0.00836195982992649,-0.0220541246235371,0.0184177663177252
597,-0.000654893170576543,0.00720824021846056,-0.0116758439689875,-0.00384645210579038,-0.0196219198405743,0.0285034831613302
598,0.000743513170164078,0.0104915983974934,-0.00762423407286406,0.000102276193501893,-0.016982801258564,0.0365932770073414
599,0.000262745044892654,0.010817120783031,-0.00436896365135908,0.00103085301816463,-0.0141936233267188,0.0392939299345016
600,-0.000230020901653916,0.00971758179366589,-0.00123419857118279,0.000425649399403483,-0.0108187887817621,0.0374620854854584
601,0.000258002517512068,0.0085592195391655,0.000921126105822623,-0.000876775360666215,-0.00864436849951744,0.0331451222300529
602,0.00107688410207629,0.00733213406056166,0.000666009029373527,-0.00264945114031434,-0.00924150180071592,0.0273625552654266
603,0.00138309691101313,0.00588040705770254,-0.00157919561024755,-0.00368224713020027,-0.0121470419690013,0.020693551748991
604,0.000853491306770593,0.00402355007827282,-0.00472267856821418,-0.0044869827106595,-0.0161026306450367,0.0124969473108649
605,0.000663199869450182,0.00240507954731584,-0.00738625274971128,-0.00559178646653891,-0.0187300145626068,0.00289396615698934
606,0.00234341830946505,0.00246063759550452,-0.00797760114073753,-0.00536103453487158,-0.0180430822074413,-0.00409092055633664
607,0.00610635429620743,0.00490030599758029,-0.00477702543139458,-0.00216756761074066,-0.0133739365264773,-0.00385097623802722
608,0.00945500284433365,0.00788638647645712,0.00124092877376825,0.00267873052507639,-0.00645175157114863,0.00287343980744481
609,0.0098284762352705,0.00925972685217857,0.00623910874128342,0.00645677745342255,-0.000802629976533353,0.0121972719207406
610,0.00791040528565645,0.00940504018217325,0.00796619988977909,0.00813147332519293,0.00158494675997645,0.0207116417586803
611,0.00552416685968637,0.00928953103721142,0.00628509745001793,0.00750926416367292,0.00049240974476561,0.0249817930161953
612,0.00317756668664515,0.00884378328919411,0.00165894126985222,0.00430988566949964,-0.00393810262903571,0.0231987703591585
613,0.000704097037669271,0.00820655655115843,-0.00426552817225456,-0.000346944289049134,-0.0106103392317891,0.0177829712629318
614,-0.00152180111035705,0.0078651076182723,-0.00865970831364393,-0.00414836267009377,-0.01623310521245,0.0130872968584299
615,-0.00157851923722774,0.008819998241961,-0.00824007019400597,-0.00458350032567978,-0.0163755118846893,0.0112255243584514
616,0.00125683227088302,0.0110771367326379,-0.0024673284497112,-0.00117889035027474,-0.0103453351184726,0.0108052305877209
617,0.00378620531409979,0.0120795508846641,0.0041932943277061,0.00244800769723952,-0.00315324426628649,0.00892898999154568
618,0.00336823682300746,0.0107358889654279,0.0074654733762145,0.0034834872931242,-1.04080727396649E-05,0.005997393745929
619,0.000757852452807128,0.00877138879150152,0.00706096505746245,0.00283163273707032,-0.00201658392325044,0.00525520322844386
620,-0.001763004809618,0.00789748784154654,0.00503212958574295,0.00204287120141089,-0.00658230809494853,0.00769941648468375
621,-0.00269388756714761,0.00845673214644194,0.00321021652780473,0.00206278613768518,-0.0107344817370176,0.0108356503769755
622,-0.00196465710178018,0.00990406051278114,0.00265357596799731,0.00382207543589175,-0.01293361838907,0.0123185273259878
623,-4.26827027695253E-05,0.0119449775665998,0.00435676192864776,0.00738666439428926,-0.0120855960994959,0.013230899348855
624,0.00149452814366668,0.0135835902765393,0.00716143473982811,0.0100405933335423,-0.00864321086555719,0.014901022426784
625,0.00127539888489991,0.0135221192613244,0.00887103006243706,0.00929667893797159,-0.00439649214968085,0.0161833241581917
626,-5.76746897422709E-05,0.012438852339983,0.00954627990722656,0.00683912122622132,-0.000780560658313334,0.0166260078549385
627,-0.000974148919340223,0.0122209899127483,0.01021842751652,0.00615847436711192,0.00126395071856678,0.0176845993846655
628,-0.000908830144908279,0.0129061564803123,0.0105752917006612,0.00724406400695443,0.00164701859466732,0.0184790175408125
629,-0.00143846601713449,0.0124032031744719,0.00887364987283945,0.00657582608982921,0.000210665952181444,0.0155682088807225
630,-0.00325520616024733,0.011081712320447,0.00553702702745795,0.0045974706299603,-0.00266852625645697,0.010665905661881
631,-0.00478267529979348,0.0115869464352727,0.00359178287908435,0.00548661081120372,-0.0051520299166441,0.00941098481416702
632,-0.00529435928910971,0.0140963522717357,0.00432179728522897,0.0101901488378644,-0.00618979008868337,0.0134387854486704
633,-0.00463925860822201,0.0170599222183228,0.00734661007300019,0.0167353302240372,-0.00534778647124767,0.0206035878509283
634,-0.0033542113378644,0.018511176109314,0.010905453003943,0.0220008958131075,-0.00288980570621789,0.0265742912888527
635,-0.00273616309277713,0.0171399302780628,0.0121303638443351,0.0234219897538424,-0.000462764175608754,0.0274611413478851
636,-0.00231015821918845,0.0143340677022934,0.0111594377085567,0.021929644048214,0.00126040994655341,0.0231514386832714
637,-0.00100880116224289,0.0121313380077481,0.0104208299890161,0.0201745238155127,0.00259061716496944,0.0163813270628452
638,0.0010210913605988,0.0115374708548188,0.0108457012102008,0.019613241776824,0.00352280004881322,0.0114782238379121
639,0.00329679995775223,0.013039187528193,0.0117658898234367,0.0200524795800447,0.00435792189091444,0.01141650788486
640,0.00557005498558283,0.0162900052964687,0.0125725092366338,0.0208616964519024,0.0055936393328011,0.0158223528414965
641,0.0074734203517437,0.0199133157730103,0.0136066460981965,0.0221872180700302,0.00695653259754181,0.0227570757269859
642,0.00767215946689248,0.0215082839131355,0.0145964818075299,0.0232768319547176,0.00739293778315187,0.0280964430421591
643,0.00594930630177259,0.0205138493329287,0.0152613958343863,0.0238329581916332,0.00724936323240399,0.0287848673760891
644,0.0042846305295825,0.0186823569238186,0.0162455271929502,0.0248749032616615,0.0080266036093235,0.0258045494556427
645,0.00289610540494323,0.0160297192633152,0.0159495864063501,0.0244462639093399,0.00860961433500052,0.019694535061717
646,0.00141884037293494,0.0130933243781328,0.0131048317998648,0.0212014801800251,0.00787799060344696,0.0118156000971794
647,0.00184226431883872,0.0128708258271217,0.0105987852439284,0.0194732528179884,0.00764861050993204,0.00580641254782677
648,0.00441620824858546,0.0158619415014982,0.0107713211327791,0.0228313803672791,0.00822886079549789,0.00390160502865911
649,0.00649943808093667,0.0191491357982159,0.0126820728182793,0.0287485513836145,0.00829964689910412,0.00619783019647002
650,0.00693329703062773,0.0206591542810202,0.0149983428418636,0.0326253287494183,0.00897055771201849,0.0110054137185216
651,0.00667518470436335,0.02009885199368,0.0169549100100994,0.0320027135312557,0.0120998444035649,0.015375055372715
652,0.00700319511815906,0.0181755293160677,0.0184084437787533,0.0279682390391827,0.0172312334179878,0.017566004768014
653,0.00908278021961451,0.0170440562069416,0.0201436970382929,0.0245034620165825,0.0228656772524118,0.0191376935690641
654,0.0123946955427527,0.0175709966570139,0.0217166263610125,0.0236294344067574,0.0274018011987209,0.0216782428324223
655,0.014165747910738,0.0173707380890846,0.020586121827364,0.0232012495398521,0.0284388065338135,0.0232027526944876
656,0.0134595055133104,0.0152736976742744,0.0161304343491793,0.0216633919626474,0.0257435385137796,0.0218844842165709
657,0.012398598715663,0.0128959286957979,0.0112260347232223,0.0200042650103569,0.0227559823542833,0.0187045466154814
658,0.0118568651378155,0.0108600622043014,0.00805940758436918,0.0187998805195093,0.0215966384857893,0.0155750177800655
659,0.0109476018697023,0.00871664192527533,0.00655829487368464,0.0180965214967728,0.0210449881851673,0.0138234589248896
660,0.00934469792991877,0.00629120506346226,0.006341896019876,0.0184184238314629,0.0197433475404978,0.0129377814009786
661,0.00802825670689344,0.00395965948700905,0.00771094020456076,0.0201759561896324,0.0182979628443718,0.0121612213551998
662,0.00833647511899471,0.00235179858282208,0.0106933815404773,0.0218124836683273,0.0184520464390516,0.0110876671969891
663,0.00963613577187061,0.000786400691140443,0.0134165147319436,0.0197817292064428,0.0203941836953163,0.00835266523063183
664,0.0103859296068549,-0.00153918599244207,0.0138475736603141,0.0133333932608366,0.0226716492325068,0.00436677411198616
665,0.0102939745411277,-0.00415740348398685,0.012050467543304,0.00550379883497953,0.0241570919752121,0.00114169926382601
666,0.00952214282006025,-0.00648870831355453,0.0090890796855092,-0.00106046127621084,0.0242606345564127,-0.00129624258261174
667,0.00889782421290874,-0.0075479531660676,0.00649715820327401,-0.00453240191563964,0.0233079381287098,-0.00332943978719413
668,0.00862745754420757,-0.00722735607996583,0.00469038495793939,-0.00420687859877944,0.0214561503380537,-0.00510153453797102
669,0.00675940234214067,-0.00761166634038091,0.00196922989562154,-0.0018701262306422,0.0178392399102449,-0.0079568475484848
670,0.0025389704387635,-0.00978595670312643,-0.00251433602534235,-0.000492526160087436,0.0129240807145834,-0.0119271911680698
671,-0.00218986230902374,-0.0124473022297025,-0.00767392152920365,-0.00235537486150861,0.00858262740075588,-0.0148626938462257
672,-0.00607038848102093,-0.0140781067311764,-0.0120170889422297,-0.00677290000021458,0.00549716828390956,-0.0145194446668029
673,-0.00913216825574636,-0.0142031190916896,-0.0148104559630156,-0.0107055185362697,0.0031860270537436,-0.0108262998983264
674,-0.0105515494942665,-0.0127016613259912,-0.015704121440649,-0.0116038359701633,0.0020241099409759,-0.00693206442520022
675,-0.00895935110747814,-0.00954762473702431,-0.0141306016594172,-0.00863894447684288,0.0029669483192265,-0.00554893026128411
676,-0.00531121250241995,-0.00612427573651075,-0.0105738369747996,-0.00364208593964577,0.00601620692759752,-0.00661474745720625
677,-0.00174686196260154,-0.00424198294058442,-0.0062741213478148,0.00048717501340434,0.0106459017843008,-0.00910571590065956
678,0.000807421572972089,-0.00377521105110645,-0.00200248160399497,0.00294921104796231,0.0158568006008863,-0.0109543381258845
679,0.00158064195420593,-0.00388571177609265,0.000837235187646002,0.0048251268453896,0.0192324444651604,-0.0101242838427424
680,0.000847193994559348,-0.00368102244101465,0.00112930103205144,0.00744377542287111,0.0194182898849249,-0.00635935831815004
681,0.0012468749191612,-0.00166831398382783,0.000545953400433064,0.0116603849455714,0.0186726693063974,-0.000307539041386917
682,0.00410099606961012,0.00197549862787127,0.00133946223650128,0.0164772495627403,0.0195233747363091,0.00649748323485255
683,0.0070517947897315,0.00512376008555293,0.00285052787512541,0.0189911928027868,0.0210224017500877,0.0122419055551291
684,0.00720728049054742,0.00619581528007984,0.00308282719925046,0.0173810869455338,0.0210943724960089,0.0156138520687819
685,0.00388353085145354,0.00480767525732517,0.00136998482048512,0.012217340990901,0.0194029286503792,0.0156783126294613
686,-0.000869332638103515,0.00220758281648159,-0.00113939121365547,0.00602028472349048,0.017392298206687,0.0136943683028221
687,-0.00408441945910454,4.25264624936972E-05,-0.00314485095441341,0.00110212434083223,0.0167836789041758,0.0112886046990752
688,-0.00504588475450873,-0.00205963826738298,-0.00488032214343548,-0.00285171414725482,0.01741648837924,0.00709572434425354
689,-0.00457555474713445,-0.00431459955871105,-0.00652047200128436,-0.00579923577606678,0.0179408919066191,0.00140232313424349
690,-0.0035649745259434,-0.00555972941219807,-0.00743623916059732,-0.00589109351858497,0.0174203123897314,-0.00198625260964036
691,-0.0023495745845139,-0.0051484564319253,-0.00679267756640911,-0.00221061496995389,0.0164902601391077,-0.00136884523089975
692,-0.000352601840859279,-0.00337660079821944,-0.00388995371758938,0.00419992674142122,0.0167859606444836,0.00174797081854194
693,0.00229154643602669,-0.00102520477958024,0.00074205850251019,0.0114288236945868,0.0183138214051723,0.00556590501219034
694,0.00395436119288206,0.000522111658938229,0.00470486003905535,0.0173647087067366,0.0191495437175035,0.00796716567128897
695,0.0025539759080857,-0.000874024932272732,0.00470102857798338,0.0187817290425301,0.0172789823263884,0.00524696055799723
696,-0.00166809931397438,-0.00548955984413624,0.000309884402668104,0.0141310840845108,0.013208756223321,-0.00359290954656899
697,-0.00571564864367247,-0.0100831333547831,-0.00515425158664584,0.0065648416057229,0.00982920359820127,-0.0122981537133455
698,-0.00731034576892853,-0.0111976163461804,-0.00883353408426046,0.000289764022454619,0.00874613784253597,-0.0133425127714872
699,-0.00647856993600726,-0.00858130771666765,-0.00974970404058695,-0.00271523324772716,0.0094278221949935,-0.0069752112030983
700,-0.00428376300260425,-0.00472835544496775,-0.00785940885543823,-0.0028590434230864,0.0112955188378692,-0.000415891641750932
701,-0.00179235299583524,-0.00186440325342119,-0.00455204118043184,-0.00189164001494646,0.0138033470138907,0.00106491718906909
702,0.000395072740502656,-0.000241932066273876,-0.00191239430569112,-0.00050211267080158,0.0163135137408972,-0.000875142286531627
703,0.00216285022906959,0.000803376315161586,-0.000685668084770441,0.00166158063802868,0.0186500996351242,-0.00170342053752393
704,0.00327953486703336,0.00166407646611333,-0.000284661131445318,0.00414820853620768,0.0200082790106535,-1.48239614645718E-05
705,0.00344649190083146,0.00197800947353244,-0.000447461352450773,0.00561444228515029,0.0195905230939388,0.00143524562008679
706,0.00191320758312941,0.000759523070883006,-0.00245351833291352,0.0050269546918571,0.0169430617243052,0.000292775919660926
707,-0.00130951881874353,-0.00166289845947176,-0.00673610204830766,0.00350383250042796,0.0119472267106175,-0.00212009507231414
708,-0.00365550816059113,-0.00318097695708275,-0.010212798602879,0.00391441956162453,0.00709568150341511,-0.00370836490765214
709,-0.00358266523107886,-0.00302967545576394,-0.0102445483207703,0.00626552570611238,0.00548046641051769,-0.0044441013596952
710,-0.0020484677515924,-0.00199859566055238,-0.00753128807991743,0.00792862568050623,0.00738112302497029,-0.00375312194228172
711,0.000490359088871628,0.000123594916658476,-0.00351892225444317,0.00865934696048498,0.0109834196045995,0.000362452585250139
712,0.00331913749687374,0.00336434948258102,0.00040700173121877,0.00905326660722494,0.0139668416231871,0.00729309022426605
713,0.00538384960964322,0.00675727613270283,0.00322364713065326,0.00869492348283529,0.0153834968805313,0.0142759652808309
714,0.00717223715037107,0.0101543050259352,0.00531102577224374,0.0084068700671196,0.0161265768110752,0.0197892282158136
715,0.00823653675615788,0.0128180487081409,0.00608325330540538,0.00821811612695456,0.0160623081028461,0.021977361291647
716,0.00710364850237966,0.0130821410566568,0.00444709416478872,0.0069697592407465,0.014611647464335,0.0188597273081541
717,0.00421980256214738,0.0112605160102248,0.00176816794555634,0.00519017037004232,0.0126387421041727,0.0121234646067023
718,0.000338752055540681,0.00887414067983627,-0.000588447786867619,0.00367830949835479,0.0100983809679747,0.00602331897243857
719,-0.00344359711743891,0.00729688769206405,-0.00216521695256233,0.00315715721808374,0.00739425187930465,0.00413944944739342
720,-0.0051650982350111,0.00717885000631213,-0.00225036148913205,0.00452597951516509,0.00675559928640723,0.00639184471219778
721,-0.00452631199732423,0.00786355789750814,-0.0011241965694353,0.00774948485195637,0.00865220185369253,0.00913448631763458
722,-0.00259473756887019,0.00879156868904829,0.000407566229114309,0.0121755441650748,0.0112665612250566,0.0103832548484206
723,-0.000903665611986071,0.00902856979519129,0.00132518296595663,0.0152666298672557,0.012850446626544,0.0101460162550211
724,-0.000780776375904679,0.0073380209505558,0.000343370222253725,0.0141697432845831,0.0129735330119729,0.00825233664363623
725,-0.00176814687438309,0.00466857803985476,-0.0023903432302177,0.0099286362528801,0.0122052310034633,0.00645078904926777
726,-0.0024402136914432,0.00328402151353657,-0.00542659871280193,0.00613353867083788,0.0111256204545498,0.00781896058470011
727,-0.00191241654101759,0.00395483896136284,-0.00708226533606648,0.00480277230963111,0.0107174785807729,0.0128362914547324
728,-0.000336660508764908,0.00554840127006173,-0.00635487167164683,0.00508358655497432,0.0120511623099446,0.0186352021992207
729,0.00157325400505215,0.00696648610755801,-0.00401278166100383,0.00531915575265884,0.0148047739639878,0.0224325209856033
730,0.00272123725153506,0.00757310632616282,-0.0023275341372937,0.00452655088156462,0.0169911701232195,0.0231245588511229
731,0.00228976178914309,0.00670813722535968,-0.00253240345045924,0.0031550747808069,0.0172811299562454,0.0202363487333059
732,0.00135515816509724,0.00493125896900892,-0.00300834584049881,0.00260386685840786,0.0172568634152412,0.0143351145088673
733,0.000533498008735478,0.00310814450494945,-0.002549949567765,0.00243519875220954,0.0179902818053961,0.00691804243251681
734,-0.000774993153754622,0.00184482731856406,-0.00180320325307548,0.00191151059698313,0.0183103121817112,9.47874650591984E-05
735,-0.0014003156684339,0.00241199415177107,-0.000782347051426768,0.00233776215463877,0.0183316823095083,-0.00321779097430408
736,-0.000372977927327156,0.00526014761999249,0.000313294265652075,0.00476758554577827,0.0186315793544054,-0.00057922163978219
737,0.000454625493148342,0.00867473892867565,-1.351103549041E-07,0.00783568620681763,0.0178431738168001,0.00720680225640535
738,-0.000610088754910976,0.0101985028013587,-0.00235944311134517,0.0091535085812211,0.014881088398397,0.0151904923841357
739,-0.00253586354665458,0.00950467400252819,-0.00559193594381213,0.00831242557615042,0.0108619621023536,0.0181167982518673
740,-0.00396315241232514,0.00786386430263519,-0.00866526644676924,0.00660651456564665,0.00712717650458217,0.0144315334036946
741,-0.00534588657319546,0.00549682043492794,-0.0115357954055071,0.00428401911631227,0.00381779414601624,0.0066839437931776
742,-0.00698038563132286,0.00236798147670925,-0.013581270352006,0.00107863068114966,0.00134929257910699,-0.000116206210805103
743,-0.00824913289397955,-0.00099165749270469,-0.0143919019028544,-0.00211639306508005,0.000339033955242485,-0.00232722447253764
744,-0.00895249471068382,-0.00379599491134286,-0.0151498503983021,-0.00417418591678143,0.00032427444239147,-0.000595999008510262
745,-0.00908905267715454,-0.00539978453889489,-0.016372911632061,-0.00497155729681253,0.00084641866851598,0.00125281990040094
746,-0.00803566258400679,-0.00576969888061285,-0.0167743284255266,-0.0051183863542974,0.00256356224417686,0.000797357643023133
747,-0.00583111774176359,-0.0049964259378612,-0.0159263890236616,-0.00506942952051759,0.00502711068838835,-0.000135819413117133
748,-0.00380395725369453,-0.00343374838121235,-0.0148311825469136,-0.0046662762761116,0.006337218452245,0.0010075819445774
749,-0.00210168585181236,-0.0013294736854732,-0.0135786226019263,-0.00363080343231559,0.00660011358559132,0.00464594177901745
750,-0.000288975454168394,0.00102988502476364,-0.0124510629102588,-0.00308435177430511,0.00694293063133955,0.00892035197466612
751,0.00110924325417727,0.00289311888627708,-0.0127686811611056,-0.00426166597753763,0.00720355706289411,0.0115668457001448
752,0.00148167798761278,0.00348771060816944,-0.0146565102040768,-0.00587619608268142,0.00688300654292107,0.012165199033916
753,0.000515577557962388,0.00256172404624522,-0.0170736443251371,-0.00575329456478357,0.00570605648681521,0.0109421946108341
754,-0.00154100940562785,0.000545475515536964,-0.0193004887551069,-0.00432615308091044,0.0036738954950124,0.00788332242518663
755,-0.00388407940044999,-0.00223734113387764,-0.0209524407982826,-0.00395854329690337,0.00120229145977646,0.00322920270264149
756,-0.00622816337272525,-0.0055315257050097,-0.0225531924515963,-0.00610147044062614,-0.0019044658401981,-0.00183118949644268
757,-0.00829964876174927,-0.00794646330177784,-0.0246010553091764,-0.00975541304796934,-0.00560304196551442,-0.00499896658584476
758,-0.00847048498690128,-0.00755462795495987,-0.0251571349799633,-0.0118855834007263,-0.00732427788898349,-0.00493267551064491
759,-0.00592598738148808,-0.00451288372278214,-0.0227008815854788,-0.0109517090022564,-0.00526368198916316,-0.00294485222548246
760,-0.00191913556773216,-0.000522378832101822,-0.0183696337044239,-0.00710720662027597,-0.00113797339145094,-0.00108947034459561
761,0.00145289255306125,0.00244317296892405,-0.0140679469332099,-0.000817308959085494,0.00241450569592416,-0.00119653216097504
762,0.00232350383885205,0.00238713389262557,-0.0117682097479701,0.00490637589246035,0.00405565649271011,-0.00450497167184949
763,-3.75499403162394E-05,-0.001123285619542,-0.0127642108127475,0.00599822588264942,0.00338759203441441,-0.00928494054824114
764,-0.00452814623713493,-0.00617188401520252,-0.0164404083043337,0.00195750710554421,0.000799368426669389,-0.0118304388597608
765,-0.00866809953004122,-0.0103974966332316,-0.021074341610074,-0.00466649187728763,-0.00216478388756514,-0.0118043934926391
766,-0.0109275048598647,-0.0132736433297396,-0.0252368487417698,-0.0110856406390667,-0.0045347916893661,-0.0129053322598338
767,-0.0112182963639498,-0.0149437952786684,-0.0277169123291969,-0.0152539284899831,-0.00610890192911029,-0.0164421238005161
768,-0.0103971231728792,-0.0157141219824553,-0.0286737326532602,-0.0176073312759399,-0.00741963274776936,-0.0209000091999769
769,-0.00970422197133303,-0.0164250247180462,-0.0293296724557877,-0.0202492922544479,-0.00933082681149244,-0.0259052906185389
770,-0.008931047283113,-0.0167286638170481,-0.0296622850000858,-0.0230221673846245,-0.011144520714879,-0.0302248150110245
771,-0.00742169329896569,-0.0155908884480596,-0.0291771739721298,-0.0235229153186083,-0.0120245534926653,-0.0313472114503384
772,-0.00597413675859571,-0.0134614016860724,-0.0280348937958479,-0.0211871787905693,-0.0120175592601299,-0.0292559675872326
773,-0.00561890844255686,-0.0114685446023941,-0.0271756760776043,-0.0180869195610285,-0.0115176877006888,-0.0253905821591616
774,-0.00579471839591861,-0.0093180825933814,-0.027529526501894,-0.0155400093644857,-0.0108595630154014,-0.0200165305286646
775,-0.00540521740913391,-0.00640194304287434,-0.0290847662836313,-0.0140713751316071,-0.0109238037839532,-0.0143292471766472
776,-0.0036784817930311,-0.00267507205717266,-0.0299832187592983,-0.0134501317515969,-0.0121428910642862,-0.0104751158505678
777,-0.000286180817056447,0.00195197225548327,-0.0278860442340374,-0.0120501229539514,-0.0129599217325449,-0.00817854609340429
778,0.00266313645988703,0.00578961428254843,-0.024765495210886,-0.0110114496201277,-0.0133919846266508,-0.006697709672153
779,0.00387602532282472,0.00754995457828045,-0.0233649406582117,-0.0119175184518099,-0.0137236835435033,-0.00621771765872836
780,0.00481772469356656,0.00843226164579391,-0.0228494834154844,-0.0128982989117503,-0.0127565292641521,-0.00650498177856207
781,0.0051838937215507,0.00867217965424061,-0.0233437065035105,-0.0129014970734715,-0.0119547368958592,-0.00800937041640282
782,0.0029717159923166,0.00704667018726468,-0.026490330696106,-0.0134127698838711,-0.0136343007907271,-0.0115273678675294
783,-0.00153733557090163,0.0034625178668648,-0.0307524837553501,-0.0148956021293998,-0.0166423954069614,-0.0172837097197771
784,-0.00498195085674524,0.000504593539517373,-0.0317622944712639,-0.0147391129285097,-0.0175387822091579,-0.0224235393106937
785,-0.00496711814776063,0.000427315186243504,-0.028490113094449,-0.0114773223176599,-0.0147904464974999,-0.0224335975944996
786,-0.00280072237364948,0.00216358830220997,-0.0245982874184847,-0.00744838919490576,-0.010277209803462,-0.0177209842950106
787,-0.00154141895473003,0.00316179427318275,-0.0237333849072456,-0.0060558975674212,-0.00735650816932321,-0.0131567623466253
788,-0.00224724574945867,0.00244857091456652,-0.0256677083671093,-0.00802349578589201,-0.00722127268090844,-0.0120029672980309
789,-0.00240775337442756,0.00211808737367392,-0.0265162996947765,-0.00977965537458658,-0.00705655850470066,-0.0127059165388346
790,-0.000316197314532474,0.003848283784464,-0.0242072250694036,-0.00856738444417715,-0.00485444720834494,-0.0126360123977065
791,0.00234147068113089,0.00636766850948334,-0.0207721740007401,-0.00597248785197735,-0.00229460233822465,-0.0119578344747424
792,0.00349104916676879,0.00756435049697757,-0.0190124306827784,-0.00494302762672305,-0.00151532667223364,-0.012665101327002
793,0.00236949557438493,0.00648954976350069,-0.0203357394784689,-0.00678135035559535,-0.00296484516002238,-0.0158973503857851
794,-5.21031597600086E-06,0.00483547989279032,-0.0234775803983212,-0.00985302589833736,-0.0050406800583005,-0.0187669508159161
795,-0.00245225080288947,0.00441446993499994,-0.0265442784875631,-0.012080897577107,-0.00706770550459623,-0.0175997205078602
796,-0.00596269546076655,0.00378625327721238,-0.0303124506026506,-0.0144388908520341,-0.0113197127357125,-0.0140003338456154
797,-0.0100773191079497,0.00202839286066592,-0.0346368551254272,-0.0177370756864548,-0.0176367312669754,-0.0115243354812264
798,-0.0115932151675224,0.00142566976137459,-0.0363051258027554,-0.0193899124860764,-0.021834334358573,-0.0103651182726026
799,-0.00979540310800076,0.00302255828864872,-0.0338819436728954,-0.0177524741739035,-0.0215341113507748,-0.0101372273638844
800,-0.00649896077811718,0.00542873190715909,-0.0286828447133303,-0.0141018219292164,-0.0172020252794027,-0.0115416394546628
801,-0.00282452045939863,0.00766751077026129,-0.0220373217016459,-0.00960660446435213,-0.00967953354120255,-0.0138176623731852
802,0.000273849873337895,0.00928066484630108,-0.0153971388936043,-0.00437391549348831,-0.00108411279506981,-0.0149389673024416
803,0.00164600147400051,0.0103529477491975,-0.0104748504236341,0.00138759834226221,0.0051609743386507,-0.0132899284362793
804,0.00164452486205846,0.0118887247517705,-0.00794007070362568,0.00594624457880855,0.00734855933114886,-0.00960391014814377
805,0.00123365095350891,0.0137869818136096,-0.00903130043298006,0.00508736586198211,0.00509878247976303,-0.00837597064673901
806,0.00109150656498969,0.0155106317251921,-0.0149742569774389,-0.00327382795512676,-0.000831523386295885,-0.0124661112204194
807,0.00176339200697839,0.0176605805754662,-0.0228696092963219,-0.0140370531007648,-0.00721512781456113,-0.0180596020072699
808,0.00245010294020176,0.0199603121727705,-0.027776325121522,-0.0198925212025642,-0.0110973576083779,-0.0194815453141928
809,0.00212312652729452,0.0211947280913591,-0.0276325792074203,-0.0183704253286123,-0.0115276547148824,-0.0149333095178008
810,0.000557753955945373,0.020991675555706,-0.0242574866861105,-0.0116689754649997,-0.00982566270977259,-0.00702537083998322
811,-0.00139905815012753,0.0205833911895752,-0.0208932217210531,-0.0027006056625396,-0.00843480136245489,0.000571199459955096
812,-0.00242287991568446,0.0209196172654629,-0.0190716199576855,0.00553564028814435,-0.00805435422807932,0.00568152079358697
813,-0.00207634666003287,0.0213121753185987,-0.0171977579593658,0.0101550417020917,-0.0073934686370194,0.00779964821413159
814,-0.000459400995168835,0.0211232155561447,-0.0130205564200878,0.010729543864727,-0.00519037526100874,0.00848801620304585
815,0.00136529060546309,0.0205379016697407,-0.00798852369189262,0.00930050294846296,-0.00284870457835495,0.0111237242817879
816,0.00139435520395637,0.0203785859048367,-0.00653558922931552,0.00753309950232506,-0.00426993146538734,0.0177262593060732
817,-0.000573820725549012,0.0212541297078133,-0.00979746971279383,0.00539937103167176,-0.0103712426498532,0.0252621565014124
818,-0.00282280216924846,0.0227359961718321,-0.0137468846514821,0.00368604529649019,-0.0176972039043903,0.0285350885242224
819,-0.00454300036653876,0.0242746248841286,-0.0148199237883091,0.00395474210381508,-0.023482259362936,0.0259930398315191
820,-0.00555143505334854,0.0259699728339911,-0.0129826124757528,0.00593558140099049,-0.0263335537165403,0.0199831388890743
821,-0.00563339423388243,0.0279596541076899,-0.0102414581924677,0.00787398591637611,-0.0256055258214474,0.0145255569368601
822,-0.00568500999361277,0.0301578734070063,-0.00891116447746754,0.00851034745573998,-0.0235553421080112,0.013360783457756
823,-0.00624750135466456,0.0326302386820316,-0.0094723729416728,0.00830178149044514,-0.0229488201439381,0.0167701225727797
824,-0.00632713828235865,0.035125307738781,-0.0104790655896068,0.0084963645786047,-0.0235917698591948,0.0212674271315336
825,-0.00549667421728373,0.0368033610284328,-0.0113328043371439,0.00919642113149166,-0.0244556665420532,0.0232690013945103
826,-0.00411350885406137,0.0375386886298656,-0.0123222954571247,0.00975307263433933,-0.025245513767004,0.0223438125103712
827,-0.00276077399030328,0.0375872254371643,-0.0132881999015808,0.00937547814100981,-0.0259199663996696,0.0204529892653227
828,-0.00300390901975334,0.0359294936060905,-0.0147718535736203,0.00680235074833035,-0.0274319853633642,0.0187189672142267
829,-0.00653580902144313,0.0312711633741856,-0.0180929638445377,0.00159912090748549,-0.0311929807066917,0.0164522621780634
830,-0.0126257538795471,0.0245910510420799,-0.0228819213807583,-0.00435339566320181,-0.0368004217743874,0.012744196690619
831,-0.0176008567214012,0.0189183447510004,-0.0266620125621557,-0.0079104658216238,-0.0413834825158119,0.00784408859908581
832,-0.0193172693252563,0.0153217678889632,-0.0279691591858864,-0.00831006374210119,-0.0428291782736778,0.00243367603980005
833,-0.0194206293672323,0.0122375758364797,-0.0272930394858122,-0.0071381451562047,-0.0421981066465378,-0.00309131038375199
834,-0.0195241216570139,0.00920395180583,-0.0259230751544237,-0.00592787424102426,-0.0416569411754608,-0.00837655086070299
835,-0.0196388438344002,0.00707415211945772,-0.0261836145073175,-0.00692547438666224,-0.0426172502338886,-0.0126943122595549
836,-0.0197134837508202,0.00604887399822474,-0.0296041630208492,-0.0114657748490572,-0.0453137382864952,-0.0150916380807757
837,-0.0198327396064997,0.00585188297554851,-0.0342486836016178,-0.0177140142768621,-0.0485006496310234,-0.0153131633996964
838,-0.0200543161481619,0.00651319464668632,-0.0363999716937542,-0.0221757907420397,-0.0509506836533546,-0.0131614850834012
839,-0.0202664360404015,0.00789542030543089,-0.0344052202999592,-0.0220776926726103,-0.0520999394357204,-0.00899254344403744
840,-0.020513404160738,0.00879574101418257,-0.0296430457383394,-0.0176537949591875,-0.0508558750152588,-0.00538653926923871
841,-0.0220737420022488,0.00712159369140863,-0.0251711718738079,-0.0130215836688876,-0.0475089624524117,-0.00547142699360847
842,-0.0253854729235172,0.00252126809209585,-0.0230335053056479,-0.0120662022382021,-0.0442238748073578,-0.00907361786812544
843,-0.0283561255782843,-0.00231702579185367,-0.0228775702416897,-0.0142553336918354,-0.0423674508929253,-0.0131421117112041
844,-0.0288070719689131,-0.00446019088849425,-0.0243013165891171,-0.017001073807478,-0.0423953868448734,-0.0166502688080072
845,-0.0259975921362638,-0.00263945804908872,-0.0274460483342409,-0.0185579098761082,-0.0436556339263916,-0.0204720813781023
846,-0.0216518193483353,0.00170812744181603,-0.0312687829136848,-0.0182064920663834,-0.0447234287858009,-0.0232349336147308
847,-0.0194043852388859,0.0048508713953197,-0.033886756747961,-0.0166371632367373,-0.0450842902064323,-0.0224252436310053
848,-0.0200333800166845,0.00520261330530047,-0.033472303301096,-0.0146527364850044,-0.0436845868825912,-0.0181365273892879
849,-0.0207443572580814,0.0044122957624495,-0.0297338087111712,-0.0129851354286075,-0.0393598601222038,-0.0129325399175286
850,-0.02040970697999,0.0036079294513911,-0.0254785194993019,-0.0130743458867073,-0.0351267568767071,-0.00933759286999702
851,-0.0205459725111723,0.00269992649555206,-0.0244230255484581,-0.0149053214117885,-0.0360623896121979,-0.00851909723132849
852,-0.021974103525281,0.00151862401980907,-0.0280774962157011,-0.0178621243685484,-0.0423983670771122,-0.0107262097299099
853,-0.0236552208662033,-0.000125521284644492,-0.0338119901716709,-0.0217447951436043,-0.0489226765930653,-0.0146465478464961
854,-0.0236482061445713,-0.00175875273998827,-0.0358429737389088,-0.0240553244948387,-0.0498436577618122,-0.017670189961791
855,-0.0216375086456537,-0.00291098677553236,-0.0322517938911915,-0.0226187761873007,-0.0449064634740353,-0.0194476060569286
856,-0.0202350858598948,-0.00464662257581949,-0.0277873054146767,-0.0204113963991404,-0.0403823554515839,-0.0221903771162033
857,-0.0203457046300173,-0.0067596253938973,-0.0255623105913401,-0.0204500183463097,-0.0397328324615955,-0.0259013846516609
858,-0.0198334734886885,-0.00733047677204013,-0.0239158440381289,-0.02140405587852,-0.0397243611514568,-0.0283085573464632
859,-0.0180489607155323,-0.00609666993841529,-0.0216316096484661,-0.0213874168694019,-0.0377910174429417,-0.0283790361136198
860,-0.0163832250982523,-0.00422265334054828,-0.0197406020015478,-0.0204235445708036,-0.0353380925953388,-0.0255723781883717
861,-0.0165100432932377,-0.00342349987477064,-0.0199035629630089,-0.0203843973577023,-0.0343866162002087,-0.0201044846326113
862,-0.0179763995110989,-0.00401324080303311,-0.0214640088379383,-0.0217713657766581,-0.0342984534800053,-0.0140975164249539
863,-0.0183616112917662,-0.0044196373783052,-0.0222298540174961,-0.0228834357112646,-0.0331205353140831,-0.00970498099923134
864,-0.0168378092348576,-0.00395571859553456,-0.0216951742768288,-0.0227830782532692,-0.0308682229369879,-0.00722043355926871
865,-0.0146041549742222,-0.00329322787001729,-0.0206823870539665,-0.0216615851968527,-0.0289124883711338,-0.00619827955961227
866,-0.0122537016868591,-0.00270193442702293,-0.0196074731647968,-0.0197567101567984,-0.0272956434637308,-0.00636879121884704
867,-0.0100437309592962,-0.00213555106893182,-0.0188533868640661,-0.017294354736805,-0.0258976425975561,-0.00703068915754557
868,-0.0096353692933917,-0.00258475891314447,-0.019367778673768,-0.0158058404922485,-0.0261140521615744,-0.0088318232446909
869,-0.0110852299258113,-0.00444734608754516,-0.0206483751535416,-0.0165018290281296,-0.0272065531462431,-0.0133032724261284
870,-0.0125196762382984,-0.00676757004112005,-0.0217975303530693,-0.0182613525539637,-0.0272588729858398,-0.0193554013967514
871,-0.0135489404201508,-0.00826340541243553,-0.0230847224593163,-0.0187258217483759,-0.0272800177335739,-0.0231314934790134
872,-0.0141909793019295,-0.00787204969674349,-0.0235026925802231,-0.0164285786449909,-0.0278021972626448,-0.0226903781294823
873,-0.0137001695111394,-0.00632289471104741,-0.0220127031207085,-0.0130777293816209,-0.0270671229809523,-0.0212138295173645
874,-0.012203891761601,-0.00569432834163308,-0.0199684984982014,-0.0117817716673017,-0.0244751628488302,-0.0226958617568016
875,-0.0107043590396643,-0.0066686263307929,-0.0193817038089037,-0.0136065259575844,-0.0216167941689491,-0.0270828437060118
876,-0.00937668606638908,-0.00786503404378891,-0.0210296083241701,-0.0181175917387009,-0.0199782829731703,-0.0315759256482124
877,-0.00787663646042347,-0.00807882472872734,-0.0241995602846146,-0.0240808930248022,-0.0197597742080688,-0.034056294709444
878,-0.00660794088616967,-0.00804266519844532,-0.0272051822394133,-0.0290134716778994,-0.0202728435397148,-0.0344489589333534
879,-0.00529429502785206,-0.00828263070434332,-0.0277021285146475,-0.0301628597080708,-0.0194760914891958,-0.0334690883755684
880,-0.003901511663571,-0.00891673471778631,-0.0255823470652103,-0.0279427338391542,-0.0166591126471758,-0.0332566425204277
881,-0.00423799036070704,-0.0106809353455901,-0.0238707549870014,-0.0253958273679018,-0.014799227938056,-0.035149447619915
882,-0.00671227648854256,-0.0120544703677297,-0.0241721253842115,-0.0229578651487827,-0.0166189149022102,-0.035110030323267
883,-0.0091701652854681,-0.0109092490747571,-0.0259413309395313,-0.0204686168581247,-0.0208982825279236,-0.0299816224724054
884,-0.00928636267781258,-0.00763253076002002,-0.0276153460144997,-0.0190441235899925,-0.0233660433441401,-0.0218653604388237
885,-0.00619563460350037,-0.00321588362567127,-0.0260970145463943,-0.0173686239868402,-0.0202173236757517,-0.013545036315918
886,-0.000759505608584732,0.00119392469059676,-0.019424656406045,-0.0133783835917711,-0.0114949252456427,-0.00722512695938349
887,0.00483070826157928,0.00368944299407303,-0.00986939761787653,-0.00845302175730467,-0.00128717464394867,-0.00477953022345901
888,0.00791638717055321,0.00290833483450115,-0.00261948467232287,-0.00625258544459939,0.00547699630260468,-0.00737729948014021
889,0.00767062325030565,-0.000220945323235355,-0.000790564867202193,-0.00754519691690803,0.00667436420917511,-0.0137484967708588
890,0.00621903734281659,-0.00278821005485952,-0.00241541722789407,-0.00889910943806171,0.0040781507268548,-0.0196557510644197
891,0.00599595857784152,-0.00330085307359695,-0.00344387744553387,-0.00752604100853205,0.00144187861587852,-0.0223396141082048
892,0.00809438247233629,-0.0022161160595715,-0.00147259584628046,-0.00398837588727474,0.00228806142695248,-0.0223463661968708
893,0.0114214792847633,-0.000769713951740414,0.00196941546164453,-0.00126975832972676,0.00633162027224898,-0.0221190750598907
894,0.0132988700643182,9.75287548499182E-05,0.00293437158688903,-0.00156149407848716,0.00888056308031082,-0.0231481939554214
895,0.0126301124691963,0.000754313077777624,-0.000259744207141921,-0.00377696193754673,0.00624926248565316,-0.0240986440330744
896,0.00995894335210323,0.00144695467315614,-0.00633487896993756,-0.00580103788524866,-0.000785700394771993,-0.0224968567490578
897,0.00743213295936584,0.00237646512687206,-0.0112291881814599,-0.00602798210456967,-0.00696486188098788,-0.0172611530870199
898,0.00769144017249346,0.00360662816092372,-0.0108465040102601,-0.00381309865042567,-0.00733136152848601,-0.0112047409638762
899,0.0102575477212667,0.00366784818470478,-0.00607584370300174,-0.00113228091504425,-0.00241788104176521,-0.00910257920622826
900,0.0130352890118957,0.00108653155621141,-0.00104788457974792,-0.0010769177461043,0.00428514601662755,-0.0127455471083522
901,0.0150461923331022,-0.00322705856524408,0.00118934141937643,-0.00404884340241551,0.00967396982014179,-0.0200949031859636
902,0.016478605568409,-0.00632695853710175,0.000519545283168554,-0.00689273001626134,0.0121884625405073,-0.0272946003824472
903,0.0187609978020191,-0.00578551786020398,-0.000550007971469313,-0.00582060357555747,0.0130242956802249,-0.0307236220687628
904,0.0219303742051125,-0.00288605643436313,-3.04116856568726E-05,-0.000779069494456053,0.0143709369003773,-0.0303916614502668
905,0.0238753687590361,-0.00112457654904574,0.001919487840496,0.00465084332972765,0.0169614087790251,-0.029512070119381
906,0.0242791622877121,-0.000821049383375794,0.00456867413595319,0.00841621030122042,0.0202498473227024,-0.0291419979184866
907,0.0239302404224873,-0.000873410899657756,0.00606726808473468,0.00975895207375288,0.0226549077779055,-0.0288017895072699
908,0.0220975037664175,-0.00238201254978776,0.00382408825680614,0.00710235722362995,0.0220569204539061,-0.0294060967862606
909,0.0189472232013941,-0.00510993553325534,-0.000922266743145883,0.00234782649204135,0.0184649433940649,-0.03034389577806
910,0.0165795031934977,-0.00678699230775237,-0.00402924884110689,0.000105318053101655,0.0146126113831997,-0.0296055357903242
911,0.0164838973432779,-0.00643225479871035,-0.00373012176714838,0.00181516713928431,0.013051200658083,-0.0270750280469656
912,0.0181010104715824,-0.00491145718842745,-0.00134674820583314,0.00507047167047858,0.0142575725913048,-0.0249742455780506
913,0.0199647787958384,-0.00367158558219671,0.0011948433239013,0.00711429258808494,0.0173875838518143,-0.0260162055492401
914,0.0205049086362123,-0.00381248211488128,0.00255754543468356,0.00718851806595922,0.0208732504397631,-0.0305868703871965
915,0.0181601271033287,-0.0061445920728147,0.0017710926476866,0.00541709642857313,0.0226475801318884,-0.0369544066488743
916,0.0140722934156656,-0.00931495893746614,0.000185786164365709,0.00345455296337605,0.0230703167617321,-0.0420335717499256
917,0.011296920478344,-0.0105968322604895,0.000667649670504034,0.00362537079490721,0.0247218869626522,-0.0433218143880367
918,0.0106588369235396,-0.00961010344326496,0.00344073842279613,0.00543587142601609,0.0279247257858515,-0.0411166474223137
919,0.0117789730429649,-0.00689056515693665,0.00692644529044628,0.00805383734405041,0.031099883839488,-0.0364979058504105
920,0.0141233112663031,-0.00269440724514425,0.00951999053359032,0.0118911359459162,0.0326342023909092,-0.0303302817046642
921,0.0162662528455257,0.00162465707398951,0.0102399419993162,0.0159384850412607,0.0321687050163746,-0.0239369757473469
922,0.0174436084926128,0.00454914895817637,0.0105846468359232,0.0193493831902742,0.0322817265987396,-0.0192526131868362
923,0.0170984324067831,0.0052705598063767,0.0114040235057473,0.0218996927142143,0.033861618489027,-0.0178793799132109
924,0.014253388158977,0.00397455738857389,0.0101917432621121,0.0220110584050417,0.0336487181484699,-0.0190289840102196
925,0.00965518690645695,0.0021654365118593,0.00682458328083158,0.0198709759861231,0.0305640734732151,-0.0196157284080982
926,0.00561504764482379,0.00108770048245788,0.00549911567941308,0.018824391067028,0.0276088416576386,-0.0173866618424654
927,0.00289896409958601,0.000104272054159082,0.00777056813240051,0.0205185655504465,0.0264779664576054,-0.0134807927533984
928,0.000112330053525511,-0.00183209893293679,0.0105343004688621,0.0230171196162701,0.025481941178441,-0.0106870764866471
929,-0.00305448658764362,-0.00383357959799469,0.0112659083679318,0.0246623232960701,0.0233559366315603,-0.00981822330504656
930,-0.00506323436275125,-0.00435818731784821,0.0103149311617017,0.0256896466016769,0.0211945250630379,-0.00999629963189363
931,-0.00452373828738928,-0.00287309498526156,0.00979915540665388,0.0272302571684122,0.020580030977726,-0.0101772965863347
932,-0.00245227315463126,-0.000737834954634309,0.010482294484973,0.0293463189154863,0.0212146192789078,-0.0105903567746282
933,-0.00223334482870996,-0.00106068956665695,0.0101321674883366,0.0295409113168716,0.0208567231893539,-0.0134666347876191
934,-0.00474367709830403,-0.00444993423298001,0.00763408560305834,0.0260787755250931,0.0189698990434408,-0.0185926035046577
935,-0.00776804238557816,-0.00814192555844784,0.00465148594230413,0.0206957254558802,0.0173617415130138,-0.0216834656894207
936,-0.00955664739012718,-0.00979530811309814,0.00338726816698909,0.0170702170580626,0.0176065340638161,-0.0202366914600134
937,-0.00949830655008554,-0.00904353242367506,0.00493131810799241,0.0176717508584261,0.019789420068264,-0.0156285427510738
938,-0.00827143341302872,-0.00725513836368918,0.00771440239623189,0.0208297893404961,0.0222548954188824,-0.0100290421396494
939,-0.00679265428334475,-0.00614967662841082,0.00968257058411837,0.0232859440147877,0.0241892859339714,-0.00534654408693314
940,-0.00426838593557477,-0.00557113438844681,0.0120931575074792,0.0253433845937252,0.0276716277003288,-0.00197478383779526
941,-0.000153892076923512,-0.00494149513542652,0.0159569755196571,0.0279316827654839,0.0335991941392422,-0.000187873607501388
942,0.00381897343322635,-0.00496554467827082,0.0190085340291262,0.0297664720565081,0.0389184020459652,-0.00118088407907635
943,0.00638509588316083,-0.00549742020666599,0.020565589889884,0.0305970851331949,0.0419880636036396,-0.00374884810298681
944,0.0082747545093298,-0.00529076205566525,0.0229754578322172,0.0318438299000263,0.0451589561998844,-0.00489971553906798
945,0.0102052055299282,-0.0041642664000392,0.0278984848409891,0.0346540585160255,0.0500221773982048,-0.00243379338644445
946,0.0116385305300355,-0.00359324901364744,0.0338355302810669,0.0372749902307987,0.0550114586949348,0.00285641173832119
947,0.0116122281178832,-0.00508462777361274,0.037281695753336,0.0363642908632755,0.0577593632042408,0.00679508177563548
948,0.0109022920951247,-0.00759220076724887,0.0374969132244587,0.0329198278486729,0.0585079975426197,0.00764820026233792
949,0.0118660842999816,-0.00805521197617054,0.0371931716799736,0.0314252600073814,0.0597714968025684,0.00867046043276787
950,0.0153870834037662,-0.00527655286714435,0.0385217852890491,0.0339298397302628,0.0633246600627899,0.0123181771486998
951,0.0195036623626947,-0.00117789208889008,0.0412635654211044,0.0390572622418404,0.0684689059853554,0.0168518852442503
952,0.0210313480347395,0.00112218176946044,0.0436758995056152,0.0441400483250618,0.0721172541379929,0.0190955605357885
953,0.0199254881590605,0.000481427035992965,0.0455329678952694,0.0477739982306957,0.073584608733654,0.0185681823641062
954,0.0191770531237125,-0.00187833153177053,0.0479631721973419,0.0498287230730057,0.0757950618863106,0.0169312302023172
955,0.0196105595678091,-0.0045062443241477,0.0506734326481819,0.0503101795911789,0.0801084041595459,0.0162824615836143
956,0.0203027371317148,-0.00563560146838427,0.0537451580166817,0.0509825460612774,0.0859825685620308,0.0197822134941816
957,0.020626088604331,-0.00469486461952329,0.0576774850487709,0.053731732070446,0.0922702178359032,0.0275247935205698
958,0.0192709639668465,-0.0040936772711575,0.0604435056447983,0.0564735494554043,0.0967175215482712,0.0340029448270798
959,0.0157492011785507,-0.00577428843826056,0.0599198266863823,0.0558524243533611,0.0981373488903046,0.0354100167751312
960,0.0112787000834942,-0.00896939821541309,0.0570791102945805,0.0519644692540169,0.0977273806929588,0.0335625745356083
961,0.00761240301653743,-0.0119296573102474,0.0546786040067673,0.0475535988807678,0.0976512879133224,0.0309772249311209
962,0.00578875886276364,-0.0137828532606363,0.0539211183786392,0.0448059178888798,0.0982538461685181,0.0282946825027466
963,0.00474060792475939,-0.0154710393399,0.0533495470881462,0.0434884801506996,0.0973660424351692,0.025528060272336
964,0.0036733690649271,-0.01737773232162,0.0522806867957115,0.0430784709751606,0.0943997800350189,0.0237111411988735
965,0.00383578334003687,-0.0179760418832302,0.0523772798478603,0.0448887757956982,0.0919230058789253,0.0247666127979755
966,0.00576345529407263,-0.0163816940039396,0.0546959713101387,0.0496049635112286,0.0920931622385979,0.0292018782347441
