,AF3,AF4,Fp1,Fp2,AF7,AF8
0,0.030632583424449,0.0570064447820187,0.0475908406078815,0.401229113340378,0.0247539170086384,0.0456066951155663
1,0.0354253314435482,0.0588491186499596,0.0503536649048328,0.5,0.0259077660739422,0.0282236728817225
2,0.0418594628572464,0.056988138705492,0.050420206040144,0.5,0.0233504865318537,0.0168684180825949
3,0.0480537638068199,0.0531315542757511,0.0481845289468765,0.5,0.0204749684780836,0.0127134630456567
4,0.0522701628506184,0.0518706068396568,0.0453836880624294,0.5,0.0194612145423889,0.0164026785641909
5,0.0542213395237923,0.0524971634149551,0.0447687692940235,0.5,0.019401902332902,0.0264303479343653
6,0.0510910041630268,0.0481413602828979,0.0456416755914688,0.5,0.017923915758729,0.0383233428001404
7,0.0442139431834221,0.041146744042635,0.0482787489891052,0.252001285552979,0.0157806016504765,0.0513557493686676
8,0.0383049510419369,0.0389649868011475,0.0533620938658714,-0.0860463678836823,0.0153182940557599,0.0651255771517754
9,0.0347359254956245,0.0402489230036736,0.0572948306798935,-0.34383961558342,0.016208415850997,0.0732265934348106
10,0.0338311195373535,0.0396214388310909,0.0584999956190586,-0.443369358778,0.0162028018385172,0.0705290883779526
11,0.0352517180144787,0.0344241224229336,0.060025081038475,-0.459773868322372,0.0152454059571028,0.0589129999279976
12,0.0388767085969448,0.0302593559026718,0.0646052360534668,-0.473365843296051,0.0160222109407187,0.0468711778521538
13,0.0444871559739113,0.0356412343680859,0.070892259478569,-0.5,0.0189736559987068,0.0446136072278023
14,0.0481134653091431,0.0428461506962776,0.0732235834002495,-0.5,0.0208861995488405,0.0519140511751175
15,0.0488025061786175,0.0413153171539307,0.070032462477684,-0.5,0.0209703240543604,0.0594304166734219
16,0.0498667620122433,0.0379657745361328,0.0664899572730064,-0.5,0.0217657014727592,0.0626091137528419
17,0.0500760227441788,0.0390140153467655,0.0642400309443474,-0.5,0.0236157272011042,0.0632063299417496
18,0.0472389385104179,0.0408567227423191,0.0614625103771687,-0.5,0.0254115164279938,0.0638848915696144
19,0.0426565557718277,0.038612499833107,0.0595830790698528,-0.5,0.0270263254642487,0.0650539696216583
20,0.0383978597819805,0.0301935505121946,0.06056859344244,-0.120192550122738,0.028285451233387,0.0635620877146721
21,0.0379897393286228,0.0210623722523451,0.0646238625049591,0.154871553182602,0.0304741244763136,0.0591555647552013
22,0.0412092506885529,0.0194326099008322,0.0689707249403,0.283579766750336,0.0360995791852474,0.0580205097794533
23,0.0430758595466614,0.0303476732224226,0.0702937096357346,0.323978185653687,0.045647107064724,0.0662519633769989
24,0.0433155186474323,0.0544425807893276,0.0706876665353775,0.360771179199219,0.0553900822997093,0.0821841657161713
25,0.0427576340734959,0.0797383114695549,0.0712693408131599,0.426952749490738,0.0584244653582573,0.0932666286826134
26,0.040271945297718,0.0886801853775978,0.0695815607905388,0.466736316680908,0.0524497479200363,0.0890853255987167
27,0.0376198999583721,0.0763585567474365,0.0653762146830559,0.427618503570557,0.0418895818293095,0.0727319344878197
28,0.03573914244771,0.0500741377472878,0.0584050491452217,0.291957557201386,0.0308406595140696,0.0514023378491402
29,0.0355233773589134,0.0225133877247572,0.0508436150848866,0.0108048692345619,0.0226125922054052,0.0320018269121647
30,0.0377992913126946,0.00495000137016177,0.0476724915206432,-0.383611619472504,0.0202530678361654,0.021645488217473
31,0.0386678911745548,0.000152869688463397,0.0484705455601215,-0.5,0.0217062514275312,0.0209292732179165
32,0.0371825620532036,0.00386007968336344,0.0512288175523281,-0.5,0.0229012370109558,0.0262989308685064
33,0.0354921668767929,0.00812994129955769,0.0556787960231304,-0.5,0.022960202768445,0.0356433615088463
34,0.0327527076005936,0.00860897731035948,0.0596187114715576,-0.5,0.0226668417453766,0.0474397465586662
35,0.0297894515097141,0.009873834438622,0.0622412003576756,-0.5,0.0232630483806133,0.0587298944592476
36,0.0271122958511114,0.0154826110228896,0.0636373683810234,-0.5,0.0248359031975269,0.0640667751431465
37,0.0240124613046646,0.0230706427246332,0.063773587346077,-0.5,0.0259998720139265,0.0620088614523411
38,0.0221283473074436,0.0296924877911806,0.0640827342867851,-0.5,0.0257796160876751,0.0579661391675472
39,0.0200907178223133,0.0334122180938721,0.0623298510909081,-0.5,0.0232058819383383,0.0555805936455727
40,0.0170697327703238,0.0360302478075027,0.056814331561327,-0.5,0.0194763317704201,0.0551652684807777
41,0.0168776512145996,0.0415805466473103,0.0518854558467865,-0.5,0.0181042216718197,0.0568585358560085
42,0.0195899941027164,0.0498309694230556,0.0496284812688828,-0.5,0.0197002775967121,0.0585844404995441
43,0.0218472070991993,0.0565278194844723,0.0481567606329918,-0.5,0.0217073820531368,0.0571164973080158
44,0.0212597548961639,0.0566445104777813,0.0462531894445419,-0.5,0.0215972624719143,0.0507056042551994
45,0.0179952010512352,0.0474660024046898,0.0440375842154026,-0.5,0.0188540033996105,0.0405742339789867
46,0.0170875303447247,0.0325839482247829,0.0443851016461849,-0.5,0.0161813478916883,0.0326059646904469
47,0.0212213788181543,0.0167226288467646,0.0484865792095661,-0.5,0.0167126469314098,0.0308876857161522
48,0.0281809978187084,0.00242113415151834,0.0532786808907986,-0.5,0.0216526426374912,0.0330688692629337
49,0.0369473733007908,-0.00512413028627634,0.0583097748458385,-0.5,0.0307499822229147,0.0369955860078335
50,0.0439598634839058,-0.00385574530810118,0.0636184066534042,-0.5,0.0410432405769825,0.0417133755981922
51,0.045060258358717,0.00319814565591514,0.0668515637516975,-0.5,0.0496865101158619,0.0464406684041023
52,0.0420652665197849,0.014942473731935,0.0673402473330498,-0.5,0.0557720400393009,0.0523974075913429
53,0.0373757407069206,0.0303940251469612,0.0641681775450706,-0.5,0.0561940707266331,0.0583419650793076
54,0.0330370105803013,0.0474032908678055,0.0582575500011444,-0.5,0.0493943132460117,0.0611309483647347
55,0.0302930567413569,0.0614539422094822,0.0532657168805599,-0.5,0.0387060977518559,0.0593524351716042
56,0.0263791494071484,0.0644246190786362,0.049193624407053,-0.5,0.0271470248699188,0.0530117899179459
57,0.0221417658030987,0.0541646219789982,0.0466730333864689,-0.5,0.0177080295979977,0.0463319681584835
58,0.0201816521584988,0.0370425619184971,0.0478301011025906,-0.5,0.0132503639906645,0.0436108224093914
59,0.0182305835187435,0.0216336939483881,0.0510378777980804,-0.5,0.0134701337665319,0.0443722084164619
60,0.014844679273665,0.014945050701499,0.0552314072847366,-0.5,0.017090929672122,0.0478054247796535
61,0.00912446342408657,0.016095869243145,0.0601705610752106,-0.5,0.0224308185279369,0.0522291213274002
62,0.000322790147038177,0.0197667703032494,0.0645837038755417,-0.5,0.0275258272886276,0.0549633055925369
63,-0.00887287501245737,0.0240037217736244,0.0680077821016312,-0.5,0.0318096987903118,0.0542396157979965
64,-0.0176464896649122,0.0281874127686024,0.0673144161701202,-0.5,0.0335055887699127,0.047537487000227
65,-0.0261141937226057,0.0325076095759869,0.0605956427752972,-0.5,0.0310786943882704,0.0350814387202263
66,-0.0322244763374329,0.0357062369585037,0.0536803230643272,-0.5,0.0269248243421316,0.0207780357450247
67,-0.035468801856041,0.0340048372745514,0.0518149584531784,-0.5,0.0237521678209305,0.00942043121904135
68,-0.0361759960651398,0.0270248670130968,0.0546354912221432,-0.5,0.0227038729935884,0.0068014208227396
69,-0.0359207801520824,0.0169952232390642,0.0591867603361607,-0.5,0.0239388514310122,0.0142875947058201
70,-0.0372116453945637,0.00561263412237167,0.0617934875190258,-0.5,0.0261038728058338,0.0252912528812885
71,-0.0394418574869633,-0.00245880428701639,0.0626129657030106,-0.5,0.0279192309826612,0.0325022451579571
72,-0.042818658053875,-0.00420272257179022,0.0631669089198112,-0.5,0.0280613116919994,0.0324395745992661
73,-0.0486429333686829,-0.00314325094223022,0.0628772377967834,-0.5,0.025659091770649,0.0266392678022385
74,-0.0528941564261913,-0.00165316450875252,0.0637398734688759,-0.5,0.0230246558785439,0.0236300677061081
75,-0.053369402885437,0.000507630757056177,0.06605364382267,-0.5,0.021794518455863,0.0290571432560682
76,-0.0529598295688629,0.00390244019217789,0.066938191652298,-0.5,0.021077724173665,0.0380356982350349
77,-0.0523972623050213,0.00887270271778107,0.0667358487844467,-0.5,0.0214473959058523,0.0444131530821323
78,-0.0521097704768181,0.0120791867375374,0.0655911937355995,-0.5,0.0229557976126671,0.0467614531517029
79,-0.0511672906577587,0.0113450521603227,0.064004547894001,-0.5,0.0248996410518885,0.046709667891264
80,-0.0473648831248283,0.00726574193686247,0.0639364719390869,-0.5,0.0276319123804569,0.0446981005370617
81,-0.0425063483417034,-0.000270542979706079,0.0641352310776711,-0.5,0.0300843100994825,0.0390380136668682
82,-0.0380293168127537,-0.00590478582307696,0.0651464909315109,-0.5,0.0311683900654316,0.0323742963373661
83,-0.0361408740282059,-0.00431573623791337,0.0674724131822586,-0.5,0.0306802410632372,0.0281221605837345
84,-0.0404515713453293,0.00108765391632915,0.0661299601197243,-0.5,0.0283030439168215,0.0250625181943178
85,-0.0479048453271389,0.00591007666662335,0.0596421621739864,-0.5,0.0249492395669222,0.0233823135495186
86,-0.0539679750800133,0.00810441188514233,0.0520552210509777,-0.5,0.0215807687491179,0.0245434306561947
87,-0.0572272576391697,0.00908708851784468,0.0472214743494987,-0.5,0.0191298108547926,0.0288074798882008
88,-0.0561965070664883,0.0146549483761191,0.0471779964864254,-0.5,0.0185627564787865,0.0357620716094971
89,-0.053658951073885,0.0253176782280207,0.0493148826062679,-0.5,0.0178417060524225,0.040146742016077
90,-0.0528792701661587,0.0331917405128479,0.0510697178542614,-0.5,0.0157478116452694,0.0363612212240696
91,-0.0511937960982323,0.0314124077558517,0.054648369550705,-0.5,0.0155705315992236,0.0278467759490013
92,-0.0467572398483753,0.0215218905359507,0.0600610189139843,-0.5,0.018623573705554,0.0225678104907274
93,-0.0398226864635944,0.0120502831414342,0.0649680867791176,-0.5,0.0229069851338863,0.0246702171862125
94,-0.0317120254039764,0.00939315930008888,0.0686093494296074,-0.5,0.0269317142665386,0.0326099917292595
95,-0.0255748964846134,0.011731150560081,0.0703810304403305,-0.5,0.0297967344522476,0.0418872460722923
96,-0.0201768558472395,0.0126719148829579,0.0723659172654152,-0.5,0.0333880819380283,0.0499818623065948
97,-0.0144622009247541,0.00593110360205173,0.0758292898535728,-0.5,0.0402441173791885,0.0541775822639465
98,-0.011918636970222,-0.00807250197976828,0.0778131484985352,-0.5,0.0483678951859474,0.0513292551040649
99,-0.0114921312779188,-0.0193362925201654,0.0793512314558029,-0.5,0.0548189803957939,0.0439355932176113
100,-0.0101644229143858,-0.0219121854752302,0.0822272077202797,-0.5,0.0583233200013638,0.0362897366285324
101,-0.0080584054812789,-0.0199589803814888,0.0834603011608124,-0.5,0.058950636535883,0.0300071835517883
102,-0.0060859308578074,-0.0181671306490898,0.081411249935627,-0.5,0.0584808066487312,0.0257985331118107
103,-0.00661625480279326,-0.0178709588944912,0.0766986384987831,-0.5,0.0571177415549755,0.0237949676811695
104,-0.0083512719720602,-0.0161698162555695,0.0728190019726753,-0.5,0.0544286407530308,0.0269563719630241
105,-0.00840298552066088,-0.0116485999897122,0.0723906680941582,-0.5,0.0500012002885342,0.0368207693099976
106,-0.00949391722679138,-0.00843573920428753,0.0712810605764389,-0.5,0.0420176796615124,0.0454985201358795
107,-0.0115153416991234,-0.00578499911352992,0.0678636133670807,-0.5,0.0318743586540222,0.0471804291009903
108,-0.0119640501216054,0.000503975432366133,0.0649441257119179,-0.5,0.0230736900120974,0.0454515665769577
109,-0.0122481975704432,0.0111131416633725,0.0626164376735687,-0.5,0.0163831580430269,0.0437293276190758
110,-0.013143403455615,0.0253420677036047,0.0606609880924225,-0.5,0.0112852025777102,0.0445335172116756
111,-0.0155700193718076,0.0369858890771866,0.0589443743228912,-0.5,0.00733984028920531,0.0499061867594719
112,-0.0187072493135929,0.0392302721738815,0.0569263957440853,-0.5,0.00511948671191931,0.0561681240797043
113,-0.0185473542660475,0.0332845635712147,0.0555748529732227,-0.5,0.00561462622135878,0.0583055056631565
114,-0.0152871990576386,0.0217912960797548,0.0547411441802979,-0.5,0.00798592530190945,0.0556025058031082
115,-0.00960167124867439,0.0113166617229581,0.0552215501666069,-0.5,0.0126482080668211,0.0511403530836105
116,-0.000730824074707925,0.0112258931621909,0.0590869523584843,-0.398836433887482,0.0204960852861404,0.0473682172596455
117,0.00698386086151004,0.0178819503635168,0.0631955340504646,-0.176352828741074,0.0279390532523394,0.0426440127193928
118,0.0106727303937078,0.0215206742286682,0.0643149688839912,-0.0199006479233503,0.0318642482161522,0.0378732644021511
119,0.0123327486217022,0.0201430059969425,0.0635309889912605,0.0554947853088379,0.0333263128995895,0.0372079610824585
120,0.0124211888760328,0.0168017633259296,0.060750674456358,0.0596229508519173,0.032783467322588,0.0398191027343273
121,0.01141516584903,0.0163624435663223,0.0566106475889683,0.0158122051507235,0.0295852515846491,0.0425483249127865
122,0.00937859900295734,0.0187541134655476,0.0520978309214115,-0.0485516004264355,0.0240578223019838,0.0432019270956516
123,0.00508010713383555,0.0200587939471006,0.0456514731049538,-0.12492173910141,0.0177360512316227,0.0405459962785244
124,0.000431621359894052,0.0195346809923649,0.0390413552522659,-0.196826338768005,0.0133595857769251,0.0390001460909843
125,-0.00321152550168335,0.0152781344950199,0.0357054062187672,-0.230761364102364,0.0124315423890948,0.0431460328400135
126,-0.00587505102157593,0.0087514091283083,0.0360632203519344,-0.29076623916626,0.0151963736861944,0.050651028752327
127,-0.00590013107284904,0.00379738793708384,0.0396441742777824,-0.493327915668488,0.0219755321741104,0.0556213594973087
128,-0.00451305508613586,-0.0025314255617559,0.0441164448857307,-0.5,0.0308581329882145,0.0537375845015049
129,-0.00320152565836906,-0.0101277576759458,0.0488539896905422,-0.5,0.0403980612754822,0.0481138527393341
130,-0.0018111631507054,-0.0154016334563494,0.055266410112381,-0.5,0.0503154247999191,0.043609581887722
131,-0.00261772819794714,-0.0199024863541126,0.060311883687973,-0.5,0.0565763153135777,0.0395958758890629
132,-0.00408494845032692,-0.0232503898441792,0.0628212243318558,-0.5,0.0555167272686958,0.0360223092138767
133,-0.00361929996870458,-0.0229618512094021,0.0647032111883163,-0.5,0.0476646237075329,0.0332794263958931
134,-0.00394681049510837,-0.0174498502165079,0.0646657273173332,-0.5,0.0363067798316479,0.0312803536653519
135,-0.00537664536386728,-0.00569827342405915,0.0627105608582497,-0.5,0.0268221944570541,0.0322918966412544
136,-0.00621009431779385,0.00635094614699483,0.0601636953651905,-0.5,0.0214799176901579,0.0349398925900459
137,-0.0050962558016181,0.0125438971444964,0.0581386089324951,-0.290805071592331,0.0192262753844261,0.0360208079218864
138,-0.000142979581141844,0.0142268696799874,0.0588314309716225,-0.215215474367142,0.0196528099477291,0.0373030789196491
139,0.00550727406516671,0.0120989233255386,0.0597854889929295,-0.333350509405136,0.0205304566770792,0.0404378361999989
140,0.00885049998760223,0.00649920199066401,0.057993970811367,-0.482215017080307,0.0206138473004103,0.0445655845105648
141,0.0122904721647501,0.000950691406615078,0.0558631122112274,-0.481693923473358,0.0219702292233706,0.0478314608335495
142,0.0165011379867792,-0.00317064602859318,0.0538406185805798,-0.364179641008377,0.0245183184742928,0.0465442501008511
143,0.0205826740711927,-0.00560667272657156,0.0510158576071262,-0.307054430246353,0.0269598327577114,0.0403281077742577
144,0.0235440563410521,-0.00554297072812915,0.0492946021258831,-0.320759057998657,0.0289892498403788,0.0338861346244812
145,0.0233798306435347,-0.00304973847232759,0.0496597215533257,-0.282423585653305,0.0299429334700108,0.0314959920942783
146,0.0217592045664787,0.00377896940335631,0.052180852741003,-0.162126272916794,0.0306075401604176,0.0352446101605892
147,0.0199821218848228,0.014975001104176,0.0541759915649891,-0.0235298983752728,0.0313918367028236,0.0427402220666409
148,0.016164368018508,0.0261079743504524,0.0502557680010796,0.0849660634994507,0.0299755297601223,0.05102763697505
149,0.0122450683265924,0.0323801971971989,0.041664469987154,0.124767124652863,0.0266538318246603,0.0634181872010231
150,0.0105836344882846,0.0294121708720922,0.0341468043625355,0.0691848024725914,0.0244133826345205,0.0795481652021408
151,0.0113476011902094,0.0181805081665516,0.0301309507340193,-0.0137494383379817,0.0237045213580132,0.0881795510649681
152,0.0149997659027576,0.00512646324932575,0.0296078864485025,0.00222966680303216,0.0235871914774179,0.0788351371884346
153,0.0194242149591446,-0.00497885886579752,0.0316531769931316,0.176581412553787,0.0247455723583698,0.0541699416935444
154,0.0248094778507948,-0.00741598941385746,0.037405613809824,0.432106405496597,0.0303853116929531,0.0294976830482483
155,0.0331779941916466,-0.0014819762436673,0.0466432236135006,0.5,0.0412437841296196,0.016813775524497
156,0.0399155803024769,0.00410732999444008,0.052803672850132,0.5,0.0518148019909859,0.014257000759244
157,0.0418496131896973,0.00521388277411461,0.0532963983714581,0.5,0.0584799945354462,0.0186320673674345
158,0.0410130806267262,0.00580032449215651,0.0520253404974937,0.5,0.0623479261994362,0.03079454600811
159,0.0378939099609852,0.0078304260969162,0.0507450550794601,0.5,0.0640111044049263,0.0466657243669033
160,0.0342191904783249,0.0111455554142594,0.050558228045702,0.332611054182053,0.0643318668007851,0.0601519383490086
161,0.0318713746964931,0.0132983159273863,0.0516000874340534,0.0888388901948929,0.0646092295646667,0.0671197175979614
162,0.0307540819048882,0.0128061920404434,0.0517130568623543,-0.164454162120819,0.0646197348833084,0.0657515600323677
163,0.0322547554969788,0.00970371346920729,0.0506497286260128,-0.356207400560379,0.0633439421653748,0.0596144497394562
164,0.035704243928194,0.000591688440181315,0.0480829179286957,-0.426163733005524,0.0602416396141052,0.0520431958138943
165,0.0397530235350132,-0.0134387258440256,0.0441913194954395,-0.362403303384781,0.0573361553251743,0.0434360541403294
166,0.0455148443579674,-0.0236735139042139,0.0418634414672852,-0.232217147946358,0.0573715008795261,0.0352673828601837
167,0.0504329912364483,-0.0259891729801893,0.0404213629662991,-0.157069995999336,0.0584003590047359,0.0288319233804941
168,0.0522209815680981,-0.0229049772024155,0.0372243709862232,-0.194904461503029,0.0570431686937809,0.0260032583028078
169,0.0534785501658916,-0.0160451531410217,0.0331618301570416,-0.2467390447855,0.0541704334318638,0.0312698297202587
170,0.0545606873929501,-0.00585273746401072,0.0292064975947142,-0.181876495480537,0.0513559281826019,0.0454413332045078
171,0.0539629049599171,0.00598215125501156,0.0265453513711691,-0.00578755140304565,0.0488394014537334,0.0606091618537903
172,0.0507637336850166,0.0129513582214713,0.0257599148899317,0.158843025565147,0.0469659715890884,0.066281683743
173,0.0450073480606079,0.00806653685867786,0.0251717921346426,0.192553371191025,0.046153262257576,0.0596729554235935
174,0.0408813506364822,-0.00432053254917264,0.02693210542202,0.098049059510231,0.047910962253809,0.0487668402493
175,0.0406345278024673,-0.0150354076176882,0.0328700691461563,-0.0168573930859566,0.0524445697665215,0.0423338413238525
176,0.0421027131378651,-0.0200794916599989,0.0397692061960697,-0.0529936254024506,0.0575926899909973,0.0422771349549294
177,0.0437537170946598,-0.0188955515623093,0.0447498261928558,0.00940919574350119,0.0609446093440056,0.045920804142952
178,0.0434596166014671,-0.0155128361657262,0.0440252274274826,0.137694478034973,0.0593487769365311,0.0481381453573704
179,0.0424923561513424,-0.0130625404417515,0.0368512123823166,0.321479171514511,0.0538802295923233,0.0463233888149261
180,0.0443183667957783,-0.00980386976152658,0.0283660534769297,0.5,0.0508865639567375,0.041548240929842
181,0.0460389405488968,-0.0043410686776042,0.0209395047277212,0.5,0.0521763823926449,0.0349854379892349
182,0.0459848269820213,0.00459222262725234,0.0158438496291637,0.5,0.0547467432916164,0.0310680773109198
183,0.046280924230814,0.0141112692654133,0.014717860147357,0.5,0.0561844110488892,0.0342907831072807
184,0.0464309528470039,0.0196283403784037,0.0158893968909979,0.5,0.0554755702614784,0.0438357591629028
185,0.0468195155262947,0.0239674132317305,0.018468813970685,0.5,0.054009597748518,0.0574932657182217
186,0.0469726622104645,0.0291906706988811,0.020830824971199,0.5,0.0524868853390217,0.0705179199576378
187,0.0460109524428844,0.0319320857524872,0.0206880923360586,0.5,0.0505998730659485,0.0774568989872932
188,0.0470544584095478,0.0306716673076153,0.0205389074981213,0.429830014705658,0.0496441721916199,0.0797396898269653
189,0.0489337928593159,0.0251651927828789,0.0204764287918806,0.404256135225296,0.0479251183569431,0.080812394618988
190,0.0476076975464821,0.0166676193475723,0.0178749151527882,0.35898831486702,0.042961411178112,0.0814811736345291
191,0.0447232015430927,0.0103077823296189,0.0142731722444296,0.292772710323334,0.0369883514940739,0.0807508081197739
192,0.0423595234751701,0.00726820481941104,0.0101153356954455,0.322458505630493,0.0317742824554443,0.0721081271767616
193,0.0405096150934696,0.00233961339108646,0.00576600711792707,0.5,0.0273323003202677,0.0505260527133942
194,0.0385194085538387,-0.00818383414298296,0.00433078082278371,0.5,0.0248830243945122,0.0222496036440134
195,0.0361036248505116,-0.0217192713171244,0.00700381863862276,0.5,0.0251836590468884,-0.000886895402800292
196,0.0373415388166904,-0.029594698920846,0.0148566951975226,0.5,0.0293472018092871,-0.00919835083186626
197,0.0429475344717503,-0.0276009440422058,0.0260025858879089,0.5,0.0372362285852432,-0.00260407105088234
198,0.0467855632305145,-0.0215307828038931,0.0336285904049873,0.5,0.0449403673410416,0.00973610300570726
199,0.047657884657383,-0.0160059481859207,0.036315031349659,0.5,0.0499779470264912,0.022148871794343
200,0.0478730946779251,-0.0121339922770858,0.036254245787859,0.5,0.0523256063461304,0.0331749059259892
201,0.0486969761550426,-0.0102143278345466,0.0335900820791721,0.5,0.0521910674870014,0.0411763191223145
202,0.0526175387203693,-0.00825577322393656,0.0301684848964214,0.5,0.0511984266340733,0.0467239953577518
203,0.0582581460475922,-0.00637115491554141,0.0267616603523493,0.5,0.0507927499711514,0.0499836429953575
204,0.0627366527915001,-0.00483695743605495,0.0234569851309061,0.5,0.0519870556890965,0.0510876141488552
205,0.0655122026801109,-0.00256363884545863,0.021539120003581,0.5,0.0544583685696125,0.0514001399278641
206,0.0645550489425659,-0.000867286522407085,0.0191616509109735,0.5,0.0547832921147347,0.0499611459672451
207,0.0611562542617321,0.00162066542543471,0.0163749512284994,0.5,0.0519374758005142,0.047714177519083
208,0.0582844950258732,0.00575225194916129,0.0164987556636333,0.5,0.0483632609248161,0.0463250577449799
209,0.0544164963066578,0.00948211830109358,0.0187624543905258,0.5,0.044973611831665,0.0445657484233379
210,0.0491973981261253,0.0163918044418097,0.0200299490243196,0.5,0.0414268337190151,0.0452502034604549
211,0.0447332225739956,0.0282021015882492,0.0177691597491503,0.5,0.037809357047081,0.0506242364645004
212,0.0444352515041828,0.0379197932779789,0.0122714675962925,0.5,0.0356566645205021,0.0556769482791424
213,0.0499791949987412,0.0385172106325626,0.00908400304615498,0.5,0.0373019464313984,0.0554904602468014
214,0.054919209331274,0.0294862054288387,0.0110466545447707,0.5,0.0424063988029957,0.0491793230175972
215,0.0548691190779209,0.0203846972435713,0.0157647021114826,0.5,0.0489822663366795,0.0398063585162163
216,0.0538269504904747,0.0190594736486673,0.0211495161056519,0.5,0.0558418557047844,0.032738134264946
217,0.0534799620509148,0.0175863578915596,0.0243676844984293,0.5,0.0618430115282536,0.0301875881850719
218,0.0532626174390316,0.00848136935383081,0.0237314458936453,0.5,0.0665781125426292,0.030703766271472
219,0.0537138357758522,-0.00449287332594395,0.0210050977766514,0.5,0.0705287009477615,0.0318901836872101
220,0.0538840219378471,-0.0160706657916307,0.0187154598534107,0.5,0.0732086077332497,0.0347362868487835
221,0.0542153529822826,-0.0220930296927691,0.019677447155118,0.5,0.0738226398825645,0.0446023792028427
222,0.054841872304678,-0.0240187216550112,0.023127069696784,0.5,0.07234226167202,0.0599187798798084
223,0.0543335229158401,-0.0273816157132387,0.0243647936731577,0.5,0.0694873780012131,0.0720179975032806
224,0.0543277487158775,-0.029215507209301,0.0233219135552645,0.5,0.0674871578812599,0.0775717422366142
225,0.0543538220226765,-0.0249054227024317,0.0220541935414076,0.5,0.0677118226885796,0.0746981203556061
226,0.0516841746866703,-0.0170647036284208,0.0201393626630306,0.5,0.0700490400195122,0.0619800910353661
227,0.0476218834519386,-0.00820897240191698,0.0180174000561237,0.5,0.0741275399923325,0.0454473271965981
228,0.0434965118765831,-0.000462613679701462,0.0155520783737302,0.5,0.0771276652812958,0.0322443917393684
229,0.0410811938345432,0.00397155899554491,0.0139549719169736,0.496879607439041,0.077550083398819,0.0273405816406012
230,0.0427478924393654,0.00427044276148081,0.0149593595415354,0.423076152801514,0.0771715044975281,0.0323656909167767
231,0.0467638075351715,-0.000889713875949383,0.015710661187768,0.35578516125679,0.0761135742068291,0.0410909131169319
232,0.0521277002990246,-0.00782001670449972,0.0164929702877998,0.329774171113968,0.0752493664622307,0.0458075404167175
233,0.057710662484169,-0.0113213984295726,0.0204427614808083,0.476738274097443,0.0761122182011604,0.0424995459616184
234,0.0598293766379356,-0.0118466736748815,0.0243654791265726,0.5,0.0763817504048347,0.0310637895017862
235,0.0587646067142487,-0.00961205922067165,0.0249612648040056,0.5,0.0742972567677498,0.0175780225545168
236,0.0560021959245205,-0.00635054940357804,0.0238154288381338,0.5,0.0710898414254189,0.00917751342058182
237,0.0519267953932285,-0.00511952256783843,0.0239523071795702,0.5,0.0681213289499283,0.00789413321763277
238,0.0486660860478878,-0.00466400245204568,0.0267394986003637,0.5,0.0665520280599594,0.0112539818510413
239,0.0452603399753571,-0.00448942836374044,0.027032433077693,0.5,0.0651370584964752,0.0146379051730037
240,0.040270060300827,-0.002697799121961,0.0201272666454315,0.5,0.0612073093652725,0.0161831490695477
241,0.0368416123092175,0.00462141446769238,0.0108912046998739,0.5,0.0558146499097347,0.0184610560536385
242,0.0364138036966324,0.0126053337007761,0.00467868568375707,0.5,0.0515848509967327,0.0235209576785564
243,0.036890771239996,0.0145157519727945,0.00222018384374678,0.5,0.0495373122394085,0.0302984770387411
244,0.0360111333429813,0.0119257736951113,0.00360417575575411,0.5,0.0503684021532536,0.0352295525372028
245,0.0333215892314911,0.00731904245913029,0.00737597327679396,0.5,0.0539737716317177,0.0347694717347622
246,0.0309071112424135,0.00253876554779708,0.0125369662418962,0.5,0.0590133331716061,0.0299941431730986
247,0.0283818226307631,-0.00113718886859715,0.0187914706766605,0.5,0.0634576007723808,0.0246809627860785
248,0.0239630471915007,-0.00423518568277359,0.0250243712216616,0.5,0.0660523846745491,0.0217499975115061
249,0.0206694174557924,-0.00392527645453811,0.0327431224286556,0.5,0.0679773241281509,0.0232034884393215
250,0.0197037328034639,0.000766812183428556,0.0417130999267101,0.5,0.0695047453045845,0.0280572287738323
251,0.0179294608533382,0.00606762571260333,0.0480220913887024,0.5,0.0688371807336807,0.0362258478999138
252,0.0143870739266276,0.00991666316986084,0.0508328154683113,0.5,0.0655125752091408,0.0490272678434849
253,0.00951346289366484,0.0101132858544588,0.0503563657402992,0.5,0.0605397261679173,0.0602165050804615
254,0.00736931059509516,0.00714558875188231,0.0466574430465698,0.5,0.0566555820405483,0.0640346556901932
255,0.011143478564918,0.00756695074960589,0.0401378683745861,0.5,0.0544099994003773,0.0657308772206306
256,0.0133817195892334,0.0130351288244128,0.0299433954060078,0.5,0.0495809838175774,0.0697289183735847
257,0.00889695901423693,0.0178959146142006,0.0208968985825777,0.5,0.0426409058272839,0.0714188888669014
258,0.0017259499290958,0.0161414630711079,0.0196227300912142,0.5,0.0393033400177956,0.0629954636096954
259,-0.00515330769121647,0.00630513345822692,0.0237010512501001,0.5,0.0404817163944244,0.0418450646102428
260,-0.010064379312098,-0.0056123691610992,0.0273864679038525,0.5,0.0420731380581856,0.0159873105585575
261,-0.0123060951009393,-0.0144058298319578,0.0281405169516802,0.5,0.0410342551767826,-0.00157052557915449
262,-0.012147662229836,-0.0196227934211493,0.0272478144615889,0.5,0.0382161512970924,-0.0033595145214349
263,-0.00871657859534025,-0.0203576348721981,0.0283983815461397,0.5,0.0365055315196514,0.00777902966365218
264,-0.00447983806952834,-0.0174576342105865,0.0311308763921261,0.5,0.0365814454853535,0.0215166360139847
265,-0.00176851789001375,-0.0124112870544195,0.0337263867259026,0.5,0.0381085127592087,0.0310311205685139
266,0.00153217627666891,-0.00440181139856577,0.0380825512111187,0.5,0.0416440516710281,0.0378267988562584
267,0.00512343924492598,0.00618711905553937,0.0425678305327892,0.5,0.0452613569796085,0.0440959334373474
268,0.00745283951982856,0.017913606017828,0.0432281754910946,0.5,0.0469778031110764,0.0483470447361469
269,0.0087399585172534,0.0260901153087616,0.0394233539700508,0.5,0.0470653064548969,0.0473562814295292
270,0.00864937528967857,0.0249652042984962,0.0323295779526234,0.5,0.045298732817173,0.0410739034414291
271,0.0095494668930769,0.0170670635998249,0.0260952487587929,0.5,0.0429875701665878,0.0372019596397877
272,0.012765702791512,0.00679782778024673,0.0232435129582882,0.5,0.0418600924313068,0.0399176888167858
273,0.0153558785095811,-0.00389420730061829,0.0216920804232359,0.5,0.0417149588465691,0.0412813015282154
274,0.0179090555757284,-0.00838987156748772,0.0228586327284575,0.5,0.0435916930437088,0.0355460457503796
275,0.0214462913572788,-0.00422056345269084,0.028632789850235,0.5,0.0481978394091129,0.0255285073071718
276,0.0237639453262091,0.00154467881657183,0.0359642803668976,0.5,0.0538522340357304,0.0159240234643221
277,0.0239078179001808,0.00433507282286882,0.0410652570426464,0.5,0.0581646002829075,0.00897755846381187
278,0.0206530448049307,0.00351235829293728,0.0404595173895359,0.5,0.0579609759151936,0.00184338644612581
279,0.0157266575843096,0.002211500890553,0.0351895354688168,0.157817646861076,0.0527282282710075,-0.00708818295970559
280,0.0142125384882092,0.00576884532347322,0.0308670103549957,-0.261530488729477,0.04678625613451,-0.0124429669231176
281,0.0165515262633562,0.0127639835700393,0.0297691151499748,-0.5,0.0439497828483582,-0.00835754070430994
282,0.0216984506696463,0.0196576006710529,0.0327400006353855,-0.5,0.0448587536811829,0.0043203616514802
283,0.0281339213252068,0.0241892635822296,0.0389281883835793,-0.5,0.0467519611120224,0.0169687997549772
284,0.0318180173635483,0.0243371743708849,0.0440899580717087,-0.45951521396637,0.0469732098281384,0.0229616425931454
285,0.0327745005488396,0.0219931527972221,0.0475846342742443,0.0252997688949108,0.0480967350304127,0.0267478208988905
286,0.0336679592728615,0.0186618771404028,0.0498430617153645,0.278271049261093,0.0517385639250278,0.0333124771714211
287,0.0364359207451344,0.0149697912856936,0.0500225424766541,0.162649005651474,0.0553178153932095,0.0390582680702209
288,0.0416788458824158,0.0147090489044786,0.0505872368812561,-0.141608566045761,0.0568112805485725,0.039709459990263
289,0.045022290199995,0.0179908461868763,0.0522448159754276,-0.421951293945313,0.0544035844504833,0.0341809391975403
290,0.0444552637636662,0.0215914081782103,0.0534329153597355,-0.5,0.048651248216629,0.0249570775777102
291,0.0440356507897377,0.0260344911366701,0.0543258488178253,-0.5,0.0431611761450768,0.0202724914997816
292,0.044055700302124,0.0321613810956478,0.0523181706666946,-0.5,0.0376921333372593,0.0241902451962233
293,0.0426541306078434,0.0378529466688633,0.0461640171706676,-0.5,0.0303665716201067,0.0297796800732613
294,0.040252510458231,0.0392366535961628,0.0409469045698643,-0.5,0.0236228872090578,0.0290523637086153
295,0.0371387489140034,0.0347772911190987,0.0409013517200947,-0.5,0.0206912774592638,0.021536223590374
296,0.0357906334102154,0.0286596529185772,0.0472714565694332,-0.285123616456985,0.0229012686759233,0.0130119379609823
297,0.03660848736763,0.0249614659696817,0.0557783097028732,0.178129658102989,0.0284996256232262,0.00660411780700088
298,0.036160483956337,0.024760540574789,0.0575783550739288,0.5,0.0337630063295364,-0.000560241576749831
299,0.0367348380386829,0.0273543782532215,0.051964245736599,0.5,0.0387349836528301,-0.00913262460380793
300,0.0411388836801052,0.0274591781198978,0.0446846783161163,0.5,0.0439937599003315,-0.0175837278366089
301,0.0466586835682392,0.022381404414773,0.0387233570218086,0.5,0.0455023869872093,-0.02484380453825
302,0.0517488494515419,0.0177331436425447,0.03556052967906,0.5,0.0403360836207867,-0.0271063074469566
303,0.0535045936703682,0.0184328034520149,0.0351477898657322,0.5,0.0308734737336636,-0.0198706965893507
304,0.0495155826210976,0.025267705321312,0.0374178513884544,0.5,0.0230169147253037,-0.00226274994201958
305,0.0428688302636147,0.0357157550752163,0.0421273969113827,0.5,0.0206259433180094,0.0163099057972431
306,0.0352357923984528,0.0441609583795071,0.0444775708019733,0.406815856695175,0.0203730203211308,0.0219177417457104
307,0.028856573626399,0.0489492416381836,0.0424310714006424,0.063474602997303,0.0190091840922832,0.0154186701402068
308,0.0270927213132381,0.0513380467891693,0.0402511842548847,-0.190236449241638,0.0189692191779613,0.00943453516811132
309,0.0284709203988314,0.0512362234294415,0.0405475758016109,-0.419330656528473,0.0216930937021971,0.0129738496616483
310,0.0311968009918928,0.0515968464314938,0.0429953709244728,-0.5,0.0256070513278246,0.025334432721138
311,0.0343111529946327,0.0562796071171761,0.0454956628382206,-0.5,0.0286804363131523,0.0349108874797821
312,0.0369898080825806,0.0650711804628372,0.046340137720108,-0.5,0.0293959565460682,0.0312589108943939
313,0.0400494150817394,0.0731978341937065,0.0473602376878262,-0.5,0.0284046605229378,0.0165786910802126
314,0.0415863208472729,0.0744204446673393,0.049067534506321,-0.47900328040123,0.0269079525023699,-0.00157598103396595
315,0.040385540574789,0.0697968676686287,0.0501427166163921,-0.150069281458855,0.0250369273126125,-0.0171018652617931
316,0.0403426736593246,0.0645317286252975,0.0516593009233475,0.101565226912498,0.0233728587627411,-0.0255220402032137
317,0.0425103940069675,0.0574108883738518,0.0534582287073135,0.137924909591675,0.0221655089408159,-0.0269256103783846
318,0.0440078936517239,0.046922791749239,0.0546553321182728,-0.0683968290686607,0.0204629749059677,-0.024068258702755
319,0.0432522520422935,0.0379964411258698,0.0565171353518963,-0.407814383506775,0.0179813038557768,-0.0185960307717323
320,0.0402298755943775,0.0372113175690174,0.0587948113679886,-0.5,0.0162044875323772,-0.012748540379107
321,0.03917445987463,0.0463814474642277,0.0616626851260662,-0.5,0.0188431385904551,-0.0079036932438612
322,0.0436517409980297,0.0566831901669502,0.0657690986990929,-0.5,0.0274657364934683,-0.00415041577070951
323,0.050275132060051,0.0599616207182407,0.0683874934911728,-0.5,0.0371953174471855,-0.0025701483245939
324,0.0561344139277935,0.0600060559809208,0.0684612169861794,-0.5,0.0427496805787086,-0.00258998293429613
325,0.0602401457726955,0.0591187961399555,0.0673953518271446,-0.5,0.0428383238613606,-0.00212150905281305
326,0.0619431883096695,0.0566974803805351,0.0669390186667442,-0.5,0.0395353361964226,0.00118521740660071
327,0.0625971481204033,0.055431455373764,0.0691155195236206,-0.5,0.036460530012846,0.00826764479279518
328,0.0616969130933285,0.0546889118850231,0.0717925429344177,-0.5,0.0344014391303062,0.0159975830465555
329,0.0600616484880447,0.053369153290987,0.0736022889614105,-0.5,0.0337013155221939,0.022487323731184
330,0.0599983781576157,0.052222728729248,0.0760363414883614,-0.5,0.0352986715734005,0.026842188090086
331,0.0589796863496304,0.0496652871370316,0.0756750330328941,-0.5,0.0359297543764114,0.0248077921569347
332,0.0573207177221775,0.0469570606946945,0.0712515860795975,-0.17477835714817,0.0337897129356861,0.0166633874177933
333,0.0590154156088829,0.0465715751051903,0.066697396337986,0.0959174558520317,0.0319616831839085,0.00756199890747666
334,0.063200518488884,0.0470349416136742,0.0627106726169586,0.199811801314354,0.0310834906995296,0.00121434440370649
335,0.0677032545208931,0.0485068932175636,0.0595976002514362,0.152085363864899,0.0293521881103516,0.00210042204707861
336,0.070969246327877,0.0523578189313412,0.0590624026954174,0.0475302264094353,0.0271580088883638,0.011307530105114
337,0.072817362844944,0.0590541698038578,0.0615482218563557,0.013287428766489,0.0271328240633011,0.0237186346203089
338,0.074960470199585,0.0685453340411186,0.066089041531086,0.0788876563310623,0.0310996491461992,0.0341519899666309
339,0.0747783109545708,0.0753898471593857,0.0680611804127693,0.127483889460564,0.035658311098814,0.037816371768713
340,0.0707928389310837,0.0753660947084427,0.0650763213634491,0.06707364320755,0.0366720221936703,0.0332075878977776
341,0.0670216381549835,0.0734399706125259,0.0613715797662735,-0.0740344524383545,0.0353399664163589,0.0263818930834532
342,0.0641703605651855,0.0720944404602051,0.0598426088690758,-0.231857791543007,0.0344642139971256,0.0238734930753708
343,0.0617250874638557,0.0680228918790817,0.0612629689276218,-0.357025295495987,0.0369137898087502,0.0271519217640162
344,0.0608155392110348,0.060843650251627,0.0657446086406708,-0.409935265779495,0.0434920974075794,0.0327789336442947
345,0.0603869371116161,0.0521599464118481,0.0701252967119217,-0.37415811419487,0.0505115799605846,0.0345685333013535
346,0.0609238855540752,0.0440503768622875,0.072634294629097,-0.264101803302765,0.0553204491734505,0.030485512688756
347,0.0624269880354404,0.0370391681790352,0.0728018507361412,-0.12817944586277,0.0577517040073872,0.0228301081806421
348,0.0626174211502075,0.03170545399189,0.0686032921075821,-0.0261366479098797,0.0578644685447216,0.0147602763026953
349,0.0638759210705757,0.0351451337337494,0.0620408654212952,0.0215288251638412,0.057569932192564,0.0112316282466054
350,0.0672152191400528,0.0502189658582211,0.0570574812591076,0.0118903322145343,0.0586176440119743,0.0140023110434413
351,0.0699653401970863,0.0668427124619484,0.0551848858594894,-0.0524229593575001,0.0608845725655556,0.0212118253111839
352,0.073083370923996,0.0750491097569466,0.0564680173993111,-0.132604539394379,0.0633098185062408,0.0323517769575119
353,0.0753598064184189,0.0718250572681427,0.0574906021356583,-0.186903402209282,0.0629968345165253,0.0435297563672066
354,0.0751249194145203,0.0593737885355949,0.0575128234922886,-0.190824210643768,0.0595442168414593,0.0506270118057728
355,0.0754850208759308,0.0428015664219856,0.0607204549014568,-0.126289635896683,0.057306595146656,0.0556193515658379
356,0.0754785016179085,0.0251493379473686,0.0656530633568764,-0.0058412803336978,0.0581818372011185,0.0585563518106937
357,0.0727394744753838,0.0115323821082711,0.0688908249139786,0.10429510474205,0.059920147061348,0.0565976426005363
358,0.0691733732819557,0.00728361587971449,0.0709063857793808,0.118448138237,0.0609075538814068,0.050080344080925
359,0.0658898800611496,0.0115032158792019,0.07069131731987,0.0210363678634167,0.0619797967374325,0.0438267253339291
360,0.0636964440345764,0.022933641448617,0.0677883177995682,-0.121420457959175,0.0641002431511879,0.0437316745519638
361,0.0619481205940247,0.0379158891737461,0.0632154494524002,-0.240238785743713,0.0637335553765297,0.0475809946656227
362,0.0594226345419884,0.0490451939404011,0.0580225922167301,-0.297351539134979,0.0578362867236137,0.0487232692539692
363,0.0581332594156265,0.0539660416543484,0.0542490743100643,-0.276926785707474,0.0497453659772873,0.0457724593579769
364,0.0576572194695473,0.0524777770042419,0.0512337349355221,-0.185270041227341,0.042803805321455,0.0402553826570511
365,0.0584714338183403,0.0457819402217865,0.0496059246361256,-0.0647889524698257,0.0393723510205746,0.0376137457787991
366,0.0651809871196747,0.0397029146552086,0.0530401207506657,0.0055125467479229,0.0421289391815662,0.0436857491731644
367,0.0761705636978149,0.037492074072361,0.0590386129915714,-0.00828983634710312,0.0489837639033794,0.053987979888916
368,0.0861051753163338,0.0383725501596928,0.0628409832715988,-0.0463780723512173,0.0561885721981525,0.0597609505057335
369,0.0935693606734276,0.0401938334107399,0.0642581209540367,-0.0407998338341713,0.0629786178469658,0.057426180690527
370,0.0985438004136086,0.0411214008927345,0.0632144957780838,0.0134716127067804,0.0688485875725746,0.0484537743031979
371,0.101875126361847,0.044897023588419,0.0598910786211491,0.0765623152256012,0.072765551507473,0.0381766073405743
372,0.101432338356972,0.0530854985117912,0.054350309073925,0.0746227279305458,0.0726121217012405,0.0298024117946625
373,0.0935924202203751,0.0574455410242081,0.0466013289988041,-0.0494760908186436,0.0671073794364929,0.023018354550004
374,0.0833693742752075,0.0523760803043842,0.041876744478941,-0.254120171070099,0.0606315732002258,0.0197468772530556
375,0.0771860405802727,0.0401781797409058,0.0436159856617451,-0.49573078751564,0.0577142424881458,0.0225958097726107
376,0.0751118138432503,0.0284019280225039,0.0491681471467018,-0.5,0.0579351000487804,0.0334962941706181
377,0.0752714276313782,0.0272781979292631,0.0558038614690304,-0.5,0.0594062209129334,0.0504679940640926
378,0.0743946209549904,0.0358993709087372,0.0592210255563259,-0.5,0.0601656399667263,0.0642576962709427
379,0.073069840669632,0.0438660494983196,0.0573987439274788,-0.5,0.0600750595331192,0.0703956186771393
380,0.0754692107439041,0.0463078171014786,0.0536234006285667,-0.5,0.0604356937110424,0.0721821039915085
381,0.0796676799654961,0.0430191196501255,0.048335462808609,-0.5,0.0604751408100128,0.0696298703551292
382,0.082413449883461,0.0375037230551243,0.0420399382710457,-0.5,0.059432215988636,0.0644733309745789
383,0.0833619832992554,0.0338802710175514,0.0387446507811546,-0.5,0.0585212074220181,0.0631295740604401
384,0.0821064785122871,0.0303075592964888,0.0402085371315479,-0.5,0.0595049485564232,0.0654921010136604
385,0.0804021954536438,0.0258533880114555,0.0456521287560463,-0.5,0.0633601620793343,0.0658766701817513
386,0.0789791867136955,0.0221836157143116,0.0512064248323441,-0.5,0.0681797862052917,0.0605437532067299
387,0.0760942548513412,0.0201415773481131,0.0524693354964256,-0.215013980865479,0.0705301985144615,0.050682220607996
388,0.0716066807508469,0.021521769464016,0.0500370562076569,0.5,0.0692719593644142,0.0418351404368877
389,0.0646361857652664,0.026385921984911,0.0445272848010063,0.5,0.0646156892180443,0.0375565625727177
390,0.0560038425028324,0.0346732251346111,0.0359556712210178,0.5,0.0581325702369213,0.0392115451395512
391,0.0504403598606586,0.0449209399521351,0.0273207575082779,0.5,0.0526811331510544,0.0468440875411034
392,0.0479456856846809,0.049394067376852,0.0192196108400822,0.5,0.0483820773661137,0.0543920546770096
393,0.0453131198883057,0.045706395059824,0.0117729352787137,0.5,0.0456904470920563,0.0544133558869362
394,0.0423585176467896,0.040448471903801,0.007997190579772,0.5,0.0474318154156208,0.0463219694793224
395,0.0394588820636272,0.0374846011400223,0.00869066268205643,0.5,0.052651409059763,0.0361796692013741
396,0.0386473648250103,0.0374081134796143,0.0138299660757184,0.5,0.0576092191040516,0.0316837131977081
397,0.0406867526471615,0.0377458147704601,0.0217174757272005,0.300202548503876,0.0597238577902317,0.0336324572563171
398,0.0425675623118877,0.0339620336890221,0.0270629655569792,-0.0180472638458014,0.0577933825552464,0.036205817013979
399,0.0447921752929688,0.0277771726250649,0.0289715975522995,-0.0580023713409901,0.0535342767834663,0.0376270674169064
400,0.048041895031929,0.0233725309371948,0.02978540584445,0.11109422147274,0.0496811419725418,0.0395132899284363
401,0.0498058199882507,0.0229749083518982,0.0301508381962776,0.328304678201675,0.0479078330099583,0.0430226475000381
402,0.0496795885264874,0.0290737319737673,0.0312638580799103,0.425486266613007,0.0486612915992737,0.0500099956989288
403,0.0469555035233498,0.0431351959705353,0.0320245735347271,0.332728683948517,0.048841442912817,0.0586527325212955
404,0.0419638007879257,0.0670102164149284,0.0308441985398531,0.0808631405234337,0.0454220063984394,0.0665867254137993
405,0.0370162464678288,0.0943648517131805,0.030524380505085,-0.216588065028191,0.0403502583503723,0.0739778056740761
406,0.0312018152326345,0.106634646654129,0.0324407517910004,-0.472275614738464,0.0367830470204353,0.0756855756044388
407,0.0263096299022436,0.0962812080979347,0.0350621864199638,-0.5,0.0358956046402454,0.0673113986849785
408,0.0274232178926468,0.0740266889333725,0.0370747111737728,-0.5,0.0375187210738659,0.0542971789836884
409,0.034363329410553,0.0512611567974091,0.037372812628746,-0.5,0.0409806147217751,0.0449380800127983
410,0.0434690527617931,0.0338784456253052,0.0368774272501469,-0.5,0.0455696471035481,0.0427557192742825
411,0.0506840832531452,0.0236696563661098,0.0363511890172958,-0.5,0.0493872128427029,0.0441892184317112
412,0.0542342029511929,0.0227366518229246,0.0352780483663082,-0.5,0.0513808690011501,0.0442561134696007
413,0.056245893239975,0.0354997217655182,0.0340363495051861,-0.5,0.0527200922369957,0.0447173565626144
414,0.0564875341951847,0.0556767471134663,0.0315150320529938,-0.5,0.0525608099997044,0.047978051006794
415,0.0546804629266262,0.068656861782074,0.0288238357752562,-0.5,0.0498881712555885,0.0503704063594341
416,0.0545841753482819,0.0701892599463463,0.0319532454013824,-0.5,0.0474285259842873,0.048338994383812
417,0.0567255914211273,0.0652655959129334,0.0410063154995441,-0.463462978601456,0.046443909406662,0.0440925247967243
418,0.0589991360902786,0.05993827059865,0.0487419255077839,-0.0740566179156303,0.0451300591230392,0.0430653691291809
419,0.0612130686640739,0.0570804290473461,0.0501629300415516,0.254374772310257,0.0426992140710354,0.0464557893574238
420,0.0631469264626503,0.0557521656155586,0.0452348068356514,0.475770771503448,0.0388475507497787,0.05125492811203
421,0.0656422525644302,0.0578836314380169,0.0388474650681019,0.5,0.0341855846345425,0.0574576891958714
422,0.0679629296064377,0.0639205947518349,0.035050343722105,0.5,0.0302870385348797,0.0648201256990433
423,0.067194752395153,0.069001093506813,0.0326562523841858,0.43073034286499,0.027429161593318,0.0695963874459267
424,0.0664629116654396,0.0728079155087471,0.031963124871254,0.370821267366409,0.0266575571149588,0.0712412446737289
425,0.0694304183125496,0.0775742083787918,0.0327985994517803,0.409917414188385,0.0284338165074587,0.069996677339077
426,0.0732970833778381,0.0824472308158875,0.0315061770379543,0.474569946527481,0.029906140640378,0.0627126544713974
427,0.0747006684541702,0.0874134376645088,0.027614139020443,0.466515749692917,0.029093224555254,0.0488549508154392
428,0.0720154643058777,0.0928512215614319,0.0232117120176554,0.371319204568863,0.0272487699985504,0.0331766381859779
429,0.0682220682501793,0.100016504526138,0.0216309148818254,0.227090299129486,0.0274730119854212,0.0250636376440525
430,0.0672703087329865,0.107961118221283,0.0250928476452827,0.0762304961681366,0.0311185978353024,0.0324762538075447
431,0.0664352104067802,0.110243499279022,0.0294106528162956,-0.0433740317821503,0.0353502072393894,0.0507588461041451
432,0.0647163018584251,0.106388002634048,0.0316928774118423,-0.199548467993736,0.0383002869784832,0.0661497265100479
433,0.0645221248269081,0.100272238254547,0.0339769534766674,-0.5,0.0403533019125462,0.0689513087272644
434,0.0650141388177872,0.0913566052913666,0.0363884493708611,-0.5,0.0407964810729027,0.0604684315621853
435,0.0651004537940025,0.08267742395401,0.0368010215461254,-0.5,0.0384720601141453,0.0480118282139301
436,0.063732348382473,0.0780488029122353,0.0325777716934681,-0.5,0.0324730984866619,0.0335609167814255
437,0.0617870539426804,0.0773153975605965,0.0252781324088573,-0.5,0.0253665782511234,0.0185945704579353
438,0.062743216753006,0.0807471722364426,0.0217639729380608,-0.5,0.0219148732721806,0.0111073590815067
439,0.0644997730851173,0.0825793519616127,0.023624561727047,-0.5,0.0214851889759302,0.0144001441076398
440,0.0641648024320602,0.0762432143092155,0.0275046154856682,-0.5,0.021388553082943,0.0238327048718929
441,0.0650719255208969,0.0653908103704453,0.0320434533059597,-0.5,0.0221491400152445,0.036446638405323
442,0.0689006298780441,0.0554076060652733,0.0341483801603317,-0.5,0.0236189346760511,0.0504022166132927
443,0.0743847414851189,0.0481326282024384,0.0318585373461246,-0.5,0.0249303113669157,0.0606932044029236
444,0.0799505934119225,0.0433696024119854,0.0280900206416845,-0.5,0.0263576656579971,0.0621355175971985
445,0.0824437215924263,0.0391967222094536,0.0247010663151741,-0.5,0.0277759674936533,0.0547421053051949
446,0.0822625309228897,0.0374357998371124,0.0230981037020683,-0.5,0.0295529887080193,0.0453092977404594
447,0.0813429430127144,0.041039053350687,0.0234667342156172,-0.5,0.03157914057374,0.0390890724956989
448,0.0792724564671516,0.0482025556266308,0.0229805558919907,-0.5,0.0321230590343475,0.0367012433707714
449,0.0781939253211021,0.0567790865898132,0.0224743094295263,-0.5,0.0303480792790651,0.03983985632658
450,0.0774092748761177,0.0633110105991364,0.0237960703670979,-0.5,0.0255560446530581,0.0456135123968124
451,0.072606161236763,0.0629799216985703,0.0259759724140167,-0.5,0.0182542726397514,0.0469265803694725
452,0.0648581758141518,0.0561818107962608,0.0278791263699532,-0.5,0.0112713659182191,0.0427005663514137
453,0.0577641800045967,0.0469638593494892,0.0269184615463018,-0.5,0.00574883725494146,0.0345193445682526
454,0.0561817325651646,0.0431251712143421,0.0244959201663733,-0.5,0.00315479328855872,0.026362894102931
455,0.0627410933375359,0.05125467851758,0.0254606604576111,-0.5,0.00557317119091749,0.0254601463675499
456,0.0703034624457359,0.0650923997163773,0.0284771304577589,-0.5,0.0108302412554622,0.0315725393593311
457,0.0732393264770508,0.0780819952487946,0.0319747515022755,-0.5,0.0172027442604303,0.0393644198775291
458,0.0728095471858978,0.0926202163100243,0.0366604849696159,-0.5,0.0249421913176775,0.0457685180008411
459,0.0697882249951363,0.107074648141861,0.0398223176598549,-0.5,0.0312524028122425,0.0495489500463009
460,0.0666443705558777,0.113646060228348,0.040540337562561,-0.5,0.033796276897192,0.0521385259926319
461,0.065550297498703,0.104048773646355,0.0401420556008816,-0.254453480243683,0.0328149795532227,0.0529332719743252
462,0.0667320638895035,0.0791663900017738,0.039008341729641,0.131206944584847,0.029246624559164,0.0492403991520405
463,0.0714668184518814,0.0514435991644859,0.0385510995984077,0.447574108839035,0.0249993912875652,0.0418752394616604
464,0.0767533704638481,0.0290628354996443,0.037457812577486,0.5,0.02189009077847,0.0312521532177925
465,0.0794951543211937,0.0146870715543628,0.0338049419224262,0.5,0.0227058716118336,0.0196983143687248
466,0.0827992409467697,0.0109815523028374,0.0301773156970739,0.5,0.0291885063052177,0.0162832010537386
467,0.0854220986366272,0.0138544868677855,0.0275637693703175,0.5,0.0357607565820217,0.0238188151270151
468,0.0826955735683441,0.0172282885760069,0.0258800573647022,0.5,0.0353835262358189,0.0336065553128719
469,0.0761537626385689,0.0212213341146708,0.0266602747142315,0.5,0.0284657534211874,0.0385183580219746
470,0.0697703436017036,0.0284217074513435,0.0293178502470255,0.5,0.0191451795399189,0.0376628898084164
471,0.0671335607767105,0.0387796722352505,0.0333794131875038,0.5,0.0108255352824926,0.0320379473268986
472,0.0681904330849648,0.0462498739361763,0.0375185310840607,0.436512500047684,0.00499994214624166,0.0216347146779299
473,0.06886176019907,0.0457398369908333,0.0381442084908485,0.419392466545105,0.00113833043724298,0.00820945855230093
474,0.0696032643318176,0.0417342782020569,0.0359347611665726,0.464813321828842,-0.000512978760525584,-0.000742878764867783
475,0.0723979845643044,0.0394832044839859,0.0336433425545692,0.5,0.000453147076768801,0.000608280359301716
476,0.0767534673213959,0.0393651388585567,0.0321225263178349,0.5,0.00389008317142725,0.0105430698022246
477,0.0825109556317329,0.0409648865461349,0.033340472728014,0.5,0.0101513797417283,0.0245674233883619
478,0.0864962637424469,0.0418759286403656,0.0370322652161121,0.472226053476334,0.0176223814487457,0.0369536653161049
479,0.0869218707084656,0.0410908944904804,0.0414619259536266,0.311271011829376,0.024118859320879,0.0435817874968052
480,0.0863813012838364,0.0402790009975433,0.0463092513382435,0.166308894753456,0.0286261066794395,0.0449273362755775
481,0.0845459252595901,0.0402201898396015,0.048175398260355,0.125589936971664,0.0289816353470087,0.0427130162715912
482,0.0816843956708908,0.0467986278235912,0.0453455522656441,0.204741775989532,0.0247725080698729,0.040596067905426
483,0.079782746732235,0.0633871257305145,0.040502093732357,0.39304918050766,0.0185249652713537,0.0420458614826202
484,0.0779102891683578,0.0809710845351219,0.0348461829125881,0.5,0.0125161223113537,0.0470464341342449
485,0.0763736739754677,0.0905406773090363,0.0287076663225889,0.5,0.00872155278921127,0.0523462705314159
486,0.0756770893931389,0.0868983939290047,0.0223675593733788,0.5,0.00754741299897432,0.051484540104866
487,0.0760699659585953,0.071201890707016,0.0169049203395844,0.5,0.00817757751792669,0.043462298810482
488,0.0802168920636177,0.0542204305529594,0.0141107579693198,0.5,0.0110722156241536,0.0340034961700439
489,0.085912860929966,0.0422141402959824,0.0113454880192876,0.139325603842735,0.014677619561553,0.0250051729381084
490,0.0883042886853218,0.0341876223683357,0.00672545423731208,-0.328934192657471,0.0164050385355949,0.0165658872574568
491,0.0881626084446907,0.0278682671487331,0.00490125035867095,-0.5,0.0172724034637213,0.0108667491003871
492,0.0876419320702553,0.0205770377069712,0.00861076172441244,-0.5,0.0190936028957367,0.00730562303215265
493,0.0887251645326614,0.0147398756816983,0.0179463773965836,-0.5,0.0234127566218376,0.00609031366184354
494,0.0919244885444641,0.0153701957315207,0.0319427065551281,-0.493069797754288,0.0311266947537661,0.0111929066479206
495,0.092644214630127,0.022611565887928,0.0432512722909451,-0.332292169332504,0.0386903546750546,0.0227634534239769
496,0.0895682126283646,0.0339025892317295,0.0468894354999065,-0.223579868674278,0.0423195846378803,0.0361551567912102
497,0.085715264081955,0.0450831726193428,0.0453123189508915,-0.168761745095253,0.0427862927317619,0.0458840392529964
498,0.0816889926791191,0.0523868352174759,0.040749054402113,-0.16831111907959,0.0422512926161289,0.0490560941398144
499,0.0796333998441696,0.0579466409981251,0.0355131700634956,-0.188788771629334,0.0412378795444965,0.0503739602863789
500,0.0805216729640961,0.0627834647893906,0.030610341578722,-0.190865725278854,0.0380769930779934,0.0550559684634209
501,0.0816149190068245,0.0640148892998695,0.0255062095820904,-0.202407538890839,0.0332085266709328,0.0590691193938255
502,0.0818848684430122,0.0628095418214798,0.0219373125582933,-0.248269349336624,0.0302749462425709,0.0557008534669876
503,0.0800148472189903,0.0605068728327751,0.019472548738122,-0.265559136867523,0.0296881459653378,0.0447488576173782
504,0.0772039592266083,0.0578857138752937,0.0178924314677715,-0.211438819766045,0.0304532404989004,0.0339425280690193
505,0.0770254731178284,0.0564260296523571,0.0192894972860813,-0.141631558537483,0.0332856811583042,0.0299208983778954
506,0.0784975737333298,0.0540688224136829,0.0207413733005524,-0.118586406111717,0.0365833044052124,0.030152166262269
507,0.0817638039588928,0.0506873577833176,0.0201244875788689,-0.125744044780731,0.0394141338765621,0.0323477275669575
508,0.0869379863142967,0.0480981022119522,0.020306408405304,-0.122954659163952,0.0433004386723042,0.038552101701498
509,0.0897931456565857,0.0454983003437519,0.0216861814260483,-0.129478141665459,0.0479459688067436,0.0461414381861687
510,0.0893650650978088,0.0429529920220375,0.0233472269028425,-0.194175198674202,0.0519627816975117,0.051119726151228
511,0.0866262316703796,0.041353028267622,0.0246179718524218,-0.32044991850853,0.0533701926469803,0.053954903036356
512,0.0819237604737282,0.0405391417443752,0.0257858950644732,-0.428753018379211,0.051692720502615,0.0547284707427025
513,0.0779173001646996,0.0387080870568752,0.0299606304615736,-0.416027694940567,0.0498881600797176,0.0524894297122955
514,0.0744902864098549,0.0323920100927353,0.0346412621438503,-0.283159554004669,0.0479915104806423,0.0463389009237289
515,0.0707615166902542,0.0246216896921396,0.0345116592943668,-0.0600804388523102,0.0433297865092754,0.0360325053334236
516,0.0695396885275841,0.024088965728879,0.0331857763230801,0.336591213941574,0.0379043333232403,0.0245724767446518
517,0.069927491247654,0.0315871611237526,0.0343538783490658,0.5,0.0354765877127647,0.0135505432263017
518,0.0691599249839783,0.0403284132480621,0.0351145826280117,0.5,0.0358076617121696,0.00219935295172036
519,0.0677086189389229,0.0431498289108276,0.0329809114336967,0.5,0.0356952324509621,-0.00598247721791267
520,0.0665542259812355,0.0365064889192581,0.0278122704476118,0.5,0.0326211340725422,-0.00611281907185912
521,0.06818987429142,0.0242974013090134,0.0236965771764517,0.5,0.0288709700107574,0.00156446825712919
522,0.0726793110370636,0.0117857018485665,0.0248267371207476,0.223527386784554,0.0290070530027151,0.0104294866323471
523,0.0759386494755745,0.00169425760395825,0.0286666881293058,-0.5,0.0326875559985638,0.0140755530446768
524,0.0776539966464043,-0.0013312641531229,0.0316708236932755,-0.5,0.0364262610673904,0.0145515324547887
525,0.0781617388129234,0.00350704649463296,0.0312648788094521,-0.5,0.0377603247761726,0.0157900005578995
526,0.0771440044045448,0.0106068402528763,0.0271356925368309,-0.5,0.0372160524129868,0.0181369818747044
527,0.0780985355377197,0.0172127187252045,0.0244602560997009,-0.5,0.0389542132616043,0.0226515643298626
528,0.0806733593344688,0.0258783902972937,0.0242672357708216,-0.5,0.0435433238744736,0.0285758171230555
529,0.0827623680233955,0.0395553931593895,0.0234745647758245,-0.5,0.0475507192313671,0.0337987430393696
530,0.0855008065700531,0.0518609136343002,0.022774126380682,-0.5,0.0492187663912773,0.0396353453397751
531,0.0862040296196938,0.0514456853270531,0.0223287716507912,-0.5,0.0469668507575989,0.048411026597023
532,0.0838833302259445,0.0413820929825306,0.0226724445819855,-0.5,0.0412705130875111,0.0610791444778442
533,0.0814198702573776,0.0316189043223858,0.0250725131481886,-0.5,0.03552570566535,0.0720324516296387
534,0.0780116394162178,0.0232882723212242,0.0262115728110075,-0.5,0.0314665213227272,0.0699496492743492
535,0.0735567808151245,0.0153127126395702,0.0239819530397654,-0.5,0.0300437659025192,0.0524951927363873
536,0.069488063454628,0.00848548207432032,0.0211054086685181,-0.5,0.0325958505272865,0.029111847281456
537,0.0664022117853165,0.0048120180144906,0.0203132871538401,-0.5,0.0379920527338982,0.00996858906000853
538,0.0659154430031776,0.00634621828794479,0.0225375313311815,-0.5,0.0428818054497242,-0.000238238528254442
539,0.0671447589993477,0.0104073155671358,0.0259819608181715,-0.5,0.0452409088611603,-0.00243920343928039
540,0.0685184299945831,0.0156015502288938,0.0296781323850155,-0.5,0.046317845582962,0.00156192772556096
541,0.0704815611243248,0.0231513194739819,0.035376388579607,-0.5,0.0479264929890633,0.0103800985962152
542,0.0711252465844154,0.0271529741585255,0.040955301374197,-0.5,0.0492137633264065,0.0192134641110897
543,0.0697880163788795,0.0231649857014418,0.0434421673417091,-0.5,0.0490789785981178,0.0252506695687771
544,0.068660132586956,0.0165190938860178,0.0435452423989773,-0.5,0.0477309897542,0.0305202174931765
545,0.0688647329807281,0.0125515023246408,0.0406040251255035,-0.5,0.0447835139930248,0.0351942628622055
546,0.0733095854520798,0.01211160980165,0.0348154306411743,-0.5,0.0417853109538555,0.0375927053391933
547,0.080044150352478,0.0116329230368137,0.0277176797389984,-0.5,0.0406487062573433,0.0347799174487591
548,0.0807182937860489,0.0077965441159904,0.0194166731089354,-0.5,0.039703194051981,0.0244005862623453
549,0.0758588686585426,0.00538051035255194,0.0137454578652978,-0.5,0.038255337625742,0.0113779483363032
550,0.0706382989883423,0.0122877070680261,0.0132529800757766,-0.5,0.035884864628315,0.00546093797311187
551,0.0664540454745293,0.0302327293902636,0.0141229033470154,-0.5,0.0309072751551867,0.0145679786801338
552,0.0651880726218224,0.0487492009997368,0.0144213093444705,-0.5,0.0253077503293753,0.0370203703641891
553,0.0656761452555656,0.0529447719454765,0.0142193669453263,-0.5,0.0218497067689896,0.0586700327694416
554,0.0665025562047958,0.0430018194019794,0.0140780536457896,-0.5,0.0213066469877958,0.0672743022441864
555,0.068842314183712,0.0292980801314116,0.0162818729877472,-0.5,0.0250170491635799,0.0611125826835632
556,0.069160632789135,0.0169229619204998,0.0197388492524624,-0.5,0.032696396112442,0.0440370514988899
557,0.0657733455300331,0.00942816864699125,0.0231123343110085,-0.5,0.0416344478726387,0.0256271101534367
558,0.0627560019493103,0.009019467048347,0.0264292974025011,-0.5,0.0481888838112354,0.015624213963747
559,0.0610599890351295,0.0137355094775558,0.0274608079344034,-0.5,0.0499367751181126,0.0141522539779544
560,0.0595064423978329,0.0223845336586237,0.0269520319998264,-0.5,0.0492425449192524,0.0162969827651978
561,0.0573343820869923,0.0320230387151241,0.0261809602379799,-0.5,0.0481485910713673,0.019912539049983
562,0.0547860115766525,0.0382559448480606,0.0242684558033943,-0.5,0.0442094653844833,0.0281758103519678
563,0.0544628649950027,0.0390803627669811,0.0237740390002728,-0.5,0.0370693914592266,0.0437305718660355
564,0.0552735067903996,0.0318166762590408,0.0247271209955215,-0.5,0.0288534089922905,0.0571860857307911
565,0.0548293255269527,0.0181536767631769,0.0235273092985153,-0.5,0.0209306757897139,0.055609654635191
566,0.0552947074174881,0.00650312611833215,0.0213394239544868,-0.5,0.0155939804390073,0.0396329388022423
567,0.0570625811815262,0.000959971512202173,0.0198264885693789,-0.5,0.01396419480443,0.0197019316256046
568,0.0589381158351898,6.11878276686184E-05,0.0190968755632639,-0.5,0.0152494981884956,0.00752890761941671
569,0.0607015006244183,0.00219552125781775,0.0198989138007164,-0.5,0.0177836865186691,0.00994472671300173
570,0.0609106384217739,0.00599078135564923,0.0201529879122972,-0.5,0.0190415885299444,0.0217773821204901
571,0.0607959292829037,0.0123085025697947,0.0188763607293367,-0.5,0.0189251881092787,0.0344588235020638
572,0.0607721768319607,0.0211002323776484,0.0168746076524258,-0.5,0.018106235191226,0.045061606913805
573,0.0572710521519184,0.0270074866712093,0.0131658399477601,-0.5,0.0157164558768272,0.0493217594921589
574,0.051673024892807,0.0257674269378185,0.00982570834457874,-0.5,0.0130640063434839,0.0414746925234795
575,0.0480871684849262,0.0179267376661301,0.00936746783554554,-0.5,0.0126063050702214,0.0241992007941008
576,0.0483528859913349,0.00783521495759487,0.011202733963728,-0.5,0.0158363562077284,0.0102524049580097
577,0.0531295947730541,0.00089396582916379,0.0149691291153431,-0.5,0.0231830812990665,0.00908963568508625
578,0.0584322661161423,-0.00293212570250034,0.0184202454984188,-0.5,0.0318248830735683,0.0161607190966606
579,0.0614307783544064,-0.00383324967697263,0.0218364577740431,-0.5,0.0398718602955341,0.0253443960100412
580,0.062742218375206,-0.000368074455764145,0.0281137302517891,-0.5,0.0476518496870995,0.0354507453739643
581,0.0595296248793602,0.00404305616393685,0.0326203890144825,-0.477617740631104,0.0518834814429283,0.0414151959121227
582,0.0526126883924007,0.00772177381440997,0.0307715088129044,-0.5,0.050155084580183,0.0395167618989944
583,0.0473426133394241,0.00979194883257151,0.0247204322367907,-0.5,0.0448381155729294,0.0311788246035576
584,0.0450156591832638,0.00605458440259099,0.017082242295146,-0.5,0.0382173471152782,0.0178599264472723
585,0.0458751879632473,-0.0018263392848894,0.0114046344533563,-0.5,0.0324166342616081,0.00355078815482557
586,0.0500051267445087,-0.00778026320040226,0.0101936431601644,-0.5,0.0307116340845823,-0.00519530335441232
587,0.0565296858549118,-0.00878942850977182,0.0124577041715384,-0.5,0.0352833159267902,-0.00432718778029084
588,0.0643513798713684,-0.00517347734421492,0.0173929762095213,-0.5,0.0439618863165379,0.00515572354197502
589,0.0671302527189255,0.00183545507024974,0.0206439793109894,-0.5,0.0490727908909321,0.0164066143333912
590,0.0607353523373604,0.0153773529455066,0.0178384650498629,-0.5,0.0462644100189209,0.0247954875230789
591,0.0526911243796349,0.0337183773517609,0.0138046164065599,-0.5,0.0408053398132324,0.0338925831019878
592,0.0500594489276409,0.0440972857177258,0.013309134170413,-0.5,0.0377379283308983,0.04767756909132
593,0.0507814735174179,0.0425713621079922,0.0158591661602259,-0.5,0.0363440774381161,0.0629494041204453
594,0.0498926974833012,0.0360463596880436,0.0204238146543503,-0.5,0.0354680493474007,0.0688649117946625
595,0.0455324277281761,0.0268256366252899,0.0240169242024422,-0.5,0.0348961353302002,0.0583233013749123
596,0.0428821705281734,0.0153238503262401,0.025527385994792,-0.5,0.0358463786542416,0.0376645997166634
597,0.0467248149216175,0.00275621702894568,0.026194429025054,-0.5,0.0399778038263321,0.0169280916452408
598,0.0531083978712559,-0.0091039864346385,0.0260846745222807,-0.5,0.0463982410728931,0.00268746539950371
599,0.057706143707037,-0.013609429821372,0.0275899339467287,-0.5,0.0528316795825958,0.000503401271998882
600,0.0582380816340446,-0.00923953671008348,0.0301765520125628,-0.5,0.0551192276179791,0.00821294263005257
601,0.0532699637115002,-0.00274674338288605,0.0293115433305502,-0.5,0.0508476421236992,0.0163156315684319
602,0.0469503737986088,0.00220016902312636,0.0266767553985119,-0.5,0.0451569147408009,0.0204010829329491
603,0.0428284220397472,0.00558254355564713,0.0268986988812685,-0.5,0.0428824312984943,0.0210333373397589
604,0.0412599332630634,0.0119739705696702,0.0307273417711258,-0.5,0.0426032096147537,0.0201755538582802
605,0.0418474599719048,0.0240250453352928,0.0346325300633907,-0.162733539938927,0.0413212850689888,0.0212946217507124
606,0.0411769933998585,0.0319107323884964,0.032790295779705,0.316959321498871,0.0370263792574406,0.025265958160162
607,0.0396187789738178,0.0289550740271807,0.0264329556375742,0.5,0.0317636281251907,0.0315499231219292
608,0.0404514335095882,0.0213527102023363,0.0227152686566114,0.5,0.0302705150097609,0.0397297330200672
609,0.0415178313851357,0.0153084080666304,0.0240517873317003,0.5,0.0331162810325623,0.0457116439938545
610,0.0406816527247429,0.0121209975332022,0.0286605302244425,0.5,0.0372541323304176,0.0446883626282215
611,0.0379183702170849,0.0111334975808859,0.0316408835351467,0.5,0.0387366749346256,0.0361550040543079
612,0.0334420390427113,0.0132062472403049,0.0288907084614038,0.5,0.0347435735166073,0.0234699528664351
613,0.029632207006216,0.0189640466123819,0.0242757201194763,0.5,0.027550395578146,0.0120394062250853
614,0.026607908308506,0.0226276591420174,0.0217461735010147,0.5,0.0216597653925419,0.00484572909772396
615,0.0236654430627823,0.0199531633406878,0.0211573038250208,0.5,0.01930689252913,0.00202009570784867
616,0.023864196613431,0.0169023033231497,0.0243758074939251,0.5,0.0214152559638023,0.00562725216150284
617,0.02852987870574,0.0187500920146704,0.0320292189717293,0.5,0.0276232268661261,0.0179251581430435
618,0.0361542105674744,0.0230315085500479,0.0413217321038246,0.5,0.0352949388325214,0.0360127128660679
619,0.0443093292415142,0.0239175148308277,0.0484902001917362,0.5,0.0402494482696056,0.0488039143383503
620,0.0490977205336094,0.0161174815148115,0.050113957375288,0.0959207713603973,0.040400642901659,0.0454397685825825
621,0.0503678917884827,0.00276224571280181,0.048271045088768,-0.262951076030731,0.0388027913868427,0.0307524185627699
622,0.0497837290167809,-0.00934476219117641,0.0464381203055382,-0.49830374121666,0.0387027338147163,0.0170256588608027
623,0.0462658554315567,-0.0188188031315804,0.0427901782095432,-0.5,0.0396420396864414,0.00684981886297464
624,0.04145522788167,-0.0229664333164692,0.038151741027832,-0.5,0.0412312038242817,-0.000590480747632682
625,0.0368117466568947,-0.0199109427630901,0.0358749777078629,-0.5,0.0427364483475685,-0.00292173773050308
626,0.0316231846809387,-0.0122357569634914,0.0351411923766136,-0.5,0.0423883125185966,0.00219552335329354
627,0.0271773152053356,-0.0012528826482594,0.0343554094433784,-0.5,0.0409018807113171,0.0139371184632182
628,0.0229685250669718,0.00934939086437225,0.0328875631093979,-0.5,0.0410891175270081,0.0248495116829872
629,0.0195834077894688,0.0168130174279213,0.0330159440636635,-0.486636906862259,0.0462631694972515,0.0319825150072575
630,0.0194288864731789,0.0234043281525373,0.0372413657605648,-0.447600930929184,0.0556204728782177,0.0418284386396408
631,0.020030127838254,0.0269092954695225,0.041212186217308,-0.484255194664001,0.0610812082886696,0.0533891208469868
632,0.0204543061554432,0.0242770723998547,0.0414494499564171,-0.5,0.0575322508811951,0.0584007985889912
633,0.0227409042418003,0.0168800894171,0.0401173047721386,-0.5,0.0489323809742928,0.0533669367432594
634,0.0250898245722055,0.00893800240010023,0.038316648453474,-0.5,0.0401233024895191,0.0399687625467777
635,0.0255016423761845,0.00603917567059398,0.0371364802122116,-0.5,0.0329954773187637,0.0242213308811188
636,0.0233097262680531,0.00648084515705705,0.0380367003381252,-0.5,0.0281217135488987,0.0125610316172242
637,0.0188978798687458,0.00446830317378044,0.0396779216825962,-0.5,0.0249532554298639,0.00772040709853172
638,0.0159728229045868,0.00028761982684955,0.0407865680754185,-0.385091751813889,0.0236185435205698,0.0094510642811656
639,0.0156866330653429,-0.00310469814576209,0.0402531325817108,-0.209391742944717,0.0242974907159805,0.0132848108187318
640,0.016211150214076,-0.00314312265254557,0.0376482270658016,-0.111803695559502,0.026251507923007,0.0162782315164804
641,0.0177925955504179,0.0021766172721982,0.034971084445715,-0.10579926520586,0.0290916748344898,0.0200304482132196
642,0.0195391904562712,0.00895387772470713,0.0318766981363297,-0.141266003251076,0.0318898595869541,0.0204256698489189
643,0.0203623306006193,0.011253816075623,0.0276992078870535,-0.132274806499481,0.0336399264633656,0.0138150593265891
644,0.0203978791832924,0.00899506267160177,0.0245418399572372,-0.00483837304636836,0.0339278168976307,0.00691414251923561
645,0.0185863915830851,0.00452271429821849,0.0231503713876009,0.216296151280403,0.0325460396707058,0.00413415487855673
646,0.0166235640645027,0.00162841402925551,0.0251052286475897,0.419759064912796,0.0304290931671858,0.00585466576740146
647,0.0161730386316776,0.00315911439247429,0.0317821949720383,0.5,0.0290029942989349,0.0140300337225199
648,0.0148239079862833,0.00632461998611689,0.0407430231571198,0.5,0.0303610023111105,0.02604347653687
649,0.0133794760331512,0.00897039845585823,0.0499681271612644,0.5,0.0368340499699116,0.0370645932853222
650,0.0131674045696855,0.00946549978107214,0.0555052794516087,0.5,0.0451152510941029,0.0430306829512119
651,0.0124426400288939,0.00675242114812136,0.052451703697443,0.449559658765793,0.0486565120518208,0.0423379726707935
652,0.0120854843407869,0.00413192110136151,0.0436528623104095,0.292054027318954,0.0474009662866592,0.0386033393442631
653,0.0131982741877437,0.00124851439613849,0.0348996631801128,0.193942427635193,0.0453123599290848,0.0328282415866852
654,0.01660430803895,-0.00313490466214716,0.0288328174501657,0.131651550531387,0.0439740791916847,0.0231933631002903
655,0.0218060258775949,-0.0055948575027287,0.0255223214626312,0.0442126803100109,0.0432664267718792,0.0115691823884845
656,0.0231274589896202,-0.00680664973333478,0.0219579469412565,-0.0894703567028046,0.0411829464137554,0.000821938097942621
657,0.0190938394516706,-0.00863697193562984,0.0182122904807329,-0.214293241500854,0.0350553765892982,-0.00543650053441525
658,0.0136385429650545,-0.00808489322662354,0.0179475136101246,-0.251115262508392,0.0255345236510038,-0.00509314518421888
659,0.00792783033102751,-0.00503097288310528,0.0206054300069809,-0.180000692605972,0.0156174767762423,-0.00256305327638984
660,0.00381486746482551,-0.00283536501228809,0.0246206484735012,-0.0473984479904175,0.00861202273517847,-0.00139675999525934
661,0.00340252858586609,-0.00255373050458729,0.0305445771664381,0.0870402604341507,0.00655036559328437,0.00186883308924735
662,0.0063626510091126,-0.00207090098410845,0.0389626659452915,0.188971906900406,0.00918591860681772,0.0130757838487625
663,0.0121376775205135,0.00256902701221406,0.0503205135464668,0.226239532232285,0.0161194838583469,0.0338175483047962
664,0.0166303813457489,0.011981463059783,0.0602562613785267,0.181387275457382,0.0248055290430784,0.0574276931583881
665,0.0168111342936754,0.0243504997342825,0.0632187351584435,0.103820942342281,0.030965032055974,0.0745893493294716
666,0.0162910781800747,0.037157416343689,0.0614781267940998,0.0811270996928215,0.0341426357626915,0.0771008729934692
667,0.0161227472126484,0.0417898632586002,0.0588579252362251,0.184819296002388,0.0346895270049572,0.0582422837615013
668,0.0147453108802438,0.0312495790421963,0.056524109095335,0.409365385770798,0.0320240333676338,0.0253643859177828
669,0.0134581364691257,0.0101159987971187,0.0549987331032753,0.5,0.027062276378274,-0.00360548798926175
670,0.0128613170236349,-0.0124722803011537,0.0523562394082546,0.5,0.0205932129174471,-0.0206841789186001
671,0.0139251919463277,-0.0289122574031353,0.0496278889477253,0.5,0.0154843721538782,-0.026582969352603
672,0.0159586742520332,-0.0361952520906925,0.049844678491354,0.5,0.0149688199162483,-0.0234884675592184
673,0.0153887160122395,-0.0354351438581944,0.0512570403516293,0.5,0.0175912193953991,-0.0161441341042519
674,0.0139942523092031,-0.024975186213851,0.0525989718735218,0.5,0.0214343834668398,-0.0079655209556222
675,0.0141737312078476,-0.00644153729081154,0.0529342778027058,0.5,0.0254894495010376,-0.000968693930190057
676,0.0144536290317774,0.0100584486499429,0.0505211278796196,0.5,0.0276612974703312,0.00438116677105427
677,0.0152044957503676,0.0149691626429558,0.0480461791157722,0.5,0.0276117045432329,0.0106893377378583
678,0.0159750021994114,0.00692993029952049,0.0484335273504257,0.5,0.0270240847021341,0.0160502586513758
679,0.0174214541912079,-0.00465710740536451,0.0528723374009132,0.5,0.0287223309278488,0.0152725419029593
680,0.0209040064364672,-0.0102408900856972,0.0604953020811081,0.5,0.0337565541267395,0.00937414728105068
681,0.0217037387192249,-0.0115304682403803,0.0660068616271019,0.5,0.0379417687654495,0.00405013421550393
682,0.0190211031585932,-0.0112951304763556,0.0679891780018806,0.5,0.0381103940308094,0.00232957536354661
683,0.017789339646697,-0.0099073713645339,0.0683278515934944,0.5,0.0355929806828499,0.000791420869063586
684,0.0179018694907427,-0.0116578415036201,0.0649973601102829,0.5,0.0312092639505863,-0.00453501520678401
685,0.017975702881813,-0.0162485279142857,0.0585042014718056,0.5,0.0259254034608603,-0.0106518715620041
686,0.017470134422183,-0.018833689391613,0.0524044670164585,0.5,0.0213991310447454,-0.0130621856078506
687,0.0159283373504877,-0.0179360453039408,0.0486483722925186,0.5,0.017772164195776,-0.01064408197999
688,0.015354567207396,-0.0142622189596295,0.0497110262513161,0.5,0.016239931806922,-0.00472629768773913
689,0.0144969699904323,-0.0109746158123016,0.0547915436327457,0.5,0.0180221404880285,0.000821723078843206
690,0.0119502870365977,-0.00897291209548712,0.059665635228157,0.5,0.022293234243989,0.00617338996380568
691,0.0118533046916127,-0.00404277676716447,0.0624011419713497,0.5,0.0278464984148741,0.0156121710315347
692,0.0147188799455762,0.00268672686070204,0.0610294081270695,0.5,0.0320483446121216,0.025970870628953
693,0.0168415904045105,0.00562296947464347,0.0547240264713764,0.5,0.0321205705404282,0.0301534067839384
694,0.0167797189205885,0.00349378492683172,0.0461904630064964,0.5,0.0279580801725388,0.0277075618505478
695,0.0142194256186485,-0.00267859757877886,0.0381469987332821,0.5,0.0212115831673145,0.0213493034243584
696,0.0116446809843183,-0.0090516060590744,0.0348343290388584,0.5,0.0155601529404521,0.0149408597499132
697,0.0110718784853816,-0.0121039841324091,0.0384690016508102,0.5,0.0136754894629121,0.0129157630726695
698,0.0106668258085847,-0.0128438295796514,0.0436820313334465,0.5,0.0135788060724735,0.0155735639855266
699,0.0111416149884462,-0.00952020846307278,0.0460272282361984,0.5,0.0134598184376955,0.0200460497289896
700,0.0124739045277238,-9.24868509173393E-05,0.0450221709907055,0.5,0.0135033559054136,0.0204115994274616
701,0.0135477026924491,0.0116670522838831,0.0423591136932373,0.5,0.0155190229415894,0.0127059416845441
702,0.0172777734696865,0.0212687216699123,0.043718796223402,0.5,0.0233103092759848,0.00230596587061882
703,0.0227191057056189,0.0252753142267466,0.0506119728088379,0.5,0.0355648212134838,-0.00412314850836992
704,0.0261144638061523,0.0231163520365953,0.0593537911772728,0.5,0.0449759624898434,-0.00528934597969055
705,0.0265913419425488,0.0179738719016314,0.0670050904154778,0.5,0.0461310818791389,-0.00198169238865376
706,0.0224657263606787,0.011637301184237,0.0689800754189491,0.5,0.0383744649589062,0.00418675690889359
707,0.0166664719581604,0.00575924292206764,0.0650865808129311,0.5,0.0272617395967245,0.0129447598010302
708,0.0153759829699993,0.00140032917261124,0.0612087100744247,0.5,0.0208120495080948,0.0232653673738241
709,0.0175721514970064,-0.00234181410633028,0.0590467117726803,0.5,0.0208429805934429,0.0295424833893776
710,0.0201596934348345,-0.00465016951784492,0.0568391755223274,0.5,0.0244792774319649,0.0289393439888954
711,0.0222438964992762,-0.00535001652315259,0.0531257279217243,0.5,0.0293632466346025,0.0245150905102491
712,0.0236607734113932,-0.0044586737640202,0.048563476651907,0.5,0.0338829979300499,0.0188044253736734
713,0.0257724393159151,0.000222723683691584,0.0471200048923492,0.5,0.0369867719709873,0.0125144962221384
714,0.0261170938611031,0.00714134285226464,0.0482668057084084,0.5,0.0366119742393494,0.0058058244176209
715,0.0215874239802361,0.0140769295394421,0.0481164790689945,0.5,0.0310668796300888,0.00192653376143426
716,0.0160157065838575,0.0212330166250467,0.0483686029911041,0.343318790197372,0.022874629124999,0.00580492569133639
717,0.012353359721601,0.0228122342377901,0.0499476343393326,0.305879890918732,0.0152469500899315,0.0140693774446845
718,0.00993660092353821,0.0141906179487705,0.0496651567518711,0.370505273342133,0.00948627665638924,0.0195461921393871
719,0.00850119907408953,0.0013469944242388,0.046048928052187,0.491216212511063,0.0059760669246316,0.0208794679492712
720,0.0069229775108397,-0.00716386875137687,0.0389320515096188,0.5,0.00323202018626034,0.0198552682995796
721,0.00658350856974721,-0.00642050756141543,0.0313493572175503,0.5,0.00101156753953546,0.0197765901684761
722,0.00813295319676399,0.00172276049852371,0.0264860484749079,0.5,0.000302916916552931,0.0223661307245493
723,0.00773879466578364,0.0129745723679662,0.0224050860852003,0.330345839262009,-0.00027725487598218,0.0255571864545345
724,0.00650690728798509,0.0278253089636564,0.0196559019386768,0.0480620488524437,-0.000768497178796679,0.0298913680016994
725,0.00859060324728489,0.0429708883166313,0.020626014098525,-0.111836984753609,0.00166592746973038,0.0352722071111202
726,0.013829194009304,0.0517555624246597,0.0237492714077234,-0.122232794761658,0.00808240007609129,0.0362560786306858
727,0.0197146274149418,0.0526412576436996,0.0277144145220518,-0.042439840734005,0.0152229452505708,0.0307244621217251
728,0.0220226980745792,0.0447421036660671,0.0309334043413401,0.128094524145126,0.0173777416348457,0.0234518814831972
729,0.0213045906275511,0.0301354937255383,0.0325714498758316,0.452892154455185,0.0135738486424088,0.021068163216114
730,0.0224004406481981,0.0149967288598418,0.0344680026173592,0.5,0.00863219238817692,0.0262687224894762
731,0.022982370108366,0.00163173442706466,0.0349219962954521,0.5,0.00463647954165936,0.0359066165983677
732,0.0207036640495062,-0.00610269652679563,0.0325308665633202,0.5,0.00106695888098329,0.0452850572764874
733,0.0184347443282604,-0.00352867296896875,0.0296172741800547,0.5,-0.00191226042807102,0.0486035197973251
734,0.0163546986877918,0.00380976474843919,0.02700524777174,0.5,-0.00440667383372784,0.0413678176701069
735,0.0147963743656874,0.0093778083100915,0.0272108856588602,0.321781814098358,-0.00420436589047313,0.0282204430550337
736,0.0152436885982752,0.015170625410974,0.0327117592096329,0.142530858516693,0.00139097881037742,0.0177592467516661
737,0.0174010749906302,0.0248062908649445,0.0400511510670185,-0.0182589273899794,0.0106186838820577,0.0122583657503128
738,0.0215065460652113,0.0365287438035011,0.0450969450175762,-0.199829772114754,0.0195350423455238,0.00970130227506161
739,0.025672797113657,0.0424215942621231,0.0456308797001839,-0.441797018051147,0.0257893614470959,0.00787078123539686
740,0.0280203279107809,0.0383991226553917,0.0425776243209839,-0.5,0.0302856862545013,0.00630484661087394
741,0.0310660619288683,0.0298751648515463,0.0413822196424007,-0.5,0.0359439849853516,0.0068790796212852
742,0.0347271971404552,0.023584121838212,0.043271541595459,-0.5,0.0417481064796448,0.0109062092378736
743,0.0367985852062702,0.025362890213728,0.044497013092041,-0.5,0.0437133833765984,0.0192885305732489
744,0.037573728710413,0.0370944365859032,0.0430348366498947,-0.5,0.041547492146492,0.030097896233201
745,0.0364991798996925,0.0524855963885784,0.0379223600029945,-0.5,0.0372725836932659,0.037614032626152
746,0.0340654328465462,0.0659088417887688,0.0314878858625889,-0.5,0.0320162735879421,0.0416446328163147
747,0.0310222823172808,0.072912372648716,0.0273592378944159,-0.5,0.0259012337774038,0.0442095957696438
748,0.0266255903989077,0.0686953067779541,0.0261371340602636,-0.5,0.0200178343802691,0.0409847162663937
749,0.023886950686574,0.0580296218395233,0.0294706765562296,-0.5,0.0180180668830872,0.0307727642357349
750,0.0236960537731647,0.0504285395145416,0.0347214639186859,-0.5,0.0199065562337637,0.018150931224227
751,0.0239884443581104,0.048607025295496,0.0336719639599323,-0.5,0.0218876171857119,0.00537674827501178
752,0.026385297998786,0.0499837100505829,0.0255340542644262,-0.5,0.0235681980848312,-0.00580189470201731
753,0.0276999175548553,0.0515978969633579,0.0166521240025759,-0.5,0.0248839296400547,-0.0109599670395255
754,0.0240459963679314,0.054596059024334,0.0125490678474307,-0.5,0.0249959453940392,-0.00596252782270312
755,0.0186670701950789,0.0584516450762749,0.0136461397632957,-0.344818204641342,0.0242129564285278,0.00674969749525189
756,0.0122159002348781,0.0554443150758743,0.014866191893816,-0.215021446347237,0.0213830824941397,0.0191162098199129
757,0.00615780102089047,0.044520128518343,0.0159653909504414,-0.168527752161026,0.0184401124715805,0.0284653045237064
758,0.00545233767479658,0.0325789153575897,0.0213482677936554,-0.176856204867363,0.0197409894317389,0.0357490479946136
759,0.00966091174632311,0.0243077352643013,0.0289858467876911,-0.208376035094261,0.0240447781980038,0.0386132933199406
760,0.0149327721446753,0.022517966106534,0.0340634360909462,-0.277250856161118,0.0278097465634346,0.0366098806262016
761,0.0169869437813759,0.0259749516844749,0.0346524566411972,-0.396659106016159,0.0292460788041353,0.0320386402308941
762,0.0145616866648197,0.0325726754963398,0.0310567282140255,-0.5,0.0271657202392817,0.0267614237964153
763,0.0122271068394184,0.042367197573185,0.0263952985405922,-0.5,0.0226182248443365,0.0236969292163849
764,0.0119507806375623,0.0508988834917545,0.0225060991942883,-0.5,0.0182624831795692,0.0253271590918303
765,0.0141002582386136,0.0532020106911659,0.0201686844229698,-0.5,0.0173584874719381,0.0330087468028069
766,0.021482540294528,0.050823662430048,0.0222696978598833,-0.5,0.0224651489406824,0.0471714287996292
767,0.0302189607173204,0.0483953915536404,0.0262992028146982,-0.5,0.0302418675273657,0.0621756017208099
768,0.0334156081080437,0.0490580685436726,0.0259195752441883,-0.5,0.0347582660615444,0.0697527751326561
769,0.0310309436172247,0.0527611598372459,0.0207536350935698,-0.5,0.0343654714524746,0.0694281533360481
770,0.026252007111907,0.0572769977152348,0.0142493145540357,-0.5,0.0301710721105337,0.0655991658568382
771,0.0233746971935034,0.0594211369752884,0.012657267972827,-0.5,0.0262706149369478,0.0603024512529373
772,0.0239979848265648,0.0549964532256126,0.0202863272279501,-0.5,0.0278153829276562,0.0533300973474979
773,0.0250979531556368,0.0435387454926968,0.0315050855278969,-0.5,0.0339784137904644,0.0449042171239853
774,0.0272408798336983,0.0324726030230522,0.0393659472465515,-0.5,0.0402905270457268,0.038632083684206
775,0.0307557750493288,0.0278745368123055,0.0408001281321049,-0.478102713823318,0.0434044152498245,0.0370674282312393
776,0.0314316749572754,0.0282832086086273,0.0353282876312733,-0.414710134267807,0.0415946282446384,0.0381616204977036
777,0.0284526515752077,0.03109210729599,0.0268252566456795,-0.343446403741837,0.0356953702867031,0.0409824810922146
778,0.0240175295621157,0.0350672714412212,0.0173085704445839,-0.296762347221375,0.0271827150136232,0.0464567095041275
779,0.0216947458684444,0.0417462475597858,0.00726527441293001,-0.287608087062836,0.0186188910156488,0.0548541471362114
780,0.0235808957368135,0.0535747595131397,-0.000685315753798932,-0.309135168790817,0.0131005384027958,0.0648830458521843
781,0.0251036938279867,0.0652438402175903,-0.00682759843766689,-0.350006312131882,0.0100971106439829,0.0723772272467613
782,0.0240313969552517,0.0697723403573036,-0.0100618833675981,-0.377225071191788,0.00899528432637453,0.0752190351486206
783,0.0224050618708134,0.0694599375128746,-0.00737788155674934,-0.35192808508873,0.0101048024371266,0.0750072747468948
784,0.0196602940559387,0.0672065317630768,-0.00134298123884946,-0.26431542634964,0.0114900674670935,0.0713806003332138
785,0.0168305784463882,0.0608233362436295,0.00506099732592702,-0.151266917586327,0.0126855820417404,0.0639337673783302
786,0.0156768634915352,0.0500911548733711,0.0109172258526087,-0.0767659246921539,0.0151050481945276,0.0557099580764771
787,0.0163715165108442,0.0390794314444065,0.0150910299271345,-0.0660761743783951,0.0189428403973579,0.050932914018631
788,0.0204233434051275,0.032698281109333,0.0186054371297359,-0.089811310172081,0.0240217484533787,0.0508036501705647
789,0.0258193947374821,0.0294055715203285,0.0201504491269588,-0.116899587213993,0.0288205444812775,0.0499535873532295
790,0.0291016139090061,0.0246803015470505,0.0172197613865137,-0.130524754524231,0.031362771987915,0.0443023256957531
791,0.0319038331508636,0.0201202984899282,0.0137553224340081,-0.124872669577599,0.0327683426439762,0.0386966019868851
792,0.0346844084560871,0.0183541495352983,0.0132915116846561,-0.115638390183449,0.0343961082398891,0.038377083837986
793,0.0353946350514889,0.0199028514325619,0.0141657134518027,-0.0955642014741898,0.0354791693389416,0.0439216122031212
794,0.0332962349057198,0.024999063462019,0.0140592725947499,-0.037827655673027,0.03497564047575,0.0533318035304546
795,0.0281666442751884,0.0321357809007168,0.0107501056045294,0.0231351219117641,0.0324668176472187,0.0605763904750347
796,0.0233734678477049,0.0403350219130516,0.00454714056104422,0.0343725122511387,0.0294064916670322,0.060407217592001
797,0.0211328715085983,0.0477783679962158,-0.0033643888309598,0.00058611057465896,0.0264963526278734,0.0520232729613781
798,0.0181247089058161,0.0537480935454369,-0.0134204896166921,-0.0163978207856417,0.021816648542881,0.0382027924060822
799,0.0145035563036799,0.061864472925663,-0.0215778201818466,0.0468363836407661,0.0156504195183516,0.0268200896680355
800,0.0120668755844235,0.0697035416960716,-0.0230831652879715,0.16481114923954,0.0104714632034302,0.022167544811964
801,0.0109952930361032,0.0715431123971939,-0.0184418652206659,0.24951408803463,0.00863185618072748,0.0220402460545301
802,0.0132097452878952,0.0684775561094284,-0.00993098877370358,0.237388327717781,0.0116784125566483,0.02676104567945
803,0.0170932114124298,0.06263517588377,-0.00205710274167359,0.1186388656497,0.0172133184969425,0.0354889743030071
804,0.0203456003218889,0.0563396885991097,0.00234551448374987,-0.0545188002288342,0.0222470257431269,0.0437111109495163
805,0.0242128223180771,0.0523187629878521,0.00438230810686946,-0.209287598729134,0.027246855199337,0.048934955149889
806,0.0277107246220112,0.0488185659050941,0.00296129402704537,-0.318326085805893,0.032085444778204,0.050418809056282
807,0.0307997576892376,0.0469323545694351,0.0001075229520211,-0.393895745277405,0.0358993113040924,0.0501553378999233
808,0.0338614173233509,0.0502869561314583,0.00145125214476138,-0.442720323801041,0.0381775833666325,0.0511002726852894
809,0.0333662778139114,0.0562807247042656,0.00606925738975406,-0.439161747694016,0.0370982587337494,0.0528602227568626
810,0.0288280490785837,0.0606225989758968,0.00961820781230927,-0.335316479206085,0.0330225937068462,0.0542270876467228
811,0.0226314272731543,0.059960313141346,0.00906987022608519,-0.15297244489193,0.0280027836561203,0.0536323897540569
812,0.0174115933477879,0.0540331453084946,0.00330354156903923,0.0537123568356037,0.0223456397652626,0.050544910132885
813,0.017638061195612,0.0481518134474754,-0.00490348041057587,0.31763568520546,0.0166113711893559,0.047404021024704
814,0.0222458001226187,0.0436110012233257,-0.0144174266606569,0.5,0.0105670457705855,0.0433903448283672
815,0.0262718182057142,0.0368522070348263,-0.024421688169241,0.5,0.00422616954892874,0.0371145196259022
816,0.0290982145816088,0.0284965205937624,-0.0285788979381323,0.5,0.000568990886677057,0.0328130610287189
817,0.0294527038931847,0.0222819391638041,-0.0246021673083305,0.5,-1.23638528748415E-05,0.0325662530958653
818,0.0257834978401661,0.0222971625626087,-0.017146147787571,0.371075063943863,0.000277121464023367,0.0357571877539158
819,0.0209385864436626,0.0296463444828987,-0.0103391921147704,0.439047783613205,0.000443661381723359,0.0438474081456661
820,0.0170818846672773,0.0401557385921478,-0.00707315606996417,0.5,-0.00117845274507999,0.0546625442802906
821,0.0151325548067689,0.0521579347550869,-0.00605514273047447,0.5,-0.00383840268477798,0.0621880143880844
822,0.0150344632565975,0.063962958753109,-0.00432584062218666,0.5,-0.0046827751211822,0.0615731552243233
823,0.0143978670239449,0.0691622644662857,-0.00325632840394974,0.497180283069611,-0.0042792777530849,0.0514819845557213
824,0.0143934022635221,0.0675294026732445,-0.00244411127641797,0.337907791137695,-0.00383658311329782,0.0380683988332748
825,0.0160431750118732,0.063019186258316,5.12284968863241E-05,0.235502138733864,-0.00387264718301594,0.0298398528248072
826,0.0166637431830168,0.0561649948358536,0.00367977772839367,0.166264936327934,-0.00521105621010065,0.0287245791405439
827,0.0159592721611261,0.0484321936964989,0.00802526529878378,0.0897024497389793,-0.00734491972252727,0.0320206210017204
828,0.0138136064633727,0.0411470681428909,0.0104866325855255,-0.0032893477473408,-0.0102631906047463,0.0357316993176937
829,0.0117708500474691,0.03542685136199,0.00943523924797773,-0.0700822547078133,-0.0126460641622543,0.0375105515122414
830,0.0137432888150215,0.0336196720600128,0.00742546049878001,-0.0813335031270981,-0.0112071949988604,0.0375267453491688
831,0.018400102853775,0.036243163049221,0.00446664122864604,-0.0343304388225079,-0.00668416218832135,0.0354904048144817
832,0.0241916831582785,0.0417199172079563,0.00138249562587589,0.0742947906255722,-0.00195013650227338,0.0339817963540554
833,0.030938858166337,0.0455014482140541,0.00187807192560285,0.214537084102631,0.00148593680933118,0.0377893447875977
834,0.0340683944523335,0.0458533838391304,0.00417456682771444,0.328268855810165,0.00213319528847933,0.048001553863287
835,0.0319275297224522,0.0466640293598175,0.00453804386779666,0.364649623632431,0.000114256792585365,0.0623688437044621
836,0.0272883754223585,0.0466301292181015,0.003198187565431,0.304399222135544,-0.00299833901226521,0.0739918872714043
837,0.0219811461865902,0.0416947975754738,0.00225347047671676,0.194873243570328,-0.00611052662134171,0.073997363448143
838,0.0183657519519329,0.0337123014032841,0.00341883301734924,0.102445267140865,-0.00872996170073748,0.0605761483311653
839,0.0163632370531559,0.0241100657731295,0.00377345248125494,0.0425898395478725,-0.011774537153542,0.0392467714846134
840,0.0151393907144666,0.0142814535647631,0.000342972605722025,0.00894501246511936,-0.0150907291099429,0.0196877438575029
841,0.0173735618591309,0.0094471974298358,-0.00253293314017355,0.00442376406863332,-0.0156816691160202,0.0105020850896835
842,0.0219524521380663,0.0117664467543364,-0.000952871982008219,0.0356478691101074,-0.0130397817119956,0.0103846602141857
843,0.0254246797412634,0.0199989043176174,0.00425888504832983,0.0917794108390808,-0.00927248038351536,0.0132540417835116
844,0.0277317985892296,0.0303913298994303,0.010554876178503,0.124397046864033,-0.00535879004746675,0.0184452645480633
845,0.0283914841711521,0.0367827080190182,0.0139657333493233,0.097208172082901,-0.00304271839559078,0.0273993574082851
846,0.028103906661272,0.0388957411050797,0.0149737978354096,0.0305702909827232,-0.00247134617529809,0.0374111458659172
847,0.0275991167873144,0.0395903363823891,0.0165866017341614,-0.0390240475535393,-0.000883601605892181,0.0413508415222168
848,0.0248015318065882,0.0383928492665291,0.0166485719382763,-0.0879149958491325,0.00129025662317872,0.0350448489189148
849,0.0227488912642002,0.0369718819856644,0.0148262921720743,-0.0882953926920891,0.00193722022231668,0.0251889117062092
850,0.0260022655129433,0.0364544913172722,0.0136277750134468,-0.0224169567227364,0.00108401372563094,0.0214470364153385
851,0.0330710373818874,0.0345332324504852,0.0127564109861851,0.0851558968424797,-0.000226628384552896,0.0246380958706141
852,0.0410345532000065,0.0335628986358643,0.012267941609025,0.170251488685608,-0.000298331928206608,0.0287110898643732
853,0.0456939935684204,0.0388178490102291,0.011695290915668,0.183209881186485,0.00107510748784989,0.028222244232893
854,0.0455807633697987,0.0497586615383625,0.0120679726824164,0.156685218214989,0.00316718826070428,0.024713896214962
855,0.0435831286013126,0.0582686923444271,0.016395453363657,0.145910143852234,0.00562449684366584,0.0231576729565859
856,0.0388238541781902,0.0560484267771244,0.0214668419212103,0.149067997932434,0.00665403017774224,0.0227634608745575
857,0.0326976962387562,0.0461334809660912,0.0241651870310307,0.153722435235977,0.0061184698715806,0.0224537383764982
858,0.0300590060651302,0.037660576403141,0.0266101658344269,0.15428538620472,0.00587837072089314,0.0253601241856813
859,0.0300641059875488,0.0316600911319256,0.0283948853611946,0.139874175190926,0.00622340757399797,0.031099833548069
860,0.0309593584388494,0.0244177654385567,0.0284492243081331,0.103490188717842,0.00839159823954105,0.0351573005318642
861,0.0322831869125366,0.0146102597936988,0.0270154420286417,0.0386416092514992,0.0124128814786673,0.0334485098719597
862,0.0330532267689705,0.00497215148061514,0.0248452834784985,-0.0413833111524582,0.0147114582359791,0.0259309131652117
863,0.0353568382561207,0.00156056531704962,0.026790477335453,-0.0917985886335373,0.0148577271029353,0.0188227873295546
864,0.0387514792382717,0.00524451909586787,0.0333199426531792,-0.0671190842986107,0.0147116808220744,0.0168279521167278
865,0.0398509912192822,0.010412098839879,0.0374662354588509,0.03974474593997,0.0147514287382364,0.0179457869380713
866,0.0396371483802795,0.0131240300834179,0.0380247868597507,0.186535269021988,0.0160421524196863,0.0193170607089996
867,0.0386729575693607,0.0126682929694653,0.0382029749453068,0.320822656154633,0.0180603768676519,0.0210070479661226
868,0.0366908386349678,0.0103282490745187,0.0380247831344604,0.416349470615387,0.0187694747000933,0.0259932335466146
869,0.0348563529551029,0.00851056165993214,0.0355810448527336,0.462524116039276,0.0168365556746721,0.0349161140620708
870,0.0319561995565891,0.00879342295229435,0.0290786903351545,0.468153566122055,0.0110596055164933,0.0423428155481815
871,0.0292593613266945,0.0119354100897908,0.0219291485846043,0.468392878770828,0.00375315733253956,0.0453860387206078
872,0.0294226836413145,0.0146639654412866,0.0187391173094511,0.48133796453476,-0.000674870272632688,0.0450949519872665
873,0.0305740833282471,0.0120545485988259,0.0175137594342232,0.488913059234619,-0.00166598323266953,0.0408460013568401
874,0.0323840938508511,0.00630377745255828,0.0169847309589386,0.478014796972275,-0.000228950259042904,0.0341312848031521
875,0.0353304818272591,0.00132454209960997,0.0183253660798073,0.456931948661804,0.00301048369146883,0.0270421896129847
876,0.0373646430671215,-0.00150301237590611,0.0205333642661572,0.44109982252121,0.00686750048771501,0.020248169079423
877,0.0383054800331593,0.000649869383778423,0.0228340961039066,0.438769698143005,0.0103631466627121,0.0165066476911306
878,0.0378356203436852,0.00920053571462631,0.0235866494476795,0.447714447975159,0.0125376079231501,0.0163527745753527
879,0.0364391468465328,0.0247193444520235,0.0224838741123676,0.467334598302841,0.0135924974456429,0.0194188579916954
880,0.0363656505942345,0.0414962470531464,0.0222913324832916,0.5,0.0147493286058307,0.0287851467728615
881,0.0357666052877903,0.0462785810232162,0.0230809058994055,0.5,0.0158881451934576,0.0431469120085239
882,0.0332961454987526,0.0379286333918571,0.0255364775657654,0.5,0.0169545225799084,0.0567006655037403
883,0.0307712275534868,0.0253447294235229,0.0317394956946373,0.5,0.0184424128383398,0.0653491839766502
884,0.0286633651703596,0.0113959526643157,0.0383655987679958,0.5,0.0193199925124645,0.0658039078116417
885,0.0280916970223188,-0.00184692873153836,0.0413180515170097,0.5,0.0186637956649065,0.0582108832895756
886,0.0295637585222721,-0.00850895047187805,0.0398012697696686,0.5,0.0165013913065195,0.0479205548763275
887,0.0325819663703442,-0.00626564119011164,0.0351050831377506,0.5,0.0142713468521833,0.0409788377583027
888,0.038616094738245,-0.000617526937276125,0.0318005420267582,0.5,0.0154531076550484,0.0395536459982395
889,0.0449321828782558,6.70344306854531E-05,0.0310328602790833,0.5,0.0197452325373888,0.0394870229065418
890,0.04641018435359,-0.00687411986291409,0.0294277351349592,0.5,0.0234888065606356,0.0355337038636208
891,0.0439682230353355,-0.0163168795406818,0.0271423123776913,0.5,0.0261179395020008,0.028841782361269
892,0.0392765328288078,-0.0225959755480289,0.0242279339581728,0.5,0.0273156110197306,0.0236719567328691
893,0.0330294407904148,-0.0240048412233591,0.0196242146193981,0.5,0.0261257383972406,0.0231431107968092
894,0.0273871216922998,-0.0219252798706293,0.0157728288322687,0.5,0.023882869631052,0.0289132334291935
895,0.0227113049477339,-0.0199869107455015,0.0140211302787066,0.5,0.0219746269285679,0.0375715456902981
896,0.0204976368695498,-0.0187165550887585,0.013842411339283,0.5,0.0215992666780949,0.0434755571186543
897,0.0210815127938986,-0.0160257406532764,0.0135602531954646,0.5,0.0222595650702715,0.0434394590556622
898,0.0201248154044151,-0.0129736680537462,0.0105418777093291,0.5,0.021389639005065,0.0370533615350723
899,0.0178576949983835,-0.0105253793299198,0.00784518849104643,0.5,0.0202380362898111,0.0302614960819483
900,0.0170335229486227,-0.00953444838523865,0.00848780572414398,0.5,0.0212081857025623,0.0293498132377863
901,0.016308818012476,-0.0113739455118775,0.00908093154430389,0.5,0.0230827145278454,0.0328035689890385
902,0.0149126816540957,-0.0143105406314135,0.00836632866412401,0.5,0.0242314878851175,0.0363899506628513
903,0.0123033113777637,-0.0179303791373968,0.00760764349251986,0.444576919078827,0.0241776295006275,0.0368086770176888
904,0.00891471654176712,-0.0217391792684793,0.0068955710157752,0.398737281560898,0.023395910859108,0.034840751439333
905,0.00689925299957395,-0.0218654405325651,0.0054973354563117,0.358758240938187,0.0222319848835468,0.0358360968530178
906,0.00524427089840174,-0.0197161473333836,-0.00010040462075267,0.31542307138443,0.0203291941434145,0.0413257777690887
907,0.00451391143724322,-0.0193234402686358,-0.0105145247653127,0.269910663366318,0.0194400604814291,0.0479819439351559
908,0.0064811441116035,-0.0196490809321404,-0.020662697032094,0.203896000981331,0.0216799657791853,0.052910290658474
909,0.00764297088608146,-0.0207107979804277,-0.0270326770842075,0.103522188961506,0.0257555097341537,0.0562112480401993
910,0.00557714002206922,-0.0230010431259871,-0.0288313813507557,0.0043360129930079,0.0293092764914036,0.060143455862999
911,0.00139778514858335,-0.0239461865276098,-0.0275445207953453,-0.0530178919434547,0.0314103290438652,0.0643575266003609
912,-0.0030175584834069,-0.0235828272998333,-0.0260031186044216,-0.0540858618915081,0.0324987098574638,0.0670768469572067
913,-0.0044599762186408,-0.0240649320185184,-0.0241963267326355,0.00251691346056759,0.0338898040354252,0.0690375566482544
914,-0.00409057782962918,-0.0288257226347923,-0.0232025645673275,0.106430388987064,0.034604150801897,0.0680233612656593
915,-0.00537503277882934,-0.040013387799263,-0.0252029448747635,0.229691222310066,0.0323381684720516,0.0613710656762123
916,-0.00581425288692117,-0.0518470518290997,-0.0272796023637056,0.3277488052845,0.0293892323970795,0.0536431670188904
917,-0.00355359609238803,-0.0567811690270901,-0.0283250752836466,0.364970743656158,0.0291936658322811,0.0481783747673035
918,-0.000287729519186541,-0.0517660826444626,-0.0316664129495621,0.328855931758881,0.0311812851577997,0.0446274988353252
919,0.00354372221045196,-0.040527880191803,-0.03744812682271,0.234113678336143,0.0334289111196995,0.0467134043574333
920,0.00637231860309839,-0.0317544266581535,-0.0434420108795166,0.121838375926018,0.0352097488939762,0.0557041801512241
921,0.00745932990685105,-0.0269360654056072,-0.0459998808801174,0.0432253628969193,0.0376896299421787,0.0647283121943474
922,0.0060248514637351,-0.0246286075562239,-0.0440515950322151,0.0448339767754078,0.0402647480368614,0.0665417239069939
923,-0.00112730788532645,-0.0288520772010088,-0.0417821668088436,0.11252024769783,0.0404706485569477,0.0611052960157394
924,-0.0112941777333617,-0.0375784188508987,-0.0393895991146564,0.153530821204185,0.039498969912529,0.0563185624778271
925,-0.0193516202270985,-0.0440541133284569,-0.0353619381785393,0.107845939695835,0.03946378454566,0.056565310806036
926,-0.0251463446766138,-0.0482627563178539,-0.0317155346274376,-0.00328323151916265,0.0405713617801666,0.0574952177703381
927,-0.0290048941969872,-0.0531855784356594,-0.0290813446044922,-0.127153888344765,0.0430905222892761,0.0556858144700527
928,-0.0313682854175568,-0.0600543543696404,-0.0281359441578388,-0.221079140901566,0.0462178289890289,0.0510600097477436
929,-0.0313479825854301,-0.0647952035069466,-0.0285199079662561,-0.27212119102478,0.0488642528653145,0.0470006689429283
930,-0.0273177195340395,-0.0606355518102646,-0.02740085311234,-0.262803882360458,0.0505870617926121,0.0487137958407402
931,-0.0228113085031509,-0.0481965243816376,-0.0263678524643183,-0.190352842211723,0.0501218810677528,0.0561191886663437
932,-0.01980703137815,-0.0320882461965084,-0.0283159948885441,-0.130972102284431,0.048511728644371,0.0664658024907112
933,-0.0157298650592566,-0.0187406148761511,-0.0314611904323101,-0.155802711844444,0.0499300323426723,0.0769645050168037
934,-0.0105229802429676,-0.0166919510811567,-0.0326938033103943,-0.243877738714218,0.0556904636323452,0.0833120569586754
935,-0.00558222224935889,-0.0257953535765409,-0.0305627211928368,-0.351233303546906,0.0625080242753029,0.0840918943285942
936,-0.00281038088724017,-0.0388164333999157,-0.0279359314590693,-0.439287573099136,0.0654855817556381,0.0807140171527863
937,-0.00376185472123325,-0.0484706200659275,-0.0298155210912228,-0.477735102176666,0.0619762800633907,0.0750650614500046
938,-0.0057623814791441,-0.0485782958567142,-0.0352420434355736,-0.481028020381927,0.0556863620877266,0.0720755010843277
939,-0.00797523092478514,-0.0434957407414913,-0.0407796688377857,-0.476442456245422,0.0509006418287754,0.0756600201129913
940,-0.011999155394733,-0.0432136282324791,-0.0459474064409733,-0.473195254802704,0.0465316288173199,0.0817702636122704
941,-0.0153875974938273,-0.0475888811051846,-0.0489670671522617,-0.470063358545303,0.0416001938283443,0.0802117586135864
942,-0.0170006360858679,-0.0525672063231468,-0.048615824431181,-0.455602437257767,0.0368337333202362,0.063910037279129
943,-0.0168969593942165,-0.0570033118128777,-0.0448276028037071,-0.424511849880219,0.0337884165346622,0.0390797071158886
944,-0.0130237443372607,-0.0588581226766109,-0.0365235321223736,-0.391504526138306,0.0352296270430088,0.0204783529043198
945,-0.0064501566812396,-0.0565827898681164,-0.0262756273150444,-0.357941001653671,0.0408391505479813,0.0163867101073265
946,0.00153183320071548,-0.0487062633037567,-0.0174637511372566,-0.30485013127327,0.0481824986636639,0.0257952678948641
947,0.0101032881066203,-0.0361394509673119,-0.0112708648666739,-0.243136525154114,0.0559635534882545,0.0401501320302486
948,0.0158938094973564,-0.025113258510828,-0.00970892049372196,-0.202135190367699,0.0617306008934975,0.0486655868589878
949,0.0190048292279243,-0.0187965128570795,-0.011148365214467,-0.172773793339729,0.0633416250348091,0.0505431219935417
950,0.0195368267595768,-0.016110498458147,-0.0120119480416179,-0.126248836517334,0.0606933310627937,0.0503822453320026
951,0.0150713492184877,-0.0156917069107294,-0.0120621053501964,-0.0545766614377499,0.0548187755048275,0.0487706959247589
952,0.00786850415170193,-0.0153997493907809,-0.0110006565228105,0.0399686917662621,0.0493749268352985,0.0457939431071281
953,0.00104663812089711,-0.0154897924512625,-0.0100964717566967,0.141150996088982,0.0468059368431568,0.0415773987770081
954,-0.00276891957037151,-0.0159731116145849,-0.0107389697805047,0.214001312851906,0.0453246608376503,0.0383378155529499
955,-0.000940673402510583,-0.0162742510437965,-0.0106196608394384,0.236401483416557,0.0441521480679512,0.0405063331127167
956,0.00244169472716749,-0.0190890319645405,-0.0106808068230748,0.208640336990356,0.0433608181774616,0.0459431000053883
957,0.00336579303257167,-0.0225118119269609,-0.013069904409349,0.145523309707642,0.0416045598685741,0.0495466105639935
958,0.00331940059550107,-0.0204740017652512,-0.0156148448586464,0.0825544223189354,0.0383713655173779,0.0507262609899044
959,0.00357484631240368,-0.0146556636318564,-0.0170996431261301,0.0958500877022743,0.034405168145895,0.0502420887351036
960,0.00584272667765617,-0.0106345126405358,-0.0170999299734831,0.232997506856918,0.0318086221814156,0.0480644069612026
961,0.00999448541551828,-0.00970922037959099,-0.0150854950770736,0.434100449085236,0.0316194221377373,0.0434542521834373
962,0.0131056541576982,-0.0122955916449428,-0.0112373717129231,0.5,0.0321883745491505,0.0373334623873234
963,0.0151631366461515,-0.0179947800934315,-0.00388884055428207,0.5,0.0330439545214176,0.0340708754956722
964,0.0159753728657961,-0.0247480198740959,0.00531011028215289,0.5,0.0341726243495941,0.0347746722400188
965,0.0146636962890625,-0.0286351796239614,0.0112432604655623,0.5,0.034500565379858,0.035650160163641
966,0.0139693403616548,-0.0252831168472767,0.0139519311487675,0.5,0.0347624830901623,0.0336402952671051
967,0.0148184187710285,-0.0182524025440216,0.0146824810653925,0.5,0.0351592488586903,0.0261012241244316
968,0.0153749492019415,-0.0146557837724686,0.0127644902095199,0.5,0.0345541760325432,0.0148596800863743
969,0.0151422154158354,-0.0166180226951838,0.010736396536231,0.464676678180695,0.0338699668645859,0.00750459590926766
970,0.0139781981706619,-0.0231349617242813,0.010542462579906,0.459612458944321,0.0338904671370983,0.00562611175701022
971,0.0146483369171619,-0.0285858307033777,0.0116203362122178,0.5,0.033803928643465,0.00541274948045611
972,0.0186098143458366,-0.0291956122964621,0.0124758891761303,0.5,0.0317421369254589,0.00473106047138572
973,0.0214729756116867,-0.0287780854851007,0.0109125915914774,0.5,0.0266963727772236,0.00266876723617315
974,0.0224992744624615,-0.0261099338531494,0.00931868329644203,0.486879467964172,0.0215502455830574,0.00279799220152199
975,0.0229274649173021,-0.0170755553990602,0.0104895029217005,0.355918258428574,0.0185399893671274,0.00811404921114445
976,0.0203641299158335,-0.00424721091985703,0.0121468417346478,0.237339437007904,0.0160375013947487,0.0146499155089259
977,0.0151669709011912,0.00729773053899407,0.0132409911602736,0.127824947237968,0.012671216391027,0.019061055034399
978,0.011858900077641,0.0109014678746462,0.0143950525671244,0.025200467556715,0.00954344868659973,0.0210199728608131
979,0.0155518045648932,0.00491382414475083,0.0162265170365572,-0.0618814565241337,0.0101365651935339,0.0199817717075348
980,0.0247352048754692,-0.00373040605336428,0.0198306702077389,-0.113710425794125,0.0168513357639313,0.0165131203830242
981,0.0299124903976917,-0.00840564724057913,0.0228888001292944,-0.0925967320799828,0.0258419532328844,0.0133402058854699
982,0.0279085952788591,-0.00227478635497391,0.0239434111863375,0.0174483526498079,0.0307902973145247,0.0150297619402409
983,0.0233833771198988,0.0162909757345915,0.0254426933825016,0.180376276373863,0.0291776619851589,0.0226380005478859
984,0.0185701232403517,0.0343318581581116,0.0282879136502743,0.343253433704376,0.0234651565551758,0.0313811302185059
985,0.0153726981952786,0.0383408926427364,0.0325295999646187,0.469497382640839,0.0200761947780848,0.0380139127373695
986,0.0150122502818704,0.0264661200344563,0.0363316684961319,0.5,0.0216309688985348,0.0405667424201965
987,0.0156139610335231,0.00665149511769414,0.0375616699457169,0.425906449556351,0.0238327607512474,0.0359117649495602
988,0.0165249854326248,-0.00820400752127171,0.040135134011507,0.243268460035324,0.0235653594136238,0.026701295748353
989,0.0160995237529278,-0.0130520211532712,0.0453238189220428,0.0346995741128922,0.0204500500112772,0.0188676826655865
990,0.0132577670738101,-0.0109438989311457,0.0475656278431416,-0.152530997991562,0.0147204222157598,0.0126024140045047
991,0.0130245704203844,-0.00330722820945084,0.0452635437250137,-0.278663843870163,0.00847527012228966,0.00614020228385925
992,0.0178694874048233,0.00453523406758904,0.040126696228981,-0.321579694747925,0.0032010090071708,0.000850386510137469
993,0.0240477323532104,0.00439633103087544,0.0346045196056366,-0.305040121078491,-0.000617810641415417,-0.00250747078098357
994,0.0285765416920185,-0.00323377572931349,0.0334110036492348,-0.260745674371719,-0.00198651291429996,-0.00650840857997537
995,0.0295900534838438,-0.0113777201622725,0.0368960984051228,-0.192106992006302,-0.00192636915016919,-0.0116093680262566
996,0.0290877055376768,-0.0129683231934905,0.0425124019384384,-0.0999393984675407,-0.00102875917218626,-0.0116039291024208
997,0.031675674021244,-0.00736970221623778,0.0492567755281925,-0.0237441211938858,0.00280642393045127,-0.00446079252287745
998,0.0382894761860371,-0.00272543961182237,0.0551830977201462,-0.00631852494552732,0.0109156789258122,0.0036141041200608
999,0.0486666448414326,-0.00314153148792684,0.0597272589802742,-0.0260286778211594,0.022075479850173,0.0104155521839857
1000,0.0590316206216812,-0.00651229918003082,0.0624940060079098,-0.0327163971960545,0.0321453660726547,0.0158410891890526
1001,0.063473641872406,-0.0110463993623853,0.0624523349106312,-0.0208704397082329,0.0378739014267921,0.0181591380387545
1002,0.0622722618281841,-0.0136384628713131,0.0618907995522022,-0.0322521105408669,0.040044441819191,0.0186827108263969
1003,0.0572657026350498,-0.0106765562668443,0.0621494054794312,-0.0866456925868988,0.0397310853004456,0.017150042578578
1004,0.0505640171468258,0.00200688256882131,0.0630351901054382,-0.146812289953232,0.0369350947439671,0.0123658562079072
1005,0.0461402200162411,0.0225308500230312,0.0648983344435692,-0.169297143816948,0.0317857414484024,0.00624141748994589
1006,0.042574517428875,0.0366675928235054,0.0642065107822418,-0.137049913406372,0.0237869620323181,-0.000505439820699394
1007,0.0383489578962326,0.0350119546055794,0.0598711632192135,-0.0504995062947273,0.0148382792249322,-0.00612568715587258
1008,0.0362479016184807,0.0230398941785097,0.0571532547473907,0.0760640203952789,0.00890542194247246,-0.00787862949073315
1009,0.0361184142529964,0.00978865101933479,0.0579096972942352,0.222051307559013,0.00645879236981273,-0.0064915562979877
1010,0.0367805957794189,0.00175257620867342,0.0604338832199574,0.354241818189621,0.00599849922582507,-0.00440025702118874
1011,0.0375382117927074,-0.0011724685318768,0.0630301982164383,0.421478182077408,0.0062754862010479,-0.0050640907138586
1012,0.0372754111886024,-0.00345428264699876,0.0638503581285477,0.425845742225647,0.0057549444027245,-0.0075683007016778
1013,0.0374236926436424,-0.00504507310688496,0.0646369084715843,0.439592689275742,0.00499702803790569,-0.00600666552782059
1014,0.0377651862800121,-0.00582539197057486,0.0677177309989929,0.47986513376236,0.00608637044206262,-0.0021272050216794
1015,0.0370169207453728,-0.00727908592671156,0.0723066627979279,0.493641376495361,0.0103042013943195,-0.00219551520422101
1016,0.03807507827878,-0.0075835082679987,0.0773396268486977,0.441837221384048,0.0165818277746439,-0.00628949794918299
1017,0.0413482487201691,-0.00566136464476585,0.079214483499527,0.315407454967499,0.019208088517189,-0.0132398949936032
1018,0.044297069311142,-0.00095272297039628,0.0747849494218826,0.147729948163033,0.0139899272471666,-0.0219815000891685
1019,0.0463885255157948,0.00575443403795362,0.0678144842386246,-0.0134320538491011,0.00428162980824709,-0.0299508180469275
1020,0.045796737074852,0.00836840178817511,0.0640810951590538,-0.116306230425835,-0.00466726906597614,-0.0350168868899345
1021,0.0429308749735355,0.00598123483359814,0.0667189434170723,-0.0931698381900787,-0.00933936238288879,-0.0341016128659248
1022,0.040531974285841,0.00251182448118925,0.0725615173578262,0.0604236572980881,-0.00937265623360872,-0.0292691756039858
1023,0.0388090834021568,-0.00335567467845976,0.0737546682357788,0.269255459308624,-0.00762806693091989,-0.0277103744447231
1024,0.0405145883560181,-0.0104000717401505,0.069405198097229,0.443095266819,-0.004893708974123,-0.0295139960944653
1025,0.0469406247138977,-0.0135072264820337,0.0629290118813515,0.5,-0.00158949964679778,-0.0304518584161997
1026,0.0525600574910641,-0.0104806097224355,0.0556639172136784,0.498832732439041,-0.000130301385070197,-0.0295140445232391
1027,0.052271980792284,0.00054656236898154,0.0502537749707699,0.427647411823273,-0.00131354620680213,-0.0281685702502728
1028,0.0452433377504349,0.018537700176239,0.0479217953979969,0.330964893102646,-0.00383470463566482,-0.0293218139559031
1029,0.0364072509109974,0.0369477979838848,0.0490776039659977,0.218291193246841,-0.00449353409931064,-0.0324038043618202
1030,0.0322482362389565,0.0477393120527267,0.0547161549329758,0.0960168614983559,-0.00131710199639201,-0.0332951471209526
1031,0.0322757586836815,0.0448896028101444,0.0613223500549793,-0.018396632745862,0.00221165618859231,-0.0309776347130537
1032,0.0342689342796803,0.0309825725853443,0.0659421235322952,-0.0955467149615288,0.00300863455049694,-0.0274720974266529
1033,0.0382470116019249,0.0145166609436274,0.0697653442621231,-0.125327989459038,0.00271031376905739,-0.0248186066746712
1034,0.0419533960521221,0.00127408723346889,0.0722392126917839,-0.114021047949791,0.00204387446865439,-0.0238139536231756
1035,0.04355788230896,-0.00619263807311654,0.0735348239541054,-0.063244991004467,0.000379801087547094,-0.0228833220899105
1036,0.0430335439741611,-0.0100243361666799,0.0752216503024101,0.0228697285056114,-0.00107060885056853,-0.0214490108191967
1037,0.0418674573302269,-0.0143485991284251,0.0760826393961906,0.127230882644653,-0.000760118593461812,-0.0213848687708378
1038,0.0443650670349598,-0.0186996012926102,0.0768361166119576,0.221810013055801,0.00258848629891872,-0.0224533416330814
1039,0.0498025268316269,-0.0209943782538176,0.0796023234724998,0.31291738152504,0.0075606619939208,-0.0237043090164661
1040,0.0525624044239521,-0.0182537715882063,0.0838372781872749,0.41918882727623,0.0098465159535408,-0.0249374769628048
1041,0.0516820512712002,-0.00675285374745727,0.0884273499250412,0.493850350379944,0.00836266949772835,-0.0248364061117172
1042,0.0475889071822166,0.00913438387215137,0.0900875404477119,0.5,0.00425750156864524,-0.0235758237540722
1043,0.0411213040351868,0.0202767997980118,0.0873382911086082,0.5,-0.00128364271949977,-0.0219936147332191
1044,0.0358413495123386,0.0227066408842802,0.0839254707098007,0.488795697689056,-0.00491018500179052,-0.0206232778728008
1045,0.0328088253736496,0.0170621890574694,0.0802406668663025,0.45945405960083,-0.00486230989918113,-0.0213062837719917
1046,0.0330259427428246,0.00949894078075886,0.0744745805859566,0.446152955293655,-0.00296153174713254,-0.0229660905897617
1047,0.0365404039621353,0.00811102986335754,0.0676526203751564,0.487842947244644,-0.00219312473200262,-0.0226771607995033
1048,0.0383715108036995,0.0123956361785531,0.0610004737973213,0.5,-0.00389146688394248,-0.0213319733738899
1049,0.0387284643948078,0.0173817221075296,0.0578862279653549,0.5,-0.00418780371546745,-0.0201790723949671
1050,0.0420340225100517,0.0206058695912361,0.059754591435194,0.5,0.000361563405022025,-0.0196601469069719
1051,0.0473761484026909,0.0216973982751369,0.0622668340802193,0.5,0.00681464979425073,-0.0201517883688211
1052,0.0518469847738743,0.0231068339198828,0.063895471394062,0.5,0.0116397486999631,-0.0191413406282663
1053,0.0524038411676884,0.0239926651120186,0.0654614642262459,0.439597129821777,0.0143693136051297,-0.0151413483545184
1054,0.0488348118960857,0.0223812628537416,0.0661820024251938,0.325989246368408,0.016384681686759,-0.00915723387151957
1055,0.0438829064369202,0.0235150828957558,0.0657212808728218,0.225161194801331,0.0183084681630135,-0.00337015208788216
1056,0.0367279350757599,0.0307425670325756,0.0626801624894142,0.155448108911514,0.0177424773573875,-0.00105049530975521
1057,0.0295830741524696,0.0412292256951332,0.0584639944136143,0.145109623670578,0.0147468782961369,0.000493959698360413
1058,0.0283365473151207,0.0511760413646698,0.0581070967018604,0.191539376974106,0.0134537518024445,0.00580759905278683
1059,0.03242477029562,0.0553975254297256,0.0624921247363091,0.268498748540878,0.0159928668290377,0.0111715709790587
1060,0.038276419043541,0.0508305467665195,0.068309910595417,0.355363428592682,0.0216950122267008,0.0123095856979489
1061,0.0431216545403004,0.0381685122847557,0.0703907012939453,0.390868932008743,0.0278871860355139,0.00968646071851254
1062,0.0460999794304371,0.021518025547266,0.0663039013743401,0.322414606809616,0.0306862853467464,0.0039250859990716
1063,0.0494392365217209,0.00883427541702986,0.0613119937479496,0.161435008049011,0.0285571701824665,-0.00302202464081347
1064,0.0510271303355694,0.00257919891737401,0.0590401440858841,-0.0553993508219719,0.0226567629724741,-0.00849994458258152
1065,0.0476239025592804,-0.00124517409130931,0.0570902451872826,-0.261550456285477,0.0158326886594296,-0.0117867216467857
1066,0.0438808910548687,-0.00357140670530498,0.0551459304988384,-0.396082669496536,0.0119761796668172,-0.0125041976571083
1067,0.0446093007922173,-0.00274952407926321,0.0535016134381294,-0.442210882902145,0.0130647281184793,-0.0128751881420612
1068,0.0498810447752476,0.00150629004929215,0.0505915433168411,-0.396294176578522,0.0185972396284342,-0.015449408441782
1069,0.0585550740361214,0.00827625766396523,0.0458903424441814,-0.281625628471375,0.0263408552855253,-0.0164155960083008
1070,0.0660693943500519,0.0163844134658575,0.0391497574746609,-0.159734085202217,0.0315810218453407,-0.0101761305704713
1071,0.0676051452755928,0.024672107771039,0.0331289544701576,-0.0863583385944366,0.0311151761561632,0.00237466301769018
1072,0.0614594854414463,0.0299464613199234,0.0314159654080868,-0.0653086751699448,0.0257176663726568,0.0116177434101701
1073,0.0476541221141815,0.0303710885345936,0.0320721194148064,-0.0417239740490913,0.0172444395720959,0.00897643808275461
1074,0.0314424522221088,0.0312820971012115,0.0329152345657349,0.0463091991841793,0.00807694904506207,0.000500616326462477
1075,0.0185864735394716,0.0355785638093948,0.0329270735383034,0.202870026230812,-0.000685055973008275,-0.00285056419670582
1076,0.0118128350004554,0.0375293642282486,0.0311008337885141,0.352830708026886,-0.00767681235447526,-0.00152894284110516
1077,0.0138986827805638,0.0338596664369106,0.0294271036982536,0.420112371444702,-0.00901410263031721,-0.00186025875154883
1078,0.0219306834042072,0.0275929123163223,0.0286523848772049,0.401947230100632,-0.00502211134880781,-0.00678084930405021
1079,0.030367162078619,0.0221216566860676,0.0297357477247715,0.32927131652832,0.000320235820254311,-0.0123335160315037
