,AF3,AF4,Fp1,Fp2,AF7,AF8
0,0.0134524777531624,-0.00555300712585449,0.0784929096698761,0.0532118082046509,0.098453663289547,0.0435907207429409
1,0.0129182497039437,-0.00386610627174377,0.0782674178481102,0.0511611960828304,0.0986152738332748,0.0412828400731087
2,0.0108404038473964,-0.00237243040464818,0.0777313038706779,0.0496629290282726,0.0984371155500412,0.0405454598367214
3,0.00840836949646473,-0.00172943447250873,0.0778384059667587,0.0494314692914486,0.098171703517437,0.0419889353215694
4,0.0068338867276907,-0.0022004374768585,0.0790321752429008,0.0503682196140289,0.0979809612035751,0.0445772111415863
5,0.00613579945638776,-0.00354263209737837,0.0804208070039749,0.0517244674265385,0.0971797928214073,0.0469533801078796
6,0.00572032621130347,-0.00495597766712308,0.0810295939445496,0.0526010394096375,0.0950193107128143,0.0483459979295731
7,0.00506929261609912,-0.0060681845061481,0.080473430454731,0.0523945912718773,0.0914559885859489,0.0485666021704674
8,0.00423937244340777,-0.00697530759498477,0.0787745118141174,0.0515070371329784,0.0870649889111519,0.0478933453559875
9,0.00366082275286317,-0.00776314036920667,0.0761280730366707,0.0505592189729214,0.0826052650809288,0.0466010421514511
10,0.00361954886466265,-0.00821423437446356,0.0730937346816063,0.0493342280387878,0.0791748613119125,0.0446445010602474
11,0.00420535355806351,-0.00807464774698019,0.0708039924502373,0.04775021225214,0.077818863093853,0.04191954433918
12,0.00512453215196729,-0.00767660606652498,0.0699126496911049,0.0463794991374016,0.0781781896948814,0.038978286087513
13,0.00564331421628594,-0.00760557968169451,0.0699690356850624,0.045537818223238,0.0789644122123718,0.0368552580475807
14,0.00525138946250081,-0.00794816762208939,0.0701665058732033,0.0449878871440887,0.079597681760788,0.0360545441508293
15,0.00404052203521132,-0.00821224041283131,0.0698411092162132,0.0444635078310966,0.0800480917096138,0.0362447500228882
16,0.0021876220125705,-0.00822257250547409,0.0685856863856316,0.0436596944928169,0.0797611027956009,0.0363827869296074
17,-0.000136633141664788,-0.00846225675195456,0.0665047913789749,0.0421263016760349,0.0782431215047836,0.0354468263685703
18,-0.00179728155490011,-0.00847763288766146,0.0647499784827232,0.0407021827995777,0.0766280591487885,0.0342874377965927
19,-0.00172906473744661,-0.00744189089164138,0.0644544437527657,0.0406580828130245,0.0764571130275726,0.0345399789512157
20,-0.000567087496165186,-0.0060290158726275,0.0648722350597382,0.0410605818033218,0.0774342864751816,0.0355966910719872
21,0.00035323592601344,-0.00524347648024559,0.0641958937048912,0.040387786924839,0.0777885541319847,0.0361023470759392
22,0.000300800718832761,-0.00529677467420697,0.0618069171905518,0.0387405231595039,0.076076403260231,0.0362793058156967
23,-0.000422334618633613,-0.0057334965094924,0.0587842389941216,0.037057138979435,0.072782389819622,0.0368462577462196
24,-0.000975596136413515,-0.00557752884924412,0.0564172714948654,0.036006223410368,0.0696853771805763,0.0377352759242058
25,-0.00092716736253351,-0.00455392803996801,0.0552196800708771,0.0356904752552509,0.0678251460194588,0.038431778550148
26,-0.000386457453714684,-0.00404941011220217,0.0550509952008724,0.035505723208189,0.0675144419074059,0.0379981175065041
27,0.000254238257184625,-0.00536096468567848,0.0553150847554207,0.0348370224237442,0.0686643347144127,0.0355780646204948
28,0.000608885893598199,-0.00812872033566237,0.0555513985455036,0.0338633619248867,0.0700039938092232,0.031767476350069
29,0.000735305133275688,-0.0111331362277269,0.0556782297790051,0.032963041216135,0.0704811960458755,0.0278522539883852
30,0.00102414772845805,-0.0131480609998107,0.0558142475783825,0.032419890165329,0.070639081299305,0.0248413756489754
31,0.00121224555186927,-0.0139670809730887,0.0559531226754189,0.0321573130786419,0.0708635747432709,0.0232308227568865
32,0.000390646338928491,-0.0145385740324855,0.0557001382112503,0.031771644949913,0.0706696137785912,0.0227089039981365
33,-0.00143187970388681,-0.0154138412326574,0.0552080757915974,0.0314346738159657,0.070329450070858,0.0231775306165218
34,-0.00372307910583913,-0.016624366864562,0.0545215681195259,0.0312011446803808,0.069790817797184,0.0245482753962278
35,-0.00624543149024248,-0.0179118029773235,0.0530227795243263,0.0308980215340853,0.0678936988115311,0.0253930427134037
36,-0.00817295908927917,-0.018315888941288,0.051265936344862,0.0309525895863771,0.065334640443325,0.0243680328130722
37,-0.0089094378054142,-0.0174008477479219,0.04986821860075,0.0310246236622334,0.0634949505329132,0.0218942202627659
38,-0.00892964750528336,-0.0160043239593506,0.0480194240808487,0.030043775215745,0.0616519264876843,0.0192503649741411
39,-0.0085474094375968,-0.0147256925702095,0.045616552233696,0.028630331158638,0.0591625198721886,0.0179212279617786
40,-0.0078672906383872,-0.0133393658325076,0.0437985323369503,0.0280837696045637,0.0565258078277111,0.018878323957324
41,-0.00767287239432335,-0.0118711674585938,0.0426649898290634,0.0278307609260082,0.0536341667175293,0.0211797337979078
42,-0.00841699726879597,-0.0104917548596859,0.0414758436381817,0.0269664935767651,0.050097469240427,0.0233035162091255
43,-0.00963832344859838,-0.00903338752686977,0.040255218744278,0.0260065663605928,0.0464617535471916,0.0252751093357801
44,-0.0108088748529553,-0.00711650401353836,0.0394508168101311,0.0261776950210333,0.0438216663897038,0.028869865462184
45,-0.0117586636915803,-0.00427405722439289,0.0393941812217236,0.0280394572764635,0.0427757129073143,0.0347716547548771
46,-0.0127049908041954,-0.00125304376706481,0.0398576930165291,0.0301120914518833,0.0430890209972858,0.0394889339804649
47,-0.0135785061866045,3.37981946358923E-05,0.0399412214756012,0.0304650496691465,0.0438974387943745,0.0396766848862171
48,-0.0140124913305044,-0.000963017984759063,0.0389236323535442,0.0292038358747959,0.0435774400830269,0.0369655415415764
49,-0.0138719016686082,-0.00310534960590303,0.0368452556431293,0.0275654476135969,0.041187509894371,0.0344353578984737
50,-0.0134323835372925,-0.00542049063369632,0.0340377613902092,0.0260418951511383,0.0375053212046623,0.0323853865265846
51,-0.0132554424926639,-0.00768878217786551,0.0308251790702343,0.0241796765476465,0.0338470675051212,0.029318917542696
52,-0.0130936503410339,-0.00935509242117405,0.0280603691935539,0.0219070836901665,0.0314517915248871,0.0252527557313442
53,-0.0123928915709257,-0.00926942843943834,0.0264861602336168,0.019930075854063,0.0305776875466108,0.0224367789924145
54,-0.0111020961776376,-0.00706807151436806,0.0260552633553743,0.0186530482023954,0.0304235834628344,0.022552153095603
55,-0.00925274752080441,-0.00393982836976647,0.026273226365447,0.0179960150271654,0.0304983630776405,0.0246062763035297
56,-0.00739032262936234,-0.00163606519345194,0.0265908557921648,0.0182027239352465,0.0311974138021469,0.0262376517057419
57,-0.00621770136058331,-0.00120397191494703,0.0268686916679144,0.0193968489766121,0.0330579690635204,0.0257672928273678
58,-0.00543200876563787,-0.00270198914222419,0.0275269877165556,0.0208548922091722,0.0358930379152298,0.022861922159791
59,-0.00425511039793491,-0.00526725267991424,0.0288646016269922,0.0218909792602062,0.0387783348560333,0.0190229546278715
60,-0.00288673886097968,-0.00799939036369324,0.0303410198539495,0.0221348889172077,0.0406547226011753,0.0164901055395603
61,-0.00190107722301036,-0.0104684559628367,0.0314762480556965,0.021709056571126,0.0416870005428791,0.0162537451833487
62,-0.00125689536798745,-0.0124384379014373,0.0320759676396847,0.0213228166103363,0.0429581105709076,0.0175397284328938
63,-0.001118378713727,-0.0139563167467713,0.031571950763464,0.02127306163311,0.0450786873698235,0.0192094128578901
64,-0.00180604332126677,-0.0148151982575655,0.0298621635884047,0.0212917122989893,0.0474964044988155,0.0212287362664938
65,-0.00289243087172508,-0.0146656790748239,0.0277372505515814,0.0209642089903355,0.0486005134880543,0.0232514031231403
66,-0.00346784410066903,-0.0137093663215637,0.0260684303939343,0.0199613440781832,0.0475938208401203,0.0237530115991831
67,-0.0030056934338063,-0.0122995181009173,0.0253420416265726,0.0185249634087086,0.0449157319962978,0.0221531521528959
68,-0.00174230197444558,-0.0106528056785464,0.0254246015101671,0.0172837004065514,0.0411090739071369,0.0193967707455158
69,-0.000412838300690055,-0.00901778414845467,0.0255568251013756,0.0165888201445341,0.0369665920734406,0.0167950205504894
70,0.00043660934898071,-0.00798383355140686,0.0252566318958998,0.0163288954645395,0.0334992334246635,0.0152321746572852
71,0.000432538508903235,-0.00814506504684687,0.0245713256299496,0.0158820543438196,0.0307853985577822,0.0145191708579659
72,-0.00090061203809455,-0.00894332304596901,0.0237227287143469,0.0147436307743192,0.0278135277330875,0.0140559254214168
73,-0.00310738920234144,-0.00895588286221027,0.0230256728827953,0.0131172463297844,0.0246195681393147,0.0135639738291502
74,-0.00456532742828131,-0.00769419502466917,0.0226620137691498,0.0116098336875439,0.0228038728237152,0.0130096040666103
75,-0.00392318936064839,-0.00608540279790759,0.0225780569016933,0.0107537033036351,0.0233229510486126,0.012588694691658
76,-0.00148009101394564,-0.00523340608924627,0.0223462730646133,0.0104159284383059,0.0258148200809956,0.0125129437074065
77,0.000879904662724584,-0.00573974242433906,0.0213876236230135,0.00972824543714523,0.0292048845440149,0.0124948350712657
78,0.00191445101518184,-0.00725390156731009,0.0198817774653435,0.00873803533613682,0.0321575477719307,0.012226527556777
79,0.00210255733691156,-0.0087690819054842,0.019160533323884,0.00866217631846666,0.0338880196213722,0.0119627490639687
80,0.0020163026638329,-0.00970056653022766,0.0198464896529913,0.00943894125521183,0.0343000292778015,0.011524448171258
81,0.00185937481001019,-0.00968937203288078,0.0204192344099283,0.00983528140932322,0.0333036705851555,0.0105482256039977
82,0.00176731287501752,-0.00891415681689978,0.01909164711833,0.00926196947693825,0.0304527431726456,0.0089542493224144
83,0.00114628416486084,-0.00858800299465656,0.0158099494874477,0.00785441882908344,0.0256548076868057,0.00622865883633494
84,-0.00016998614592012,-0.00955573190003634,0.0123443268239498,0.00630677910521626,0.0204406920820475,0.00248193577863276
85,-0.00126809917856008,-0.0113008012995124,0.0106150507926941,0.00556985195726156,0.0168823320418596,-0.000743938551750034
86,-0.00184082158375531,-0.012785417959094,0.0107995439320803,0.00596739538013935,0.0154527919366956,-0.00217013852670789
87,-0.0018533329712227,-0.0130846770480275,0.0120887318626046,0.00694280443713069,0.016035869717598,-0.00207976461388171
88,-0.000923974788747728,-0.0122047895565629,0.0135033763945103,0.00744041567668319,0.0185855403542519,-0.00132779509294778
89,0.000740104704163969,-0.0110829956829548,0.0136798527091742,0.00678317015990615,0.021855665370822,-0.000210581667488441
90,0.00233695888891816,-0.00972619280219078,0.012349127791822,0.00533455517143011,0.0241497810930014,0.00130007299594581
91,0.00320329796522856,-0.00749784847721457,0.0109668402001262,0.00391715858131647,0.0245010685175657,0.0036706062965095
92,0.00330101186409593,-0.00488045113161206,0.0105301523581147,0.00324792531318963,0.0227573048323393,0.00760343763977289
93,0.00262356153689325,-0.00276793888770044,0.010147319175303,0.00353587232530117,0.0193480048328638,0.0126695726066828
94,0.00110269361175597,-0.00112797133624554,0.008779919706285,0.00432386295869946,0.0147350896149874,0.0173975434154272
95,-0.000358114950358868,0.000433847249951214,0.00670177908614278,0.00507122976705432,0.0097839068621397,0.0207042898982763
96,-0.000767469697166234,0.00190687750000507,0.00463935919106007,0.00555347371846437,0.00575735978782177,0.0223888736218214
97,-0.00023258886358235,0.00339711178094149,0.00334631954319775,0.00629350636154413,0.003315040608868,0.0231677815318108
98,0.000574671430513263,0.00509594520553947,0.00307116494514048,0.00771731743589044,0.00221518729813397,0.0237728115171194
99,0.00106335442978889,0.00644478993490338,0.00319662294350564,0.00879627838730812,0.00196923571638763,0.0233314130455256
100,0.00132972281426191,0.00676235463470221,0.00329166441224515,0.00837139599025249,0.00229438161477447,0.0204172972589731
101,0.00164222449529916,0.00581761403009295,0.00293854065239429,0.00661565642803907,0.00225568469613791,0.0154675683006644
102,0.00179694907274097,0.00388148357160389,0.00166020262986422,0.00482050003483891,0.000807771517429501,0.010867984034121
103,0.00164785608649254,0.00187822163570672,-0.000120058626635,0.00426161335781217,-0.00144497456494719,0.00805310066789389
104,0.0010536415502429,0.00025690789334476,-0.00172209192533046,0.0046834209933877,-0.00306529342196882,0.00603391928598285
105,-5.91745083511341E-05,-0.00140750710852444,-0.00292160524986684,0.00465491367504001,-0.0035658439155668,0.00443350151181221
106,-0.00113959959708154,-0.00293175200931728,-0.00344262667931616,0.00362382479943335,-0.00296307704411447,0.00438672862946987
107,-0.0018500944133848,-0.00378214637748897,-0.00291701778769493,0.00252148485742509,-0.00120053836144507,0.00599677488207817
108,-0.00240127346478403,-0.0040849088691175,-0.00115591450594366,0.00269531505182385,0.00143994111567736,0.00828021857887506
109,-0.0025740007404238,-0.00396188767626882,0.0014882602263242,0.00465924758464098,0.00473175616934896,0.0100856786593795
110,-0.00207331124693155,-0.0035159345716238,0.00413127243518829,0.00729084946215153,0.00844387896358967,0.0102207949385047
111,-0.00114532781299204,-0.0029212471563369,0.00575639680027962,0.008603242225945,0.0117386160418391,0.00805376656353474
112,-0.000244000082602724,-0.00226640771143138,0.00564790423959494,0.00809216219931841,0.013751526363194,0.00467839138582349
113,0.000707665109075606,-0.00156307232100517,0.0046110488474369,0.00786889437586069,0.0147753981873393,0.00315529084764421
114,0.0018574238056317,-0.000679106218740344,0.00421522418037057,0.00941105652600527,0.0156752951443195,0.00509669631719589
115,0.00278689037077129,0.000115604118036572,0.00463629700243473,0.0110171809792519,0.016910482198,0.00847477279603481
116,0.00343720894306898,0.000464703829493374,0.00482212007045746,0.0108376508578658,0.018772890791297,0.0112426802515984
117,0.00419046822935343,0.000659171782899648,0.00420682365074754,0.00937422085553408,0.0207410845905542,0.0140359690412879
118,0.00518077658489347,0.000724955229088664,0.00334735144861043,0.00805952306836843,0.0213020350784063,0.0172453764826059
119,0.0060707195661962,-3.41043196385726E-05,0.00293814367614686,0.00759041262790561,0.0196340419352055,0.0186493545770645
120,0.00610211212188005,-0.001802833750844,0.0028226412832737,0.00741432653740048,0.0160431656986475,0.0161162056028843
121,0.00532901333644986,-0.00364476256072521,0.00256781838834286,0.00678401160985231,0.0116712963208556,0.0102432398125529
122,0.00467723747715354,-0.00447759078815579,0.0024419252295047,0.00625986373052001,0.00816767103970051,0.00361510016955435
123,0.00438391696661711,-0.00405347160995007,0.00281840865500271,0.00698153115808964,0.00627784617245197,-0.000913677096832544
124,0.00441879173740745,-0.00272750714793801,0.00368304550647736,0.00889322068542242,0.0061712977476418,-0.00229025213047862
125,0.0053553581237793,-0.000967846601270139,0.00485811056569219,0.0107621653005481,0.00828932598233223,-0.00178570090793073
126,0.00739928288385272,0.000692204223014414,0.0060004061087966,0.01178705599159,0.0118973264470696,-0.00064315996132791
127,0.00946077238768339,0.00177707336843014,0.00644087558612227,0.0120429135859013,0.0145801976323128,0.000904987682588398
128,0.0102551328018308,0.00222085765562952,0.00580821093171835,0.0120330592617393,0.0146586569026113,0.00272793718613684
129,0.0096688149496913,0.00230026221834123,0.00477805035188794,0.0122678820043802,0.0124730262905359,0.00473916158080101
130,0.00880213640630245,0.00217670807614923,0.00402155425399542,0.0123567553237081,0.00913062412291765,0.00663030752912164
131,0.0089977253228426,0.0019136507762596,0.00365518452599645,0.0116046983748674,0.00589075032621622,0.00758123397827148
132,0.0105975437909365,0.00180016621015966,0.00371238845400512,0.0104092871770263,0.00396734708920121,0.00736744794994593
133,0.0128227882087231,0.00194403459317982,0.0041314666159451,0.00966358371078968,0.00396357197314501,0.00651197787374258
134,0.0144555065780878,0.00206681038253009,0.00502438377588987,0.009660255163908,0.00594510324299335,0.0052004111930728
135,0.0144705576822162,0.00203257985413074,0.00609383964911103,0.00999285187572241,0.00885683484375477,0.00315708806738257
136,0.0129594802856445,0.00191200082190335,0.00660698860883713,0.00988954957574606,0.0113361338153481,0.000328045629430562
137,0.0112269902601838,0.00198824447579682,0.00657185632735491,0.00911040604114532,0.0134606584906578,-0.00205203471705318
138,0.0100965294986963,0.00230327039025724,0.00622156029567122,0.00800609402358532,0.0154910311102867,-0.00281979097053409
139,0.00909996405243874,0.00208856398239732,0.00542414002120495,0.00643708044663072,0.0172307267785072,-0.00318174273706973
140,0.00784057937562466,0.00103614432737231,0.00493360031396151,0.00474672997370362,0.0190643966197968,-0.00427681440487504
141,0.00683118170127273,-0.000130049418658018,0.0058616241440177,0.00389280868694186,0.021007115021348,-0.00521676614880562
142,0.0061069605872035,-0.00133347674272954,0.00702341319993138,0.00333623285405338,0.0214907955378294,-0.00550718046724796
143,0.0053906412795186,-0.00284735159948468,0.0065702423453331,0.00232262792997062,0.0196693260222673,-0.00576926907524467
144,0.00532807409763336,-0.00422839028760791,0.00503045227378607,0.00142207520548254,0.0171183738857508,-0.00651358906179667
145,0.0063280095346272,-0.00521816685795784,0.00375916273333132,0.000955160998273641,0.0155543545261025,-0.00795786641538143
146,0.00806703045964241,-0.00584616931155324,0.00298396148718894,0.000351200287695974,0.0157493762671947,-0.0103733874857426
147,0.00975398905575275,-0.00642429618164897,0.00209289253689349,-0.00087970623280853,0.0171594321727753,-0.0139254545792937
148,0.0106510352343321,-0.00734429666772485,0.000850424927193671,-0.00207672663964331,0.0177903417497873,-0.0176173839718103
149,0.010764897800982,-0.00809622183442116,-0.000412972178310156,-0.00256493221968412,0.0163936540484428,-0.0200657285749912
150,0.0106416828930378,-0.00797311495989561,-0.00124107580631971,-0.00323068164288998,0.0138340815901756,-0.0215867813676596
151,0.0109383380040526,-0.00736853573471308,-0.0014672843972221,-0.00500794313848019,0.0119444504380226,-0.0236244406551123
152,0.0115387616679072,-0.00723353354260325,-0.00174353376496583,-0.0076576448045671,0.0113815767690539,-0.0263106860220432
153,0.012055117636919,-0.00759489508345723,-0.00235842890106142,-0.0102071380242705,0.0115837501361966,-0.0278015118092299
154,0.0125464284792542,-0.00790465623140335,-0.00292548025026917,-0.0116102304309607,0.0116881942376494,-0.0267342403531075
155,0.0129950614646077,-0.00774044264107943,-0.00324288243427873,-0.0112408921122551,0.0108642829582095,-0.0233943834900856
156,0.0132227065041661,-0.00698188366368413,-0.00328665180131793,-0.00905092991888523,0.00924849230796099,-0.018419137224555
157,0.0130456862971187,-0.00623304396867752,-0.00331910070963204,-0.0062121651135385,0.00796723924577236,-0.0134742986410856
158,0.0126460231840611,-0.00596469873562455,-0.0035437997430563,-0.00484865624457598,0.00757382623851299,-0.0113352257758379
159,0.0123552493751049,-0.00584737630560994,-0.00397004373371601,-0.0061219441704452,0.00744467275217175,-0.0129322512075305
160,0.0124054998159409,-0.00500298105180264,-0.00478027341887355,-0.00907567888498306,0.0067008244805038,-0.0161092504858971
161,0.0129263615235686,-0.00298342457972467,-0.00597736705094576,-0.0118243424221873,0.00475200917571783,-0.0183965135365725
162,0.0132132992148399,-0.000813944672700018,-0.00685999915003777,-0.0131882019340992,0.0021397324744612,-0.019314955919981
163,0.0123937930911779,0.000429205421824008,-0.00667849322780967,-0.0131840351969004,0.000103721460618544,-0.0193211585283279
164,0.0111322570592165,0.00131984672043473,-0.00574758742004633,-0.0128756910562515,-0.00113838165998459,-0.0190565660595894
165,0.010493066161871,0.00239174673333764,-0.00513416901230812,-0.0131674632430077,-0.0022801230661571,-0.019279720261693
166,0.0104293394833803,0.00305099715478718,-0.00523921428248286,-0.0134182423353195,-0.00371871120296419,-0.019439022988081
167,0.0105164228007197,0.00302490335889161,-0.0056175235658884,-0.012581036426127,-0.00466311164200306,-0.0179718732833862
168,0.0100830215960741,0.00253013055771589,-0.00623228400945663,-0.0111352242529392,-0.00400266004726291,-0.0149878282099962
169,0.00893586594611406,0.00180526892654598,-0.00746197532862425,-0.0102721368893981,-0.00213310192339122,-0.0129528483375907
170,0.00761096458882093,0.000963801750913262,-0.00968619156628847,-0.0105363577604294,-0.0014888079604134,-0.0142134465277195
171,0.0062533225864172,7.25109566701576E-05,-0.0127728395164013,-0.0117557309567928,-0.00384498154744506,-0.0187007915228605
172,0.0050209085457027,-0.000692295958288014,-0.0157054308801889,-0.0134031167253852,-0.00756105221807957,-0.024535171687603
173,0.0042381682433188,-0.00133083655964583,-0.0179751217365265,-0.0152354491874576,-0.0104651199653745,-0.0300689470022917
174,0.0035776742734015,-0.0024293817114085,-0.0199480019509792,-0.0176015347242355,-0.0129284923896194,-0.0348870791494846
175,0.00246698735281825,-0.00427083019167185,-0.0214667785912752,-0.0200985241681337,-0.015769911929965,-0.0382688827812672
176,0.000997729599475861,-0.00601348746567965,-0.0219175554811955,-0.0212621763348579,-0.0183757990598679,-0.0387334823608398
177,-0.000264062517089769,-0.00709163071587682,-0.0212367232888937,-0.0209132228046656,-0.0196296162903309,-0.036267563700676
178,-0.00114628311712295,-0.00746049219742417,-0.019958483055234,-0.0200048014521599,-0.0193791966885328,-0.0317187830805779
179,-0.00198088889010251,-0.00699271075427532,-0.0188438203185797,-0.0187784135341644,-0.0186250880360603,-0.0259408317506313
180,-0.0025512611027807,-0.00576465157791972,-0.0178655683994293,-0.0169105604290962,-0.0176790542900562,-0.0205076523125172
181,-0.00233651255257428,-0.0041139917448163,-0.0166375506669283,-0.014572711661458,-0.016102584078908,-0.016468808054924
182,-0.00128181790933013,-0.0020646930206567,-0.0152209252119064,-0.0124076893553138,-0.0137324202805758,-0.0135553171858191
183,0.000524808245245367,0.000364474050002173,-0.013570916838944,-0.0108968149870634,-0.010286589153111,-0.0117640309035778
184,0.00277311610989273,0.00213220366276801,-0.0119672315195203,-0.0102859251201153,-0.00620844634249806,-0.0112869096919894
185,0.00504154060035944,0.00249594380147755,-0.0107787344604731,-0.0105051277205348,-0.00264611933380365,-0.0113005610182881
186,0.00716274743899703,0.00181495514698327,-0.00983096193522215,-0.0113832214847207,-3.62078139914956E-06,-0.0113488603383303
187,0.00853110197931528,0.000284581648884341,-0.0092729302123189,-0.0129132037982345,0.0014442732790485,-0.0120595647022128
188,0.00845358520746231,-0.00198756135068834,-0.00922047160565853,-0.0146199623122811,0.00158318795729429,-0.0136125264689326
189,0.00758682424202561,-0.00443507172167301,-0.00886079296469688,-0.0152359874919057,0.00143256026785821,-0.0153107289224863
190,0.00688795605674386,-0.00660702399909496,-0.00804580189287663,-0.0143042337149382,0.00169038167223334,-0.0167791731655598
191,0.00668751681223512,-0.00803377851843834,-0.00754158291965723,-0.0126578193157911,0.00212377891875803,-0.0177591294050217
192,0.00747289275750518,-0.00801979750394821,-0.00774303032085299,-0.0112857110798359,0.00265146140009165,-0.0178504511713982
193,0.00906297098845243,-0.00664795143529773,-0.00910921394824982,-0.0110661759972572,0.00270458334125578,-0.0175424367189407
194,0.00997442007064819,-0.00511009711772203,-0.0117098111659288,-0.0123478062450886,0.00155956798698753,-0.0177741348743439
195,0.00976284686475992,-0.00418452313169837,-0.0140662994235754,-0.0139341838657856,0.000168156417203136,-0.0180368199944496
196,0.00924254860728979,-0.00375720695592463,-0.0149630727246404,-0.0145816775038838,-0.000633733172435313,-0.0168449264019728
197,0.00836132280528545,-0.00385654671117663,-0.0151249961927533,-0.0149836707860231,-0.00190873770043254,-0.0145411640405655
198,0.00702755758538842,-0.00430369656533003,-0.0153173236176372,-0.015602158382535,-0.00449168169870973,-0.0132096419110894
199,0.00585631420835853,-0.00477530248463154,-0.0149213178083301,-0.0153987044468522,-0.00762537866830826,-0.0140502164140344
200,0.00529840588569641,-0.00526848435401917,-0.0130108306184411,-0.0136460149660707,-0.00984732341021299,-0.0162304043769836
201,0.00517159560695291,-0.00543504720553756,-0.0099073750898242,-0.0105670345947146,-0.0105784451588988,-0.0179567597806454
202,0.00491321552544832,-0.00487175723537803,-0.00714773498475552,-0.00726870447397232,-0.0107486369088292,-0.0181254651397467
203,0.004442332778126,-0.00384011142887175,-0.00595779251307249,-0.00560618191957474,-0.0113347033038735,-0.0171701312065125
204,0.00406525703147054,-0.00232129194773734,-0.0063872579485178,-0.00608875043690205,-0.012356954626739,-0.0152805792167783
205,0.00374858640134335,0.000190385093446821,-0.00781742669641972,-0.00758217182010412,-0.0135041195899248,-0.0118386698886752
206,0.00345302536152303,0.00339472969062626,-0.00976437143981457,-0.0095093660056591,-0.0146346930414438,-0.00745374988764524
207,0.00321369036100805,0.00618179468438029,-0.0118779297918081,-0.0114571563899517,-0.0155971571803093,-0.00291003519669175
208,0.00256823631934822,0.00747504085302353,-0.0137518122792244,-0.0126729300245643,-0.0161707885563374,0.00141549459658563
209,0.00116632459685206,0.00679574487730861,-0.0151685178279877,-0.0131589351221919,-0.0163491927087307,0.00434206519275904
210,-0.000385781371733174,0.00470872409641743,-0.0160717479884624,-0.0134233739227057,-0.016189182177186,0.00483648153021932
211,-0.00107566069345921,0.00265733478590846,-0.0163464657962322,-0.0135669959709048,-0.0157692190259695,0.0032125252764672
212,-0.000789546989835799,0.00131143792532384,-0.0163332782685757,-0.013707185164094,-0.0155548108741641,0.000473165331641212
213,-0.000201129107153974,5.8639096096158E-05,-0.016658341512084,-0.014175339601934,-0.0159149933606386,-0.00260675698518753
214,0.000152292312122881,-0.00151597638614476,-0.0173414871096611,-0.0147804720327258,-0.0167710892856121,-0.00548970652744174
215,-0.00014567724429071,-0.00330525450408459,-0.0179412458091974,-0.0150385862216353,-0.0180411264300346,-0.00778257008641958
216,-0.00124651403166354,-0.00477448850870132,-0.0183076951652765,-0.0148088540881872,-0.0199606250971556,-0.00916382949799299
217,-0.00292398547753692,-0.00525460345670581,-0.0190829243510962,-0.0145048359408975,-0.022815153002739,-0.00965837296098471
218,-0.00467797089368105,-0.00465756701305509,-0.0203482732176781,-0.014214021153748,-0.0257118791341782,-0.00949231628328562
219,-0.00629626307636499,-0.00358451879583299,-0.0213049184530973,-0.0134763503447175,-0.0275622308254242,-0.0089455833658576
220,-0.00808262825012207,-0.00274168071337044,-0.0218832902610302,-0.0125932414084673,-0.0286426767706871,-0.00842219777405262
221,-0.0097830044105649,-0.00200724275782704,-0.0221788752824068,-0.0122814709320664,-0.0289636850357056,-0.00789907295256853
222,-0.0107201682403684,-0.000665778119582683,-0.0217207614332438,-0.0122628873214126,-0.0276674404740334,-0.00697324983775616
223,-0.0109878433868289,0.00114629219751805,-0.020324494689703,-0.0117876967415214,-0.0246303472667933,-0.00560924410820007
224,-0.011022849008441,0.00227469275705516,-0.0182114001363516,-0.0110456831753254,-0.0208791475743055,-0.00449286866933107
225,-0.0105769606307149,0.00219702790491283,-0.0157666020095348,-0.0106544950976968,-0.0179684218019247,-0.00358965806663036
226,-0.00913400389254093,0.00175283453427255,-0.0137826753780246,-0.0105394097045064,-0.0172395687550306,-0.00118074100464582
227,-0.00673299981281161,0.0023989793844521,-0.0129567161202431,-0.010201065801084,-0.0188345108181238,0.00347285042516887
228,-0.00402803160250187,0.0046905274502933,-0.0130266537889838,-0.00937313120812178,-0.0215131994336843,0.0083741033449769
229,-0.00197392445988953,0.00711506325751543,-0.0129066938534379,-0.00814336352050304,-0.0234189797192812,0.0110771879553795
230,-0.00171696417964995,0.00732823228463531,-0.012240313924849,-0.00727855181321502,-0.0239136349409819,0.0104809245094657
231,-0.00386966159567237,0.00489134388044477,-0.0117108365520835,-0.00746355811133981,-0.0237642899155617,0.00748324068263173
232,-0.00769969681277871,0.00157755066175014,-0.0119042592123151,-0.00831008423119783,-0.0234436858445406,0.00453959451988339
233,-0.011532561853528,-0.000633047369774431,-0.0125348241999745,-0.00899408292025328,-0.0227822419255972,0.00335747236385942
234,-0.0135991601273417,-0.000459936272818595,-0.0125963529571891,-0.00884430948644876,-0.0212275646626949,0.00411218032240868
235,-0.0135457059368491,0.00176779192406684,-0.0120519669726491,-0.00793606508523226,-0.0191574338823557,0.00617954647168517
236,-0.0124335745349526,0.00440517021343112,-0.0114312563091516,-0.00663555227220058,-0.0177951082587242,0.00849973503500223
237,-0.0111712999641895,0.00620759837329388,-0.0108660366386175,-0.00537536339834332,-0.017529658973217,0.00942560378462076
238,-0.00982665736228228,0.00688391644507647,-0.010345721617341,-0.00464672362431884,-0.0176993552595377,0.00814911443740129
239,-0.00781662669032812,0.00694656558334827,-0.00947343744337559,-0.00418897904455662,-0.0174178797751665,0.00580793432891369
240,-0.0054219258017838,0.00660717533901334,-0.00864892173558474,-0.00420064479112625,-0.0172723960131407,0.00339610991068184
241,-0.00376138277351856,0.00602301768958569,-0.00888501666486263,-0.00504103116691113,-0.0185733996331692,0.00121272285468876
242,-0.00328342104330659,0.00561148999258876,-0.0100404685363173,-0.00597658660262823,-0.0205791220068932,-0.000643372884951532
243,-0.00358217698521912,0.00536664575338364,-0.0108128441497684,-0.0058023277670145,-0.0214090868830681,-0.00204370473511517
244,-0.00399406906217337,0.00565568869933486,-0.00995807349681854,-0.00352383474819362,-0.0211458969861269,-0.00182503194082528
245,-0.00411773379892111,0.00658582244068384,-0.00800792407244444,-0.0001907982659759,-0.0216826163232327,0.000353904411895201
246,-0.00389876333065331,0.00747147481888533,-0.00672886101529002,0.00146612070966512,-0.0237364284694195,0.0029281999450177
247,-0.00360097060911357,0.00814315397292376,-0.00671695917844772,0.000497880449984223,-0.0259862933307886,0.00467379670590162
248,-0.00335728051140904,0.00868697091937065,-0.00703206565231085,-0.00162258709315211,-0.0271775890141726,0.00559736182913184
249,-0.003084113355726,0.00909096281975508,-0.00661821290850639,-0.00306208152323961,-0.0272718276828527,0.00657094642519951
250,-0.00308882840909064,0.00970051344484091,-0.00561478873714805,-0.00302459159865975,-0.026858352124691,0.00837326608598232
251,-0.00391897791996598,0.0105979107320309,-0.00516539020463824,-0.00220934581011534,-0.0264873206615448,0.0103726331144571
252,-0.0056286733597517,0.0114859864115715,-0.00566652044653893,-0.00157664343714714,-0.0260358583182096,0.0115490546450019
253,-0.00767205096781254,0.0120410285890102,-0.00650012865662575,-0.00126349704805762,-0.0253310948610306,0.0119082285091281
254,-0.00931610912084579,0.0120363719761372,-0.00734773883596063,-0.0015716440975666,-0.0251108650118113,0.0117961559444666
255,-0.0100224046036601,0.0115587171167135,-0.00838547758758068,-0.00279853865504265,-0.0258042551577091,0.0115200066938996
256,-0.00985793862491846,0.0107343904674053,-0.0095923813059926,-0.00389492278918624,-0.0267160255461931,0.0119363674893975
257,-0.00972230918705463,0.00931180268526077,-0.0108057176694274,-0.00406619207933545,-0.0279267691075802,0.0131575241684914
258,-0.0102618644014001,0.00709532620385289,-0.0120647558942437,-0.00432586157694459,-0.0302413459867239,0.013599555939436
259,-0.011084227822721,0.004723169375211,-0.0130501622334123,-0.00542950769886374,-0.0327134616672993,0.0117627726867795
260,-0.0116887632757425,0.00323342182673514,-0.0130738317966461,-0.00662174867466092,-0.0337258167564869,0.00791729800403118
261,-0.0116862822324038,0.00329863838851452,-0.0117209078744054,-0.00664574513211846,-0.0327087379992008,0.00432655168697238
262,-0.0110168736428022,0.00452873948961496,-0.0093601057305932,-0.00517779542133212,-0.0299675408750772,0.00283120246604085
263,-0.0102214841172099,0.00567441107705235,-0.00710751116275787,-0.00325527717359364,-0.0266779027879238,0.00288923247717321
264,-0.00960669945925474,0.0055883452296257,-0.00635317480191588,-0.00269294949248433,-0.0244377069175243,0.00236426410265267
265,-0.00859342142939568,0.00405240012332797,-0.00767434109002352,-0.00440009078010917,-0.0239479802548885,4.99756533827167E-05
266,-0.00639815628528595,0.00254411739297211,-0.00957995001226664,-0.00685164192691445,-0.0239386446774006,-0.00204696808941662
267,-0.00409292196854949,0.00226719141937792,-0.0105097992345691,-0.00837131589651108,-0.0233546309173107,-0.00154931365977973
268,-0.00353444367647171,0.00277981255203485,-0.0106891468167305,-0.00883438531309366,-0.0228032376617193,0.00111023860517889
269,-0.00432624062523246,0.00401416141539812,-0.0103410677984357,-0.00805879570543766,-0.0221671238541603,0.00448425067588687
270,-0.00510676531121135,0.00623122276738286,-0.00905460398644209,-0.00588113954290748,-0.0204826928675175,0.00758080370724201
271,-0.00556871248409152,0.00859123002737761,-0.00717779621481895,-0.00346433068625629,-0.017941040918231,0.00929704867303371
272,-0.00576259521767497,0.0100647490471601,-0.00557424873113632,-0.00204031448811293,-0.0153921796008945,0.00913422927260399
273,-0.00553386984393001,0.0105856275185943,-0.00464809499680996,-0.00148136564530432,-0.0134074604138732,0.00780585454776883
274,-0.0048316796310246,0.0106738526374102,-0.00453284801915288,-0.00142956699710339,-0.0125172985717654,0.00601883931085467
275,-0.00399599689990282,0.0105876112356782,-0.00518697081133723,-0.00198618532158434,-0.0128504922613502,0.00413086730986834
276,-0.00347860669717193,0.0101888310164213,-0.00620853342115879,-0.00316040054894984,-0.013455661945045,0.00248596607707441
277,-0.00332260108552873,0.00940334983170033,-0.00705449609085917,-0.00448586093261838,-0.0130879962816834,0.00135761627461761
278,-0.00353350094519556,0.00846114940941334,-0.00761824287474155,-0.00524397380650043,-0.0120581798255444,0.00119694496970624
279,-0.0045014014467597,0.00761535437777638,-0.00851060077548027,-0.00550068542361259,-0.0120705794543028,0.00183584366459399
280,-0.00595048442482948,0.00686146318912506,-0.0102050825953484,-0.00594660267233849,-0.0140541521832347,0.00227017956785858
281,-0.00682010361924767,0.00600846949964762,-0.0122955972328782,-0.00701012695208192,-0.017338752746582,0.00147320772521198
282,-0.00667773745954037,0.00488145742565393,-0.013870301656425,-0.00849282555282116,-0.0207479372620583,-0.00104664987884462
283,-0.00603483337908983,0.00364234880544245,-0.0145723735913634,-0.00985643267631531,-0.0236895810812712,-0.00462059490382671
284,-0.00556434458121657,0.00265985890291631,-0.0149733796715736,-0.011069530621171,-0.0260622967034578,-0.00807302445173264
285,-0.00516164861619473,0.00224583875387907,-0.0152634754776955,-0.012014826759696,-0.0269378982484341,-0.0104970475658774
286,-0.00453166803345084,0.00231321947649121,-0.015356533229351,-0.0127145517617464,-0.0253922566771507,-0.0118875177577138
287,-0.00396724976599216,0.00215136469341815,-0.0154070165008307,-0.013591998256743,-0.0218799281865358,-0.0127986678853631
288,-0.00374305318109691,0.00149150227662176,-0.015087217092514,-0.0141697227954865,-0.0170880481600761,-0.0128556182608008
289,-0.00378916412591934,0.00114755774848163,-0.0140644619241357,-0.0136340791359544,-0.0120016587898135,-0.0113355601206422
290,-0.00393574498593807,0.00173940893728286,-0.0127731477841735,-0.0120900766924024,-0.00851664505898952,-0.00862342678010464
291,-0.00395146012306213,0.00293210940435529,-0.0116040706634521,-0.0100445598363876,-0.00761656789109111,-0.00577958580106497
292,-0.00364020769484341,0.00411483272910118,-0.00997708179056644,-0.00751665467396379,-0.00848605111241341,-0.00313920970074832
293,-0.00346487108618021,0.00497365742921829,-0.00766170909628272,-0.00453386036679149,-0.0103655029088259,-0.000318906415486708
294,-0.00403582211583853,0.00554120820015669,-0.00563688622787595,-0.00164712860714644,-0.0126020135357976,0.00259308400563896
295,-0.00494579318910837,0.00570573937147856,-0.00469496753066778,0.000321236409945413,-0.0138187985867262,0.00454937340691686
296,-0.00532891880720854,0.00510564260184765,-0.00468704709783196,0.0009989058598876,-0.0132317310199142,0.00455138925462961
297,-0.00522321648895741,0.00371863506734371,-0.0052810525521636,0.000964590290095657,-0.0116690583527088,0.00347765046171844
298,-0.00529575208202004,0.00211053993552923,-0.0060791103169322,0.0011687675723806,-0.0103205358609557,0.00381879671476781
299,-0.00545917032286525,0.00128915230743587,-0.00603826437145472,0.00220089871436358,-0.00906560104340315,0.00641981605440378
300,-0.00499530835077167,0.00165241910144687,-0.00464032031595707,0.00326205370947719,-0.00714459409937263,0.00883297994732857
301,-0.00366973178461194,0.00255340267904103,-0.00269487826153636,0.00294536608271301,-0.00441919267177582,0.00855669099837542
302,-0.00214851275086403,0.00322472467087209,-0.00123333989176899,0.00120276410598308,-0.00154082314111292,0.00576626509428024
303,-0.000978302676230669,0.00318023608997464,-0.000332934054313228,-0.000711323285941035,0.000948537606745958,0.00209950213320553
304,0.000362177146598697,0.00281289988197386,0.000726697617210448,-0.00131441524717957,0.0029947105795145,-0.00057951535563916
305,0.00260651810094714,0.00335391075350344,0.00204028910957277,-0.000226789808948524,0.00414099544286728,-0.000856191327329725
306,0.00532618071883917,0.00498353922739625,0.00311034172773361,0.00150043237954378,0.00451643904671073,0.00129148236010224
307,0.00666798278689384,0.00650789216160774,0.0033970030490309,0.00256007630378008,0.00511735491454601,0.00456456560641527
308,0.00537168886512518,0.00723671820014715,0.00289329397492111,0.00305449729785323,0.00589486071839929,0.00755445612594485
309,0.00241230498068035,0.00729741295799613,0.00256807869300246,0.00413308897987008,0.00597333628684282,0.00960174202919006
310,-0.000324230291880667,0.00705970730632544,0.00305367610417306,0.00601056311279535,0.00499776704236865,0.0107406442984939
311,-0.00196940591558814,0.00666344352066517,0.0038739088922739,0.00774532090872526,0.00335956434719265,0.0110466321930289
312,-0.0027258382178843,0.00551089411601424,0.00431273598223925,0.00830970145761967,0.00211294181644917,0.0101985540241003
313,-0.00294778193347156,0.00353917549364269,0.0040207002311945,0.00745877157896757,0.00172089552506804,0.00809844397008419
314,-0.00298066344112158,0.00209425389766693,0.00279920757748187,0.00572430808097124,0.000993532594293356,0.00538751715794206
315,-0.00276286737062037,0.00225852709263563,0.00103786285035312,0.00389934726990759,-0.00078313919948414,0.00272320746444166
316,-0.00188321049790829,0.00352968694642186,-0.000408335181418806,0.00242198235355318,-0.00233393697999418,0.000389606197131798
317,-0.000411287444876507,0.004826535936445,-0.000937981007155031,0.00162842031568289,-0.00221666833385825,-0.000648935383651406
318,0.00110704079270363,0.00540989637374878,-0.000659424753393978,0.00147401192225516,-0.000910149596165866,6.5104708482977E-05
319,0.00215732003562152,0.00481624063104391,-0.000565286376513541,0.000873923010658473,0.000125406353618018,0.000793323386460543
320,0.0028130195569247,0.003181884996593,-0.00104108371306211,-0.000484101532492787,0.000691587862093002,0.000273011421086267
321,0.00314943608827889,0.00144157884642482,-0.00147364044096321,-0.00151808105874807,0.000927992223296314,-0.000521844602189958
322,0.00254310201853514,0.000797541346400976,-0.00200061337091029,-0.00153624382801354,-0.000150730367749929,-0.000305179681163281
323,0.00105171487666667,0.00133934512268752,-0.00317302951589227,-0.000870047602802515,-0.00284851179458201,0.00079014286166057
324,0.000235434141359292,0.00193749356549233,-0.0042667631059885,-0.000124020793009549,-0.00526043586432934,0.00128206238150597
325,0.00114731176290661,0.00211421144194901,-0.00430881744250655,0.000559880107175559,-0.0056018796749413,0.000470108963781968
326,0.00286010629497468,0.00210716086439788,-0.00368333421647549,0.00112786667887121,-0.0044181807897985,-0.000554308411665261
327,0.00421756040304899,0.00218393397517502,-0.00328640569932759,0.00140887242741883,-0.00310415215790272,-0.000226302960072644
328,0.00515338918194175,0.00250257272273302,-0.00354488519951701,0.00143298762850463,-0.00249717105180025,0.00194074434693903
329,0.00576286809518933,0.00225686118938029,-0.00430309446528554,0.00105943472590297,-0.0029822844080627,0.00430826423689723
330,0.00632425211369991,0.000919793033972383,-0.00434471713379025,0.000720498559530824,-0.00361120118759573,0.00511989183723927
331,0.00696685072034597,-0.000715747766662389,-0.00264640059322119,0.00133064354304224,-0.00289555336348712,0.00478870654478669
332,0.00724563933908939,-0.00192931550554931,6.2261700804811E-05,0.00275033293291926,-0.000647861219476908,0.00455807009711862
333,0.00720555428415537,-0.00249587488360703,0.00254001817665994,0.00443093571811914,0.00258462689816952,0.00419323891401291
334,0.00706333527341485,-0.0024401661939919,0.00418575666844845,0.00607848912477493,0.0063322065398097,0.00226470152847469
335,0.00662559829652309,-0.00220164097845554,0.00464728940278292,0.00668410258367658,0.00948485545814037,-0.00172050192486495
336,0.00640914170071483,-0.00188950309529901,0.00393065484240651,0.00533252255991101,0.0108008999377489,-0.00654129032045603
337,0.00730540649965405,-0.00124372472055256,0.00230216700583696,0.00261019007302821,0.0102102737873793,-0.0103440880775452
338,0.00893449783325195,-0.000587420887313783,0.000135488546220586,-0.000142499760841019,0.00788767356425524,-0.0121813807636499
339,0.00999957136809826,-0.000185600336408243,-0.00152287201490253,-0.00183555437251925,0.00452706264331937,-0.0124301565811038
340,0.00940347276628017,4.36947666457854E-05,-0.0017410519067198,-0.00211735791526735,0.00179656851105392,-0.0120198531076312
341,0.00696793897077441,0.000183789830771275,-0.000816165818832815,-0.00131365191191435,0.000402931298594922,-0.0112659353762865
342,0.00354466517455876,0.000432158121839166,-2.75215847977961E-06,-3.5111926990794E-05,-0.000497025961522013,-0.00992620270699263
343,0.000612183881457895,0.00114336237311363,7.40413597668521E-05,0.00134579336736351,-0.00171822367701679,-0.00780232716351748
344,-0.000920214923098683,0.00252916105091572,-0.000128585321363062,0.00280328886583447,-0.00316551467403769,-0.00480307592079043
345,-0.00162500201258808,0.00373804126866162,-0.000416097464039922,0.00381582044064999,-0.00446332059800625,-0.00162217800971121
346,-0.00222095078788698,0.00353554426692426,-0.000720740295946598,0.00375884491950274,-0.00520840752869844,0.000712485401891172
347,-0.00271611800417304,0.0019402886973694,-0.000887398957274854,0.00290368869900703,-0.00501299556344748,0.0020727114751935
348,-0.00278832484036684,0.000219503388507292,-0.0010959004284814,0.0021681827493012,-0.00414938014000654,0.00291406153701246
349,-0.00213126325979829,-0.000602437881752849,-0.00123619928490371,0.00220562634058297,-0.00331419985741377,0.00287141231819987
350,-0.0012174000730738,-0.00119271373841912,-0.00133771542459726,0.00232843635603786,-0.00282732443884015,0.000525216455571353
351,-0.000920391525141895,-0.00264304014854133,-0.00190036557614803,0.00157219730317593,-0.00269655976444483,-0.00395411206409335
352,-0.00139969610609114,-0.00450718495994806,-0.00278778024949133,0.000390612985938787,-0.00278051081113517,-0.00842360965907574
353,-0.00234454218298197,-0.00566170224919915,-0.00330771529115736,-0.000245655974140391,-0.00291585014201701,-0.0114065147936344
354,-0.00360701815225184,-0.00589307211339474,-0.00353484367951751,-0.000362339371349663,-0.00342537160031497,-0.0128706227988005
355,-0.00502171227708459,-0.00574500858783722,-0.004375786986202,-0.00100249308161438,-0.00455526309087873,-0.0142822470515966
356,-0.00550862308591604,-0.00544773088768125,-0.00552304182201624,-0.00258679408580065,-0.00491355592384934,-0.0170718729496002
357,-0.00407134694978595,-0.00462806737050414,-0.00577624561265111,-0.00422072829678655,-0.00336086843162775,-0.0201945584267378
358,-0.00178975984454155,-0.00340555398724973,-0.00542431324720383,-0.00538840470835567,-0.00143444363493472,-0.0218331422656775
359,-0.000271224969765171,-0.0026321797631681,-0.00531085301190615,-0.00664955517277122,-0.000440987205365673,-0.0219930447638035
360,1.09383017843356E-05,-0.00253976928070188,-0.00550291268154979,-0.0082482872530818,0.000148104503750801,-0.0213927440345287
361,-0.000879999075550586,-0.00233555631712079,-0.00585528509691358,-0.00927151646465063,0.00050922337686643,-0.0196107495576143
362,-0.00247512711212039,-0.00127497548237443,-0.00633069686591625,-0.00884151458740234,0.000243131202296354,-0.0156888365745544
363,-0.00417823158204556,0.000195165921468288,-0.00693079130724072,-0.00753745855763555,-0.000179235736140981,-0.0107796099036932
364,-0.00569934258237481,0.00103889929596335,-0.00776888616383076,-0.00663835741579533,-0.000451464438810945,-0.008055723272264
365,-0.00672584353014827,0.00105469732079655,-0.00911303702741861,-0.00673099840059876,-0.0016371076926589,-0.00881462730467319
366,-0.00710091087967157,0.000461368239484727,-0.0110124880447984,-0.00786774605512619,-0.00451396452262998,-0.0116838365793228
367,-0.00714273424819112,-0.000719209259841591,-0.0130539489910007,-0.00976165290921927,-0.0084769781678915,-0.0149651449173689
368,-0.00710179144516587,-0.00180033920332789,-0.0147149553522468,-0.0114933792501688,-0.0122804902493954,-0.0173900462687016
369,-0.00709907384589314,-0.00178988347761333,-0.0158810205757618,-0.0122905652970076,-0.0153609272092581,-0.0183037426322699
370,-0.00704013649374247,-0.000444958976004273,-0.0164386220276356,-0.0118862772360444,-0.0177129358053207,-0.017570823431015
371,-0.00638052355498075,0.00153482868336141,-0.0160983484238386,-0.0106416856870055,-0.0191286280751228,-0.0155606493353844
372,-0.00474980706349015,0.00319726206362247,-0.0145472567528486,-0.00939648319035769,-0.0192630123347044,-0.0132820662111044
373,-0.00262652197852731,0.00420922180637717,-0.0116023579612374,-0.00819672644138336,-0.0174172520637512,-0.0114198373630643
374,-0.00141851417720318,0.00435939850285649,-0.00863122288137674,-0.00701965112239122,-0.0139971878379583,-0.0101101966574788
375,-0.00227344105951488,0.00368903251364827,-0.00758169358596206,-0.00635823654010892,-0.0112341865897179,-0.00911317672580481
376,-0.00462478678673506,0.00278316368348897,-0.00803023856133223,-0.00600786088034511,-0.0100299390032887,-0.00821802951395512
377,-0.00689066667109728,0.00205219723284245,-0.0082715880125761,-0.00556544773280621,-0.00960653834044933,-0.00786380004137754
378,-0.0084428247064352,0.00159313785843551,-0.0081061152741313,-0.00509522669017315,-0.0104241790249944,-0.00783071480691433
379,-0.00939673744142056,0.00166861910838634,-0.00790325552225113,-0.004175063688308,-0.0128745073452592,-0.00684186583384871
380,-0.0100259985774755,0.00223163003101945,-0.00766141572967172,-0.00278354319743812,-0.0160786919295788,-0.00491882394999266
381,-0.011420582421124,0.00279881712049246,-0.00810727290809155,-0.00188632193021476,-0.0200580283999443,-0.00321125239133835
382,-0.0136475991457701,0.00394249334931374,-0.00924172159284353,-0.00101079349406064,-0.0244832579046488,-0.00163678615354002
383,-0.0151922665536404,0.00572916818782687,-0.0100176958367229,0.000449533457867801,-0.0274090114980936,-0.000364099338185042
384,-0.015323344618082,0.00646478263661265,-0.0101310731843114,0.00135915307328105,-0.027522636577487,-0.000335644057486206
385,-0.0147019764408469,0.00508837448433042,-0.00974632892757654,0.000954341900069267,-0.025126438587904,-0.00109647226054221
386,-0.0141964564099908,0.00238930061459541,-0.00898364558815956,-0.000302794214803725,-0.02117058634758,-0.00131466856691986
387,-0.0136229284107685,0.000154071691213176,-0.00785572826862335,-0.00119006901513785,-0.0165314618498087,-2.26141837629257E-05
388,-0.0125007443130016,-0.00101377768442035,-0.00665400410071015,-0.00103425316046923,-0.0115806562826037,0.00217272993177176
389,-0.0109544955193996,-0.00178055767901242,-0.00578028801828623,-0.000676680181641132,-0.00512286880984902,0.00361474417150021
390,-0.00935673341155052,-0.0022918377071619,-0.00530008459463716,-0.000980480574071407,0.00323279574513435,0.00439553707838058
391,-0.00808417890220881,-0.00195954972878098,-0.00535183865576983,-0.00147958821617067,0.00995164923369884,0.00583124719560146
392,-0.00701052928343415,-0.000129148000269197,-0.00579238729551435,-0.00137166935019195,0.0113624986261129,0.00757473148405552
393,-0.00581389339640737,0.00292721833102405,-0.0058940714225173,-0.000608381349593401,0.00758586404845119,0.00801383890211582
394,-0.00466183247044683,0.00604594079777598,-0.00500358548015356,0.0010456939926371,0.0011568630579859,0.00654419278725982
395,-0.00396150723099709,0.00795694813132286,-0.00350617570802569,0.00354547402821481,-0.00567765440791845,0.0031738041434437
396,-0.00374614237807691,0.00806150771677494,-0.00237336219288409,0.00531037477776408,-0.0117266112938523,-0.00187935750000179
397,-0.00387757131829858,0.00693228701129556,-0.00196463125757873,0.00515877129510045,-0.0160588677972555,-0.00706744845956564
398,-0.00497680343687534,0.00498020136728883,-0.00259092496708035,0.00356088206171989,-0.0185014419257641,-0.0105389999225736
399,-0.00728399073705077,0.00244678580202162,-0.00451587280258536,0.00135200284421444,-0.0194276347756386,-0.0118523184210062
400,-0.00945564638823271,0.000434930610936135,-0.00708713755011559,-0.000794980791397393,-0.019012613222003,-0.0116276172921062
401,-0.0102592036128044,-0.000189309968845919,-0.00944781489670277,-0.00249533588066697,-0.0177564769983292,-0.0101832700893283
402,-0.0101442337036133,0.000458973459899426,-0.0114461863413453,-0.00442851847037673,-0.0159919150173664,-0.0080199521034956
403,-0.009935287758708,0.00170898425858468,-0.0126377874985337,-0.00695797521620989,-0.013021569699049,-0.00645159324631095
404,-0.00891826394945383,0.00277289841324091,-0.0113488007336855,-0.0080332001671195,-0.00857819616794586,-0.00590142700821161
405,-0.00679059093818069,0.00292319385334849,-0.00751871056854725,-0.00579049391672015,-0.00509870704263449,-0.00596498465165496
406,-0.00491275964304805,0.00227069808170199,-0.00374025944620371,-0.00110423809383065,-0.00528483465313911,-0.00596312480047345
407,-0.00404525874182582,0.00134446460288018,-0.00194389838725328,0.00327664287760854,-0.00888715591281652,-0.00535650830715895
408,-0.00408901320770383,-5.52935089217499E-05,-0.00230824202299118,0.00476374803110957,-0.0138600217178464,-0.00476979371160269
409,-0.00458938954398036,-0.00200777128338814,-0.00393176265060902,0.00342310778796673,-0.0178805310279131,-0.00499171670526266
410,-0.00472817895933986,-0.00410907017067075,-0.00595469167456031,0.00103963213041425,-0.0199061818420887,-0.00586357526481152
411,-0.0041523166000843,-0.0055886167101562,-0.00826973002403975,-0.00134715670719743,-0.0204049237072468,-0.00645028287544847
412,-0.00354895391501486,-0.00576738268136978,-0.0110738817602396,-0.00427779695019126,-0.0199234988540411,-0.00686396099627018
413,-0.00407434441149235,-0.0046834908425808,-0.0146969240158796,-0.0085481209680438,-0.0195074994117022,-0.00830711610615253
414,-0.00592882884666324,-0.00308976671658456,-0.0185271166265011,-0.0130188763141632,-0.0204597655683756,-0.0109853390604258
415,-0.00780786201357841,-0.00165563228074461,-0.0210052188485861,-0.0156385842710733,-0.0227535180747509,-0.013426847755909
416,-0.00817863922566175,-0.000530859164427966,-0.0215308573096991,-0.0159134641289711,-0.0249986816197634,-0.01434092130512
417,-0.00738907745108008,-0.000438001821748912,-0.021491626277566,-0.0155203137546778,-0.0269428100436926,-0.0155086126178503
418,-0.00727909570559859,-0.00171981169842184,-0.0231958329677582,-0.0160592813044786,-0.0306528490036726,-0.0189798939973116
419,-0.00847459677606821,-0.00319410650990903,-0.0270507503300905,-0.017286378890276,-0.0370350368320942,-0.0234736353158951
420,-0.00969925615936518,-0.00352485943585634,-0.0313172414898872,-0.0187973082065582,-0.0439838282763958,-0.0271447282284498
421,-0.0101110525429249,-0.00287164701148868,-0.0348689593374729,-0.0214855521917343,-0.0491145737469196,-0.0302338935434818
422,-0.0103950202465057,-0.00225237593986094,-0.0380014479160309,-0.0258215740323067,-0.0524611063301563,-0.0334092006087303
423,-0.0108985705301166,-0.00166271580383182,-0.0409840829670429,-0.0304658096283674,-0.0556953586637974,-0.0363583825528622
424,-0.011251924559474,-0.000691135181114078,-0.0441469065845013,-0.0339277945458889,-0.0598642081022263,-0.0383605472743511
425,-0.0112153738737106,0.000615046708844602,-0.0486000329256058,-0.0359954312443733,-0.0649986863136292,-0.0391746982932091
426,-0.0104139670729637,0.00229079648852348,-0.0540507026016712,-0.0372403934597969,-0.0703013762831688,-0.0402231179177761
427,-0.00887125823646784,0.00397807499393821,-0.0585417747497559,-0.0385448299348354,-0.074570432305336,-0.0432891063392162
428,-0.00762023823335767,0.00454372866079211,-0.0617308355867863,-0.0410562604665756,-0.0774542242288589,-0.0481552183628082
429,-0.00721688009798527,0.00359214446507394,-0.0646770372986794,-0.0449841991066933,-0.0790620595216751,-0.0534389242529869
430,-0.00724019110202789,0.0018909809878096,-0.0677851140499115,-0.0492290630936623,-0.0795965194702148,-0.0586577393114567
431,-0.00760973105207086,0.000424151250626892,-0.0709202960133553,-0.0523463636636734,-0.0803505256772041,-0.0631278976798058
432,-0.00807012990117073,2.91170454147505E-05,-0.074082188308239,-0.0541156381368637,-0.0822597593069077,-0.065604642033577
433,-0.00779005000367761,0.000827409443445504,-0.0776027515530586,-0.0560984313488007,-0.0849484354257584,-0.0667266398668289
434,-0.00644463440403342,0.00237481785006821,-0.0813340917229652,-0.0589196756482124,-0.0881205052137375,-0.067857027053833
435,-0.00462347362190485,0.00399765139445663,-0.0848512575030327,-0.0615844018757343,-0.0918504521250725,-0.069117970764637
436,-0.00351263745687902,0.00483585381880403,-0.0881927832961082,-0.0636312812566757,-0.0953802615404129,-0.070556677877903
437,-0.00370630738325417,0.00467500975355506,-0.091423861682415,-0.0654760673642159,-0.0978377088904381,-0.0727614611387253
438,-0.00473833596333861,0.00407054182142019,-0.0944328904151917,-0.0673212334513664,-0.100473321974278,-0.075834646821022
439,-0.00631169322878122,0.00369119085371494,-0.0970091447234154,-0.0687062069773674,-0.105005852878094,-0.078783705830574
440,-0.00854476448148489,0.00404903432354331,-0.0991096496582031,-0.069487139582634,-0.110787145793438,-0.08054319024086
441,-0.0110551500692964,0.00550519675016403,-0.100891597568989,-0.0701751932501793,-0.115205049514771,-0.0810334235429764
442,-0.0128814559429884,0.00755046214908361,-0.102430284023285,-0.0709400027990341,-0.116341404616833,-0.0810604989528656
443,-0.0134957786649466,0.00924607645720243,-0.103494331240654,-0.071556843817234,-0.115516141057014,-0.0812568441033363
444,-0.0132102379575372,0.0106949843466282,-0.103486806154251,-0.0717167109251022,-0.115774795413017,-0.0809051170945168
445,-0.0124280136078596,0.0117693394422531,-0.102372899651527,-0.0709981471300125,-0.118012957274914,-0.078762911260128
446,-0.0116797676309943,0.0116819851100445,-0.101351335644722,-0.0695669800043106,-0.120963864028454,-0.0747203901410103
447,-0.0115886610001326,0.0104668457061052,-0.101496130228043,-0.0682793110609055,-0.123298019170761,-0.0702674388885498
448,-0.0120725268498063,0.00883514154702425,-0.102653905749321,-0.0676072090864182,-0.124142736196518,-0.0674690529704094
449,-0.0124181425198913,0.00745624396950006,-0.104142978787422,-0.0675183087587357,-0.124017164111137,-0.0665685385465622
450,-0.0124358292669058,0.0063065798021853,-0.105458699166775,-0.0682012066245079,-0.124957889318466,-0.0664728656411171
451,-0.0127411857247353,0.00531544303521514,-0.106048263609409,-0.0694219172000885,-0.127673804759979,-0.0673871114850044
452,-0.0137297343462706,0.00502048246562481,-0.105581268668175,-0.070257343351841,-0.130489975214005,-0.0698579251766205
453,-0.0150517588481307,0.00514052947983146,-0.104280158877373,-0.0701181590557098,-0.13123320043087,-0.0729700475931168
454,-0.0158556215465069,0.00478532118722796,-0.10207312554121,-0.0688490271568298,-0.128932937979698,-0.0750218033790588
455,-0.0158641040325165,0.00423589628189802,-0.0986696109175682,-0.066272534430027,-0.124674946069717,-0.0749542266130447
456,-0.0155538795515895,0.0045216865837574,-0.0945922583341599,-0.0623858831822872,-0.120485819876194,-0.0727293342351913
457,-0.0150818089023232,0.00527942180633545,-0.0909410193562508,-0.0583381168544292,-0.116997137665749,-0.0695967152714729
458,-0.0140245137736201,0.0051255808211863,-0.0878698602318764,-0.0556257627904415,-0.113054841756821,-0.0671030282974243
459,-0.0119929071515799,0.00374367972835898,-0.0847510173916817,-0.0546141006052494,-0.107903465628624,-0.0653929859399796
460,-0.00942291226238012,0.00178403372410685,-0.0817301794886589,-0.054753266274929,-0.102171689271927,-0.0640622451901436
461,-0.00721332989633083,0.000559446576517075,-0.079219177365303,-0.0545578934252262,-0.0964467152953148,-0.0621696673333645
462,-0.00562847824767232,0.00126610044389963,-0.0770589336752892,-0.0530835017561913,-0.0907963365316391,-0.0591236539185047
463,-0.00413106242194772,0.00336028053425252,-0.0750481486320496,-0.0513210780918598,-0.0855358093976974,-0.0563610009849072
464,-0.00220358045771718,0.00556404236704111,-0.0732513442635536,-0.0503525957465172,-0.0811873003840446,-0.055033590644598
465,-9.81385528575629E-05,0.00756468856707215,-0.0712860077619553,-0.0498354732990265,-0.0773259624838829,-0.0545313358306885
466,0.0013818540610373,0.00954612158238888,-0.068424828350544,-0.048576582223177,-0.0731770992279053,-0.0533034205436707
467,0.00144986528903246,0.0109045282006264,-0.0647481828927994,-0.046307522803545,-0.0692025050520897,-0.0502213314175606
468,0.000261620647506788,0.0104765985161066,-0.0608986876904964,-0.0439392514526844,-0.0658599510788918,-0.0461324378848076
469,-0.000981415505520999,0.00807898305356503,-0.0575932897627354,-0.041974488645792,-0.0628582239151001,-0.0428856424987316
470,-0.00170164729934186,0.00481052557006478,-0.0556260272860527,-0.0403912626206875,-0.060407355427742,-0.0411119870841503
471,-0.00231521739624441,0.00204418273642659,-0.0555320754647255,-0.039060041308403,-0.0594262406229973,-0.0398656018078327
472,-0.00278481957502663,0.000407055980758742,-0.0566076152026653,-0.0376532338559628,-0.0594457276165485,-0.0383326150476933
473,-0.00245733046904206,-0.000143676341394894,-0.0568943694233894,-0.0361336432397366,-0.0582434684038162,-0.0369805060327053
474,-0.00127255695406348,0.000320596969686449,-0.055367074906826,-0.0348432324826717,-0.0549726411700249,-0.0365871302783489
475,3.31359333358705E-05,0.00155450671445578,-0.0528967417776585,-0.0338244773447514,-0.050889365375042,-0.0364204309880733
476,0.000658224569633603,0.00311263068579137,-0.0506272055208683,-0.0325745344161987,-0.0473800897598267,-0.0344549268484116
477,0.000354019895894453,0.00446810340508819,-0.0486175194382668,-0.0308353900909424,-0.0446771718561649,-0.0303803887218237
478,-0.00036778106004931,0.00517870811745524,-0.0464124716818333,-0.0290540289133787,-0.0420778803527355,-0.0262384805828333
479,-0.0011760228080675,0.00556567870080471,-0.0439976677298546,-0.027335437014699,-0.0392874106764793,-0.0230314545333385
480,-0.00207890453748405,0.00622444367036223,-0.0413728728890419,-0.0251040626317263,-0.0363718904554844,-0.019609248265624
481,-0.00255076726898551,0.00690950965508819,-0.038171473890543,-0.0222460180521011,-0.0327872559428215,-0.015543102286756
482,-0.00246499432250857,0.00686951726675034,-0.0349838435649872,-0.0199047811329365,-0.0287504624575377,-0.0121222920715809
483,-0.00217770016752183,0.00593117671087384,-0.0330687984824181,-0.01912278868258,-0.0251285433769226,-0.0103847701102495
484,-0.00160018890164793,0.00447356048971415,-0.0323726683855057,-0.0193396639078856,-0.0214089378714561,-0.0102949198335409
485,-0.000503381539601833,0.00301620946265757,-0.031424056738615,-0.0191246066242456,-0.0170870963484049,-0.0110894190147519
486,0.00102192547637969,0.00204663164913654,-0.0293166972696781,-0.0176958702504635,-0.0133442217484117,-0.0121310446411371
487,0.00222354987636209,0.00142505136318505,-0.0272796079516411,-0.0157732907682657,-0.0115395458415151,-0.0133652351796627
488,0.00268261786550283,0.000697535113431513,-0.0263137016445398,-0.0145221836864948,-0.0116006731987,-0.0144568225368857
489,0.00263903080485761,1.111739584303E-05,-0.0254691652953625,-0.0140013135969639,-0.0123058725148439,-0.0146198449656367
490,0.00237595965154469,0.000313887547235936,-0.0236782934516668,-0.0131733659654856,-0.0123871183022857,-0.0127925015985966
491,0.00227452232502401,0.00212817452847958,-0.0207501836121082,-0.0114378482103348,-0.0115352189168334,-0.00908251293003559
492,0.00232936511747539,0.0045121624134481,-0.017571909353137,-0.00949829071760178,-0.0103187430649996,-0.00555788166821003
493,0.00255225878208876,0.00592255918309093,-0.0152465607970953,-0.0083416448906064,-0.00906013417989016,-0.00383055629208684
494,0.00392229808494449,0.00578048592433333,-0.0132385026663542,-0.00747753772884607,-0.00688682217150927,-0.00306387199088931
495,0.0069214403629303,0.00458765402436256,-0.0104841087013483,-0.00571297574788332,-0.00294402334839106,-0.0017245962517336
496,0.00963694043457508,0.00316754402592778,-0.00768486456945539,-0.003714021993801,0.00140358612406999,-0.000146555714309216
497,0.0101332385092974,0.00220568501390517,-0.00569070363417268,-0.00251868786290288,0.00462835794314742,0.000684054684825242
498,0.00941672641783953,0.0014025493292138,-0.00348178436979651,-0.00145312724635005,0.00795981846749783,0.000767754972912371
499,0.00928208418190479,-0.000201440634555183,-0.000189335289178416,2.37386338994838E-05,0.0127199003472924,0.00029329676181078
500,0.00954851321876049,-0.00253925775177777,0.00323733827099204,0.00134972017258406,0.0173334982246161,-0.000831076467875391
501,0.00924902595579624,-0.00457018986344337,0.0055360528640449,0.00226708059199154,0.0193601883947849,-0.00231881043873727
502,0.00833413284271955,-0.00616980437189341,0.00672736251726747,0.00325711164623499,0.0187733713537455,-0.00355923268944025
503,0.00729524996131659,-0.00766286952421069,0.00778759922832251,0.00490126153454185,0.0179717596620321,-0.00366111798211932
504,0.00643352977931499,-0.00848639011383057,0.0092899426817894,0.00695234071463346,0.0192204732447863,-0.00190408458001912
505,0.00594936171546578,-0.00821322482079268,0.0109432972967625,0.00829255487769842,0.0226250775158405,0.00083883770275861
506,0.00596580561250448,-0.00717259477823973,0.0122720217332244,0.00850475858896971,0.0264423489570618,0.00319051137194037
507,0.00613901950418949,-0.00605275761336088,0.0132082989439368,0.00815619900822639,0.0292133316397667,0.0055470559746027
508,0.00605733087286353,-0.00565524492412806,0.0138214007019997,0.00759778264909983,0.0307340491563082,0.00846515968441963
509,0.00576231209561229,-0.00610432820394635,0.0140120629221201,0.00691647222265601,0.0312719382345676,0.0109912371262908
510,0.00561174843460321,-0.00695746811106801,0.0140113439410925,0.00617978489026427,0.0313227362930775,0.0124489376321435
511,0.00597338890656829,-0.00800486654043198,0.0143979229032993,0.00538932112976909,0.0317466966807842,0.0130709363147616
512,0.00635514687746763,-0.00922092609107494,0.0152142830193043,0.00479516200721264,0.0328115783631802,0.013075596652925
513,0.00593431107699871,-0.0102677578106523,0.0164319854229689,0.00514784827828407,0.0340253487229347,0.0128058530390263
514,0.00483724614605308,-0.0106120323762298,0.0183096639811993,0.00669934879988432,0.0351718813180923,0.012776792049408
515,0.00355082331225276,-0.010431656613946,0.020131628960371,0.00833501480519772,0.0359090827405453,0.0129979392513633
516,0.00250040576793253,-0.0105164907872677,0.0209731571376324,0.00904814805835485,0.0364506244659424,0.0129925087094307
517,0.00201330473646522,-0.0112972594797611,0.0213462729007006,0.00911971367895603,0.0383697561919689,0.0127759808674455
518,0.00211096764542162,-0.0122551498934627,0.0226708762347698,0.00999506749212742,0.0424952246248722,0.0134803028777242
519,0.00214613252319396,-0.0132027808576822,0.0250249244272709,0.0125855160877109,0.0468861050903797,0.0159085225313902
520,0.00166402524337173,-0.014492629095912,0.0272816941142082,0.0159441139549017,0.0487800389528275,0.0196330025792122
521,0.00179011281579733,-0.0155536336824298,0.0294597819447517,0.0186185892671347,0.0482663474977016,0.0232811756432056
522,0.0033214925788343,-0.0156868491321802,0.0318273827433586,0.0196713339537382,0.0471734441816807,0.0248848348855972
523,0.00550006050616503,-0.0144206881523132,0.0337466821074486,0.0195513982325792,0.0460909307003021,0.0245456900447607
524,0.00760655244812369,-0.0119591429829597,0.0350232385098934,0.0199768412858248,0.0452853664755821,0.0243452154099941
525,0.00926387868821621,-0.00996599998325109,0.0364727005362511,0.0216367784887552,0.0463105030357838,0.0247704535722733
526,0.00972489453852177,-0.00965773314237595,0.0384208336472511,0.0236526429653168,0.0496100932359695,0.0251920651644468
527,0.00829282123595476,-0.0107732443138957,0.0402259081602097,0.0251285638660192,0.0533342659473419,0.025739960372448
528,0.005662951618433,-0.0121890353038907,0.0417071618139744,0.0259934868663549,0.0565371699631214,0.0267922375351191
529,0.00341237685643137,-0.0128204077482224,0.0426279976963997,0.026305690407753,0.059314887970686,0.0280555188655853
530,0.00202333903871477,-0.0127598438411951,0.0421684347093105,0.0257784128189087,0.060910802334547,0.0285546891391277
531,0.00128149276133627,-0.0123418727889657,0.0407067947089672,0.0248397663235664,0.0606178715825081,0.028073700144887
532,0.0012305659474805,-0.0112528493627906,0.0396649278700352,0.0245179627090693,0.0584576912224293,0.027729844674468
533,0.00183788652066141,-0.00938123743981123,0.0399627052247524,0.0251894500106573,0.0556527003645897,0.0286987014114857
534,0.00274280528537929,-0.00722132576629519,0.0414962098002434,0.026453485712409,0.0538678243756294,0.0310699827969074
535,0.00345978699624538,-0.00554454512894154,0.0431616902351379,0.0276046209037304,0.0533095747232437,0.0338967181742191
536,0.00406891945749521,-0.00448339898139238,0.0442148894071579,0.0281959902495146,0.0537333078682423,0.0361656174063683
537,0.00488854246214032,-0.00370852602645755,0.0447168089449406,0.0282481722533703,0.0548325441777706,0.0375858284533024
538,0.00576751492917538,-0.0034168385900557,0.0447716191411018,0.0281678698956966,0.0556088089942932,0.0387220233678818
539,0.00649101659655571,-0.00406346842646599,0.0447778664529324,0.0283938068896532,0.0555493757128716,0.039945226162672
540,0.0073967301286757,-0.00536263175308704,0.0451462380588055,0.0289447829127312,0.0548650808632374,0.0409672111272812
541,0.00872351694852114,-0.00630030501633883,0.0454768687486649,0.0297159235924482,0.0537913739681244,0.0417321436107159
542,0.00936054438352585,-0.0063907140865922,0.045081727206707,0.0304864831268787,0.0523358732461929,0.0421916507184505
543,0.00820403825491667,-0.00608122767880559,0.0442523770034313,0.0307548176497221,0.0510165244340897,0.0419602915644646
544,0.00593131734058261,-0.00607884814962745,0.0437550917267799,0.0302889067679644,0.0509695634245873,0.0411019064486027
545,0.00405504042282701,-0.00665414053946733,0.0438801199197769,0.029629135504365,0.0526248961687088,0.0403413660824299
546,0.00295492936857045,-0.00776130612939596,0.0442095063626766,0.0294156819581985,0.0550127141177654,0.0399032048881054
547,0.00186960294377059,-0.00911667197942734,0.0440831743180752,0.0295136403292418,0.0563263595104218,0.0392040126025677
548,0.000851317541673779,-0.0101175224408507,0.0436205565929413,0.0296140220016241,0.0556632503867149,0.0379103384912014
549,0.000465525256004184,-0.0106451222673059,0.0429270751774311,0.0298446360975504,0.0539706647396088,0.0361615791916847
550,0.000255480292253196,-0.0110257882624865,0.041679035872221,0.0303534176200628,0.053238570690155,0.034489206969738
551,-2.90119132841937E-05,-0.0108071817085147,0.0404313541948795,0.0314337722957134,0.0549543388187885,0.0342696718871593
552,0.000134605055791326,-0.00933438073843718,0.040020901709795,0.033464141190052,0.0579454749822617,0.0368586294353008
553,0.000503811519593,-0.00739545002579689,0.0397829487919807,0.0353548750281334,0.0588471032679081,0.0415439084172249
554,0.000639266450889409,-0.00611198274418712,0.0388693064451218,0.0352988503873348,0.0566871426999569,0.0456174537539482
555,0.00070785207208246,-0.00531234173104167,0.0378454364836216,0.03341980651021,0.0537507571280003,0.0467928163707256
556,0.000934994022827595,-0.0044123912230134,0.0374560914933681,0.0313861630856991,0.0519662871956825,0.0448601320385933
557,0.00169089378323406,-0.0031205527484417,0.0378478355705738,0.0302978828549385,0.0514988005161285,0.0415865816175938
558,0.00300508597865701,-0.00156236975453794,0.0387417413294315,0.0298617444932461,0.0516062565147877,0.0389721989631653
559,0.00420105736702681,-0.000517575768753886,0.0395716615021229,0.0294799450784922,0.0517378933727741,0.0375156253576279
560,0.00483795814216137,-0.000153813874931075,0.0402412861585617,0.0296154674142599,0.0519388280808926,0.0371310710906982
561,0.00508214021101594,0.00014312680286821,0.0409568510949612,0.0308333113789558,0.0523904524743557,0.0380542241036892
562,0.0054050893522799,0.000350262620486319,0.0412678122520447,0.032257653772831,0.0528618656098843,0.0397212654352188
563,0.00632725143805146,0.000139160256367177,0.0407156758010387,0.0326436832547188,0.0527802817523479,0.0408099442720413
564,0.00771493790671229,-0.000457292859209701,0.0396586060523987,0.031878087669611,0.0520037934184074,0.0403473265469074
565,0.00866225548088551,-0.00151462526991963,0.0387954600155354,0.0302788000553846,0.0515022091567516,0.0380188338458538
566,0.00869052205234766,-0.00320741394534707,0.0386235900223255,0.0282438173890114,0.0526493154466152,0.0346576236188412
567,0.00803893804550171,-0.00505615305155516,0.0390519052743912,0.0265565924346447,0.0553892105817795,0.0318978279829025
568,0.00714256195351481,-0.00608305726200342,0.0395322553813457,0.025493772700429,0.0579588450491428,0.0304046273231506
569,0.00678352732211351,-0.00586034497246146,0.0398934185504913,0.0247915536165237,0.0589164458215237,0.0297673009335995
570,0.00689778570085764,-0.00530406506732106,0.0395930036902428,0.0240651573985815,0.0576685890555382,0.029134277254343
571,0.00682758260518312,-0.00546520156785846,0.0381797254085541,0.023141548037529,0.0546413473784924,0.0276047214865685
572,0.00710836285725236,-0.00585715612396598,0.0370914526283741,0.0226063635200262,0.0516037158668041,0.0253839213401079
573,0.00812061596661806,-0.00551730347797275,0.0375959351658821,0.0227229502052069,0.0494312196969986,0.0237776227295399
574,0.00900734215974808,-0.00462025543674827,0.0385570786893368,0.0227573048323393,0.0472809784114361,0.0236705187708139
575,0.00917715299874544,-0.00397850107401609,0.038236241787672,0.0221955440938473,0.0442116819322109,0.02445506490767
576,0.00909529812633991,-0.00414009252563119,0.0365079864859581,0.0211844835430384,0.0405073575675488,0.0247264262288809
577,0.00874297227710485,-0.00544361909851432,0.0338408388197422,0.0196024868637323,0.0369178615510464,0.02355089597404
578,0.00766801415011287,-0.00723177986219525,0.0303712543100119,0.0174869466573,0.0337127335369587,0.0205215774476528
579,0.00639970740303397,-0.00884106941521168,0.0267682205885649,0.0153719540685415,0.0314239338040352,0.0146436486393213
580,0.00579589558765292,-0.0104328049346805,0.0239630453288555,0.0133254649117589,0.0308605004101992,0.00641191657632589
581,0.00584161141887307,-0.0112371947616339,0.0221739280968905,0.0115589713677764,0.0318833030760288,-0.000261084729572758
582,0.00561144528910518,-0.0109373247250915,0.0210059750825167,0.0107472771778703,0.0329147800803185,-0.00243395031429827
583,0.00456834025681019,-0.0108036370947957,0.0198076535016298,0.0102871395647526,0.0323417223989964,-0.000510697020217776
584,0.00324288196861744,-0.0113297654315829,0.0182055104523897,0.00904382858425379,0.0301215797662735,0.00418283930048347
585,0.00261477497406304,-0.0115953283384442,0.0162223856896162,0.00699925469234586,0.0271125435829163,0.0100109754130244
586,0.00331914983689785,-0.0104464218020439,0.0136416750028729,0.00418832898139954,0.0235601533204317,0.0145855061709881
587,0.00450261356309056,-0.00758972065523267,0.0105405943468213,0.000945418432820588,0.0190462153404951,0.0165115017443895
588,0.00452920608222485,-0.00410835118964314,0.00750721991062164,-0.00134155550040305,0.0136470440775156,0.0166826788336039
589,0.00367589481174946,-0.00129659043159336,0.00498353410512209,-0.00150657503399998,0.00880177039653063,0.0164123624563217
590,0.00321443937718868,-9.01237726793624E-05,0.00280445977114141,-5.56489476366551E-06,0.00514462683349848,0.0151826981455088
591,0.00336901214905083,-0.001082320115529,0.000899048987776041,0.00158821523655206,0.0017444605473429,0.0114619880914688
592,0.00377860316075385,-0.00364430760964751,-0.000769757316447794,0.00192693062126637,-0.00252043991349638,0.00536505505442619
593,0.00375130982138217,-0.00643630279228091,-0.00299459812231362,0.000434939633123577,-0.00863462779670954,-0.000889053044375032
594,0.00296321813948452,-0.00843721348792315,-0.0056648668833077,-0.00217903358861804,-0.015789583325386,-0.005053102504462
595,0.00208213645964861,-0.00892100762575865,-0.00758185843005776,-0.00443926686421037,-0.0214729644358158,-0.00648350780829787
596,0.00172710081096739,-0.00770924380049109,-0.0084532992914319,-0.00564812682569027,-0.0243645925074816,-0.00601322948932648
597,0.00175501150079072,-0.0057254103012383,-0.00901122856885195,-0.00638735387474298,-0.0253014490008354,-0.00521605042740703
598,0.0021357040386647,-0.00404420774430037,-0.00994911789894104,-0.00730592524632812,-0.0254876594990492,-0.00508404057472944
599,0.00280738528817892,-0.00263839750550687,-0.0116651989519596,-0.00794418528676033,-0.0259965155273676,-0.00510456413030624
600,0.0030213501304388,-0.0012395033845678,-0.0138439768925309,-0.00749125145375729,-0.0274489354342222,-0.00474822148680687
601,0.00214579072780907,-0.000604232598561794,-0.0155394831672311,-0.00646572047844529,-0.0289368852972984,-0.00518188951537013
602,0.000230711215408519,-0.00165362644474953,-0.0163787100464106,-0.00636619562283158,-0.0289450343698263,-0.00777298770844936
603,-0.00207024463452399,-0.00370432389900088,-0.0166036002337933,-0.00762803386896849,-0.026681937277317,-0.0116519564762712
604,-0.00385518977418542,-0.00517840823158622,-0.0164818894118071,-0.00930061284452677,-0.0232342425733805,-0.014831074513495
605,-0.00451839109882712,-0.00548821361735463,-0.0165999792516232,-0.0106174424290657,-0.0214183460921049,-0.0166657324880362
606,-0.00393812078982592,-0.00502701895311475,-0.0175148192793131,-0.0117882611230016,-0.022966843098402,-0.0178427807986736
607,-0.00266307895071805,-0.00395265314728022,-0.0188796706497669,-0.0127222649753094,-0.0272474512457848,-0.0186002794653177
608,-0.00147083192132413,-0.00177931436337531,-0.0198765490204096,-0.0126613155007362,-0.0321943461894989,-0.0183481331914663
609,-0.000522572197951376,0.00139790202956647,-0.0203904956579208,-0.0120768826454878,-0.0354576483368874,-0.0175096355378628
610,1.69850245583802E-05,0.00453174347057939,-0.0212100055068731,-0.0122201927006245,-0.0365510731935501,-0.0170717015862465
611,-0.000322472973493859,0.00693593546748161,-0.0225460715591908,-0.0129465768113732,-0.0364586375653744,-0.016422875225544
612,-0.00160836591385305,0.00854455307126045,-0.0238132737576962,-0.0135848708450794,-0.0354321524500847,-0.0148621387779713
613,-0.00312321120873094,0.00926417671144009,-0.0245066247880459,-0.0141011327505112,-0.0332741513848305,-0.0129707222804427
614,-0.00387066509574652,0.0089438259601593,-0.0240394771099091,-0.0144741935655475,-0.0303022675216198,-0.0114962086081505
615,-0.00394296133890748,0.00788882654160261,-0.0228055529296398,-0.0146529199555516,-0.0278292112052441,-0.0108234826475382
616,-0.00430854130536318,0.0067003034055233,-0.0223596915602684,-0.0147951114922762,-0.0272043272852898,-0.010779426433146
617,-0.00500966794788837,0.00587224401533604,-0.0230195913463831,-0.0150178000330925,-0.0278331264853477,-0.0111074289306998
618,-0.00521379709243774,0.00597012089565396,-0.0240287743508816,-0.0154295824468136,-0.028684176504612,-0.0118096824735403
619,-0.00475644879043102,0.00692662037909031,-0.0249005258083344,-0.0161600224673748,-0.0301570817828178,-0.0129936067387462
620,-0.00440999865531921,0.00770861422643065,-0.025084288790822,-0.0166792590171099,-0.0324739813804626,-0.0143610276281834
621,-0.00479800812900066,0.00782709196209908,-0.0244262516498566,-0.0163002740591764,-0.0348052196204662,-0.0149570126086473
622,-0.00588982086628675,0.00768920546397567,-0.0235867202281952,-0.0153111489489675,-0.036432396620512,-0.014209995046258
623,-0.00742538459599018,0.00739289633929729,-0.0229703653603792,-0.0140170091763139,-0.037090539932251,-0.0120525537058711
624,-0.0092365350574255,0.00656555313616991,-0.0225054435431957,-0.0124141406267881,-0.0369251258671284,-0.00854646414518356
625,-0.0107830492779613,0.00520055601373315,-0.0222308151423931,-0.0113086411729455,-0.0363063178956509,-0.00492455577477813
626,-0.0110567333176732,0.00373057927936316,-0.0223691202700138,-0.0118546625599265,-0.035052414983511,-0.00407063215970993
627,-0.0101143186911941,0.00250208401121199,-0.0234413202852011,-0.0142479268833995,-0.0333245918154716,-0.00748717552050948
628,-0.008844293653965,0.00187169131822884,-0.0250685140490532,-0.0171802882105112,-0.0316238850355148,-0.0128983650356531
629,-0.00756961852312088,0.00187755969818681,-0.0257564000785351,-0.018695417791605,-0.0300633404403925,-0.0167108010500669
630,-0.00633355556055903,0.00203147111460567,-0.0247180629521608,-0.0179871525615454,-0.0284722689539194,-0.0172028038650751
631,-0.0055283335968852,0.00171550363302231,-0.0225080028176308,-0.0161910858005285,-0.0263984240591526,-0.0154411438852549
632,-0.00593348452821374,0.000721627206075937,-0.0203288588672876,-0.0149251567199826,-0.0242461897432804,-0.0136349573731422
633,-0.0078655369579792,-4.23943965870421E-05,-0.0190687254071236,-0.0143301766365767,-0.0237265918403864,-0.0126106049865484
634,-0.0104289082810283,0.000452076375950128,-0.0184561889618635,-0.013277031481266,-0.0256621278822422,-0.0119185354560614
635,-0.0122416391968727,0.00162820424884558,-0.0176230166107416,-0.0115120196714997,-0.0283245611935854,-0.0121607277542353
636,-0.0125449439510703,0.00234847236424685,-0.0161557346582413,-0.00966869853436947,-0.0292992237955332,-0.0146542238071561
637,-0.0119852665811777,0.00240780878812075,-0.0141584938392043,-0.00774939777329564,-0.0281362663954496,-0.0182956717908382
638,-0.0118833929300308,0.00208222027868032,-0.0124853784218431,-0.00610921392217278,-0.0262148939073086,-0.0198398064821959
639,-0.0123479040339589,0.0017158652190119,-0.0120781641453505,-0.00607086624950171,-0.024293702095747,-0.018462847918272
640,-0.0127749759703875,0.00151458266191185,-0.0127622233703732,-0.00818488653749228,-0.0217674039304256,-0.0161838661879301
641,-0.0124312806874514,0.00154884555377066,-0.0130724161863327,-0.0108644533902407,-0.0170357543975115,-0.0135974949225783
642,-0.0105985756963491,0.00175727112218738,-0.0118170250207186,-0.0121376411989331,-0.00973899569362402,-0.0100367227569222
643,-0.00817821267992258,0.0016863759374246,-0.00996716134250164,-0.0118138818070292,-0.00378349330276251,-0.0060127298347652
644,-0.0065711890347302,0.00129817530978471,-0.00883585587143898,-0.0103898989036679,-0.00292194122448564,-0.00279113813303411
645,-0.00563333882018924,0.00172280881088227,-0.00838814396411181,-0.00834254641085863,-0.00631129881367087,-0.001109320204705
646,-0.0048468722961843,0.00331287598237395,-0.0086090974509716,-0.00696238735690713,-0.0115456450730562,-0.00114804157055914
647,-0.00443523097783327,0.00456031924113631,-0.00962185300886631,-0.00751302624121308,-0.0171798504889011,-0.00292041897773743
648,-0.00447390973567963,0.00450978800654411,-0.0104626277461648,-0.00939696840941906,-0.021379005163908,-0.00566964782774448
649,-0.00443642679601908,0.00379743450321257,-0.00969861075282097,-0.0105499383062124,-0.0218690074980259,-0.00811219122260809
650,-0.00404231622815132,0.00347362481988966,-0.00689341872930527,-0.00942251738160849,-0.0184051729738712,-0.00921604130417109
651,-0.00320672546513379,0.00400094129145145,-0.00256506819278002,-0.00596938095986843,-0.0128623861819506,-0.00863261427730322
652,-0.00209536519832909,0.00487409764900804,0.00150028290227056,-0.00182151247281581,-0.00792126264423132,-0.00718073081225157
653,-0.00153470796067268,0.00542286410927773,0.0029888974968344,0.00115624011959881,-0.00585912959650159,-0.00586056942120194
654,-0.00211697677150369,0.00505557842552662,0.00168561737518758,0.00221697543747723,-0.0064649498090148,-0.00530068157240748
655,-0.00338982697576284,0.00351692666299641,-0.000407156447181478,0.00162404018919915,-0.0074312137439847,-0.00566355511546135
656,-0.00413980707526207,0.0018047004705295,-0.00165612355340272,0.000171432067872956,-0.00710489880293608,-0.00600994657725096
657,-0.0035151275806129,0.00116171431727707,-0.00184404465835541,-0.00143428763840348,-0.00562062067911029,-0.00523707829415798
658,-0.00188636861275882,0.00182420492637903,-0.00108011846896261,-0.00250903749838471,-0.00411838199943304,-0.00382767315022647
659,-2.62053363258019E-05,0.00294001866132021,0.000788861536420882,-0.00281247892417014,-0.00267085013911128,-0.00374543480575085
660,0.00157913472503424,0.00297395209781826,0.00327957700937986,-0.00277592102065682,-0.00054661906324327,-0.00569408154115081
661,0.00242932001128793,0.00167546246666461,0.00495088053867221,-0.00216053240001202,0.00124137778766453,-0.00718978932127357
662,0.00276614795438945,0.00065940321655944,0.00541043095290661,-2.53448106377618E-05,0.0016564674442634,-0.00514829531311989
663,0.00310363247990608,0.000662625359836966,0.00545181753113866,0.00292651751078665,0.00138842884916812,-0.000302653730614111
664,0.00314495083875954,0.000940701575018466,0.00525781372562051,0.00482371728867292,0.00127438083291054,0.00423863716423512
665,0.00262785935774446,0.00108347774948925,0.00467172870412469,0.00510362768545747,0.00191943452227861,0.0071678776293993
666,0.00203193794004619,0.00118271284736693,0.00382389570586383,0.00399955036118627,0.00322962063364685,0.00848598033189774
667,0.00199797959066927,0.001151027623564,0.00305058085359633,0.00182838877663016,0.00387678551487625,0.00806334149092436
668,0.00254384754225612,0.000753944623284042,0.00283708679489791,-0.000667289772536606,0.00307165761478245,0.00581813929602504
669,0.00302399578504264,3.29702997987624E-05,0.00326690194196999,-0.00281051220372319,0.0015228531556204,0.00206397823058069
670,0.00307381199672818,-0.000529373239260167,0.00406994204968214,-0.00399685278534889,0.000354758463799953,-0.00200382457114756
671,0.00288477493450046,-0.000584022491239011,0.00480448780581355,-0.00356921623460948,-0.000250634941039607,-0.00474314205348492
672,0.00221656728535891,-0.000270729418843985,0.0044918735511601,-0.00176944478880614,-0.00137926742900163,-0.00553897256031632
673,0.000886889989487827,0.000370027410099283,0.0028508547693491,0.00048508369945921,-0.00359553634189069,-0.00511099211871624
674,-0.000568646937608719,0.00124137185048312,0.00103078118991107,0.00271331146359444,-0.00615736655890942,-0.00469763111323118
675,-0.00131823436822742,0.00193458423018456,0.000345065200235695,0.00466713914647698,-0.00759756611660123,-0.00534971570596099
676,-0.000755481654778123,0.00231137475930154,0.00128572806715965,0.00598832126706839,-0.00654992461204529,-0.00702406372874975
677,0.000532908015884459,0.00238369032740593,0.00303019722923636,0.00615450879558921,-0.00344200618565083,-0.008770358748734
678,0.00141271715983748,0.00209257705137134,0.00431950576603413,0.00480581214651465,1.61735461006174E-05,-0.00963664148002863
679,0.00140757556073368,0.00142067077104002,0.00492570688948035,0.00288137304596603,0.00267234584316611,-0.00913430936634541
680,0.000406283274060115,0.000447292142780498,0.00530105270445347,0.00200749142095447,0.00422603404149413,-0.0077899219468236
681,-0.000926772132515907,-0.000356057716999203,0.00582952937111259,0.00248490017838776,0.00500153051689267,-0.0070770806632936
682,-0.00145567837171257,-0.000569023133721203,0.00646135443821549,0.00288353627547622,0.0054207812063396,-0.00853252410888672
683,-0.000943867256864905,-0.000405228231102228,0.00672221137210727,0.0019274567021057,0.0056607760488987,-0.0120119424536824
684,0.000126465281937271,-0.000218911183765158,0.00632813293486834,9.46851941989735E-05,0.0055024023167789,-0.0157615970820189
685,0.000843444024212658,9.90601911325939E-05,0.00497430004179478,-0.00154198345262557,0.00386331346817315,-0.0180444661527872
686,0.000610465998761356,0.000939718855079263,0.00274519086815417,-0.0025770072825253,0.000404932827223092,-0.017847990617156
687,7.94430161477067E-05,0.002297084312886,0.000989016727544367,-0.00297155766747892,-0.00296160508878529,-0.0154927931725979
688,-0.000176878849742934,0.00341795664280653,0.000623821862973273,-0.00301411491818726,-0.00487773073837161,-0.0124784605577588
689,0.000218706540181302,0.00343760871328413,0.000894873985089362,-0.00376215437427163,-0.00558185717090964,-0.0111439106985927
690,0.00179155054502189,0.00237422250211239,0.000608803995419294,-0.00624632276594639,-0.00531954318284988,-0.0131736444309354
691,0.00341279222629964,0.00070434674853459,-0.00126863596960902,-0.0105050355195999,-0.00526403170078993,-0.0179886948317289
692,0.00342394271865487,-0.000943592865951359,-0.00511883292347193,-0.0154117429628968,-0.00691335834562778,-0.0231781061738729
693,0.00186695298179984,-0.00181723362766206,-0.00995728652924299,-0.0192100331187248,-0.0100945672020316,-0.0261279232800007
694,-0.00018579259631224,-0.00198678881861269,-0.0139159094542265,-0.0207891631871462,-0.0129609666764736,-0.0262931566685438
695,-0.00138629029970616,-0.00202238350175321,-0.0153548046946526,-0.0203264728188515,-0.0129174785688519,-0.025687525048852
696,-0.00120268750470132,-0.00265579507686198,-0.0144704356789589,-0.0198823995888233,-0.00925788376480341,-0.0275069419294596
697,-0.000829957833047956,-0.00440080463886261,-0.0135411955416203,-0.0218209158629179,-0.00498464424163103,-0.0334503129124641
698,-0.00108135538175702,-0.00633265729993582,-0.0142766339704394,-0.0256971176713705,-0.00349815026856959,-0.0416458360850811
699,-0.0011984909651801,-0.00712859723716974,-0.0159471668303013,-0.0289530642330647,-0.00517160724848509,-0.0483405850827694
700,-0.00069462729152292,-0.00698033254593611,-0.0172934345901012,-0.0301872082054615,-0.00865748897194862,-0.0513692758977413
701,0.000159004150191322,-0.00687896832823753,-0.0182290691882372,-0.0298708342015743,-0.0127198481932282,-0.0506957285106182
702,0.00108196632936597,-0.00715652434155345,-0.0186251178383827,-0.0285036619752645,-0.0156083945184946,-0.04725381731987
703,0.00233214255422354,-0.00751574104651809,-0.0178475975990295,-0.0263974480330944,-0.0152485789731145,-0.0431410595774651
704,0.00438489159569144,-0.00752348499372602,-0.0159997437149286,-0.0244739409536123,-0.011463169939816,-0.040397621691227
705,0.00663379160687327,-0.00746097695082426,-0.0143088540062308,-0.0239556115120649,-0.00635026814416051,-0.0399678647518158
706,0.0082970391958952,-0.00811406690627337,-0.0139007018879056,-0.0254803318530321,-0.00216430425643921,-0.0422070883214474
707,0.00980221107602119,-0.00909531023353338,-0.0143509795889258,-0.0279964450746775,0.000593157834373415,-0.045830924063921
708,0.0112754302099347,-0.00960816815495491,-0.0150219118222594,-0.0301101915538311,0.00225345534272492,-0.0490695387125015
709,0.0120110455900431,-0.0096737639978528,-0.0163699630647898,-0.0313103646039963,0.00251508434303105,-0.0516033321619034
710,0.011826534755528,-0.00946117006242275,-0.0181215647608042,-0.0306729264557362,0.00146515399683267,-0.0531858094036579
711,0.0111331520602107,-0.00925670191645622,-0.0189003888517618,-0.0281729865819216,0.000229310797294602,-0.0539523586630821
712,0.010533781722188,-0.00917186494916677,-0.0184957180172205,-0.0260919760912657,-0.000384442450013012,-0.0546138025820255
713,0.0101542798802257,-0.0090274391695857,-0.018450079485774,-0.0266020428389311,-0.00113665568642318,-0.0549657642841339
714,0.00949036423116922,-0.00872571300715208,-0.0194645021110773,-0.0290009472519159,-0.00259778089821339,-0.0538383163511753
715,0.00827221106737852,-0.0080309072509408,-0.0208236686885357,-0.0309287682175636,-0.00392150320112705,-0.0503746755421162
716,0.00676225405186415,-0.00718056038022041,-0.0224389247596264,-0.0320985093712807,-0.00444261310622096,-0.0462285354733467
717,0.00579549092799425,-0.00663243280723691,-0.0249748751521111,-0.034374762326479,-0.00468087289482355,-0.0446499809622765
718,0.00591415818780661,-0.00613904651254416,-0.0290276426821947,-0.0390628203749657,-0.00593475624918938,-0.0470203198492527
719,0.00679611042141914,-0.0051644966006279,-0.0337636061012745,-0.0449451394379139,-0.00806175917387009,-0.0517160072922707
720,0.00793572794646025,-0.00370527314953506,-0.0365506410598755,-0.0487359389662743,-0.00933069922029972,-0.0559643842279911
721,0.00882486160844564,-0.00243165506981313,-0.0358835197985172,-0.0484702922403812,-0.00916747935116291,-0.0584172494709492
722,0.00927869323641062,-0.00190888822544366,-0.0325655527412891,-0.0450071506202221,-0.00800800416618586,-0.0594281405210495
723,0.0093464432284236,-0.00229627848602831,-0.0279719084501266,-0.0400600470602512,-0.00585406739264727,-0.0593258924782276
724,0.00904457923024893,-0.00344907445833087,-0.023869663476944,-0.0354561433196068,-0.00337340217083693,-0.0582999624311924
725,0.00870975852012634,-0.00492941495031118,-0.0223621521145105,-0.0336005836725235,-0.00258905487135053,-0.0573510974645615
726,0.00849148724228144,-0.0062503470107913,-0.0242331922054291,-0.035856980830431,-0.00457769352942705,-0.0575264655053616
727,0.00807647034525871,-0.00714471330866218,-0.0282082930207253,-0.0408412031829357,-0.00817065220326185,-0.0591545775532722
728,0.00757937273010612,-0.00778111908584833,-0.0321621857583523,-0.0460919365286827,-0.0112449461594224,-0.0622267238795757
729,0.00753166573122144,-0.00843461323529482,-0.0349471382796764,-0.0504685342311859,-0.012526398524642,-0.0663331896066666
730,0.00804168917238712,-0.00888364017009735,-0.036785539239645,-0.05359972640872,-0.01242904830724,-0.0702130720019341
731,0.00890107825398445,-0.00898062717169523,-0.0374067202210426,-0.0546565838158131,-0.0114452848210931,-0.0731595754623413
732,0.00998157728463411,-0.00883776601403952,-0.0359882861375809,-0.0531362518668175,-0.00955442059785128,-0.0753330215811729
733,0.0106961699202657,-0.00852902047336102,-0.0335666798055172,-0.0501847453415394,-0.00783633906394243,-0.0762771815061569
734,0.0104716243222356,-0.00829374976456165,-0.031844861805439,-0.0470994971692562,-0.00748407701030374,-0.0749567374587059
735,0.00998458359390497,-0.00776782212778926,-0.0303423758596182,-0.0435091368854046,-0.00754142692312598,-0.0702918395400047
736,0.0099712461233139,-0.00671782996505499,-0.0280943866819143,-0.0396011807024479,-0.0064546475186944,-0.0635913610458374
737,0.00998733658343554,-0.00621702428907156,-0.026264363899827,-0.0376178026199341,-0.00478111393749714,-0.0592605844140053
738,0.00944655761122704,-0.00688947550952435,-0.0266220457851887,-0.0393359661102295,-0.00416828226298094,-0.0602841451764107
739,0.00824578292667866,-0.00836111418902874,-0.0295636504888535,-0.0444128289818764,-0.00529167987406254,-0.0659119188785553
740,0.00665679899975657,-0.0102981943637133,-0.0340136401355267,-0.0507489964365959,-0.00749994814395905,-0.0729060396552086
741,0.00530223874375224,-0.0123068699613214,-0.0380908623337746,-0.0560438148677349,-0.00951598677784204,-0.0785567685961723
742,0.00475725252181292,-0.0140215316787362,-0.0404993109405041,-0.0595265962183475,-0.0104908160865307,-0.0829106345772743
743,0.00521986139938235,-0.0150507921352983,-0.0408098287880421,-0.0609342083334923,-0.0102119287475944,-0.0860389992594719
744,0.00634756358340383,-0.0150276143103838,-0.0392106026411057,-0.0599793493747711,-0.00891378056257963,-0.0865574479103088
745,0.00739278178662062,-0.0145960096269846,-0.0366199351847172,-0.0577973313629627,-0.007117357570678,-0.0845050886273384
746,0.00818837620317936,-0.0145647451281548,-0.0338474176824093,-0.055739052593708,-0.00504413293674588,-0.0814937725663185
747,0.00918423105031252,-0.0147482724860311,-0.0312068201601505,-0.0538231991231442,-0.00262001506052911,-0.0786557570099831
748,0.0102598359808326,-0.0143211185932159,-0.0288675017654896,-0.0513715967535973,-0.000462473166408017,-0.0759913548827171
749,0.0111193405464292,-0.0124087138101459,-0.0265737231820822,-0.0475039295852184,0.000840402091853321,-0.0723851844668388
750,0.0116775203496218,-0.00950848497450352,-0.0237722378224134,-0.0420731008052826,0.00190047058276832,-0.067371554672718
751,0.0114792538806796,-0.00743413576856256,-0.0208229459822178,-0.036469217389822,0.0028477490413934,-0.0623179040849209
752,0.010314429178834,-0.00742592662572861,-0.0194624532014132,-0.0332226306200027,0.00251207314431667,-0.0591418333351612
753,0.00926645845174789,-0.00864879321306944,-0.0207884553819895,-0.0341287665069103,0.000647591368760914,-0.0587172657251358
754,0.00936867296695709,-0.0092383548617363,-0.0242305435240269,-0.0387662313878536,-0.0018946334021166,-0.0608392357826233
755,0.00982089899480343,-0.00899921543896198,-0.0287085846066475,-0.0451110154390335,-0.00478080054745078,-0.0645480826497078
756,0.00946989841759205,-0.00881213694810867,-0.033043596893549,-0.0503615029156208,-0.00771675491705537,-0.067488819360733
757,0.00823854003101587,-0.00838731974363327,-0.0362134203314781,-0.0525108650326729,-0.00990983378142118,-0.0675647184252739
758,0.00677563110366464,-0.00688633555546403,-0.0370655804872513,-0.0511531084775925,-0.0101074185222387,-0.0645820498466492
759,0.00580185605213046,-0.0045405700802803,-0.0348665527999401,-0.0468349494040012,-0.00754239084199071,-0.0592805296182632
760,0.00550577556714416,-0.00267447088845074,-0.0305513460189104,-0.0412748083472252,-0.00312685687094927,-0.0538967810571194
761,0.00566336512565613,-0.00216243276372552,-0.0256959404796362,-0.0362316258251667,0.00122461642604321,-0.0509420037269592
762,0.00572605058550835,-0.00256610242649913,-0.0217165909707546,-0.0322225205600262,0.0037453209515661,-0.0503837801516056
763,0.00513460906222463,-0.00324424402788281,-0.019969005137682,-0.0296341571956873,0.00365918199531734,-0.0506927184760571
764,0.00392398703843355,-0.0042075770907104,-0.0208199061453342,-0.0289486963301897,0.00122844032011926,-0.05074567720294
765,0.00287349196150899,-0.00563212018460035,-0.0227865613996983,-0.0291003566235304,-0.00205403054133058,-0.0497955568134785
766,0.0026634824462235,-0.00725108711048961,-0.0235112905502319,-0.0281023159623146,-0.00385910551995039,-0.0471041761338711
767,0.00311151752248406,-0.00868386961519718,-0.0218669474124908,-0.0260394923388958,-0.00297383172437549,-0.0433333590626717
768,0.00386680290102959,-0.00945868995040655,-0.0187188964337111,-0.0246508531272411,5.106654134579E-05,-0.0402681194245815
769,0.00460532540455461,-0.00907248351722956,-0.0158906430006027,-0.0244342964142561,0.00354794901795685,-0.0386004261672497
770,0.00491853011772037,-0.00793146062642336,-0.0145092597231269,-0.0245207473635674,0.00596691155806184,-0.0379460267722607
771,0.0050082691013813,-0.0070060440339148,-0.0139592364430428,-0.0237528514117002,0.00746425054967403,-0.0373348072171211
772,0.00515624694526196,-0.00680611748248339,-0.0134221129119396,-0.0219793617725372,0.00896777212619781,-0.0358278788626194
773,0.00478229066357017,-0.00727376760914922,-0.0135147292166948,-0.020710401237011,0.00997621193528175,-0.0338164605200291
774,0.00365932192653418,-0.00778926583006978,-0.0144318304955959,-0.0207013487815857,0.00965040922164917,-0.0325368978083134
775,0.0022799929138273,-0.00817969162017107,-0.0156628899276257,-0.0215875804424286,0.00792422331869602,-0.0329925306141377
776,0.000942372367717326,-0.00886678230017424,-0.0174645055085421,-0.0233959052711725,0.00495081068947911,-0.0353728234767914
777,0.000125629725516774,-0.00932392291724682,-0.0194715838879347,-0.0252127163112164,0.00188021431677043,-0.0382134504616261
778,0.000270871620159596,-0.00914049055427313,-0.0204046387225389,-0.0256884451955557,0.000351821625372395,-0.0401639081537724
779,0.00133576360531151,-0.00905409082770348,-0.0192945003509521,-0.0245410799980164,0.00120229495223612,-0.0412057265639305
780,0.00302907917648554,-0.00920621305704117,-0.0156179592013359,-0.0212100353091955,0.00443625869229436,-0.040423545986414
781,0.0042174831032753,-0.00914224982261658,-0.0103959450498223,-0.0158558618277311,0.00860998220741749,-0.0371745340526104
782,0.00374402781017125,-0.00872376561164856,-0.0059454245492816,-0.010395098477602,0.011802532710135,-0.0331263095140457
783,0.00203743879683316,-0.00762120680883527,-0.0034680450335145,-0.0059512909501791,0.0132735474035144,-0.0295722894370556
784,0.000364047940820456,-0.00570647604763508,-0.00265626120381057,-0.00278766732662916,0.0128749320283532,-0.0261222161352634
785,-8.500310650561E-05,-0.00342714134603739,-0.00263278116472065,-0.00128603738266975,0.0109461210668087,-0.0219235494732857
786,0.0012439846759662,-0.00139196740929037,-0.0027013870421797,-0.0015761093236506,0.00844516512006521,-0.0173090137541294
787,0.003517851466313,-0.00024846161250025,-0.00298806605860591,-0.00393694266676903,0.0061093051917851,-0.0147085962817073
788,0.00524046504870057,-0.000179615031811409,-0.00406722212210298,-0.00822628941386938,0.00428348314017057,-0.0155830653384328
789,0.00568591058254242,-0.000690106069669127,-0.00612951815128326,-0.0132905161008239,0.00286269490607083,-0.0186452344059944
790,0.0047590360045433,-0.00159929366782308,-0.00884428806602955,-0.0175582002848387,0.000704939535353333,-0.0223160330206156
791,0.00279516447335482,-0.00285708508454263,-0.0110128186643124,-0.0191062893718481,-0.00250024860724807,-0.0252006594091654
792,0.000554841361008585,-0.00386904878541827,-0.0111123956739903,-0.0166799835860729,-0.00518047111108899,-0.0253756307065487
793,-0.0012568716192618,-0.00432853773236275,-0.00882464274764061,-0.0112312063574791,-0.00592194404453039,-0.0222424101084471
794,-0.00206105387769639,-0.00423147296532989,-0.00524929026141763,-0.0052187186665833,-0.00430371938273311,-0.0170639902353287
795,-0.00229126214981079,-0.00357555109076202,-0.00235760235227644,-0.000860583386383951,-0.00163854996208102,-0.0115359481424093
796,-0.00274553312920034,-0.00250393454916775,-0.00107888388447464,0.00120207166764885,0.000426628248533234,-0.00729483505710959
797,-0.00300689041614532,-0.00128031545318663,-0.000377794669475406,0.00170185486786067,0.00212583970278502,-0.00517843989655375
798,-0.00274706352502108,-0.000507544842548668,0.000476292712846771,0.00110653892625123,0.00374229322187603,-0.00490768346935511
799,-0.00242024683393538,-0.000520302332006395,0.00132653117179871,-0.000376418000087142,0.0050137722864747,-0.00554907647892833
800,-0.0019801645539701,-0.000847585848532617,0.00239325989969075,-0.00178383069578558,0.00659489678218961,-0.00608598906546831
801,-0.00130320677999407,-0.00110106403008103,0.00377256725914776,-0.00204882863909006,0.00862671714276075,-0.00595391076058149
802,-0.000880998733919114,-0.00144848134368658,0.00520612904801965,-0.000712567300070077,0.00995204411447048,-0.00502169039100409
803,-0.000928584951907396,-0.00201344606466591,0.00672203255817294,0.00174581375904381,0.0103540327399969,-0.00405687466263771
804,-0.00128228706307709,-0.00252472911961377,0.00812358316034079,0.00422283075749874,0.0104361148551106,-0.00363565096631646
805,-0.00157756195403636,-0.00254833418875933,0.00916553009301424,0.00651209522038698,0.0102231549099088,-0.002600860549137
806,-0.00115059223026037,-0.00186910445336252,0.0102262832224369,0.00890824757516384,0.0096766771748662,0.000188183024874888
807,9.20068196137436E-05,-0.000623271276708692,0.0115984138101339,0.0111899236217141,0.0089117968454957,0.0040209861472249
808,0.0015557799488306,0.000746328383684158,0.013091447763145,0.0132426731288433,0.00814567692577839,0.00704567087814212
809,0.00271259737201035,0.00165790063329041,0.0142321959137917,0.0149051416665316,0.00759613700211048,0.00767032848671079
810,0.00297280051745474,0.00140986009500921,0.0144370505586267,0.0154761979356408,0.00694709457457066,0.00536795193329453
811,0.00223691947758198,-0.00030999758746475,0.0134538915008307,0.0144007308408618,0.00603148201480508,0.000821455847471952
812,0.00134054094087332,-0.00232168054208159,0.0119073092937469,0.0121976071968675,0.00568909710273147,-0.00400339951738715
813,0.000584154622629285,-0.00324536114931107,0.0109018357470632,0.010365167632699,0.00685288943350315,-0.00649704458191991
814,-0.000322182546369731,-0.00344590144231915,0.0109717706218362,0.0103043131530285,0.00967377703636885,-0.00536965765058994
815,-0.00105060846544802,-0.00401705456897616,0.0117779802531004,0.0118842236697674,0.0129496259614825,-0.00212213816121221
816,-0.000663917453493923,-0.0048018516972661,0.0126586640253663,0.0133791463449597,0.0150030879303813,0.000612499308772385
817,0.0013941153883934,-0.00458174431696534,0.0137768303975463,0.0138794854283333,0.0161553174257278,0.00218210951425135
818,0.00423457846045494,-0.00345867360010743,0.0154380360618234,0.0140500525012612,0.0174758099019527,0.00335901346988976
819,0.00636718841269612,-0.00278334855102003,0.0168939903378487,0.0144897941499949,0.0188822094351053,0.00460688024759293
820,0.00738316960632801,-0.00288366200402379,0.017478046938777,0.0153165571391582,0.0202601458877325,0.00612134952098131
821,0.0079196048900485,-0.00325139402411878,0.0174791589379311,0.0163576751947403,0.0213442593812943,0.00709515251219273
822,0.00841602683067322,-0.0035286711063236,0.017547070980072,0.0173805262893438,0.0212849378585815,0.0066770170815289
823,0.00886454340070486,-0.00347560690715909,0.0178360138088465,0.0180525649338961,0.0201157294213772,0.00558358058333397
824,0.00898575130850077,-0.00332504929974675,0.0175297204405069,0.0174335017800331,0.0184099171310663,0.00464596366509795
825,0.00827635545283556,-0.00363910431042314,0.0161524638533592,0.0153051167726517,0.0159980580210686,0.00425065541639924
826,0.00723028462380171,-0.00438351789489388,0.0151783470064402,0.0131271611899138,0.0135821439325809,0.00456463592126966
827,0.00735180033370852,-0.0049839373677969,0.0158378109335899,0.0120243094861507,0.0126054277643561,0.00503710238263011
828,0.00867619458585978,-0.00496206292882562,0.0171130578964949,0.0122769195586443,0.0128233199939132,0.00544436043128371
829,0.00921541545540094,-0.00436406675726175,0.0179401356726885,0.0141567308455706,0.0132141839712858,0.00616393517702818
830,0.00803778693079948,-0.00366374780423939,0.0190210565924644,0.0171092692762613,0.0142077477648854,0.00706161791458726
831,0.00589654641225934,-0.00316784018650651,0.0211600009351969,0.0199549216777086,0.0162031203508377,0.0078532537445426
832,0.00342248170636594,-0.0028147550765425,0.0233214981853962,0.021497655659914,0.0178410355001688,0.00867028441280127
833,0.00139041012153029,-0.00251319585368037,0.0240231603384018,0.0208871811628342,0.0182122513651848,0.00922000501304865
834,0.000501660630106926,-0.00212736078538001,0.0233760327100754,0.0189598128199577,0.0181401763111353,0.0093271853402257
835,0.000162487282068469,-0.00151708896737546,0.0224705748260021,0.0175526197999716,0.0181635767221451,0.0103535186499357
836,-0.000571763317566365,-0.00086820253636688,0.0224355589598417,0.0178250577300787,0.0183503869920969,0.01334398239851
837,-0.00132619624491781,-0.000211456470424309,0.0240056663751602,0.020174864679575,0.0193987209349871,0.0169133264571428
838,-0.00102765380870551,0.000611727882642299,0.0263078864663839,0.0234456975013018,0.0212766900658607,0.0190193578600883
839,0.000602473563048989,0.00145192514173687,0.0273914951831102,0.0255654435604811,0.022607296705246,0.0192753598093987
840,0.00278342352248728,0.0021895170211792,0.0266986936330795,0.0261038392782211,0.0228400845080614,0.0186129342764616
841,0.0045802379027009,0.00269914395175874,0.0257072187960148,0.0259551946073771,0.0232450552284718,0.0180456191301346
842,0.00552419107407331,0.0025613100733608,0.0256717391312122,0.0257890876382589,0.0244836173951626,0.0182113517075777
843,0.00521409465000033,0.00173475022893399,0.0257858540862799,0.0255122687667608,0.0250491555780172,0.0192961879074574
844,0.00347279221750796,0.000752130756154656,0.0244526863098145,0.0243270099163055,0.023117883130908,0.0207999516278505
845,0.00094821717357263,0.000195501765119843,0.0218116138130426,0.0222655795514584,0.0190039351582527,0.0222378466278315
846,-0.00137514842208475,-1.55459256347967E-05,0.0195230673998594,0.0201642885804176,0.0148273035883904,0.0232583805918694
847,-0.00270069227553904,-0.000435414927778766,0.0189845953136683,0.0187065917998552,0.012733624316752,0.0233342107385397
848,-0.00249941740185022,-0.000763969554100186,0.0208526905626059,0.0189096685498953,0.013849331997335,0.0231339167803526
849,-0.00114581931848079,-0.000528787670191377,0.0241041444242001,0.0208463966846466,0.017053384333849,0.0235957261174917
850,0.000272443023277447,-0.000227977900067344,0.0267690699547529,0.0234175231307745,0.0202828980982304,0.0238254014402628
851,0.00114961538929492,-0.000597270904108882,0.0283635184168816,0.0256466437131166,0.0231124795973301,0.0221502147614956
852,0.00157241441775113,-0.00171368580777198,0.0293437168002129,0.0263444222509861,0.0256457719951868,0.0185285191982985
853,0.0019719151314348,-0.00291023426689208,0.0295678488910198,0.0250404942780733,0.0270193181931973,0.0150872142985463
854,0.00266873510554433,-0.00355149852111936,0.0289981327950954,0.0232534147799015,0.0267460569739342,0.0144187333062291
855,0.00367635698057711,-0.00364243146032095,0.028643986210227,0.0228846147656441,0.0256560798734427,0.017439441755414
856,0.00482866959646344,-0.00378672103397548,0.029144287109375,0.0238117165863514,0.0245378073304892,0.0223122518509626
857,0.00554181775078177,-0.00449668150395155,0.0296457782387733,0.0244569592177868,0.0230084583163261,0.0260976310819387
858,0.00539756380021572,-0.00537719111889601,0.0295076072216034,0.0239058863371611,0.0211626477539539,0.0274489503353834
859,0.0053970068693161,-0.00543888658285141,0.029478769749403,0.0224873032420874,0.0206902753561735,0.0270337723195553
860,0.00695705832913518,-0.00392721174284816,0.0302756130695343,0.0213515218347311,0.0225406717509031,0.0262935739010572
861,0.00918108783662319,-0.0012307713041082,0.03134560957551,0.0213163085281849,0.0254009142518044,0.0261563286185265
862,0.0102836284786463,0.00131683412473649,0.0325587056577206,0.022628303617239,0.0281821750104427,0.0269293710589409
863,0.0103547032922506,0.00255529466085136,0.0348805263638496,0.025461558252573,0.0314300134778023,0.0287797227501869
864,0.0102826021611691,0.00188601005356759,0.0383093953132629,0.0290824361145496,0.0354425832629204,0.0310497749596834
865,0.0104288160800934,-0.000449626939371228,0.0412988550961018,0.0316822379827499,0.039142657071352,0.031933031976223
866,0.010200060904026,-0.00369495595805347,0.0419606007635593,0.0317772515118122,0.0404294170439243,0.0302603039890528
867,0.00874682981520891,-0.00717546138912439,0.0398992821574211,0.0292630903422832,0.0386492647230625,0.0264948252588511
868,0.00651261489838362,-0.0104329623281956,0.0368076972663403,0.0250553134828806,0.0363547131419182,0.0212397836148739
869,0.00480901217088103,-0.013147471472621,0.0346673987805843,0.0205456782132387,0.0362104177474976,0.0153536032885313
870,0.00421698344871402,-0.0148591827601194,0.0341188497841358,0.0174617171287537,0.037693552672863,0.0110741537064314
871,0.00451651541516185,-0.01517931278795,0.0350574776530266,0.0172505062073469,0.0387292429804802,0.0104493256658316
872,0.00526187475770712,-0.0143660111352801,0.0368860550224781,0.0196595955640078,0.0382587648928165,0.0134605998173356
873,0.00599617185071111,-0.0131577085703611,0.0384251959621906,0.0227760393172503,0.0367331728339195,0.0182862691581249
874,0.00672987150028348,-0.0121717918664217,0.0393249541521072,0.0253289248794317,0.0357136651873589,0.0228485651314259
875,0.00770185887813568,-0.0112099889665842,0.0398985221982002,0.0275388862937689,0.0357516817748547,0.0264293272048235
876,0.00847160164266825,-0.00967753026634455,0.0398597344756126,0.0296714790165424,0.0357759110629559,0.0290717668831348
877,0.00824312213808298,-0.00771499937400222,0.0387902446091175,0.0311424918472767,0.0349621213972569,0.0302995387464762
878,0.00660323817282915,-0.00575908645987511,0.0365423448383808,0.0311462711542845,0.0328623205423355,0.0301820263266563
879,0.00367500609718263,-0.00418495200574398,0.0333408191800117,0.0296330414712429,0.0295154936611652,0.0299164485186338
880,0.000926157284993678,-0.00331911467947066,0.0309604220092297,0.0279351938515902,0.0268748719245195,0.0303855873644352
881,-0.000106250488897786,-0.00342556391842663,0.03097172267735,0.0273256246000528,0.0265354514122009,0.0305840000510216
882,0.000280053733149543,-0.00456656189635396,0.0323104187846184,0.0272449441254139,0.0273759309202433,0.029307821765542
883,0.00102222128771245,-0.0061833830550313,0.033413227647543,0.0268471539020538,0.028097502887249,0.0277023855596781
884,0.00108155887573957,-0.00766038754954934,0.033928532153368,0.0265566594898701,0.0285282842814922,0.0275704842060804
885,6.70059234835207E-05,-0.00854649115353823,0.0338945984840393,0.0269805248826742,0.0285561475902796,0.0291657466441393
886,-0.00130107544828206,-0.00840224977582693,0.0330582149326801,0.0278220288455486,0.027474457398057,0.0315856449306011
887,-0.00243355403654277,-0.00725266709923744,0.0308436620980501,0.0279507152736187,0.0241846535354853,0.0337722264230251
888,-0.00294439611025155,-0.00548127247020602,0.0274790804833174,0.0264876373112202,0.0190428458154202,0.0348969846963882
889,-0.00218185409903526,-0.0036403473932296,0.0246022753417492,0.0242586527019739,0.014318535104394,0.0348668545484543
890,-0.000532100035343319,-0.00277027837000787,0.0236014612019062,0.0228664167225361,0.0117414649575949,0.034384660422802
891,0.000673497735988349,-0.00357448286376894,0.0242495555430651,0.022592481225729,0.0110840694978833,0.0338672325015068
892,0.00104107579682022,-0.00534101529046893,0.025785768404603,0.0231308713555336,0.0116692166775465,0.0334562920033932
893,0.000859201943967491,-0.00706905825063586,0.0275738518685102,0.024381410330534,0.0128205418586731,0.033454779535532
894,-9.81411576503888E-05,-0.00878227781504393,0.0283804927021265,0.0252085998654366,0.0130517864599824,0.0332816503942013
895,-0.0016100142383948,-0.0105552962049842,0.0277570933103561,0.0245297010987997,0.0119503205642104,0.0317152738571167
896,-0.00259381160140038,-0.0117268208414316,0.0266638398170471,0.0232840981334448,0.0105918673798442,0.0290397983044386
897,-0.00271398946642876,-0.0118359886109829,0.0254396125674248,0.0228239130228758,0.00931595545262098,0.0270101074129343
898,-0.00289175286889076,-0.0116298021748662,0.0235623810440302,0.0224806163460016,0.00765176210552454,0.0257954299449921
899,-0.00396904349327087,-0.012311034835875,0.021199356764555,0.0209388975054026,0.00591299729421735,0.0239712279289961
900,-0.0055208564735949,-0.0134649053215981,0.0194560829550028,0.0188738517463207,0.00535980705171824,0.0219436343759298
901,-0.00671285297721624,-0.0139976283535361,0.0188821535557508,0.0177267007529736,0.0060688522644341,0.0212147384881973
902,-0.00715931411832571,-0.0137005308642983,0.0191506892442703,0.0179722681641579,0.00681953458115458,0.0225368738174438
903,-0.00681745074689388,-0.0125520331785083,0.0194380898028612,0.0188685562461615,0.00673056952655315,0.0256400015205145
904,-0.00624080048874021,-0.0109319761395454,0.01879090256989,0.0188130829483271,0.0056362203322351,0.0285191722214222
905,-0.00589768262580037,-0.00962569285184145,0.0174285098910332,0.0173903610557318,0.00427529821172357,0.0293644424527884
906,-0.00572850508615375,-0.00957265496253967,0.0164086241275072,0.015259126201272,0.00373264472000301,0.0278835818171501
907,-0.00572119979187846,-0.0113925039768219,0.0161274671554565,0.0126835098490119,0.00425789086148143,0.0245852004736662
908,-0.00610361434519291,-0.0144536960870028,0.0160150565207005,0.0100732063874602,0.00496871303766966,0.020941125229001
909,-0.00692005222663283,-0.0176567099988461,0.0158372949808836,0.00832201167941093,0.00542717473581433,0.0185146797448397
910,-0.00765753909945488,-0.020212734118104,0.0164777301251888,0.00845173466950655,0.00630686478689313,0.0178679171949625
911,-0.00791146326810122,-0.0214287806302309,0.0183936189860106,0.0109324622899294,0.00760580878704786,0.0191976185888052
912,-0.00786784011870623,-0.0209103524684906,0.0203858613967896,0.0147937815636396,0.0080646276473999,0.0223112534731627
913,-0.00816295389086008,-0.0191193129867315,0.0205417610704899,0.0179505608975887,0.00660732062533498,0.0260478053241968
914,-0.00907964073121548,-0.0171136595308781,0.0188598390668631,0.018988573923707,0.00451527768746018,0.0289343614131212
915,-0.00968167558312416,-0.0156389400362968,0.0176820270717144,0.01814397983253,0.00467888219282031,0.0298807434737682
916,-0.00897834636271,-0.0148529689759016,0.0184380505234003,0.0164187364280224,0.00756656611338258,0.0285941530019045
917,-0.00738466391339898,-0.014695243909955,0.0198224075138569,0.0143372155725956,0.0103728016838431,0.0254136435687542
918,-0.00598833151161671,-0.0150379650294781,0.0197084471583366,0.0119237536564469,0.0109069347381592,0.0211652591824532
919,-0.00521028088405728,-0.0153890149667859,0.0178704131394625,0.00973045732825994,0.0101775266230106,0.0177455060184002
920,-0.00505956541746855,-0.0153687065467238,0.0158951506018639,0.00890156161040068,0.00981089286506176,0.017222136259079
921,-0.00512510724365711,-0.0150320418179035,0.0153926890343428,0.0101537145674229,0.00992161594331265,0.0195871759206057
922,-0.00477922428399324,-0.0144594078883529,0.016664020717144,0.0131111973896623,0.0101135745644569,0.0225949063897133
923,-0.0045733992010355,-0.0134653206914663,0.0186158306896687,0.0167906899005175,0.0098029151558876,0.0252560377120972
924,-0.00529947131872177,-0.0115871867164969,0.0204819105565548,0.0205621290951967,0.00892788544297218,0.0287917107343674
925,-0.00648827385157347,-0.00875821057707071,0.0221914332360029,0.0239575132727623,0.00827497430145741,0.0332725085318089
926,-0.00748096220195293,-0.00570125551894307,0.0234343986958265,0.02626933157444,0.00803407002240419,0.0375283472239971
927,-0.00807461701333523,-0.00313243339769542,0.0241328626871109,0.0275942720472813,0.00791228841990232,0.0414990112185478
928,-0.00796632654964924,-0.00140043534338474,0.0242558661848307,0.028476795181632,0.0078626424074173,0.0451129116117954
929,-0.00726099871098995,-0.000933512346819043,0.0234242063015699,0.0283972434699535,0.00776364980265498,0.0466470569372177
930,-0.00679413136094809,-0.00153985584620386,0.0217429734766483,0.0269393157213926,0.00727116828784347,0.0454237312078476
931,-0.00700271921232343,-0.00203168927691877,0.0200100559741259,0.0250975284725428,0.00654351292178035,0.0434799380600452
932,-0.00763380480930209,-0.00178547739051282,0.0192017387598753,0.0243594124913216,0.00653626024723053,0.0423016399145126
933,-0.00843635108321905,-0.00142341991886497,0.0196681190282106,0.0251541901379824,0.00772397685796022,0.0415035411715508
934,-0.00870641227811575,-0.00121496117208153,0.0210321582853794,0.0265817400068045,0.00997308548539877,0.0410540774464607
935,-0.00769159430637956,-0.000725107442121953,0.0228253193199635,0.0275405328720808,0.0131040280684829,0.0412624031305313
936,-0.00568450102582574,0.000311343756038696,0.0247072000056505,0.0276802219450474,0.0165151804685593,0.0422516763210297
937,-0.00328793376684189,0.00193784816656262,0.0268283076584339,0.0275844968855381,0.0196046270430088,0.0443632826209068
938,-0.00115155335515738,0.003645513439551,0.029500724747777,0.0281734187155962,0.0220649894326925,0.0474042370915413
939,0.000127140709082596,0.0048848120495677,0.0322194211184978,0.0298670120537281,0.0236596334725618,0.0504833236336708
940,0.000558239640668035,0.00558944372460246,0.033790335059166,0.0318929404020309,0.0241604447364807,0.0525853000581265
941,0.000478053174447268,0.00559465121477842,0.0334850549697876,0.0328932516276836,0.0235083550214767,0.0530576333403587
942,0.000121400371426716,0.00481255305930972,0.0319033786654472,0.0324547477066517,0.02217230014503,0.0515721514821053
943,-0.000898157886695117,0.0037919266615063,0.02986965700984,0.0312884040176868,0.0203315801918507,0.0486373789608479
944,-0.00259487680159509,0.00356865162029862,0.027832543477416,0.0304732881486416,0.0182305853813887,0.0459634065628052
945,-0.00404621101915836,0.00431270152330399,0.0260862354189157,0.0301940254867077,0.0166796185076237,0.0446494780480862
946,-0.00457185972481966,0.00557878473773599,0.0245814621448517,0.0300891734659672,0.0160197373479605,0.045232966542244
947,-0.00437361188232899,0.00719651160761714,0.0233466774225235,0.0303546655923128,0.0161544308066368,0.0477675758302212
948,-0.00419402727857232,0.00851359311491251,0.0224540214985609,0.0310767069458961,0.0167587641626596,0.0506158098578453
949,-0.00402599480003119,0.00933004356920719,0.0222348682582378,0.0324392281472683,0.0177503656595945,0.0524511858820915
950,-0.00371250091120601,0.0100117772817612,0.0226846467703581,0.0344454348087311,0.0186723712831736,0.0531231388449669
951,-0.00338299595750868,0.0105650704354048,0.0234376937150955,0.0363665148615837,0.0189810525625944,0.0523039475083351
952,-0.00285020866431296,0.0111114820465446,0.0245465990155935,0.0372241325676441,0.019389858469367,0.049442745745182
953,-0.00224088644608855,0.011389690451324,0.0257251560688019,0.0363607332110405,0.0202519334852695,0.0445805937051773
954,-0.00133936293423176,0.0105569632723928,0.026360547170043,0.0340519398450851,0.0211468189954758,0.0389537885785103
955,9.5667302957736E-05,0.00826459564268589,0.0255685020238161,0.0307467523962259,0.0213345754891634,0.0344837829470634
956,0.00114612083416432,0.00512618757784367,0.0229165684431791,0.0269727148115635,0.0198389813303947,0.0328226760029793
957,0.00146803504321724,0.00260326894931495,0.0199265889823437,0.024036318063736,0.0173703376203775,0.0345797166228294
958,0.00227323407307267,0.00185943336691707,0.0190937593579292,0.0231145601719618,0.0165634248405695,0.0387594290077686
959,0.00380122801288962,0.00212279870174825,0.0212582126259804,0.0241188202053308,0.0188890062272549,0.0430947430431843
960,0.00443342654034495,0.00164184928871691,0.024512767791748,0.0257123149931431,0.0228897221386433,0.0455379858613014
961,0.00368152325972915,0.000383575010346249,0.0268699191510677,0.0266354698687792,0.026238314807415,0.0456113591790199
962,0.00268360134214163,-0.000464696931885555,0.0282320734113455,0.026813080534339,0.0274389237165451,0.0438354052603245
963,0.00210341811180115,-0.000271498138317838,0.028929652646184,0.0267642252147198,0.0259297955781221,0.0410684011876583
964,0.00224595004692674,0.00140175502747297,0.0288018397986889,0.0263889878988266,0.0222260467708111,0.0384107641875744
965,0.00312719191424549,0.00392642943188548,0.027316365391016,0.0247642286121845,0.0173842497169971,0.0360650345683098
966,0.00378020061179996,0.005617696326226,0.0238399747759104,0.0213926993310452,0.0117952218279243,0.0336774885654449
967,0.00341172004118562,0.0060682175680995,0.0190613456070423,0.017815800383687,0.0059929620474577,0.0316355228424072
968,0.0020599935669452,0.00568424304947257,0.0150180552154779,0.0160584487020969,0.0019332627998665,0.0304362792521715
