,AF3,AF4,Fp1,Fp2,AF7,AF8
0,-0.000554048339836299,0.00414397846907377,0.00643096398562193,-0.000246726733166724,0.00489229941740632,-0.0114217344671488
1,-0.00241527799516916,0.00751857273280621,0.00621967809274793,9.26033026189543E-05,0.00493156583979726,0.00081233773380518
2,-0.00322547112591565,0.0107966680079699,0.00834407564252615,0.00223821704275906,0.00753284804522991,0.0141729721799493
3,-0.00325246970169246,0.0120953395962715,0.0116232922300696,0.00469393469393253,0.0116239255294204,0.0209259018301964
4,-0.00376473157666624,0.0103255547583103,0.0133828390389681,0.00486517976969481,0.0140172867104411,0.0178242921829224
5,-0.00563095649704337,0.00587241584435105,0.0119673619046807,0.00198353943414986,0.0120516587048769,0.0074536451138556
6,-0.00788035336881876,0.000730622734408826,0.00853409245610237,-0.00174241221975535,0.00707327481359243,-0.00493601290509105
7,-0.00865471363067627,-0.00278410036116838,0.00554086733609438,-0.00353597826324403,0.00251906155608594,-0.0146712185814977
8,-0.00762844225391746,-0.00329439807683229,0.00405847746878862,-0.00237462087534368,-8.30340140964836E-05,-0.0182805247604847
9,-0.00563167966902256,-0.00110313552431762,0.00439576897770166,0.00125495623797178,-0.000512493657879531,-0.0147869233042002
10,-0.00371129438281059,0.00157770188525319,0.00646951654925942,0.00523037184029818,0.000880077132023871,-0.00788953248411417
11,-0.00287085096351802,0.00275411433540285,0.00892374105751514,0.00717369979247451,0.00254561542533338,-0.00237975944764912
12,-0.00226175738498569,0.00334389833733439,0.0112841948866844,0.00739106256514788,0.00448585115373135,0.0013703420991078
13,-0.000789758691098541,0.00476046558469534,0.0137452092021704,0.00682875094935298,0.00760509585961699,0.0050859609618783
14,0.000461620307760313,0.00632830057293177,0.0150780184194446,0.0053380667231977,0.00999826844781637,0.00901565700769424
15,0.000162292242748663,0.00707511371001601,0.0142542654648423,0.0035108127631247,0.0093243895098567,0.012644324451685
16,-0.00175384269095957,0.00661767227575183,0.0118879154324532,0.00252403249032795,0.00595588516443968,0.015200131572783
17,-0.00422744825482368,0.00479424558579922,0.00928191933780909,0.00273796822875738,0.00226623192429543,0.0153681132942438
18,-0.00532595859840512,0.00255371211096644,0.00759455282241106,0.00420434586703777,0.000779655179940164,0.0125871244817972
19,-0.00401017675176263,0.00136549363378435,0.00726260710507631,0.0063430592417717,0.00188979459926486,0.00849191937595606
20,-0.0011927435407415,0.00136886851396412,0.00797781348228455,0.00703930435702205,0.00397797720506787,0.00556853553280234
21,0.00149004918057472,0.00162129034288228,0.00944152474403381,0.0053633451461792,0.00573187600821257,0.00523584010079503
22,0.00284499325789511,0.00131247797980905,0.0107951974496245,0.00296393013559282,0.00646070623770356,0.0071005099453032
23,0.00249640154652298,0.000285129441181198,0.0104647716507316,0.0014033104525879,0.00567293679341674,0.00927016977220774
24,0.000913650670554489,-0.00118513277266175,0.00830808747559786,0.000858528015669435,0.00364651111885905,0.0088300434872508
25,-0.00132495409343392,-0.00306147593073547,0.00559435598552227,0.000804072187747806,0.0012007657205686,0.00359475938603282
26,-0.00401412881910801,-0.00516239646822214,0.00303183356299996,0.00100767647381872,-0.00124585372395813,-0.00454315496608615
27,-0.00605774624273181,-0.00634743925184011,0.00162587140221149,0.00204572593793273,-0.00288303173147142,-0.0105442674830556
28,-0.00605848105624318,-0.00577279319986701,0.00241047539748251,0.00383101194165647,-0.00253566377796233,-0.0112593229860067
29,-0.00483265006914735,-0.00466013280674815,0.00415637018159032,0.00434701191261411,-0.00111207482405007,-0.00843416154384613
30,-0.00407183077186346,-0.00452640047296882,0.0048164683394134,0.00169499590992928,-0.000651613168884069,-0.00595321739092469
31,-0.00416338723152876,-0.00499927531927824,0.00388407008722425,-0.00304597429931164,-0.00152228376828134,-0.00475697079673409
32,-0.00419034389778972,-0.00458229053765535,0.00267687789164484,-0.00631587812677026,-0.00237807258963585,-0.00288690091110766
33,-0.00311885308474302,-0.00259784678928554,0.00261892378330231,-0.00585395796224475,-0.00222372519783676,0.000420019321609288
34,-0.00163153209723532,-0.000470773957204074,0.00318335252813995,-0.00304020172916353,-0.00185074063483626,0.00378638878464699
35,-0.00120752363000065,0.000139648211188614,0.00301483576186001,-0.000799102068413049,-0.00272489711642265,0.00616648141294718
36,-0.00228860508650541,-0.0011430224403739,0.00162422785069793,-0.000714460795279592,-0.0055771367624402,0.00646717241033912
37,-0.00393549026921391,-0.00365156028419733,-0.000260627275565639,-0.00266275345347822,-0.0093737980350852,0.00377924600616097
38,-0.00456422101706266,-0.00565676530823112,-0.00115283136256039,-0.00524578103795648,-0.0115760359913111,0.00016479856276419
39,-0.00343588669784367,-0.00567902904003859,-0.000299239880405366,-0.00640252605080605,-0.0108187636360526,-0.00157226086594164
40,-0.000813176447991282,-0.00322046200744808,0.00198643724434078,-0.00481323013082147,-0.00809290166944265,-0.000226846983423457
41,0.00218084128573537,0.000565840105991811,0.00470997393131256,-0.00154853938147426,-0.00529599748551846,0.00384989753365517
42,0.004599679261446,0.00398996099829674,0.00692203221842647,0.00109276012517512,-0.00318192737177014,0.00846232008188963
43,0.00594747019931674,0.00665746023878455,0.00772788794711232,0.00201257457956672,-0.00221453025005758,0.0121215023100376
44,0.00546813383698463,0.00822454039007425,0.00651500374078751,0.00181613094173372,-0.00342921307310462,0.0154220229014754
45,0.00413086405023932,0.0088634118437767,0.00515796011313796,0.00284625543281436,-0.00534759275615215,0.0190678481012583
46,0.00332328374497592,0.00862158834934235,0.00563342589884996,0.00573510956019163,-0.0056434627622366,0.0211136154830456
47,0.00242125452496111,0.0065182545222342,0.00716204801574349,0.00836477242410183,-0.00481781736016274,0.0180028658360243
48,0.000930200389120728,0.00351676833815873,0.00887293741106987,0.0101794619113207,-0.00411896174773574,0.0101723009720445
49,-0.000707075523678213,0.00180733809247613,0.0104152662679553,0.0112714758142829,-0.00381262740120292,0.00236703432165086
50,-0.00241546845063567,0.00182134541682899,0.0103184524923563,0.0103794764727354,-0.00463476870208979,-0.00148215924855322
51,-0.00414169579744339,0.00253382069058716,0.00790636334568262,0.00705433124676347,-0.00712774880230427,-0.00152258772868663
52,-0.00487169343978167,0.00342852901667356,0.00534627074375749,0.00296985171735287,-0.00932811480015516,0.000442826451035216
53,-0.0034757605753839,0.00539988977834582,0.00538337649777532,0.000870015705004334,-0.00843894015997648,0.00553657440468669
54,-0.000336607190547511,0.00887579098343849,0.00834698230028152,0.00162915210239589,-0.00443910714238882,0.0145860509946942
55,0.00299535482190549,0.0124943125993013,0.0124671142548323,0.00345689244568348,0.000340726255672053,0.0236258376389742
56,0.00491526070982218,0.0140689788386226,0.016021654009819,0.00443834904581308,0.00399554567411542,0.0279351528733969
57,0.00452418113127351,0.0128042865544558,0.0182252563536167,0.00444380566477776,0.00560174137353897,0.027760673314333
58,0.00263043656013906,0.0104807512834668,0.0190467648208141,0.00488607957959175,0.00526191061362624,0.0272836685180664
59,0.000551278528291732,0.00882591027766466,0.0184056703001261,0.00628176564350724,0.00369099783711135,0.0280300136655569
60,-0.000993205467239022,0.00771393533796072,0.0161482468247414,0.00746701238676906,0.00187083927448839,0.0269150231033564
61,-0.00171995419077575,0.00627448689192533,0.0125372568145394,0.00671274866908789,0.0010230935877189,0.0209852606058121
62,-0.00171907327603549,0.00463632214814425,0.0089165773242712,0.00384137080982327,0.00179586268495768,0.0117938332259655
63,-0.000735816895030439,0.00433079153299332,0.00777172995731235,0.00217246171087027,0.00440100813284516,0.0051908758468926
64,0.000488309538923204,0.00580321298912168,0.00914638303220272,0.00426726881414652,0.00730712246149778,0.00537803955376148
65,0.000880615261849016,0.00824923068284988,0.011152122169733,0.00923483166843653,0.00853004120290279,0.0112423859536648
66,0.000798930414021015,0.0107524311169982,0.013184430077672,0.0151838203892112,0.00850629340857267,0.0179625637829304
67,0.00085332099115476,0.0123771531507373,0.01507677603513,0.0200961716473103,0.00832053367048502,0.0206981841474772
68,0.00169200950767845,0.0131702972576022,0.0169335715472698,0.0227677077054977,0.0086160684004426,0.0188247039914131
69,0.00303425989113748,0.0133689325302839,0.0183971803635359,0.0228332411497831,0.00913197547197342,0.0156274400651455
70,0.0037755451630801,0.0130973076447845,0.0184970796108246,0.0201780963689089,0.00889926683157682,0.0156726967543364
71,0.00354792620055377,0.0126421144232154,0.0172989517450333,0.0158714279532433,0.00780137348920107,0.0207943264394999
72,0.00253432127647102,0.0118017280474305,0.0159441400319338,0.0121046015992761,0.00662109348922968,0.0275129079818726
73,0.00179555418435484,0.0109439492225647,0.0156221445649862,0.0105357374995947,0.00665011629462242,0.032063465565443
74,0.00260060280561447,0.0113652674481273,0.0166588071733713,0.0114723173901439,0.0087663484737277,0.0347356274724007
75,0.00433890847489238,0.0132126752287149,0.0183037631213665,0.0138530684635043,0.012364637106657,0.0370621718466282
76,0.004976243712008,0.0145065067335963,0.0190841089934111,0.0156451500952244,0.0152825796976686,0.0379061326384544
77,0.00373770575970411,0.0138975866138935,0.0182690974324942,0.0159758757799864,0.015832806006074,0.0354908145964146
78,0.00150745664723217,0.0122021408751607,0.0162790343165398,0.0150249451398849,0.0142174270004034,0.0301365070044994
79,-0.000132710192701779,0.010619361884892,0.0139455990865827,0.01243029627949,0.0118522746488452,0.0226302519440651
80,0.000145403464557603,0.00964093301445246,0.0120875928550959,0.00862575974315405,0.0105340136215091,0.0142467981204391
81,0.00170717108994722,0.00915789324790239,0.0106387259438634,0.0053169378079474,0.0106310555711389,0.00781131349503994
82,0.00289299339056015,0.00872867461293936,0.00912945251911879,0.00304722297005355,0.0110607072710991,0.00478200754150748
83,0.0036893174983561,0.00821114052087069,0.00858209654688835,0.00210997043177485,0.0119439829140902,0.00439474452286959
84,0.00491126347333193,0.00819317158311605,0.0107630332931876,0.0049245385453105,0.0142526812851429,0.00610184110701084
85,0.00592574663460255,0.00858331564813852,0.014829134568572,0.0120441718026996,0.0168907232582569,0.00803102552890778
86,0.00571475876495242,0.00824030488729477,0.0175526719540358,0.0195320881903172,0.0172761511057615,0.00722555257380009
87,0.00411567091941834,0.00659562787041068,0.0164658427238464,0.0227806307375431,0.0139005584642291,0.00408875895664096
88,0.00156097649596632,0.00450031971558928,0.0117832003161311,0.0205215159803629,0.00744556961581111,0.00375330215319991
89,-0.00106932013295591,0.00297718029469252,0.00565846357494593,0.0143797229975462,0.000216589891351759,0.0096245463937521
90,-0.00228740437887609,0.00229363539256155,0.000736683665309101,0.00691452482715249,-0.00480280863121152,0.0178673099726439
91,-0.00135204172693193,0.00251328852027655,-0.00135905691422522,0.000681504141539335,-0.00611783983185887,0.0232210960239172
92,0.000425150850787759,0.00333420606330037,-0.00126532220747322,-0.00296885333955288,-0.00535791646689177,0.0250210333615541
93,0.00195531151257455,0.00439937226474285,-0.000104798666143324,-0.00334569392725825,-0.00441742595285177,0.0252822916954756
94,0.00347620784305036,0.005503058899194,0.00149619730655104,-0.000761848583351821,-0.00355705432593822,0.0251265093684196
95,0.00469828117638826,0.00570144038647413,0.00259182997979224,0.00245722685940564,-0.00311885145492852,0.0237880293279886
96,0.00473684864118695,0.00409837579354644,0.00242457399144769,0.00397528801113367,-0.00346613116562366,0.0204273015260696
97,0.00388821377418935,0.00157358322758228,0.001092309365049,0.00371205643750727,-0.00386518868617713,0.0157627034932375
98,0.00261964602395892,-0.00080620008520782,-0.00177520827855915,0.0022870406974107,-0.00483096158131957,0.0101926196366549
99,0.00110869016498327,-0.00270343641750515,-0.00622733356431127,-0.000381609483156353,-0.00723071629181504,0.00409442000091076
100,0.00035507304710336,-0.00348034175112844,-0.0103451004251838,-0.00396895129233599,-0.0094640888273716,-0.000462650175904855
101,0.00104367837775499,-0.0025126775726676,-0.0118485167622566,-0.0067489524371922,-0.00959052424877882,-0.000895490229595453
102,0.00290975579991937,0.000212630635360256,-0.0100074484944344,-0.00656110141426325,-0.00742295291274786,0.00407968647778034
103,0.0048067937605083,0.0029535535722971,-0.00658018235117197,-0.0041589867323637,-0.00464363675564528,0.010904474183917
104,0.00547548197209835,0.00375640112906694,-0.00384030165150762,-0.00211567105725408,-0.00273268274031579,0.013927735388279
105,0.00445810286328197,0.00241270754486322,-0.00273292348720133,-0.00154378416482359,-0.00175719032995403,0.0116491680964828
106,0.0019969257991761,-0.000576656369958073,-0.0036994032561779,-0.00266656232997775,-0.00180516543332487,0.00523115321993828
107,-0.00102775299455971,-0.00417666835710406,-0.00661292718723416,-0.00548671325668693,-0.00312766036950052,-0.0036264827940613
108,-0.00362836616113782,-0.00676266802474856,-0.0102145681157708,-0.00889300368726254,-0.00555844372138381,-0.0122457556426525
109,-0.00547882635146379,-0.00751408329233527,-0.0132236965000629,-0.0109013309702277,-0.0089395958930254,-0.0186452530324459
110,-0.00659947330132127,-0.00672784028574824,-0.0150576084852219,-0.010903294198215,-0.0125626474618912,-0.0220689158886671
111,-0.00686727836728096,-0.00492661632597446,-0.015299005433917,-0.010328521952033,-0.0149945570155978,-0.0209887903183699
112,-0.00669627590104938,-0.00306055904366076,-0.0147199220955372,-0.010697802528739,-0.0159777980297804,-0.0146584091708064
113,-0.00701752817258239,-0.00198720814660192,-0.0153991859406233,-0.0120867071673274,-0.016687236726284,-0.00545070227235556
114,-0.007958366535604,-0.00164228375069797,-0.0177125055342913,-0.0134878270328045,-0.018012672662735,0.00241858861409128
115,-0.00919041410088539,-0.00242523965425789,-0.020023737102747,-0.0149512961506844,-0.0202757120132446,0.00421900860965252
116,-0.0106659745797515,-0.00503824278712273,-0.021495072171092,-0.0175441652536392,-0.0230667423456907,-0.0022053134161979
117,-0.0116549795493484,-0.00794575084000826,-0.0217467173933983,-0.0204464662820101,-0.0248118545860052,-0.0121125616133213
118,-0.0114376228302717,-0.00876727513968945,-0.0198380816727877,-0.02151869982481,-0.0246840864419937,-0.0178445465862751
119,-0.00985582731664181,-0.00686830002814531,-0.0152629371732473,-0.0192630365490913,-0.0224099643528461,-0.0159613490104675
120,-0.0070291543379426,-0.00285332184284925,-0.00917127355933189,-0.0135719506070018,-0.0177002064883709,-0.00781843345612288
121,-0.00393465161323547,0.0017611914081499,-0.0040167267434299,-0.00652454374358058,-0.0122603066265583,0.002304493682459
122,-0.00110969075467438,0.00542388716712594,-0.000769020756706595,-0.000238253953284584,-0.00825625564903021,0.0105634210631251
123,0.00148197321686894,0.00736050633713603,0.00109553756192327,0.00455894134938717,-0.0062128696590662,0.015977006405592
124,0.00292069744318724,0.00694488082081079,0.00122597219888121,0.0064363107085228,-0.00619380734860897,0.0180524121969938
125,0.00325195025652647,0.00454067206010222,0.000109785738459323,0.00420230627059937,-0.00705718388780952,0.0158079527318478
126,0.00411004340276122,0.00161521951667964,-0.000558428699150682,-0.00118137581739575,-0.0066800550557673,0.00874670501798391
127,0.00556929130107164,-0.00120249600149691,-0.000981958582997322,-0.0073029575869441,-0.00515453703701496,-0.00253693340346217
128,0.00581983663141727,-0.00408984068781137,-0.0025924991350621,-0.0112405084073544,-0.00441831583157182,-0.0147515451535583
129,0.00385854975320399,-0.00676083564758301,-0.00562396831810474,-0.012031408958137,-0.00560436677187681,-0.0238047335296869
130,0.000909193826373667,-0.00868345331400633,-0.00887756701558828,-0.0113301584497094,-0.0078949062153697,-0.0292743798345327
131,-0.00179041316732764,-0.0100649502128363,-0.0116905551403761,-0.0112494239583611,-0.0101668853312731,-0.0331857576966286
132,-0.00403451593592763,-0.0112221846356988,-0.0141207873821259,-0.0128112910315394,-0.0119198523461819,-0.0347904860973358
133,-0.00590447429567575,-0.0120863812044263,-0.0163775701075792,-0.0161381363868713,-0.0134135847911239,-0.0319135114550591
134,-0.00795394368469715,-0.0124587547034025,-0.0191036369651556,-0.0206135325133801,-0.0156459715217352,-0.0248329304158688
135,-0.00943286437541246,-0.0114179020747542,-0.0210434719920158,-0.0239193439483643,-0.0173560734838247,-0.0153909707441926
136,-0.00875058211386204,-0.00865691248327494,-0.019907521083951,-0.0240723453462124,-0.0159362033009529,-0.00625018496066332
137,-0.00647342205047607,-0.00593813136219978,-0.0161272250115871,-0.0223493203520775,-0.0119746048003435,-0.000130900225485675
138,-0.00483454018831253,-0.00514616956934333,-0.0124315218999982,-0.021352244541049,-0.00903894565999508,0.00199166079983115
139,-0.00444247201085091,-0.00610382109880447,-0.0105791771784425,-0.0213750116527081,-0.00873247068375349,0.000695987488143146
140,-0.00357076758518815,-0.0069038737565279,-0.00977396406233311,-0.0204772409051657,-0.00900276377797127,-0.00193058338481933
141,-0.0015397424576804,-0.00615412043407559,-0.00907844118773937,-0.0174375809729099,-0.00869926437735558,-0.00297709461301565
142,-0.000122956262202933,-0.00491471961140633,-0.00969288684427738,-0.0140682039782405,-0.00928773358464241,-0.00292557128705084
143,-0.000397776340832934,-0.00486673507839441,-0.0123262479901314,-0.0127553874626756,-0.0109523050487041,-0.00512802181765437
144,-0.00127223681192845,-0.00556442746892571,-0.0151666309684515,-0.01295330747962,-0.0119583401829004,-0.010070463642478
145,-0.00174951809458435,-0.00542425643652678,-0.0166484490036964,-0.0130183231085539,-0.011981881223619,-0.0148366168141365
146,-0.00244222301989794,-0.00424726447090507,-0.0175664070993662,-0.0129106473177671,-0.0131245236843824,-0.0173444747924805
147,-0.00385098322294652,-0.00297805690206587,-0.0184872560203075,-0.0123110143467784,-0.0165022183209658,-0.0180060192942619
148,-0.004986722022295,-0.00217410083860159,-0.0184884313493967,-0.00994805339723825,-0.0201127901673317,-0.0183847844600677
149,-0.00525694619864225,-0.00234984769485891,-0.0176942441612482,-0.0068577011115849,-0.0222129765897989,-0.0201061181724072
150,-0.00513321720063686,-0.00354605168104172,-0.0166368614882231,-0.00526151387020946,-0.0227302182465792,-0.0226240232586861
151,-0.00507595669478178,-0.00466442992910743,-0.0150734074413776,-0.00537728564813733,-0.021733395755291,-0.0220539681613445
152,-0.00527857523411512,-0.00489200698211789,-0.0131389210000634,-0.00633783312514424,-0.019319262355566,-0.0157911162823439
153,-0.00595191679894924,-0.00440082047134638,-0.0117244198918343,-0.00753005547448993,-0.0164109114557505,-0.00660827988758683
154,-0.00695141777396202,-0.0032631813082844,-0.0115043912082911,-0.00857573840767145,-0.0143581908196211,0.000666049949359149
155,-0.00762080866843462,-0.00192965450696647,-0.0122650600969791,-0.00988322217017412,-0.0135362548753619,0.00270549673587084
156,-0.00754623953253031,-0.0015573181444779,-0.0131840435788035,-0.0117011368274689,-0.0135095911100507,-0.000924225780181587
157,-0.00690505187958479,-0.00254525407217443,-0.0133574288338423,-0.0130309499800205,-0.013862713240087,-0.00721965217962861
158,-0.00620844075456262,-0.00423114327713847,-0.0127886794507504,-0.0136983897536993,-0.0145058901980519,-0.0124035002663732
159,-0.00508590834215283,-0.00527522386983037,-0.0115039497613907,-0.0146120879799128,-0.0146668003872037,-0.0140990735962987
160,-0.00342696160078049,-0.00514799216762185,-0.00911895558238029,-0.0158535558730364,-0.0138129973784089,-0.0129415951669216
161,-0.00271321623586118,-0.00454335007816553,-0.00624867295846343,-0.016239071264863,-0.0133197037503123,-0.0111297238618135
162,-0.00364767224527895,-0.00363199063576758,-0.00401083612814546,-0.0143534867092967,-0.0139488661661744,-0.00848382338881493
163,-0.0050903307273984,-0.00211289944127202,-0.00288535049185157,-0.0102859353646636,-0.0148266106843948,-0.00415698625147343
164,-0.00558808725327253,-0.000145485217217356,-0.0024594331625849,-0.00589002156630158,-0.0150887174531817,0.000296936399536207
165,-0.00456303032115102,0.00196190155111253,-0.00183460477273911,-0.00282399239949882,-0.014282813295722,0.00282331695780158
166,-0.00230677775107324,0.00399343948811293,-0.000653613242320716,-0.00109652755782008,-0.0124689796939492,0.00323907961137593
167,-0.000325045199133456,0.00505745783448219,-4.39144823758397E-05,-0.00081310496898368,-0.0108545757830143,0.00251265941187739
168,-5.03710434713867E-05,0.0044391886331141,-0.000918667006772012,-0.00249078869819641,-0.0106501718983054,0.0021796056535095
169,5.83159635425545E-05,0.00327262072823942,-0.000953050330281258,-0.00377303059212863,-0.0100117241963744,0.00427632266655564
170,0.00191515916958451,0.00281675439327955,0.00228849216364324,-0.00121377187315375,-0.00641517015174031,0.00885479990392923
171,0.0039985072799027,0.00240894942544401,0.00670040305703878,0.00389669742435217,-0.00159731891471893,0.0127643160521984
172,0.00480556488037109,0.00134610454551876,0.00950113125145435,0.00742263160645962,0.00175478984601796,0.0136979846283793
173,0.00562036316841841,0.000409614789532498,0.0109147625043988,0.00802318751811981,0.00404451228678226,0.0123498225584626
174,0.00708412379026413,0.00015326973516494,0.0111286556348205,0.00690586911514401,0.00582868419587612,0.00997174344956875
175,0.00828564818948507,0.00034566898830235,0.00987698882818222,0.00563247129321098,0.00659167114645243,0.00720496149733663
176,0.00987800769507885,0.001835061237216,0.00889576133340597,0.00601512100547552,0.00709777884185314,0.00505126500502229
177,0.0125619312748313,0.00504680769518018,0.0092279938980937,0.00812326557934284,0.00774177769199014,0.00401749322190881
178,0.0148743521422148,0.00808785296976566,0.00879258010536432,0.00846440345048904,0.00704880570992827,0.00272138346917927
179,0.015975484624505,0.0100339539349079,0.00601846817880869,0.00455338973551989,0.00467510335147381,0.000990531523711979
180,0.0160487797111273,0.0114053608849645,0.00155510671902448,-0.00204529543407261,0.00168887421023101,0.00116294668987393
181,0.015242206864059,0.0121319629251957,-0.00302966055460274,-0.00826647412031889,-0.000784477568231523,0.00479140505194664
182,0.0137249566614628,0.0119920941069722,-0.00623866263777018,-0.011807600967586,-0.00241720327176154,0.0106705026701093
183,0.0122617622837424,0.0116790756583214,-0.00667436281219125,-0.0110617717728019,-0.00307554751634598,0.0169450305402279
184,0.0116811972111464,0.011563497595489,-0.0041093030013144,-0.00654321443289518,-0.00235689175315201,0.0213274527341127
185,0.0117815621197224,0.0107343755662441,-0.000711110245902091,-0.00149239844176918,-0.000635901116766036,0.0205782428383827
186,0.0123284524306655,0.00886497832834721,0.0012801414122805,0.00173285591881722,0.00146248459350318,0.0152360796928406
187,0.0127461431547999,0.006281319539994,0.00115249922964722,0.00241951690986753,0.00268417131155729,0.00981009472161531
188,0.0125144245103002,0.00395388668403029,-0.000179678405402228,0.00127346429508179,0.00157502328511328,0.00770026072859764
189,0.011925139464438,0.00302164163440466,-0.00116825569421053,8.25822935439646E-05,-0.00166546774562448,0.00853462517261505
190,0.0119715658947825,0.00361553207039833,-0.000534940452780575,0.000239611661527306,-0.00441151019185781,0.00979787949472666
191,0.0131101431325078,0.0051210611127317,0.00161201145965606,0.00197072047740221,-0.00476821418851614,0.00978342723101377
192,0.0137196369469166,0.00626796903088689,0.00292252562940121,0.00339024513959885,-0.00433021830394864,0.00806531682610512
193,0.0122865941375494,0.00599609594792128,0.00186664669308811,0.00244644656777382,-0.00505939777940512,0.00573662761598825
194,0.00961494818329811,0.00454538827762008,-0.000294160272460431,-0.000413800327805802,-0.00647689495235682,0.00469712493941188
195,0.00734926993027329,0.00305207353085279,-0.00197010021656752,-0.00347676617093384,-0.00748368306085467,0.00549793196842074
196,0.00571695296093822,0.00239785970188677,-0.00368598545901477,-0.00624412903562188,-0.00878299307078123,0.00685094716027379
197,0.00421752873808146,0.00277971546165645,-0.00672794273123145,-0.00895586982369423,-0.0108803352341056,0.00680433306843042
198,0.00372644956223667,0.00445767678320408,-0.00964906718581915,-0.0102113550528884,-0.0115760490298271,0.00502144871279597
199,0.00483495788648725,0.00712081557139754,-0.00975265447050333,-0.00873078871518373,-0.00902770180255175,0.00320720765739679
200,0.00603592442348599,0.00932185724377632,-0.00714906211942434,-0.00558870425447822,-0.00490484852343798,0.0038779613096267
201,0.00540134683251381,0.00979543942958117,-0.00445101549848914,-0.00296401139348745,-0.00268884864635766,0.00774685945361853
202,0.00217404449358583,0.00821242295205593,-0.00422688806429505,-0.00275968317873776,-0.00444989651441574,0.0115946037694812
203,-0.00216776155866683,0.00538444006815553,-0.00639038952067494,-0.0048023397102952,-0.00894768815487623,0.0116183757781982
204,-0.00582403596490622,0.0021819572430104,-0.00935270451009274,-0.0077033881098032,-0.0140250418335199,0.0067674433812499
205,-0.00797005090862513,-8.16389147075824E-05,-0.0113088050857186,-0.00953457783907652,-0.0178792476654053,0.000770211569033563
206,-0.00774776795879006,0.000361281359801069,-0.0103188715875149,-0.00831632502377033,-0.0186027251183987,0.000136981136165559
207,-0.00608778651803732,0.00279529253020883,-0.00740346219390631,-0.00519569544121623,-0.0167327765375376,0.00579099310562015
208,-0.0047645689919591,0.00509974686428905,-0.00494425324723125,-0.00254225730895996,-0.0142159685492516,0.0123894959688187
209,-0.0040382593870163,0.00611065933480859,-0.00358374929055572,-0.00145505648106337,-0.0124135166406631,0.0150470053777099
210,-0.00308192451484501,0.00575747014954686,-0.00287243747152388,-0.0025619559455663,-0.0116328811272979,0.0125947445631027
211,-0.000936703523620963,0.00474607851356268,-0.00194093398749828,-0.00544697418808937,-0.0107109621167183,0.0069145830348134
212,0.00172435841523111,0.00321516720578074,-0.000670586596243083,-0.00861274730414152,-0.00901747867465019,0.000578760635107756
213,0.00342162908054888,0.00116119591984898,0.000388883810956031,-0.0100802900269628,-0.00676099117845297,-0.00400703866034746
214,0.0040891426615417,-0.000233944374485873,0.00145513843744993,-0.00830927677452564,-0.00403124466538429,-0.00491201272234321
215,0.00439414847642183,0.000412884604884312,0.00345992785878479,-0.00358690251596272,-0.00120804132893682,-0.00140004465356469
216,0.00413395231589675,0.00267953774891794,0.00610599480569363,0.0015727108111605,0.00079891097266227,0.00553054502233863
217,0.00357294012792408,0.00529990578070283,0.00860796775668859,0.00516623677685857,0.00228006788529456,0.0137568041682243
218,0.00354355899617076,0.00766376918181777,0.0107087576761842,0.00723694358021021,0.00381352473050356,0.0213936232030392
219,0.00310287671163678,0.00906687136739492,0.0110415639355779,0.0075813252478838,0.00378003646619618,0.02663928642869
220,0.0019958468619734,0.0100113227963448,0.00951906014233828,0.00730770127847791,0.00188277708366513,0.0290812011808157
221,0.00167998892720789,0.0115531384944916,0.00849154125899076,0.00876597780734301,0.000278828461887315,0.030108692124486
222,0.00274620275013149,0.012746206484735,0.00941550359129906,0.0111906882375479,0.0009010981884785,0.0303438622504473
223,0.00493492325767875,0.0125325424596667,0.0117714572697878,0.0125360386446118,0.00451252656057477,0.0294174496084452
224,0.00687989871948957,0.0105973044410348,0.0139878373593092,0.0124075636267662,0.00896441284567118,0.0267337951809168
225,0.00676932232454419,0.00684447353705764,0.0148238865658641,0.0106304436922073,0.0105447787791491,0.0218686070293188
226,0.00475013349205256,0.00258465181104839,0.0140740033239126,0.00689222477376461,0.00817784667015076,0.0147521197795868
227,0.00334906880743802,0.000231483834795654,0.013337504118681,0.00298484181985259,0.00480753229930997,0.00688814744353294
228,0.00408971542492509,0.000990757253021002,0.0145156336948276,0.0015925852349028,0.00336948758922517,0.00290120369754732
229,0.00553815625607967,0.00404156697914004,0.0173876211047173,0.00333089497871697,0.00358829624019563,0.00659605208784342
230,0.00613743998110294,0.00809233542531729,0.0206473078578711,0.0073089930228889,0.00439458899199963,0.0159977376461029
231,0.00542460475116968,0.0117571381852031,0.0224925577640533,0.0112735675647855,0.00492697535082698,0.025485809892416
232,0.00429019564762712,0.0143512031063437,0.0220012459903955,0.013095841743052,0.00498113501816988,0.0319202952086926
233,0.00409409543499351,0.0161323603242636,0.0196515433490276,0.0123207988217473,0.00498129427433014,0.0350014716386795
234,0.00477312924340367,0.0170681364834309,0.0158417634665966,0.00934833753854036,0.00441648857668042,0.034370556473732
235,0.00578045379370451,0.0166819896548986,0.0116481194272637,0.00550035992637277,0.00332758412696421,0.0299504101276398
236,0.00669120298698545,0.0145179172977805,0.00867907237261534,0.00271609821356833,0.00309747364372015,0.0228277537971735
237,0.00691369269043207,0.0111068729311228,0.00752459419891238,0.00217084540054202,0.0044498248025775,0.0154885649681091
238,0.00597234442830086,0.00767270382493734,0.00750826811417937,0.00319284200668335,0.00634951889514923,0.0101163312792778
239,0.00412832293659449,0.00541081139817834,0.00754332216456532,0.00417439732700586,0.0070406929589808,0.00760923558846116
240,0.00219545117579401,0.00527483411133289,0.00727510545402765,0.00468957144767046,0.00572646781802177,0.00824775919318199
241,0.00100181601010263,0.00730455154553056,0.00741417706012726,0.005849021486938,0.00324435089714825,0.0104994680732489
242,0.000969637127127498,0.0102432938292623,0.00833793263882399,0.00804600957781076,0.000769445148762316,0.0115831354632974
243,0.00128127832431346,0.012215887196362,0.00923851598054171,0.00995521619915962,-0.00144381169229746,0.0106060318648815
244,0.000877421989571303,0.0125938756391406,0.00952683854848146,0.0104780290275812,-0.0032386111561209,0.00938346888870001
245,0.000195243730559014,0.0126008512452245,0.00973544735461473,0.00976831652224064,-0.00388054712675512,0.00949873775243759
246,0.000252582773100585,0.0134790800511837,0.0103791300207376,0.00844002515077591,-0.00286249467171729,0.010766196064651
247,0.000468119978904724,0.0149280577898026,0.0106013556942344,0.0066928481683135,-0.00149068969767541,0.0127880619838834
248,-4.84002375742421E-05,0.0161819290369749,0.00952685624361038,0.00443205004557967,-0.00194010371342301,0.0153203904628754
249,-0.000341416307492182,0.0174117349088192,0.00792546197772026,0.00162861286662519,-0.00402218801900744,0.0185169372707605
250,-0.000115343427751213,0.0182855203747749,0.00625492120161653,-0.00158104277215898,-0.0064756223000586,0.0224258843809366
251,-0.000938898185268044,0.0174853187054396,0.00361493066884577,-0.00503752706572413,-0.00935291033238173,0.0254505388438702
252,-0.00282824481837451,0.0151076996698976,0.000613489479292184,-0.00800501834601164,-0.0112965935841203,0.0267244223505259
253,-0.00468617305159569,0.012305598706007,-0.00142924080137163,-0.00922342203557491,-0.0110130552202463,0.0273955538868904
254,-0.00656009232625365,0.00962009932845831,-0.00317664653994143,-0.00875440984964371,-0.0104920212179422,0.0273479223251343
255,-0.0079907514154911,0.00766871590167284,-0.00504208542406559,-0.00753352232277393,-0.0111522562801838,0.0246235076338053
256,-0.0078642824664712,0.00720871426165104,-0.00579738477244973,-0.00529720447957516,-0.0117891859263182,0.0186724159866571
257,-0.00646965578198433,0.00818531308323145,-0.00456988578662276,-0.00144467607606202,-0.0115332743152976,0.0110504124313593
258,-0.00529939774423838,0.00956195686012506,-0.00209681014530361,0.00350380199961364,-0.0112101808190346,0.00316841527819633
259,-0.00469977222383022,0.0112270377576351,9.90405969787389E-05,0.0091618224978447,-0.0119733093306422,-0.00152371835429221
260,-0.00450378330424428,0.0137605844065547,0.000355937459971756,0.0140913501381874,-0.0147204101085663,0.00162910344079137
261,-0.00516460184007883,0.0159362368285656,-0.00145585206337273,0.0154031850397587,-0.018552890047431,0.0104689598083496
262,-0.00600620778277516,0.0161606092005968,-0.00253516505472362,0.0128824319690466,-0.020159101113677,0.018507357686758
263,-0.00591458240523934,0.014613289386034,-0.000415706424973905,0.00917073432356119,-0.0176754798740149,0.0237601492553949
264,-0.00506043713539839,0.0125201418995857,0.0036702046636492,0.00625801598653197,-0.0130974072962999,0.0270098466426134
265,-0.0049420609138906,0.0104639371857047,0.00583777390420437,0.00372434221208096,-0.0106585556641221,0.0282320864498615
266,-0.0063084913417697,0.00862069614231586,0.00445111794397235,0.000699617725331336,-0.0119597194716334,0.0283150169998407
267,-0.00751864770427346,0.00768378190696239,0.0016872693086043,-0.00237822509370744,-0.0143219623714685,0.028008621186018
268,-0.00738542061299086,0.00791632011532784,-0.00102458754554391,-0.0052578947506845,-0.0159390587359667,0.0267949085682631
269,-0.00701905321329832,0.00854346714913845,-0.00439975457265973,-0.00814820546656847,-0.0177505612373352,0.024620920419693
270,-0.00760896457359195,0.00820321124047041,-0.00857150182127953,-0.0113346986472607,-0.0203289985656738,0.0206220783293247
271,-0.00857487134635448,0.00634022383019328,-0.011980245821178,-0.0146697331219912,-0.0223055705428123,0.0133283147588372
272,-0.00921221915632486,0.00375564349815249,-0.0137136094272137,-0.0168086364865303,-0.0228991135954857,0.00422503612935543
273,-0.0105814794078469,0.00115921325050294,-0.0152507079765201,-0.0167627278715372,-0.0237301327288151,-0.00305631197988987
274,-0.0130816558375955,-0.00105456390883774,-0.0171087067574263,-0.0147413806989789,-0.0249103996902704,-0.00649306224659085
275,-0.0153407929465175,-0.00242503429763019,-0.0178939737379551,-0.0119111407548189,-0.0245498884469271,-0.00700124399736524
276,-0.0157079324126244,-0.0021143346093595,-0.0167170688509941,-0.00866537727415562,-0.0220283251255751,-0.0053509590215981
277,-0.013540243729949,-9.13817711989395E-05,-0.0138237345963717,-0.00432933354750276,-0.0180663038045168,-0.00134449475444853
278,-0.0103102009743452,0.00143801746889949,-0.0105755561962724,-0.000402106583351269,-0.0138408755883574,0.00224583293311298
279,-0.00755901820957661,0.00111541536170989,-0.00804453436285257,0.00137915334198624,-0.010108302347362,0.00191682204604149
280,-0.0063978573307395,-0.000662045495118946,-0.00711829029023647,0.00133001757785678,-0.00848911423236132,-0.00256785796955228
281,-0.0076748114079237,-0.00339269009418786,-0.00813589431345463,0.000371186179108918,-0.0104130981490016,-0.00827459432184696
282,-0.010027788579464,-0.00587191199883819,-0.00932570826262236,-0.000434931513154879,-0.0138802053406835,-0.0109764579683542
283,-0.0116679817438126,-0.00694354809820652,-0.00975174643099308,-0.00144579482730478,-0.0161182284355164,-0.0092065492644906
284,-0.0126889003440738,-0.00670351879671216,-0.0105639351531863,-0.00388975557871163,-0.0166598912328482,-0.00366705656051636
285,-0.0137538313865662,-0.00610297452658415,-0.0117158684879541,-0.00723370909690857,-0.0159217193722725,0.00431064562872052
286,-0.0144504327327013,-0.00585071695968509,-0.0115352738648653,-0.00999799277633429,-0.0137774711474776,0.0108849620446563
287,-0.0145042585209012,-0.00660246424376965,-0.00982216466218233,-0.012263298034668,-0.0108928438276052,0.0118292113766074
288,-0.0141817890107632,-0.00846647564321756,-0.00770729733631015,-0.0141493985429406,-0.00847799889743328,0.00750757707282901
289,-0.0133731933310628,-0.0102652041241527,-0.00513927824795246,-0.0138732576742768,-0.00642117252573371,0.00207795831374824
290,-0.0126056326553226,-0.0112237939611077,-0.0022173800971359,-0.0104972776025534,-0.00449048774316907,-0.00138468784280121
291,-0.0125627880915999,-0.0117302369326353,3.26857916661538E-05,-0.00566060980781913,-0.00295002805069089,-0.00251735397614539
292,-0.0128373270854354,-0.0128148654475808,0.00180393282789737,-0.00148258404806256,-0.00112131983041763,-0.00309922732412815
293,-0.0126735055819154,-0.0148609206080437,0.0038932110182941,0.00142434553708881,0.00184278062079102,-0.00439493777230382
294,-0.0122541068121791,-0.0170657243579626,0.00486134737730026,0.0026423204690218,0.00465942081063986,-0.00542474631220102
295,-0.0122689036652446,-0.0185059998184443,0.00237395660951734,0.00116432539653033,0.00515983160585165,-0.00542821316048503
296,-0.0126454811543226,-0.0188704095780849,-0.00334515562281013,-0.00307993916794658,0.00305732525885105,-0.00570352841168642
297,-0.0126222101971507,-0.0184645690023899,-0.00960212387144566,-0.00832877866923809,-0.000268322444753721,-0.00761747360229492
298,-0.0115342047065496,-0.017506193369627,-0.0134574696421623,-0.0121419187635183,-0.00289589678868651,-0.0109580140560865
299,-0.00925235636532307,-0.015855235978961,-0.0138416513800621,-0.0135555602610111,-0.0031202977988869,-0.0142299365252256
300,-0.00681982701644301,-0.0141271026805043,-0.0124514810740948,-0.0136326858773828,-0.00124173739459366,-0.0158105809241533
301,-0.00582792703062296,-0.0128717599436641,-0.0111836399883032,-0.012866647914052,0.000460930343251675,-0.0145608494058251
302,-0.00555150117725134,-0.010814281180501,-0.00891260989010334,-0.00914522353559732,0.00124452542513609,-0.00899961218237877
303,-0.00436989683657885,-0.00751897180452943,-0.00454413378611207,-0.00209727836772799,0.00170539075043052,2.29271063290071E-06
304,-0.00254289642907679,-0.00424183765426278,2.17083506868221E-05,0.00507230637595057,0.00199924455955625,0.00862084329128265
305,-0.000484542892081663,-0.00171619455795735,0.00312317232601345,0.00961475446820259,0.00317100598476827,0.0139755671843886
306,0.00158774887677282,-0.000444307050202042,0.00499482825398445,0.0108339814469218,0.00603643758222461,0.01581671833992
307,0.00244101975113153,-0.000771523977164179,0.00555631285533309,0.00941990409046412,0.0091746486723423,0.0161432139575481
308,0.00169076514430344,-0.00190335779916495,0.00446064490824938,0.00684270169585943,0.0111147249117494,0.0167990028858185
309,0.00133851601276547,-0.00201720162294805,0.00313907233066857,0.00497020641341805,0.0124333836138248,0.0173505619168282
310,0.00179225415922701,-0.00140127306804061,0.00230267317965627,0.00358747271820903,0.0128369471058249,0.0144898388534784
311,0.00159841147251427,-0.00184948835521936,0.00125514389947057,0.00158881687093526,0.0116027900949121,0.00537944957613945
312,0.00153801764827222,-0.00277566420845687,0.000538342108484358,0.000499676098115742,0.0102632865309715,-0.00848681200295687
313,0.00271331984549761,-0.00293959677219391,0.000752068997826427,0.0012129561509937,0.00995438825339079,-0.0226847231388092
314,0.00468248734250665,-0.00207510939799249,0.00228540878742933,0.00245920894667506,0.0108101796358824,-0.0313681960105896
315,0.00682533020153642,0.00021428192849271,0.00499150436371565,0.00411801598966122,0.012418388389051,-0.0300014242529869
316,0.0087456963956356,0.00392491463571787,0.00724200252443552,0.00677558500319719,0.0136154033243656,-0.0195756442844868
317,0.00987561512738466,0.00720985187217593,0.00722117209807038,0.00830620806664228,0.0140872113406658,-0.00638384092599154
318,0.00951474346220493,0.00825037620961666,0.00415650382637978,0.00675293896347284,0.0134220905601978,0.00403370568528771
319,0.0078751165419817,0.00786437187343836,-0.000462919095298275,0.00481113512068987,0.0111897150054574,0.0108512863516808
320,0.00626028142869473,0.00790996570140123,-0.00346701615490019,0.00572571018710732,0.00898408051580191,0.0149825559929013
321,0.00573060847818851,0.00869857985526323,-0.00249355565756559,0.00888534635305405,0.00919000990688801,0.0166572593152523
322,0.00604155706241727,0.00910600367933512,0.00215868651866913,0.0118219973519444,0.0120717128738761,0.0160961784422398
323,0.00684990221634507,0.00895379390567541,0.00852325931191444,0.0139434318989515,0.0161877125501633,0.015218922868371
324,0.00851527042686939,0.00855867192149162,0.0149915749207139,0.0158919859677553,0.0209940019994974,0.0157840996980667
325,0.010295070707798,0.00674965139478445,0.0194779932498932,0.0165818091481924,0.0254400353878737,0.0152205238118768
326,0.0114956172183156,0.00355943199247122,0.0201080311089754,0.0152155254036188,0.0275461245328188,0.0104753114283085
327,0.0130589650943875,0.00156870705541223,0.0175082739442587,0.0131937647238374,0.027052192017436,0.00351877487264574
328,0.0155429877340794,0.00224461988545954,0.0140744494274259,0.0118176089599729,0.0255809985101223,-0.00181402801536024
329,0.0182937867939472,0.00396496942266822,0.0119744008406997,0.0109398579224944,0.0254619475454092,-0.00473125465214252
330,0.0199884716421366,0.00392322381958365,0.0122048193588853,0.0102718025445938,0.0273501630872488,-0.00617085117846727
331,0.0195018444210291,0.00142186670564115,0.0142893260344863,0.0109846219420433,0.0292226765304804,-0.00525934621691704
332,0.0172949060797691,-0.00151099311187863,0.0163034982979298,0.0139089971780777,0.0291362404823303,-0.000932995113544166
333,0.0150146959349513,-0.00283484230749309,0.016794178634882,0.0174735598266125,0.0272228270769119,0.00483316648751497
334,0.013532574288547,-0.00244401511736214,0.0160296857357025,0.0193118304014206,0.0248552095144987,0.00771351112052798
335,0.0129079138860106,-0.001116135972552,0.0149605199694633,0.0187196563929319,0.0235024262219667,0.00524169392883778
336,0.0129278162494302,0.000681432895362377,0.0144399264827371,0.0171443168073893,0.0237250812351704,-0.000208851037314162
337,0.0125463036820292,0.00234297476708889,0.0145324608311057,0.0158336795866489,0.0247316211462021,-0.00400908850133419
338,0.0112902158871293,0.00363905308768153,0.0149876903742552,0.0150069715455174,0.0261689778417349,-0.00304964766837657
339,0.0105611681938171,0.00510590570047498,0.0164265707135201,0.0148199358955026,0.0289280973374844,0.00146449997555465
340,0.0117328921332955,0.00702444603666663,0.0190385784953833,0.0148830031976104,0.0329647734761238,0.00490360148251057
341,0.013701836578548,0.00879278313368559,0.0208093896508217,0.0144783081486821,0.0354856699705124,0.00477869808673859
342,0.0145965358242393,0.00958118867129087,0.0198489278554916,0.0137234125286341,0.0342152006924152,0.00160853785928339
343,0.014778982847929,0.00938460696488619,0.0173145607113838,0.0138566140085459,0.0308909229934216,-0.00335753196850419
344,0.0146334664896131,0.00840250682085752,0.0147613789886236,0.0149025665596128,0.027180528268218,-0.00825405865907669
345,0.0132407946512103,0.00677281711250544,0.0121936853975058,0.0154302343726158,0.0224313102662563,-0.0108322110027075
346,0.0110847549512982,0.00541081186383963,0.0101328855380416,0.0156258977949619,0.0172872897237539,-0.00927725061774254
347,0.00912926066666842,0.00442079780623317,0.00876388233155012,0.0161370187997818,0.0131390318274498,-0.00457090092822909
348,0.00711506186053157,0.00295666418969631,0.00725743733346462,0.0165019482374191,0.0097803883254528,-0.000616554694715887
349,0.00524720037356019,0.00152791209984571,0.00610495964065194,0.0166773423552513,0.00705947913229465,-0.000426958111347631
350,0.00468565057963133,0.00156990566756576,0.00656594382598996,0.017180422320962,0.00604167161509395,-0.00338216801173985
351,0.00521476985886693,0.00301018171012402,0.00802108831703663,0.0176424160599709,0.00671322597190738,-0.00610287068411708
352,0.00531161716207862,0.00439452566206455,0.00917468033730984,0.017002284526825,0.00781098939478397,-0.0054081859998405
353,0.00519114034250379,0.00524287670850754,0.0102019309997559,0.0151794888079166,0.00929273385554552,-0.000358855148078874
354,0.00548150716349483,0.00560913654044271,0.0110580362379551,0.0129206832498312,0.011270490474999,0.00693550100550056
355,0.00573918363079429,0.00572887063026428,0.0112652610987425,0.0113816885277629,0.0129473898559809,0.0139949973672628
356,0.00566346850246191,0.00607482623308897,0.0108780134469271,0.0111203948035836,0.0134365353733301,0.0203361865133047
357,0.0053962143138051,0.00664567993953824,0.0101806605234742,0.0115555711090565,0.0125575046986341,0.0254080593585968
358,0.00622388301417232,0.0079001197591424,0.0105266915634274,0.0131371086463332,0.0120943579822779,0.028637545183301
359,0.00888711027801037,0.00985874515026808,0.0126561457291245,0.0165060125291348,0.0135601935908198,0.0303495042026043
360,0.0116257686167955,0.0107101919129491,0.0142606180161238,0.0193175785243511,0.015441095456481,0.0296264253556728
361,0.0134330196306109,0.00993193034082651,0.0143529018387198,0.019889160990715,0.0170331168919802,0.0262323245406151
362,0.0153213599696755,0.00948834046721458,0.0155112631618977,0.0209911316633224,0.0196239743381739,0.0229976549744606
363,0.0168976224958897,0.00947591848671436,0.0182002764195204,0.0241832602769136,0.0222614742815495,0.0209986288100481
364,0.0169905666261911,0.00804025400429964,0.0202698279172182,0.0266387257725,0.0234717186540365,0.0177501868456602
365,0.0163180846720934,0.00557503011077642,0.0208890307694674,0.0262932777404785,0.0237954054027796,0.0125667983666062
366,0.0157546009868383,0.00363138038665056,0.02004131115973,0.0237229466438293,0.0234300289303064,0.00738190533593297
367,0.0143594481050968,0.00159705406986177,0.0177643168717623,0.0200973972678185,0.0216857232153416,0.00293947197496891
368,0.0114387134090066,-0.000910714908968657,0.0155874034389853,0.0179613772779703,0.0190299768000841,0.000558830157388002
369,0.00856164563447237,-0.00199862336739898,0.0157904233783484,0.0195633880794048,0.017679326236248,0.0026759821921587
370,0.00791040156036615,-0.000581522996071726,0.0183678828179836,0.0232718046754599,0.0190789476037025,0.00834087934345007
371,0.00953984074294567,0.00218491745181382,0.0205571185797453,0.0257646925747395,0.0214656889438629,0.0139361694455147
372,0.0116969952359796,0.00472986837849021,0.0203543659299612,0.0260834489017725,0.0225241631269455,0.0178568437695503
373,0.0125916330143809,0.00594952749088407,0.0181839074939489,0.0252116359770298,0.0220509637147188,0.0206918008625507
374,0.0116664515808225,0.00549907190725207,0.0155982933938503,0.0242496002465487,0.0211018044501543,0.0229494161903858
375,0.010102603584528,0.0037848015781492,0.0142874466255307,0.0237500574439764,0.0214921981096268,0.0243076309561729
376,0.0089308749884367,0.00101416686084121,0.0148935038596392,0.0234025325626135,0.0245139617472887,0.0232291277498007
377,0.00780587876215577,-0.00238480605185032,0.0165291912853718,0.0230050776153803,0.0291916131973267,0.0184300355613232
378,0.0064884596504271,-0.00514017464593053,0.0179321523755789,0.0231322608888149,0.0329715199768543,0.0106354057788849
379,0.00492793275043368,-0.00651558954268694,0.0179428588598967,0.0242014210671186,0.0329518094658852,0.00252840691246092
380,0.0031186849810183,-0.00660753436386585,0.0163300968706608,0.0262432005256414,0.0285797156393528,-0.00160280906129628
381,0.0023651176597923,-0.00537606608122587,0.0148402592167258,0.028801828622818,0.023527268320322,0.000694240618031472
382,0.00397445587441325,-0.00285549135878682,0.0154351647943258,0.0310167651623487,0.0216266307979822,0.0073151639662683
383,0.00733854761347175,0.000328704103594646,0.0183981657028198,0.0324575863778591,0.0235385969281197,0.0147000094875693
384,0.0107076531276107,0.00306827505119145,0.02260254137218,0.0329791679978371,0.0280018914490938,0.0205550212413073
385,0.0124707445502281,0.00447351252660155,0.0262940097600222,0.0328237675130367,0.0326178260147572,0.0248464662581682
386,0.0123324636369944,0.00484265293926001,0.0284749157726765,0.0329374969005585,0.0354407802224159,0.0293078757822514
387,0.0113313971087337,0.00470477715134621,0.029745789244771,0.0338764302432537,0.0371720977127552,0.033554770052433
388,0.0101375188678503,0.0037024556659162,0.0308810900896788,0.0358047783374786,0.0392276123166084,0.0357949584722519
389,0.00876921135932207,0.00205809809267521,0.0318451412022114,0.0389072597026825,0.0414570830762386,0.0369112268090248
390,0.00700649200007319,0.00073820014949888,0.0318862162530422,0.0419562347233295,0.0426071509718895,0.038084302097559
391,0.00495588453486562,0.000569734955206513,0.0309675205498934,0.0438330359756947,0.0424066260457039,0.0393655002117157
392,0.00347338477149606,0.00173650635406375,0.0304995160549879,0.0451837554574013,0.042228426784277,0.0419432334601879
393,0.0039034029468894,0.0037593930028379,0.0320289880037308,0.04745277389884,0.0434954352676868,0.0472379513084888
394,0.00663165515288711,0.00574076967313886,0.0357565023005009,0.0514862202107906,0.0462395250797272,0.0541159622371197
395,0.0099840397015214,0.00676810136064887,0.0396661162376404,0.055921770632267,0.0484364703297615,0.0592663139104843
396,0.0122953029349446,0.00668221293017268,0.0415325835347176,0.0582044087350369,0.0489643402397633,0.0601482912898064
397,0.0137787768617272,0.00589342880994082,0.0418966524302959,0.0579664818942547,0.0508397482335567,0.0565428771078587
398,0.0152868218719959,0.00568381696939468,0.0431532710790634,0.058478944003582,0.0570369139313698,0.0521904863417149
399,0.0164548940956593,0.00704792561009526,0.0462899021804333,0.0623006597161293,0.0653329864144325,0.0519043281674385
400,0.0163330864161253,0.00869905296713114,0.0503457561135292,0.0675542950630188,0.07190952450037,0.055314913392067
401,0.0147680314257741,0.00880267936736345,0.0537367723882198,0.0714616924524307,0.0765274912118912,0.0587829686701298
402,0.0127100059762597,0.0075504588894546,0.0555981621146202,0.0739522725343704,0.0807645693421364,0.0611740201711655
403,0.0117531679570675,0.00683877896517515,0.0567516721785069,0.0764394849538803,0.0840825214982033,0.0641712993383408
404,0.0123915122821927,0.00770452618598938,0.0582365095615387,0.0791114270687103,0.083905428647995,0.0684897750616074
405,0.0132932495325804,0.00882662460207939,0.0592629574239254,0.0801329836249352,0.078891284763813,0.0727571249008179
406,0.0139458384364843,0.0091133825480938,0.0592480823397636,0.0784733667969704,0.0718430504202843,0.0767229050397873
407,0.0147595722228289,0.00893878005445004,0.0588221363723278,0.0749931335449219,0.0667731612920761,0.0805170387029648
408,0.0141854202374816,0.00809835828840733,0.0573925487697124,0.0705377459526062,0.0634401962161064,0.0824909135699272
409,0.0110092125833035,0.00648735277354717,0.0551306717097759,0.0667536333203316,0.0606699697673321,0.0818352028727531
410,0.00698344316333532,0.00499875238165259,0.0546632297337055,0.0659010410308838,0.0606077872216702,0.0796271041035652
411,0.00404875865206122,0.00418879510834813,0.0572229251265526,0.0681867972016335,0.064660482108593,0.0772742554545403
412,0.00267667626030743,0.00387140060774982,0.0610207580029964,0.0718332678079605,0.070903368294239,0.0751199275255203
413,0.00264076818712056,0.00364391854964197,0.0637217983603477,0.0752159804105759,0.0763231962919235,0.072552353143692
414,0.0024274536408484,0.00250030239112675,0.0640294849872589,0.0770401135087013,0.0787422880530357,0.0692965686321259
415,0.000918161938898265,7.58376918383874E-05,0.0629136562347412,0.077095702290535,0.0787386670708656,0.0665592402219772
416,-0.000503533112350851,-0.00190937821753323,0.0629916414618492,0.0769319608807564,0.0791564211249352,0.0661842301487923
417,-0.000868269940838218,-0.00254043121822178,0.0647747367620468,0.0771056935191154,0.0807735472917557,0.0681134164333344
418,-0.000438621267676353,-0.00245105032809079,0.0674225315451622,0.0777579843997955,0.0829466432332993,0.0721832737326622
419,0.000702218851074576,-0.00157047831453383,0.0707307830452919,0.0800652503967285,0.0856707766652107,0.0796913728117943
420,0.00156621332280338,0.00038557339576073,0.0734638720750809,0.0841699838638306,0.0875719115138054,0.0902736186981201
421,0.00108068622648716,0.00269936677068472,0.0748035907745361,0.0891902074217796,0.0880124568939209,0.10095988214016
422,-0.000191593397175893,0.00434838188812137,0.0756562575697899,0.0941161289811134,0.0884818658232689,0.108571857213974
423,-0.000587277463637292,0.00548229087144136,0.0767499506473541,0.0980418473482132,0.0896646976470947,0.111558072268963
424,0.000272530887741596,0.00637009786441922,0.0776274800300598,0.100140556693077,0.0905774980783463,0.109851896762848
425,0.00106408074498177,0.00639886595308781,0.0771085396409035,0.0997045040130615,0.0899460986256599,0.104493163526058
426,0.000982466386631131,0.0057008913718164,0.0747334435582161,0.0976264625787735,0.0874647721648216,0.0980260968208313
427,0.000288694485789165,0.00540696503594518,0.0721150115132332,0.0963638797402382,0.084546335041523,0.0938087701797485
428,-0.000676258699968457,0.00611704122275114,0.0719896852970123,0.097608208656311,0.0836983099579811,0.0937959998846054
429,-0.00214640609920025,0.00711532821878791,0.0747500360012054,0.100666061043739,0.0857323035597801,0.0967782884836197
430,-0.00328227411955595,0.00807319674640894,0.0787259340286255,0.103870242834091,0.0897173434495926,0.100310638546944
431,-0.00252235564403236,0.00923769176006317,0.082464687526226,0.105612315237522,0.0945392549037933,0.102369569242001
432,-0.000606630812399089,0.0094785001128912,0.0846110358834267,0.104541637003422,0.0989381447434425,0.101682484149933
433,0.000303498556604609,0.00763952312991023,0.084767609834671,0.101190842688084,0.102197825908661,0.0995866134762764
434,-0.000770811107940972,0.00423225853592157,0.0837487205862999,0.0971988290548325,0.103287279605865,0.0989499315619469
435,-0.00314431730657816,0.000440568255726248,0.0825343951582909,0.0935287103056908,0.101114429533482,0.100848361849785
436,-0.00480533950030804,-0.00236559775657952,0.0821411609649658,0.0907874554395676,0.0977993085980415,0.10374666005373
437,-0.0047901701182127,-0.00371404853649437,0.0822480618953705,0.0887474864721298,0.095938466489315,0.105198800563812
438,-0.00484639732167125,-0.00470592081546783,0.0808154717087746,0.0862163305282593,0.0942930430173874,0.104092545807362
439,-0.00646634818986058,-0.00575156742706895,0.0774129182100296,0.0832161232829094,0.0911699831485748,0.101442970335484
440,-0.00863123964518309,-0.00613715685904026,0.0747478455305099,0.0816178694367409,0.0883399248123169,0.0989609137177467
441,-0.00950542557984591,-0.00540588237345219,0.0754935890436172,0.0833434537053108,0.0884744077920914,0.0981911346316338
442,-0.00885681807994843,-0.00384678924456239,0.079415038228035,0.0883608311414719,0.0910793095827103,0.100082442164421
443,-0.00769187230616808,-0.00260925269685686,0.0842642560601234,0.0937351062893867,0.0939362496137619,0.102911606431007
444,-0.0064158858731389,-0.00248059374280274,0.0878396853804588,0.0961064547300339,0.0958811491727829,0.103693090379238
445,-0.00446411361917853,-0.00245066988281906,0.0894342660903931,0.0953844785690308,0.097026139497757,0.102752424776554
446,-0.00145273876842111,-0.00156373530626297,0.0899348258972168,0.0933424904942513,0.0983226895332336,0.101965725421906
447,0.00223698397167027,-0.000520788307767361,0.090568333864212,0.0912292152643204,0.100566811859608,0.100724242627621
448,0.00546192983165383,-0.000516028259880841,0.0913433954119682,0.0898948088288307,0.102956220507622,0.0969059839844704
449,0.00721245445311069,-0.0018101604655385,0.091703824698925,0.0900068730115891,0.104032255709171,0.0904161781072617
450,0.00757997902110219,-0.00346805271692574,0.0915665552020073,0.0913016647100449,0.103372730314732,0.0842636302113533
451,0.00706907967105508,-0.00479729752987623,0.090581513941288,0.0918186381459236,0.101302184164524,0.080298975110054
452,0.0062911412678659,-0.00587299698963761,0.0886893272399902,0.0902271196246147,0.0989463925361633,0.0774945393204689
453,0.00603144709020853,-0.00641397153958678,0.0867269784212112,0.087610624730587,0.0979437455534935,0.0758937522768974
454,0.00644415058195591,-0.00609440822154284,0.0854666754603386,0.0850055366754532,0.0989785492420197,0.0763261988759041
455,0.00669595878571272,-0.00561795150861144,0.0849102213978767,0.0819486230611801,0.101065963506699,0.0774871036410332
456,0.00634612934663892,-0.00539213744923472,0.0849714055657387,0.0788339376449585,0.102791450917721,0.0783328711986542
457,0.00572165427729487,-0.00514421286061406,0.0853093340992928,0.0765736624598503,0.103365153074265,0.0789282768964767
458,0.00538562843576074,-0.0048131113871932,0.0850759521126747,0.0747876912355423,0.102766573429108,0.0787680149078369
459,0.0056966096162796,-0.0045661935582757,0.0839046761393547,0.072947271168232,0.101512506604195,0.0773138925433159
460,0.00578268244862556,-0.00530290137976408,0.0816953331232071,0.0702574104070663,0.099625289440155,0.0733824744820595
461,0.00487618427723646,-0.00760210165753961,0.0787682682275772,0.066296674311161,0.09721739590168,0.0659653767943382
462,0.00360918487422168,-0.010437692515552,0.0760774463415146,0.0624244473874569,0.0948850587010384,0.0574418865144253
463,0.00302296970039606,-0.0119433412328362,0.0746891796588898,0.0603966005146503,0.092914767563343,0.0536823384463787
464,0.00349777354858816,-0.0114539610221982,0.0748827159404755,0.0604964643716812,0.0911364182829857,0.0575322173535824
465,0.00436959369108081,-0.0102359894663095,0.0753579214215279,0.0618174150586128,0.0890006050467491,0.064472034573555
466,0.0053054359741509,-0.00929153896868229,0.0753254294395447,0.0642545521259308,0.0868369713425636,0.0689519420266151
467,0.00661414489150047,-0.00877830479294062,0.0750495865941048,0.0674946010112762,0.0858605206012726,0.0692937076091766
468,0.00795652251690626,-0.00866458285599947,0.0742071494460106,0.0697062090039253,0.0863033384084702,0.0665711537003517
469,0.00838758051395416,-0.00851577334105968,0.0723892152309418,0.0693733766674995,0.0868250280618668,0.0634058490395546
470,0.00747912283986807,-0.00807461701333523,0.0697897970676422,0.0663822814822197,0.086244709789753,0.0614675022661686
471,0.00598858343437314,-0.00773689849302173,0.0671525672078133,0.0618453845381737,0.0852164775133133,0.0588648058474064
472,0.0050593288615346,-0.00794801209121943,0.0653188303112984,0.0576129220426083,0.0846961811184883,0.0525566227734089
473,0.00539859943091869,-0.00853322260081768,0.0647835209965706,0.0549018867313862,0.084620974957943,0.0437355004251003
474,0.00695422384887934,-0.00914110988378525,0.0652126371860504,0.0532038509845734,0.0845207571983337,0.037058025598526
475,0.00905059278011322,-0.00950449146330357,0.0653814822435379,0.0511492490768433,0.0836742520332336,0.0348452292382717
476,0.0110398950055242,-0.00958235096186399,0.0646818578243256,0.0480473637580872,0.0817381888628006,0.035486675798893
477,0.0122529938817024,-0.00979796145111322,0.0633821487426758,0.0445533394813538,0.0787352621555328,0.0370037406682968
478,0.0128361694514751,-0.00977393705397844,0.0621950812637806,0.0423841960728168,0.0752831622958183,0.0387198887765408
479,0.0136702237650752,-0.00893421191722155,0.0614465698599815,0.0421885624527931,0.0723601132631302,0.0395891889929771
480,0.0142239024862647,-0.00795502867549658,0.0599376372992992,0.0425920560956001,0.0694928616285324,0.0396393053233624
481,0.0136691695079207,-0.00687026558443904,0.0577566511929035,0.042772326618433,0.0664433091878891,0.0421145185828209
482,0.0118535365909338,-0.00571304745972157,0.0554808080196381,0.0418332032859325,0.0632393956184387,0.0481515489518642
483,0.0087110735476017,-0.00628204643726349,0.0517588369548321,0.0381867475807667,0.0593335703015327,0.0524606965482235
484,0.00563837960362434,-0.00921111740171909,0.047134131193161,0.0330016128718853,0.056164775043726,0.0500145182013512
485,0.00447546970099211,-0.0126482397317886,0.0439068488776684,0.0289314799010754,0.0551864318549633,0.0417210385203362
486,0.00548953143879771,-0.0146076837554574,0.0426947958767414,0.0271784961223602,0.0552967600524426,0.0314423106610775
487,0.0077142957597971,-0.0145607404410839,0.0422716736793518,0.0275822598487139,0.0549650453031063,0.0222979802638292
488,0.00908299721777439,-0.0139364525675774,0.0403546169400215,0.0280857812613249,0.0532631240785122,0.0150450803339481
489,0.00847785081714392,-0.0137064252048731,0.0364009104669094,0.0270168948918581,0.0504391752183437,0.0104327686131001
490,0.00713197188451886,-0.0129085993394256,0.0325200781226158,0.0256192218512297,0.0478052981197834,0.0103078689426184
491,0.00622469885274768,-0.0111111486330628,0.0300491023808718,0.0252361129969358,0.04596196860075,0.0139650786295533
492,0.00594569090753794,-0.00862158834934235,0.0285683535039425,0.0255286153405905,0.0447586067020893,0.0192203111946583
493,0.00561250001192093,-0.00627197697758675,0.0269608981907368,0.0248856395483017,0.04266007989645,0.024173229932785
494,0.00444075372070074,-0.00538093550130725,0.0244331061840057,0.0215249042958021,0.0379743464291096,0.0265675336122513
495,0.0030128420330584,-0.0057217488065362,0.0216722935438156,0.0158326998353004,0.0318908989429474,0.0267126113176346
496,0.00263142981566489,-0.00584876304492354,0.0200701300054789,0.0100573897361755,0.0270871445536613,0.0269254110753536
497,0.00332850147970021,-0.00545336399227381,0.01972471550107,0.00602831691503525,0.0243236627429724,0.0266621299088001
498,0.00367134436964989,-0.00532567175105214,0.0192696005105972,0.0041014775633812,0.0219201259315014,0.0242063999176025
499,0.00277096661739051,-0.00606674095615745,0.0177076775580645,0.00350242387503386,0.0181943792849779,0.0199716612696648
500,0.00151851528789848,-0.00740386918187141,0.0158427450805902,0.00396323576569557,0.0137958191335201,0.0150888981297612
501,0.00113480002619326,-0.00866919104009867,0.015148164704442,0.00563951721414924,0.0106085054576397,0.0095408009365201
502,0.00153613998554647,-0.00957882311195135,0.0156072387471795,0.00765434373170137,0.00946675334125757,0.00292569305747747
503,0.00153420330025256,-0.0106420759111643,0.0154794920235872,0.00801920425146818,0.00958459079265594,-0.00405318103730679
504,0.000262740039033815,-0.0124703794717789,0.0133954901248217,0.00521225202828646,0.00929975602775812,-0.00953350029885769
505,-0.00141522602643818,-0.0141438255086541,0.0101426336914301,0.000544104899745435,0.00811609718948603,-0.0117816189303994
506,-0.00259054079651833,-0.0147216990590096,0.00661473721265793,-0.00321922171860933,0.00630056671798229,-0.0121506135910749
507,-0.00316994893364608,-0.0143193826079369,0.0032198429107666,-0.00469944393262267,0.00399693194776773,-0.0130304461345077
508,-0.00294194556772709,-0.01341612637043,0.00120472582057118,-0.00469306157901883,0.00208458583801985,-0.0139383571222425
509,-0.00233716890215874,-0.0127118499949574,0.000808279728516936,-0.00479355175048113,0.000948917819187045,-0.013405934907496
510,-0.00165342527907342,-0.0118505274876952,0.0010984685504809,-0.00505279842764139,0.000143438490340486,-0.0107341986149549
511,-0.0005070039187558,-0.0102437790483236,0.00158225500490516,-0.00517057487741113,-0.000360188714694232,-0.00649022264406085
512,0.000905699620489031,-0.00901526119560003,0.00187926401849836,-0.0063242856413126,-0.000373076996766031,-0.00384490936994553
513,0.00181643455289304,-0.00948288664221764,0.00146584096364677,-0.00917991623282433,-0.000459127593785524,-0.00596571713685989
514,0.00192616309504956,-0.0109672052785754,0.000325585308019072,-0.0122314216569066,-0.00165495916735381,-0.0112978285178542
515,0.00194996548816562,-0.011616257019341,-0.000754668901208788,-0.0135301128029823,-0.00360058736987412,-0.0150599861517549
516,0.0018057506531477,-0.0115502290427685,-0.00222131493501365,-0.0140425600111485,-0.00582392048090696,-0.0153039442375302
517,0.000445465644588694,-0.0124930245801806,-0.00547416927292943,-0.0163565520197153,-0.00895268749445677,-0.0144689325243235
518,-0.00141955423168838,-0.014204372651875,-0.00933664944022894,-0.0196424424648285,-0.0121077364310622,-0.0145283974707127
519,-0.00280758505687118,-0.0158641189336777,-0.0125162675976753,-0.0221532005816698,-0.0142962001264095,-0.0153406225144863
520,-0.00446869619190693,-0.0180437844246626,-0.016235588118434,-0.0246794391423464,-0.016342980787158,-0.0170949064195156
521,-0.00679935934022069,-0.0205590780824423,-0.02081692032516,-0.0272501446306705,-0.0185681749135256,-0.0197619721293449
522,-0.00917083583772182,-0.0224217623472214,-0.0250040385872126,-0.0283268410712481,-0.0207555126398802,-0.022972609847784
523,-0.0111649595201015,-0.0236485842615366,-0.0281815305352211,-0.0277165994048119,-0.0232242327183485,-0.0277210157364607
524,-0.0124123422428966,-0.0249053779989481,-0.029789038002491,-0.0273389611393213,-0.0254029203206301,-0.0354324467480183
525,-0.0121721103787422,-0.0257660634815693,-0.028654370456934,-0.0283603724092245,-0.0256421994417906,-0.0444243513047695
526,-0.0108901523053646,-0.0256208665668964,-0.02566391043365,-0.0300899185240269,-0.0242516752332449,-0.0510553196072578
527,-0.00957913231104612,-0.0243654847145081,-0.0232925768941641,-0.0311522260308266,-0.0229502134025097,-0.0533626079559326
528,-0.00862614344805479,-0.0220145210623741,-0.0229924619197845,-0.0310148056596518,-0.0227981731295586,-0.0517614334821701
529,-0.00867327954620123,-0.0196007192134857,-0.0251291133463383,-0.0313147269189358,-0.0245236717164516,-0.0489473342895508
530,-0.00933229736983776,-0.0176563933491707,-0.0282269138842821,-0.03315369784832,-0.0271339323371649,-0.0472413785755634
531,-0.00976250693202019,-0.0162250753492117,-0.0307549815624952,-0.0361810475587845,-0.0293639544397593,-0.0472239926457405
532,-0.00990754086524248,-0.0157197769731283,-0.0323615558445454,-0.0391696579754353,-0.0313812755048275,-0.0479693859815598
533,-0.00965534616261721,-0.0159503221511841,-0.0323225818574429,-0.039557196199894,-0.0332725793123245,-0.0473134517669678
534,-0.00939211156219244,-0.0168541185557842,-0.0310411676764488,-0.0369895212352276,-0.0353483222424984,-0.0446973294019699
535,-0.00898647867143154,-0.0178908742964268,-0.0297813694924116,-0.0339410379528999,-0.0374543219804764,-0.0413240306079388
536,-0.00746850622817874,-0.0175342429429293,-0.0284741949290037,-0.0317089930176735,-0.0380263216793537,-0.0375348590314388
537,-0.00548188015818596,-0.0154941286891699,-0.0271371454000473,-0.0300472024828196,-0.0365472249686718,-0.0332909673452377
538,-0.00466683693230152,-0.0130690149962902,-0.0267306882888079,-0.0289681553840637,-0.034602016210556,-0.0297670736908913
539,-0.00540964305400848,-0.011333572678268,-0.0275814160704613,-0.0288772620260715,-0.0336594730615616,-0.0282325148582459
540,-0.00681125419214368,-0.0103767951950431,-0.0290553718805313,-0.0298909731209278,-0.03344751521945,-0.0288103241473436
541,-0.00780970742926002,-0.00987749360501766,-0.0307011809200048,-0.0315686203539371,-0.0333212539553642,-0.0312634818255901
542,-0.00750949839130044,-0.00892798509448767,-0.0317889638245106,-0.0321641676127911,-0.0330413728952408,-0.0346749760210514
543,-0.00642090756446123,-0.00731395557522774,-0.032042320817709,-0.0308149177581072,-0.0330207161605358,-0.0380539819598198
544,-0.00618014484643936,-0.0063181989826262,-0.0323306433856487,-0.0290255602449179,-0.0340349078178406,-0.0415091514587402
545,-0.00674711680039763,-0.00615970231592655,-0.032318789511919,-0.0270773824304342,-0.0352654419839382,-0.0445876158773899
546,-0.00770808197557926,-0.00672387098893523,-0.0322816371917725,-0.0255943052470684,-0.0363080911338329,-0.0478268936276436
547,-0.009012664668262,-0.00835369806736708,-0.0338994450867176,-0.0272157434374094,-0.0377348214387894,-0.0530222617089748
548,-0.00979394465684891,-0.0105457752943039,-0.0370064340531826,-0.0331346578896046,-0.0387946330010891,-0.0597466491162777
549,-0.00958745367825031,-0.0123272966593504,-0.0397679954767227,-0.0410719811916351,-0.0385907143354416,-0.0652142763137817
550,-0.00931649655103683,-0.0128055904060602,-0.0411998555064201,-0.0468337275087833,-0.0382443368434906,-0.0661603361368179
551,-0.0105630550533533,-0.0122807323932648,-0.0425842627882957,-0.0490637049078941,-0.0398390702903271,-0.0612040646374226
552,-0.012381830252707,-0.0112377423793077,-0.0445260927081108,-0.0489350706338882,-0.0422285459935665,-0.0522591099143028
553,-0.0120694665238261,-0.00920218508690596,-0.0454999133944511,-0.0472475774586201,-0.0424292646348476,-0.0436696521937847
554,-0.00998284574598074,-0.00669312477111816,-0.0451102182269096,-0.0454170070588589,-0.040429811924696,-0.0392360799014568
555,-0.00851645041257143,-0.00507458159700036,-0.0440327189862728,-0.0448504611849785,-0.0373604893684387,-0.0397997498512268
556,-0.00836640037596226,-0.00467548379674554,-0.0422975420951843,-0.0452771559357643,-0.0338008627295494,-0.0435929112136364
557,-0.00876030884683132,-0.00485134264454246,-0.0400461852550507,-0.0456400513648987,-0.0316645093262196,-0.0477533750236034
558,-0.00923844054341316,-0.00530748721212149,-0.0383687727153301,-0.045835804194212,-0.0325593948364258,-0.0505943074822426
559,-0.00980950519442558,-0.0063216257840395,-0.038420807570219,-0.04666643217206,-0.0357207506895065,-0.0524616613984108
560,-0.00993704423308373,-0.00708203623071313,-0.0395252779126167,-0.0476650409400463,-0.0390959233045578,-0.0533254779875278
561,-0.00902743451297283,-0.00636564241722226,-0.0404383949935436,-0.0479238145053387,-0.0414367169141769,-0.0530859269201756
562,-0.00790542643517256,-0.00494416896253824,-0.0418490804731846,-0.04853605479002,-0.0434725023806095,-0.0535691790282726
563,-0.00756149319931865,-0.0039776167832315,-0.0444316752254963,-0.0501292496919632,-0.0458023734390736,-0.0553043223917484
564,-0.00705822836607695,-0.00271553569473326,-0.0466281585395336,-0.0508085526525974,-0.0470119193196297,-0.055801760405302
565,-0.00538815557956696,-0.000673848437145352,-0.0470928512513638,-0.0494807399809361,-0.0461718775331974,-0.0540949590504169
566,-0.00373750971630216,0.000596869620494545,-0.0468465276062489,-0.047681886702776,-0.0448700338602066,-0.0527054034173489
567,-0.00299034640192986,0.000334423762978986,-0.0470115877687931,-0.0466769970953465,-0.0441583842039108,-0.0538392513990402
568,-0.00250545935705304,-0.000428892497438937,-0.0476651825010777,-0.0465968027710915,-0.0435650087893009,-0.0577347651124001
569,-0.00259599764831364,-0.00148917594924569,-0.0490262024104595,-0.0474735498428345,-0.0438153259456158,-0.063665397465229
570,-0.0042030275799334,-0.00367075321264565,-0.0509456135332584,-0.0486541800200939,-0.0457262322306633,-0.0702046751976013
571,-0.00689966138452291,-0.00686949724331498,-0.0521920509636402,-0.0492386743426323,-0.0483018383383751,-0.0749972984194756
572,-0.00968230608850718,-0.00979009736329317,-0.0520098283886909,-0.0492722056806087,-0.0502560511231422,-0.0747115463018417
573,-0.0120352059602737,-0.0111311366781592,-0.0513575710356236,-0.0491663850843906,-0.0513376742601395,-0.0675265714526176
574,-0.0129907326772809,-0.0099493945017457,-0.0509554669260979,-0.0487102679908276,-0.0514411926269531,-0.0547062493860722
575,-0.0117916250601411,-0.00646344805136323,-0.0506610870361328,-0.0482909344136715,-0.0504861325025558,-0.0403569936752319
576,-0.00944069400429726,-0.00255736638791859,-0.0511052384972572,-0.0498547963798046,-0.0490576215088367,-0.030492240563035
577,-0.00675575481727719,0.000745271798223257,-0.0522649735212326,-0.0537448301911354,-0.0469544380903244,-0.0281744487583637
578,-0.00415469612926245,0.0030456343665719,-0.0532664731144905,-0.0577018558979034,-0.0440264493227005,-0.0317706353962421
579,-0.00310609792359173,0.00301391421817243,-0.0541357174515724,-0.0599622093141079,-0.0417275577783585,-0.0384271144866943
580,-0.00360090890899301,0.00121497840154916,-0.0547038279473782,-0.0599664188921452,-0.0408191494643688,-0.0450521223247051
581,-0.00383451790548861,-0.000209877674933523,-0.0547153875231743,-0.0586030930280685,-0.0409877076745033,-0.0497463904321194
582,-0.00287230731919408,-0.000445660058176145,-0.0544794835150242,-0.0570345930755138,-0.0418358817696571,-0.0528272911906242
583,-0.00140576355624944,1.66672743944218E-05,-0.0545753166079521,-0.0554050579667091,-0.043045025318861,-0.0549064204096794
584,-1.38275036078994E-05,0.000891449803020805,-0.0549274235963821,-0.0536086559295654,-0.0436450280249119,-0.0556765720248222
585,0.00145010941196233,0.00203047855757177,-0.0547977648675442,-0.0519598089158535,-0.0418212972581387,-0.0548567026853561
586,0.0027817883528769,0.00255243922583759,-0.0543476976454258,-0.0511054247617722,-0.0375068224966526,-0.052767526358366
587,0.00372590543702245,0.00190084171481431,-0.0539008863270283,-0.0503335185348988,-0.0334451235830784,-0.0500541068613529
588,0.00474069593474269,0.000789988611359149,-0.0524979569017887,-0.0484621599316597,-0.0321092791855335,-0.0486513674259186
589,0.00653096567839384,0.000222085029236041,-0.0495752058923244,-0.046578548848629,-0.0334719121456146,-0.0504708588123322
590,0.00817221216857433,-3.33042880811263E-05,-0.0472165755927563,-0.0469774529337883,-0.0368768759071827,-0.0552379451692104
591,0.00878577120602131,0.000343856692779809,-0.0467361584305763,-0.0492369346320629,-0.0406291000545025,-0.0596973039209843
592,0.00881051737815142,0.00219986005686224,-0.046913668513298,-0.0513192340731621,-0.0424874350428581,-0.0596080720424652
593,0.00798067636787891,0.00431266985833645,-0.0475171282887459,-0.0535162277519703,-0.0431861393153667,-0.0540236048400402
594,0.00647859182208776,0.0052138022147119,-0.0488211251795292,-0.0564161390066147,-0.0442173257470131,-0.0459771119058132
595,0.00562178669497371,0.00494945934042335,-0.0501783154904842,-0.0586108416318893,-0.0450899340212345,-0.0393567755818367
596,0.00639097671955824,0.00452811783179641,-0.0506272278726101,-0.0582778118550777,-0.0447212755680084,-0.0353859513998032
597,0.00872176792472601,0.00474468013271689,-0.0495244599878788,-0.0552856847643852,-0.0425629019737244,-0.0336457416415215
598,0.0109687652438879,0.00482381135225296,-0.0480752848088741,-0.0522821322083473,-0.0394788607954979,-0.0349980406463146
599,0.0119231035932899,0.00438652839511633,-0.0475765280425549,-0.0511054694652557,-0.0366424508392811,-0.0389354340732098
600,0.0117953112348914,0.00417086435481906,-0.0479045733809471,-0.0508339144289494,-0.0346513092517853,-0.0429136455059052
601,0.0103650419041514,0.00391834601759911,-0.0492338985204697,-0.0510429963469505,-0.0347401574254036,-0.0463598594069481
602,0.00770586496219039,0.00323825026862323,-0.0512724854052067,-0.0519674308598042,-0.0375935509800911,-0.0496942661702633
603,0.00504865730181336,0.00267084105871618,-0.05282823741436,-0.053039763122797,-0.0416925176978111,-0.0520885959267616
604,0.00339617999270558,0.00256199296563864,-0.053329411894083,-0.0534512251615524,-0.04472291842103,-0.0531502813100815
605,0.00294832070358098,0.00246833730489016,-0.0530509203672409,-0.0533072054386139,-0.0455371253192425,-0.0539620593190193
606,0.00386459566652775,0.00233013299293816,-0.0524480193853378,-0.0533866435289383,-0.0442702360451221,-0.0554346218705177
607,0.00573011720553041,0.00234897620975971,-0.0520099699497223,-0.0540563501417637,-0.0420667938888073,-0.0573769062757492
608,0.0075467019341886,0.00217250594869256,-0.0519362725317478,-0.0549867562949657,-0.0398409888148308,-0.0581573620438576
609,0.00822979304939508,0.00112915027420968,-0.0526971146464348,-0.0561870522797108,-0.0383508279919624,-0.0559695214033127
610,0.00762298423796892,-0.000835022598039359,-0.0544047951698303,-0.057742889970541,-0.0381502099335194,-0.0525277815759182
611,0.00769357802346349,-0.00209294445812702,-0.0550442263484001,-0.0579943135380745,-0.037847638130188,-0.0510874688625336
612,0.00898280087858438,-0.00205353577621281,-0.0538851842284203,-0.0565857030451298,-0.0369326435029507,-0.0524979308247566
613,0.00942985434085131,-0.00201357551850379,-0.0528324544429779,-0.0556226745247841,-0.0370927862823009,-0.0553199835121632
614,0.00830051768571138,-0.00204675924032927,-0.0529187247157097,-0.0555044002830982,-0.0389528311789036,-0.0561865642666817
615,0.00696027372032404,-0.000989723484963179,-0.0535655990242958,-0.0544483810663223,-0.0413116291165352,-0.051877848803997
616,0.00647843396291137,0.00136294506955892,-0.0535732470452785,-0.0509914383292198,-0.0426671281456947,-0.0434601306915283
617,0.00642942078411579,0.00358543428592384,-0.0525728464126587,-0.0461574234068394,-0.04303989559412,-0.0366919003427029
618,0.00618673441931605,0.00458427611738443,-0.0512968450784683,-0.0423660799860954,-0.0438811928033829,-0.035617433488369
619,0.00578287523239851,0.00485699577257037,-0.0502255223691463,-0.040932334959507,-0.0455510914325714,-0.0382480844855309
620,0.0052067544311285,0.00520787108689547,-0.0495945513248444,-0.0424165837466717,-0.0470588803291321,-0.0406799018383026
621,0.0044372733682394,0.00631018541753292,-0.0498424097895622,-0.0466477386653423,-0.0477597862482071,-0.039847768843174
622,0.00398174673318863,0.00836572982370853,-0.051128763705492,-0.0521918833255768,-0.0474765561521053,-0.0347709357738495
623,0.00501850014552474,0.0107184462249279,-0.0523038543760777,-0.0565890930593014,-0.0454101450741291,-0.0289204996079206
624,0.00785552710294724,0.0123321441933513,-0.0524194575846195,-0.0580639205873013,-0.0417342782020569,-0.026810497045517
625,0.0104408618062735,0.0118138119578362,-0.0528293624520302,-0.0577540844678879,-0.0395307429134846,-0.030311381444335
626,0.0114708077162504,0.00924147665500641,-0.0543866790831089,-0.0572514086961746,-0.0404123663902283,-0.0378132872283459
627,0.0120526934042573,0.00647877342998981,-0.0557060576975346,-0.0563374385237694,-0.0422843731939793,-0.0449343621730804
628,0.0124619835987687,0.0045232935808599,-0.0555827207863331,-0.0545770637691021,-0.0430929139256477,-0.0480308383703232
629,0.0117178773507476,0.00316424900665879,-0.0539452247321606,-0.0515667870640755,-0.0419227406382561,-0.0465484634041786
630,0.00981768220663071,0.00193419121205807,-0.0510176382958889,-0.0473891235888004,-0.0387143939733505,-0.0428854413330555
631,0.0078541599214077,0.000892913492862135,-0.0470845140516758,-0.0427522696554661,-0.034664660692215,-0.0400628075003624
632,0.00682600401341915,0.000749045051634312,-0.0422583669424057,-0.0373312421143055,-0.0301619917154312,-0.0390690453350544
633,0.00670719798654318,0.00112673442345113,-0.0365628041327,-0.0313098691403866,-0.0244330894201994,-0.039698351174593
634,0.00663226330652833,0.000793740444350988,-0.0316092409193516,-0.02748853713274,-0.0193886458873749,-0.0422296784818172
635,0.0062588918954134,0.000313320400891826,-0.0310460720211267,-0.0284499898552895,-0.0196899399161339,-0.0462325774133205
636,0.00572237418964505,0.00102041894569993,-0.0378509536385536,-0.0343731306493282,-0.027898108586669,-0.0510063134133816
637,0.00493812374770641,0.00266441074199975,-0.0506858192384243,-0.0438721254467964,-0.0413769632577896,-0.0563733018934727
638,0.00438342848792672,0.00413498561829329,-0.0635132044553757,-0.054234828799963,-0.0536527037620544,-0.0614455230534077
639,0.00460057612508535,0.00454585114493966,-0.0710179805755615,-0.0626240000128746,-0.060150720179081,-0.0652716010808945
640,0.00544305797666311,0.00385378929786384,-0.073010690510273,-0.0681865662336349,-0.0613084733486176,-0.0673002898693085
641,0.00654430920258164,0.00314213009551167,-0.07258690148592,-0.0721575692296028,-0.0598210655152798,-0.0665729567408562
642,0.00720709329470992,0.00343692349269986,-0.072602391242981,-0.0760074183344841,-0.0581022910773754,-0.0634724870324135
643,0.00696466770023108,0.00425738655030727,-0.0741961076855659,-0.0806382372975349,-0.0573888644576073,-0.0615999847650528
644,0.00664851954206824,0.00504015944898129,-0.0765449702739716,-0.0856739804148674,-0.0573146194219589,-0.0632416158914566
645,0.0068979524075985,0.00618129596114159,-0.0783183798193932,-0.0891781374812126,-0.0574900172650814,-0.0659981891512871
646,0.00712436577305198,0.00783017370849848,-0.0794123113155365,-0.0899162515997887,-0.0583633482456207,-0.0670662373304367
647,0.00659929029643536,0.00915839988738298,-0.0806768462061882,-0.0891723409295082,-0.0601129122078419,-0.0672419667243958
648,0.00542808463796973,0.00920279510319233,-0.0823539346456528,-0.0884770452976227,-0.0621586665511131,-0.0686502382159233
649,0.00499452603980899,0.00866874773055315,-0.0837027728557587,-0.0873258858919144,-0.0637904852628708,-0.0709900632500649
650,0.0057000145316124,0.00834800396114588,-0.0853502601385117,-0.0859265252947807,-0.0662086457014084,-0.0731675028800964
651,0.00624809041619301,0.00766565650701523,-0.0884477198123932,-0.0857818126678467,-0.070705458521843,-0.0756067633628845
652,0.00559604819864035,0.00612494768574834,-0.0922698155045509,-0.0874768495559692,-0.0760001465678215,-0.0792262032628059
653,0.00363891595043242,0.00386708066798747,-0.0956037640571594,-0.0905448645353317,-0.0803248211741447,-0.0833990573883057
654,0.00068825064226985,0.00150381773710251,-0.0983457192778587,-0.0935408845543861,-0.083555705845356,-0.0857428088784218
655,-0.00252872309647501,-4.30369982495904E-05,-0.100089475512505,-0.0944637656211853,-0.0860594436526299,-0.0846166685223579
656,-0.0045997123233974,-0.000463626813143492,-0.0993092283606529,-0.0926768854260445,-0.0866665691137314,-0.0814302563667297
657,-0.00478874472901225,-0.000341252714861184,-0.095804363489151,-0.0897882580757141,-0.0837844833731651,-0.0795480534434319
658,-0.00317832711152732,0.000129945212393068,-0.0910866186022758,-0.0875331237912178,-0.0774870067834854,-0.0807712376117706
659,-0.000426410202635452,0.00103894749190658,-0.0870188698172569,-0.086480475962162,-0.0706088095903397,-0.084298387169838
660,0.0020906925201416,0.00217029708437622,-0.0849766954779625,-0.0864051058888435,-0.0666584521532059,-0.0875751823186874
661,0.00348912179470062,0.00340242148377001,-0.0841991007328033,-0.0858674123883247,-0.0657655671238899,-0.0875587165355682
662,0.00398624362424016,0.00458110682666302,-0.0825159773230553,-0.0832966864109039,-0.0652682334184647,-0.0837055593729019
663,0.00454800482839346,0.00517191644757986,-0.079157643020153,-0.0792101100087166,-0.0634281039237976,-0.0788404867053032
664,0.00570715079084039,0.00507486425340176,-0.0755937919020653,-0.0754858329892159,-0.0613311305642128,-0.0754464641213417
665,0.00725638633593917,0.0052976650185883,-0.0736561939120293,-0.072701208293438,-0.0609323680400848,-0.073265366256237
666,0.00946682225912809,0.00673171225935221,-0.0729453563690186,-0.0692954808473587,-0.0610491223633289,-0.0710510462522507
667,0.0122752711176872,0.00881431810557842,-0.0712854415178299,-0.064292848110199,-0.0578975006937981,-0.0681566968560219
668,0.0144419362768531,0.0102899521589279,-0.0673735067248344,-0.0588771663606167,-0.0507845357060432,-0.0645583271980286
669,0.0149896331131458,0.0105373049154878,-0.0616632588207722,-0.0542180687189102,-0.0434762947261333,-0.0610799863934517
670,0.0140184359624982,0.00976858846843243,-0.0553357526659966,-0.0501217693090439,-0.0392793640494347,-0.0580893494188786
671,0.0120553057640791,0.0086768101900816,-0.0497176647186279,-0.0461168102920055,-0.0389451757073402,-0.0544766411185265
672,0.00913414172828197,0.00746685266494751,-0.0464040674269199,-0.0433043353259563,-0.042056780308485,-0.0502177663147449
673,0.00552408723160625,0.00638196943327785,-0.0459716953337193,-0.0430079326033592,-0.0468991845846176,-0.0470732934772968
674,0.00271886121481657,0.00627159141004086,-0.0467016436159611,-0.0440790541470051,-0.0508266501128674,-0.0462080277502537
675,0.00209114677272737,0.00714529259130359,-0.0463340356945992,-0.0441811494529247,-0.0523334369063377,-0.0470348484814167
676,0.00305402022786438,0.00757639016956091,-0.0444459691643715,-0.0426396317780018,-0.0513966269791126,-0.048248540610075
677,0.0039381911046803,0.00627756537869573,-0.0420119427144527,-0.0404918864369392,-0.048313494771719,-0.0485490188002586
678,0.0037404119502753,0.00366994994692504,-0.0404082946479321,-0.0386693030595779,-0.0446930155158043,-0.0475210696458817
679,0.0029113634955138,0.00181498564779758,-0.039902463555336,-0.0365201607346535,-0.042550228536129,-0.0462076142430305
680,0.00225326605141163,0.00166101404465735,-0.0396488048136234,-0.0336833223700523,-0.0417510196566582,-0.045650526881218
681,0.00127774267457426,0.00131686183158308,-0.0399722084403038,-0.0319670364260674,-0.0410047471523285,-0.0456028543412685
682,-0.000233624086831696,-0.000400941469706595,-0.0413235872983933,-0.0322237648069859,-0.0397383682429791,-0.0441564656794071
683,-0.00184581719804555,-0.00250387960113585,-0.0430400371551514,-0.0331167355179787,-0.039028026163578,-0.0399707034230232
684,-0.00348752620629966,-0.00409528752788901,-0.0438492298126221,-0.0331519059836864,-0.0393273532390594,-0.0336480177938938
685,-0.00478152139112353,-0.00497975759208202,-0.0424818210303783,-0.0318505391478539,-0.0387583039700985,-0.0270538553595543
686,-0.00491883186623454,-0.00509350281208754,-0.0388595424592495,-0.0295495241880417,-0.036080677062273,-0.0223146341741085
687,-0.0040149693377316,-0.00456368317827582,-0.0344735495746136,-0.026727182790637,-0.0328497663140297,-0.0196054503321648
688,-0.00380386784672737,-0.00397487776353955,-0.0315023772418499,-0.0243926700204611,-0.0316574387252331,-0.0179917216300964
689,-0.00523449201136827,-0.00407697539776564,-0.0311969071626663,-0.0240571200847626,-0.0329772606492043,-0.0180628523230553
690,-0.00714273424819112,-0.00509444111958146,-0.033028107136488,-0.0257724951952696,-0.0354316718876362,-0.0202762931585312
691,-0.0089509254321456,-0.00654831854626536,-0.0354859195649624,-0.0277178902179003,-0.0383787602186203,-0.0229602828621864
692,-0.0105232344940305,-0.0074060782790184,-0.0368017330765724,-0.0280562937259674,-0.0410366579890251,-0.0241917911916971
693,-0.0111287254840136,-0.00674684019759297,-0.0356229394674301,-0.026033652946353,-0.0416050888597965,-0.0236463136970997
694,-0.0117124514654279,-0.00536110857501626,-0.0322882458567619,-0.0226980354636908,-0.0397899188101292,-0.0225656386464834
695,-0.0133401975035667,-0.00464846240356565,-0.0284383818507195,-0.0195621196180582,-0.037116851657629,-0.0218636114150286
696,-0.0145664298906922,-0.00447482150048018,-0.0253706928342581,-0.0167615376412869,-0.0341604799032211,-0.020910894498229
697,-0.0131166512146592,-0.00419119047001004,-0.0233381055295467,-0.0142041957005858,-0.0296226497739553,-0.0197596177458763
698,-0.00951331667602062,-0.00443657767027617,-0.0228532254695892,-0.0132819758728147,-0.0235101822763681,-0.0209347866475582
699,-0.00754000525921583,-0.00626476854085922,-0.0249829962849617,-0.0154759353026748,-0.0193260591477156,-0.0259451158344746
700,-0.00869589205831289,-0.00835215765982866,-0.028033284470439,-0.0185271799564362,-0.0195991899818182,-0.0309840682893991
701,-0.0102828862145543,-0.00798864103853703,-0.0280358958989382,-0.0178282000124455,-0.0222079250961542,-0.0301429089158773
702,-0.0105484900996089,-0.00504854833707213,-0.0244026780128479,-0.01204305421561,-0.0247842036187649,-0.022180512547493
703,-0.00998622830957174,-0.00168721086811274,-0.0196506455540657,-0.00357907707802951,-0.0264265593141317,-0.0115915946662426
704,-0.00935317110270262,0.000279299594694749,-0.0154172722250223,0.00415239203721285,-0.0254638902842999,-0.00322146434336901
705,-0.00915892235934734,0.00101153238210827,-0.0120685119181871,0.00905456300824881,-0.0214006546884775,0.00269626919180155
706,-0.00897896289825439,0.0021588031668216,-0.00966211874037981,0.0107470471411943,-0.0158566627651453,0.00725345639511943
707,-0.00896584242582321,0.0035186184104532,-0.00979117304086685,0.00819126050919294,-0.0123859168961644,0.0077007575891912
708,-0.0101172858849168,0.00384624302387238,-0.0136843882501125,0.00154729711357504,-0.0134829943999648,0.00242466083727777
709,-0.0117948753759265,0.00347724254243076,-0.01861253939569,-0.00549997529014945,-0.0159267485141754,-0.00477499794214964
710,-0.0124549167230725,0.00303580448962748,-0.0209199618548155,-0.00957490317523479,-0.0155187668278813,-0.00969950016587973
711,-0.0120143620297313,0.00252003595232964,-0.0203481148928404,-0.0107200760394335,-0.0136054949834943,-0.0110591305419803
712,-0.0113374572247267,0.00201956578530371,-0.0192285776138306,-0.0109690353274345,-0.0141211478039622,-0.00964607670903206
713,-0.0103647895157337,0.00209612236358225,-0.0189260169863701,-0.0112671218812466,-0.0176647342741489,-0.0070230346173048
714,-0.00895318388938904,0.00246689887717366,-0.0194697082042694,-0.0113559002056718,-0.0217337217181921,-0.00480203237384558
715,-0.00790106225758791,0.00149739137850702,-0.0214001834392548,-0.0114889722317457,-0.0245453845709562,-0.0042837425135076
716,-0.00787766464054585,-0.0016490911366418,-0.0249021165072918,-0.0121137388050556,-0.0269037429243326,-0.00491159921512008
717,-0.00869909953325987,-0.00541316717863083,-0.0283302776515484,-0.0128830950707197,-0.0303524229675531,-0.00434367544949055
718,-0.0098285349085927,-0.00739778392016888,-0.0297825373709202,-0.0128861889243126,-0.0338745638728142,-0.00186759303323925
719,-0.0107189733535051,-0.00671184342354536,-0.0292651765048504,-0.0116043267771602,-0.0356216244399548,0.000617258308921009
720,-0.0106738340109587,-0.00423824274912477,-0.0278200581669807,-0.00980524718761444,-0.0348786562681198,0.00080982013605535
721,-0.0102763213217258,-0.00125726312398911,-0.0262339971959591,-0.00873288698494434,-0.0316569022834301,-0.00138180144131184
722,-0.0104393595829606,0.00239864224568009,-0.0238637588918209,-0.00702637620270252,-0.0268485303968191,-0.00212685600854456
723,-0.0102651854977012,0.00673038372769952,-0.0193220302462578,-0.00264238030649722,-0.0216949339956045,0.00112736609298736
724,-0.00910433195531368,0.00957017578184605,-0.0137817515060306,0.00260258559137583,-0.018772317096591,0.00549848424270749
725,-0.00783459842205048,0.00946415215730667,-0.0104299196973443,0.00498244725167751,-0.0207432303577662,0.00729572493582964
726,-0.00728342542424798,0.00776257971301675,-0.0108720576390624,0.0033388938754797,-0.0266129281371832,0.0057046189904213
727,-0.00728285452350974,0.00628736987709999,-0.0141540849581361,-0.000543027126695961,-0.0326604880392551,0.00178713421337307
728,-0.00743523007258773,0.00520274322479963,-0.0184542331844568,-0.00444015953689814,-0.036521703004837,-0.00238802889361978
729,-0.00763648888096213,0.00430175615474582,-0.0220395438373089,-0.00622604973614216,-0.0380040109157562,-0.00335658085532486
730,-0.00767585076391697,0.00408563343808055,-0.0238742176443338,-0.0048466338776052,-0.0376246236264706,0.000311344978399575
731,-0.00791187305003405,0.00426082313060761,-0.0249187853187323,-0.00270954798907042,-0.0366936922073364,0.00474134320393205
732,-0.00827900692820549,0.0044999192468822,-0.0260588768869638,-0.0026872381567955,-0.0356222428381443,0.0063497144728899
733,-0.00754542369395494,0.00557964900508523,-0.0260068234056234,-0.00399769004434347,-0.0326129458844662,0.00675367470830679
734,-0.00565147353336215,0.00732917943969369,-0.0237702336162329,-0.00464789196848869,-0.0262811724096537,0.00807489827275276
735,-0.00354805286042392,0.0088221738114953,-0.0199696179479361,-0.00397361814975739,-0.0176815260201693,0.00932654272764921
736,-0.00175604782998562,0.0096003720536828,-0.0161569230258465,-0.00248149503022432,-0.0100771421566606,0.00861737411469221
737,-0.000545000017154962,0.00940523017197847,-0.0138350427150726,-0.00142747117206454,-0.00658424105495214,0.00560701591894031
738,0.000320736260619015,0.00883088074624538,-0.0129652200266719,-0.00138845352921635,-0.00756849441677332,0.0022334698587656
739,0.00134217634331435,0.00874960515648127,-0.0125506622716784,-0.00238655065186322,-0.0104589564725757,-9.21585433388827E-06
740,0.00292837736196816,0.00981266144663095,-0.011631821282208,-0.00369579414837062,-0.012091763317585,-0.000440943811554462
741,0.00528117176145315,0.0125464610755444,-0.00988979265093803,-0.00353693775832653,-0.0114586101844907,0.00231131375767291
742,0.00738008134067059,0.0152567923069,-0.0085500730201602,-0.0022577615454793,-0.0093337120488286,0.00642277533188462
743,0.00843521393835545,0.0153694748878479,-0.00840601790696383,-0.00192068738397211,-0.00599590828642249,0.00810798350721598
744,0.00891088414937258,0.0127398241311312,-0.00883474666625261,-0.00295266485773027,-0.00240741251036525,0.00694662146270275
745,0.00893957354128361,0.00914858933538198,-0.00991580635309219,-0.00447417749091983,-0.00136493053287268,0.00482509378343821
746,0.00841762311756611,0.00657692272216082,-0.0123963980004191,-0.0056507708504796,-0.00423159915953875,0.00377740385010839
747,0.00763302249833941,0.00561630912125111,-0.0157970041036606,-0.00634212605655193,-0.00870957132428885,0.00385338650085032
748,0.00703212851658463,0.0052114836871624,-0.0182947833091021,-0.0072602229192853,-0.010926959104836,0.00221836240962148
749,0.00695354444906116,0.00460846303030849,-0.0182372890412807,-0.00885810982435942,-0.00933943968266249,-0.0027314315084368
750,0.00741719780489802,0.00393659854307771,-0.0153254028409719,-0.0109170917421579,-0.00608142744749784,-0.00993636716157198
751,0.0084830466657877,0.00362422503530979,-0.0107707502320409,-0.0131091754883528,-0.00345351779833436,-0.0172132831066847
752,0.00972413551062346,0.00359160476364195,-0.00683293398469687,-0.0154726663604379,-0.001511674025096,-0.0216102842241526
753,0.010054474696517,0.0028678011149168,-0.00542520172894001,-0.0179778635501862,-0.000217899782001041,-0.0214407499879599
754,0.00977127905935049,0.00183314690366387,-0.00603399472311139,-0.0193336624652147,-9.86398590612225E-05,-0.0170941315591335
755,0.00966127309948206,0.00139895337633789,-0.00741388741880655,-0.0193208251148462,-0.00176167336758226,-0.0110798515379429
756,0.00940627325326204,0.00104280968662351,-0.00971549563109875,-0.0194802526384592,-0.00528998346999288,-0.00671765441074967
757,0.00950969476252794,0.00136345601640642,-0.0120268613100052,-0.0186118315905333,-0.00863890629261732,-0.00431605707854033
758,0.010656557045877,0.00334502733312547,-0.0131999468430877,-0.0144657986238599,-0.0105203818529844,-0.0026906852144748
759,0.0116336001083255,0.00530090741813183,-0.0140005052089691,-0.00925679598003626,-0.0120574263855815,-0.00291964178904891
760,0.0121220797300339,0.00624308921396732,-0.0135868787765503,-0.00590684590861201,-0.0120728518813849,-0.00514193950220943
761,0.0134418001398444,0.00754092494025826,-0.0103915361687541,-0.00427873525768518,-0.00844790227711201,-0.00669449102133513
762,0.0152166159823537,0.00948236882686615,-0.00613204855471849,-0.00443869968876243,-0.00281682005152106,-0.00619158707559109
763,0.0160750858485699,0.0116034410893917,-0.00308250519447029,-0.00652898335829377,0.00189378461800516,-0.00410172110423446
764,0.0160742681473494,0.0140407690778375,-0.00119294773321599,-0.00911780726164579,0.00480972323566675,-0.000934495532419533
765,0.0162059664726257,0.0163610279560089,0.000548902899026871,-0.0108081474900246,0.00674634240567684,0.00301285670138896
766,0.0163927301764488,0.017177427187562,0.0021414584480226,-0.0112801995128393,0.00770231056958437,0.0073827151209116
767,0.015405960381031,0.0159284621477127,0.00235246028751135,-0.0106794266030192,0.00591787043958902,0.011348876170814
768,0.0133000761270523,0.014012074097991,0.00051274400902912,-0.0091339685022831,0.000676656665746123,0.0136503092944622
769,0.0121652130037546,0.0133225005120039,-0.00161946029402316,-0.00614631082862616,-0.00538118928670883,0.013612731359899
770,0.0127087337896228,0.0136423278599977,-0.00210308516398072,-0.00176459539216012,-0.00926281325519085,0.0114164538681507
771,0.0136482836678624,0.013285843655467,-0.00103282218333334,0.00231455569155514,-0.0103729972615838,0.00765325268730521
772,0.0147809563204646,0.0124108642339706,0.0010634622303769,0.00509625114500523,-0.00912577658891678,0.00358898751437664
773,0.0155102601274848,0.0114285415038466,0.00255431141704321,0.00537703093141317,-0.00726487208157778,-0.000675172719638795
774,0.0142817040905356,0.00980428420007229,0.00141639541834593,0.00180693541187793,-0.00701582012698054,-0.00561180245131254
775,0.0113538419827819,0.00816721469163895,-0.00214369455352426,-0.00455791549757123,-0.00844989158213139,-0.00951710715889931
776,0.00873395614326,0.00782227423042059,-0.00619359267875552,-0.0114159965887666,-0.00979836005717516,-0.00954830832779408
777,0.00791128352284431,0.00897503178566694,-0.0088868560269475,-0.0165070202201605,-0.00965452846139669,-0.00558598712086678
778,0.00902571249753237,0.0106283454224467,-0.00979717634618282,-0.0185846462845802,-0.00789379142224789,-0.00129753409419209
779,0.0119549045339227,0.0124415652826428,-0.0094499671831727,-0.0176968779414892,-0.00509128905832767,0.000788865785580128
780,0.0151558965444565,0.0135728139430285,-0.00906218588352203,-0.0156663041561842,-0.00304522388614714,0.000221695489017293
781,0.0163617562502623,0.0122598251327872,-0.00929389894008636,-0.0150368539616466,-0.00299141719006002,-0.00327029242180288
782,0.0162444710731506,0.00939758308231831,-0.00869341380894184,-0.0155080361291766,-0.00321438396349549,-0.00820511300116777
783,0.0161588247865438,0.00710514653474092,-0.00672145467251539,-0.0151112154126167,-0.00220136507414281,-0.0130402268841863
784,0.0152875352650881,0.00537639111280441,-0.0051888725720346,-0.0135643370449543,-0.000837010040413588,-0.0177548434585333
785,0.013107530772686,0.00368990818969905,-0.00507030030712485,-0.0115910926833749,-5.72529461351223E-05,-0.0214051157236099
786,0.0108133079484105,0.00241303653456271,-0.00566155603155494,-0.00983877759426832,0.00038026476977393,-0.0229632686823606
787,0.0100596398115158,0.00199618469923735,-0.0059238588437438,-0.00861021131277084,0.00121948320884258,-0.0225217081606388
788,0.0108306687325239,0.00173364614602178,-0.00580062763765454,-0.00824060570448637,0.0019890854600817,-0.0206035319715738
789,0.0116233797743917,0.00073094799881801,-0.00606559496372938,-0.00946457777172327,0.00124569854233414,-0.0183077175170183
790,0.0115432878956199,-0.000548253010492772,-0.00679151341319084,-0.0122731011360884,-0.00114699359983206,-0.0166026279330254
791,0.0106613384559751,-0.00153063458856195,-0.00751602835953236,-0.015599824488163,-0.00379420770332217,-0.0161514896899462
792,0.0099216066300869,-0.00138616014737636,-0.00737419817596674,-0.0171714555472136,-0.00463737780228257,-0.0168443862348795
793,0.0098763033747673,0.000403738638851792,-0.00603225082159042,-0.0156424529850483,-0.00318081048317254,-0.0184331033378839
794,0.01012665592134,0.00253851292654872,-0.00426948443055153,-0.0131592350080609,-0.000703239173162729,-0.0220564939081669
795,0.0102085424587131,0.00314308190718293,-0.0029157733079046,-0.012586927972734,0.00177836033981293,-0.0281966533511877
796,0.00917951203882694,0.00152991118375212,-0.00302039412781596,-0.0143729001283646,0.00292622321285307,-0.03340994566679
797,0.00692134536802769,-0.000906105211470276,-0.00481076119467616,-0.0172599665820599,0.00226166239008307,-0.0323593951761723
798,0.00438616005703807,-0.00279555493034422,-0.00737227825447917,-0.0207211002707481,0.00101684220135212,-0.0253932774066925
799,0.00215894705615938,-0.00393431959673762,-0.00964807067066431,-0.0244435276836157,9.63972925092094E-05,-0.0181669779121876
800,0.000689790351316333,-0.00372476829215884,-0.0107364151626825,-0.0265080146491528,-0.00031614163890481,-0.0133697716519237
801,-0.000649494293611497,-0.00245605502277613,-0.0112263122573495,-0.0262980088591576,-0.00119035691022873,-0.0106887398287654
802,-0.00271648215129972,-0.00143568171188235,-0.0120345233008266,-0.025803430005908,-0.00382375996559858,-0.010265558026731
803,-0.00447535328567028,-0.0011593863600865,-0.0122356750071049,-0.0262190867215395,-0.00694553786888719,-0.0119693446904421
804,-0.00463914591819048,-0.00154989305883646,-0.0109874811023474,-0.0268797613680363,-0.00822051800787449,-0.0147759672254324
805,-0.00340078771114349,-0.00228378968313336,-0.00870444066822529,-0.0266989320516586,-0.00755131244659424,-0.0168736651539803
806,-0.00106396526098251,-0.00217893300577998,-0.00525930617004633,-0.0245434902608395,-0.00575303751975298,-0.0158160086721182
807,0.00159044074825943,-0.000948542554397136,-0.00118763628415763,-0.0206058640033007,-0.00393217615783215,-0.0117293847724795
808,0.00284370663575828,-0.000302252476103604,0.00150974420830607,-0.0165742076933384,-0.00325284642167389,-0.00828756205737591
809,0.00178949953988194,-0.00156720250379294,0.00124897225759923,-0.0138181922957301,-0.00398909579962492,-0.00854481942951679
810,-0.000751235347706825,-0.00396840600296855,-0.0015014597447589,-0.0124081736430526,-0.0055887964554131,-0.012503064237535
811,-0.00277279689908028,-0.00584225868806243,-0.00429056771099567,-0.0111754098907113,-0.00662194844335318,-0.0179035719484091
812,-0.00351771409623325,-0.00687686400488019,-0.00582491746172309,-0.00981446355581284,-0.0065473010763526,-0.0226334650069475
813,-0.00363081251271069,-0.00760746281594038,-0.00660484656691551,-0.00954463053494692,-0.00598663976415992,-0.026111014187336
814,-0.00340139213949442,-0.00850954651832581,-0.0074281170964241,-0.0119953518733382,-0.0057549555785954,-0.0297014079988003
815,-0.00267745205201209,-0.00972856674343348,-0.00820550415664911,-0.016921628266573,-0.00605890806764364,-0.0344125144183636
816,-0.00270210672169924,-0.0116297518834472,-0.00863598939031363,-0.022469175979495,-0.00705532869324088,-0.0395653434097767
817,-0.00489148497581482,-0.0138951232656837,-0.00925289653241634,-0.0270909070968628,-0.00927293673157692,-0.0421794168651104
818,-0.00810220837593079,-0.0147143127396703,-0.0103867845609784,-0.0298721641302109,-0.0121600218117237,-0.0374920219182968
819,-0.0106591712683439,-0.013804011978209,-0.0117093659937382,-0.0311450529843569,-0.0142263742163777,-0.0265300963073969
820,-0.0119314361363649,-0.0125703848898411,-0.0122002102434635,-0.0308666378259659,-0.0140222953632474,-0.016093323007226
821,-0.0122044393792748,-0.0116527704522014,-0.0115756280720234,-0.0285330694168806,-0.0118745062500238,-0.010160630568862
822,-0.0124875167384744,-0.0110884085297585,-0.0111640719696879,-0.0256766062229872,-0.0101954136043787,-0.00888124015182257
823,-0.0128946779295802,-0.0107057383283973,-0.0113279232755303,-0.0237005837261677,-0.0103534879162908,-0.0107146808877587
824,-0.0129117676988244,-0.00992006808519363,-0.0108496677130461,-0.0211713928729296,-0.0114132640883327,-0.0129690617322922
825,-0.0129851447418332,-0.00899400748312473,-0.00953396502882242,-0.0174302607774735,-0.0120435860008001,-0.0143412845209241
826,-0.0128575935959816,-0.00836569722741842,-0.00731930742040277,-0.0135374227538705,-0.0107122147455812,-0.0150643503293395
827,-0.0116541143506765,-0.00783184077590704,-0.00437933159992099,-0.010218539275229,-0.00787332840263844,-0.0154025554656982
828,-0.0101163228973746,-0.00760255986824632,-0.00254447548650205,-0.00823594722896814,-0.0073131020180881,-0.0152437081560493
829,-0.00949003268033266,-0.00819259695708752,-0.00241188984364271,-0.00766244623810053,-0.0100903697311878,-0.0140482569113374
830,-0.00953154917806387,-0.00950746890157461,-0.00243281992152333,-0.00686288299039006,-0.0125217698514462,-0.0119376704096794
831,-0.00915785878896713,-0.0103763258084655,-0.0015348547603935,-0.00404498493298888,-0.0122120101004839,-0.0092829205095768
832,-0.00813832134008408,-0.0100235529243946,0.000223764785914682,-0.000470174563815817,-0.00995759572833776,-0.00656784186139703
833,-0.00680111534893513,-0.00929872505366802,0.00259179691784084,0.000762774609029293,-0.0065755806863308,-0.00601729657500982
834,-0.00536134606227279,-0.00908609293401241,0.00474609481170774,-0.00066983827855438,-0.0030433489009738,-0.00971158128231764
835,-0.00391768664121628,-0.00892283301800489,0.00555787701159716,-0.00232636905275285,-0.00122623681090772,-0.0160853546112776
836,-0.00235357624478638,-0.00807331968098879,0.00504489010199904,-0.00311326584778726,-0.00145520176738501,-0.0216873921453953
837,-0.00108900084160268,-0.00652266852557659,0.00395185919478536,-0.00402435939759016,-0.00291420822031796,-0.0235976409167051
838,-0.00115511228796095,-0.00516925426200032,0.00287207774817944,-0.0057188905775547,-0.0050357710570097,-0.0204239133745432
839,-0.00243559246882796,-0.00465791905298829,0.00251647783443332,-0.00767165422439575,-0.00725290924310684,-0.0148627944290638
840,-0.00381535408087075,-0.00422646384686232,0.00267012789845467,-0.00899347569793463,-0.0102022392675281,-0.0115386545658112
841,-0.00496138539165258,-0.00374230090528727,0.00203547324053943,-0.00966729409992695,-0.0141195561736822,-0.0121743204072118
842,-0.00585989141836762,-0.00363690895028412,0.000447295489721,-0.00980912614613771,-0.0175165273249149,-0.0148709295317531
843,-0.00637482712045312,-0.00379465380683541,-0.0013246078742668,-0.00948227196931839,-0.0197375528514385,-0.0178081300109625
844,-0.00684852246195078,-0.00501731177791953,-0.0030241240747273,-0.00990649498999119,-0.0213892515748739,-0.0224089343100786
845,-0.00698282103985548,-0.00704987114295363,-0.00414148438721895,-0.0115084182471037,-0.0225817710161209,-0.0285780187696218
846,-0.00611134059727192,-0.00800936389714479,-0.00470623839646578,-0.0135940155014396,-0.0230604913085699,-0.033389013260603
847,-0.00498748943209648,-0.00792377255856991,-0.00598847167566419,-0.0155951892957091,-0.0234791301190853,-0.0365808457136154
848,-0.00471592182293534,-0.00802576169371605,-0.00835530646145344,-0.0167042631655931,-0.0248287227004766,-0.0396762937307358
849,-0.00522249331697822,-0.00852775014936924,-0.0115009881556034,-0.0179364047944546,-0.0278867240995169,-0.0434418953955173
850,-0.00593571737408638,-0.00922614615410566,-0.0162494648247957,-0.0220018792897463,-0.0330616906285286,-0.0484540984034538
851,-0.00599651178345084,-0.010015114210546,-0.0227762460708618,-0.0296752490103245,-0.0384121797978878,-0.0552493073046207
852,-0.00445066345855594,-0.0102686770260334,-0.0293091181665659,-0.0386612415313721,-0.0416545011103153,-0.0628615170717239
853,-0.00198133615776896,-0.009563441388309,-0.0348421074450016,-0.0460253804922104,-0.0438558608293533,-0.0690537691116333
854,-0.00035732687683776,-0.00886356644332409,-0.0394340232014656,-0.0508551262319088,-0.0465425401926041,-0.0745447874069214
855,-0.000503202085383236,-0.00994653534144163,-0.0425640270113945,-0.0543682053685188,-0.0496493019163609,-0.0846116244792938
856,-0.00279211858287454,-0.0131846703588963,-0.0448810197412968,-0.0572553724050522,-0.0544732324779034,-0.100978493690491
857,-0.00656724395230412,-0.0160949062556028,-0.0483844578266144,-0.0583269447088242,-0.0626371800899506,-0.116382338106632
858,-0.00934302341192961,-0.0167267061769962,-0.0528423227369785,-0.0578771159052849,-0.0713084042072296,-0.125043004751205
859,-0.0102417161688209,-0.0155402775853872,-0.0567198432981968,-0.0573881417512894,-0.0780483186244965,-0.1268050968647
860,-0.0109885847195983,-0.0134186819195747,-0.0605258345603943,-0.0580803826451302,-0.0844708755612373,-0.122206851840019
861,-0.0117687648162246,-0.0115567250177264,-0.0657806769013405,-0.0627963095903397,-0.0897674337029457,-0.115137591958046
862,-0.011459793895483,-0.0103107634931803,-0.0725545808672905,-0.071944922208786,-0.09212327003479,-0.110044345259666
863,-0.010081727989018,-0.008797412738204,-0.0790001899003983,-0.082036018371582,-0.0926967039704323,-0.107503227889538
864,-0.00794574990868568,-0.00656636757776141,-0.0831812396645546,-0.0899598076939583,-0.092782087624073,-0.10688067227602
865,-0.00534413242712617,-0.00386971281841397,-0.0847902372479439,-0.094143807888031,-0.0926676243543625,-0.107687242329121
866,-0.0036149846855551,-0.0020226335618645,-0.0854782238602638,-0.0952564105391502,-0.0935673266649246,-0.110783368349075
867,-0.00353998108766973,-0.00166914926376194,-0.0865162163972855,-0.0942899882793427,-0.0968338921666145,-0.116661079227924
868,-0.00435927463695407,-0.001904655713588,-0.0875636413693428,-0.0910158380866051,-0.102240547537804,-0.123556278645992
869,-0.00568219507113099,-0.00250400300137699,-0.088662676513195,-0.0860808789730072,-0.10831443965435,-0.130196735262871
870,-0.00718760443851352,-0.00365298916585743,-0.0897859036922455,-0.0814162641763687,-0.11208937317133,-0.136578857898712
871,-0.00675295013934374,-0.00420326367020607,-0.0894167572259903,-0.0789629742503166,-0.110816068947315,-0.141570582985878
872,-0.00343092693947256,-0.00285298423841596,-0.0883371159434319,-0.0804601162672043,-0.107601530849934,-0.143036410212517
873,-0.000217702880036086,-0.000199181944481097,-0.0906629338860512,-0.0870750546455383,-0.109699942171574,-0.141648650169373
874,0.000936185126192868,0.00276137725450099,-0.0968317463994026,-0.0970182046294212,-0.118014007806778,-0.140126451849937
875,0.000790157122537494,0.00484223011881113,-0.10325001180172,-0.106875956058502,-0.126921147108078,-0.140189796686172
876,3.48758271684346E-06,0.00453641824424267,-0.106971479952335,-0.114247672259808,-0.131820395588875,-0.142469674348831
877,-0.000899523729458451,0.00188471970614046,-0.107006341218948,-0.118069760501385,-0.131280705332756,-0.14692097902298
878,-0.000720661075320095,-0.00158882734831423,-0.103971987962723,-0.118246719241142,-0.125547766685486,-0.152509719133377
879,0.00147415604442358,-0.00442026555538177,-0.0990747436881065,-0.115847177803516,-0.116062194108963,-0.156992897391319
880,0.00428821099922061,-0.00654060952365398,-0.0942036807537079,-0.113459743559361,-0.106377750635147,-0.158045127987862
881,0.00563438842073083,-0.0087845753878355,-0.0907393842935562,-0.112415507435799,-0.0999068170785904,-0.155165657401085
882,0.00497366394847631,-0.0116542251780629,-0.0886867567896843,-0.111731074750423,-0.097210668027401,-0.150350108742714
883,0.00323984608985484,-0.0139671172946692,-0.0867911577224731,-0.109914317727089,-0.0958158299326897,-0.145231395959854
884,0.00164268771186471,-0.0142363058403134,-0.0832978636026382,-0.107101768255234,-0.0927875563502312,-0.140371322631836
885,0.000733120599761605,-0.0129212914034724,-0.0781382098793983,-0.10475117713213,-0.0881755352020264,-0.135562419891357
886,0.00111538171768188,-0.0112664122134447,-0.072778731584549,-0.102841235697269,-0.084187850356102,-0.12968148291111
887,0.00309579586610198,-0.00928154774010181,-0.0677316188812256,-0.099497564136982,-0.0809384509921074,-0.122495748102665
888,0.00523192388936877,-0.00693175150081515,-0.0625649690628052,-0.094120942056179,-0.075285829603672,-0.116067357361317
889,0.00555443251505494,-0.00612970534712076,-0.0575884990394115,-0.0893140137195587,-0.0659048855304718,-0.113995052874088
890,0.00505486782640219,-0.00780409574508667,-0.0527004450559616,-0.0868012458086014,-0.0548676215112209,-0.11643385887146
891,0.00576052814722061,-0.0105961663648486,-0.0475768335163593,-0.0848281532526016,-0.0445358864963055,-0.118283927440643
892,0.00732080638408661,-0.0125543279573321,-0.0424628704786301,-0.0803577229380608,-0.0355566218495369,-0.11420102417469
893,0.00876111723482609,-0.0121855167672038,-0.0373970083892345,-0.0723992064595222,-0.0276212058961391,-0.104250282049179
894,0.00887450855225325,-0.0102381287142634,-0.0334124267101288,-0.064054474234581,-0.0226452387869358,-0.0934247002005577
895,0.00680115353316069,-0.00843903049826622,-0.031439270824194,-0.0583693943917751,-0.0221971869468689,-0.0853036940097809
896,0.00294510321691632,-0.00728832744061947,-0.0300593171268702,-0.0546030551195145,-0.0252358764410019,-0.0794273391366005
897,-0.0014018282527104,-0.00607758946716785,-0.0264889746904373,-0.0502967275679111,-0.0291178170591593,-0.0734576433897018
898,-0.00383992283605039,-0.00383533677086234,-0.0193986780941486,-0.0443470627069473,-0.0300062298774719,-0.0655706077814102
899,-0.00378070143051445,-0.001139274565503,-0.0111468993127346,-0.0381308533251286,-0.0271721240133047,-0.0558948405086994
900,-0.00267737056128681,0.00106772407889366,-0.00459834467619658,-0.0326733142137527,-0.0227334946393967,-0.0448834598064423
901,-0.0011749091790989,0.00273311953060329,0.000366619497071952,-0.0275390464812517,-0.0177241284400225,-0.0328406468033791
902,-0.000189628393854946,0.00274279876612127,0.00396714359521866,-0.0242184195667505,-0.0136504704132676,-0.0224221218377352
903,-0.000662920530885458,0.000488638295792043,0.00573626812547445,-0.0239123962819576,-0.0119758918881416,-0.0158081855624914
904,-0.00186064396984875,-0.00228311470709741,0.00722919078543782,-0.0237708706408739,-0.0113501353189349,-0.0116432402282953
905,-0.00274363486096263,-0.00426368322223425,0.0101173156872392,-0.0214829929172993,-0.00986682996153831,-0.00874966289848089
906,-0.00288004474714398,-0.00544031942263246,0.0137998107820749,-0.0179350432008505,-0.00712929898872972,-0.00726137962192297
907,-0.00258221570402384,-0.00601096265017986,0.0167032219469547,-0.0140161756426096,-0.00341477734036744,-0.00629476690664887
908,-0.00309964898042381,-0.00684668077155948,0.0178077965974808,-0.010143575258553,0.000402253499487415,-0.00468433788046241
909,-0.00467428658157587,-0.00835189502686262,0.0179968904703856,-0.00642387196421623,0.00402660993859172,-0.00205615605227649
910,-0.00606474885717034,-0.0097281513735652,0.0190642420202494,-0.00254127499647439,0.00828089937567711,0.000606119050644338
911,-0.00681899441406131,-0.0108812972903252,0.0205959491431713,0.000897651130799204,0.0124796060845256,0.00127391284331679
912,-0.00758406380191445,-0.0123060559853911,0.0216306895017624,0.00365183665417135,0.0151399467140436,0.000464955228380859
913,-0.0083772661164403,-0.0133549859747291,0.0237865578383207,0.00717929471284151,0.0170496124774218,0.00245383707806468
914,-0.00861838646233082,-0.0128314010798931,0.0285246446728706,0.0127966394647956,0.0196341127157211,0.0102512184530497
915,-0.00871029775589705,-0.0108518451452255,0.0341803766787052,0.0194420218467712,0.0224089939147234,0.0218324903398752
916,-0.00977400224655867,-0.00880639348179102,0.0381738692522049,0.0244785435497761,0.0240175612270832,0.0334121026098728
917,-0.011429694481194,-0.0073978709988296,0.0406227856874466,0.0272691678255796,0.0250498596578836,0.042917650192976
918,-0.0112908594310284,-0.00535208126530051,0.0445778295397758,0.0305949971079826,0.0284052435308695,0.0504747554659843
919,-0.00851013138890266,-0.0016339315334335,0.05156185105443,0.03647505864501,0.0348721444606781,0.0569617077708244
920,-0.00533288205042481,0.00196523289196193,0.0588187947869301,0.0425921864807606,0.0414845645427704,0.0612819045782089
921,-0.0037247589789331,0.00325704994611442,0.0631615817546844,0.046358797699213,0.0460140109062195,0.0624281540513039
922,-0.00397415598854423,0.00235147681087255,0.064324289560318,0.0483172833919525,0.0488419905304909,0.0620541274547577
923,-0.00617255736142397,0.000194744265172631,0.0629282221198082,0.0487964153289795,0.0499201044440269,0.0615912042558193
924,-0.00884535349905491,-0.00144608470145613,0.060602605342865,0.0478926338255405,0.0495220199227333,0.0623017884790897
925,-0.00945752114057541,-0.000846287875901908,0.060809139162302,0.047590360045433,0.0500981211662292,0.065756693482399
926,-0.00816196482628584,0.0010427157394588,0.064596101641655,0.0487973056733608,0.0526650734245777,0.0706628710031509
927,-0.00726627372205257,0.00215610186569393,0.068943664431572,0.0498908869922161,0.0547570884227753,0.0743034482002258
928,-0.00874136295169592,0.00141918810550123,0.0701489076018333,0.0488859117031097,0.0531041622161865,0.0755204111337662
929,-0.0119770355522633,-0.000557052029762417,0.0678791776299477,0.045996330678463,0.0481223352253437,0.0743157267570496
930,-0.0143621833994985,-0.00238530850037932,0.0650199875235558,0.0437362119555473,0.0439288802444935,0.0714941248297691
931,-0.0139904459938407,-0.00288331438787282,0.0642993003129959,0.0449308231472969,0.0436988919973373,0.0698114112019539
932,-0.0114760939031839,-0.00199346360750496,0.0655537545681,0.0495670884847641,0.0464414246380329,0.0712320357561111
933,-0.00886297971010208,-0.000861836713738739,0.0671447739005089,0.0548487640917301,0.049558948725462,0.0746079683303833
934,-0.00650448817759752,0.000117315001261886,0.0694217905402184,0.0589847415685654,0.0529686212539673,0.0774468332529068
935,-0.00411671446636319,0.000929485482629389,0.0729839280247688,0.061675813049078,0.0570457428693771,0.0776623412966728
936,-0.0025184964761138,0.00116488593630493,0.0764413177967072,0.0633440613746643,0.0604309588670731,0.0757144764065742
937,-0.00253677438013256,0.000813193677458912,0.0781022533774376,0.0644887164235115,0.0617490410804749,0.0738042816519737
938,-0.00355569552630186,0.000515290070325136,0.0783114805817604,0.0649530291557312,0.0617806687951088,0.0741336047649384
939,-0.00417754705995321,0.000649794354103506,0.0782057121396065,0.0645862817764282,0.0621532872319222,0.0774048119783401
940,-0.00431116996333003,0.00105348357465118,0.0775866806507111,0.0639832466840744,0.0626469179987907,0.0815565809607506
941,-0.0043738572858274,0.00182294368278235,0.0766167417168617,0.0646505281329155,0.0631761401891708,0.0848563238978386
942,-0.00447570020332932,0.00226454599760473,0.0760305151343346,0.0671075284481049,0.0646478235721588,0.0865512043237686
943,-0.00510796951130033,0.00117179926019162,0.0761238560080528,0.0701675713062286,0.0666185095906258,0.0850957110524178
944,-0.00610141875222325,-0.000632017035968602,0.0776236727833748,0.0729694366455078,0.0679192543029785,0.0806900709867477
945,-0.00678424024954438,-0.00158751977141947,0.0805212631821632,0.0749878585338593,0.0680492669343948,0.0757215246558189
946,-0.00712415250018239,-0.00163462606724352,0.0832747966051102,0.0759239420294762,0.0673615038394928,0.0720909610390663
947,-0.00728753767907619,-0.000944596948102117,0.0847644954919815,0.0766467303037643,0.0667909234762192,0.0716415271162987
948,-0.00752202747389674,0.000198622772586532,0.0849755704402924,0.0776965692639351,0.0666498839855194,0.0749610736966133
949,-0.00861584395170212,0.000317953963531181,0.0836727470159531,0.0776687636971474,0.0660432577133179,0.0790955200791359
950,-0.0104297799989581,-0.000634633703157306,0.0812251195311546,0.075903095304966,0.0651003569364548,0.0820152014493942
951,-0.0118179693818092,-0.00163447030354291,0.0787038579583168,0.0727628991007805,0.0649761185050011,0.0837283134460449
952,-0.0121165262535214,-0.00269315647892654,0.0766707882285118,0.0686402693390846,0.0655587390065193,0.0840265825390816
953,-0.011872973293066,-0.00396592868492007,0.0749399736523628,0.0649707317352295,0.0655409544706345,0.0833138227462769
954,-0.0118493819609284,-0.00514108408242464,0.0730575919151306,0.0635860785841942,0.0644678175449371,0.0820885226130486
955,-0.0108113083988428,-0.00497214309871197,0.0721692964434624,0.0661245882511139,0.0641573220491409,0.0807602256536484
956,-0.00845341663807631,-0.00377144245430827,0.0727077275514603,0.0711680203676224,0.0649587661027908,0.0788110792636871
957,-0.00672696297988296,-0.00339344330132008,0.0731404274702072,0.0749231800436974,0.0650453492999077,0.0759923234581947
958,-0.00664954399690032,-0.00412353221327066,0.0727885589003563,0.0755730867385864,0.063946045935154,0.0735123828053474
959,-0.00759374629706144,-0.0050458125770092,0.0722356885671616,0.0736307799816132,0.062625527381897,0.0723895952105522
960,-0.00805133767426014,-0.00508254719898105,0.072111003100872,0.0707943066954613,0.0622156970202923,0.0733845233917236
961,-0.00744651444256306,-0.00440554600208998,0.0717460066080093,0.0678363591432571,0.0630464926362038,0.07524823397398
962,-0.0061331745237112,-0.00425793416798115,0.070528157055378,0.0646596848964691,0.0654344707727432,0.075096569955349
963,-0.00453834095969796,-0.00485910708084702,0.0687777772545815,0.0623891428112984,0.068683385848999,0.0727105140686035
964,-0.00369042879901826,-0.00559517601504922,0.066482275724411,0.0621704421937466,0.0702925771474838,0.0700987279415131
965,-0.00352169224061072,-0.00541003467515111,0.0642037242650986,0.0643707439303398,0.0696084946393967,0.0693308934569359
966,-0.00242886156775057,-0.00314785027876496,0.0633374974131584,0.0692117288708687,0.0684286653995514,0.0716340765357018
967,0.000216203712625429,0.00056853424757719,0.0645213276147842,0.0751419588923454,0.0685441493988037,0.0754004716873169
968,0.00324896443635225,0.00352475908584893,0.0664452612400055,0.0786168873310089,0.0704558938741684,0.0775812491774559
969,0.00484699103981256,0.00411816732957959,0.0662586987018585,0.077084444463253,0.0721182227134705,0.0765992403030396
970,0.00428447220474482,0.00275151571258903,0.0629837438464165,0.0714834406971931,0.070686399936676,0.0731285959482193
971,0.00271483277902007,0.00172247469890863,0.0592529885470867,0.0656625106930733,0.0665836930274963,0.0700351223349571
