,AF3,AF4,Fp1,Fp2,AF7,AF8
0,0.00599247170612216,-0.00367598771117628,-0.00198896764777601,0.000218527959077619,0.0118515230715275,-0.00980215054005384
1,0.00587061932310462,-0.0022171747405082,-0.004278012085706,-0.00236797286197543,0.00867685675621033,-0.00985267106443644
2,0.00691874511539936,-0.00141305639408529,-0.00501058297231793,-0.00310756429098547,0.00673156138509512,-0.00961971189826727
3,0.00817153230309486,-0.00141347956378013,-0.00563438003882766,-0.00320711266249418,0.00493454094976187,-0.00831652618944645
4,0.00848323386162519,-0.00186301278881729,-0.00750124780461192,-0.00401359237730503,0.00248691951856017,-0.00635027559474111
5,0.00800371449440718,-0.00397251732647419,-0.0101945186033845,-0.00609736982733011,0.000664837134536356,-0.00513444328680635
6,0.00754915410652757,-0.00756984855979681,-0.0120472721755505,-0.00845389161258936,0.000703772704582661,-0.00398130482062697
7,0.00678993435576558,-0.0100478762760758,-0.0130778457969427,-0.0107091888785362,0.000750949722714722,-0.00402290653437376
8,0.0052258619107306,-0.010173212736845,-0.0143443457782269,-0.0131453797221184,-0.00135410414077342,-0.00678589008748531
9,0.00326737109571695,-0.00898357387632132,-0.0156039940193295,-0.0150217479094863,-0.00467026233673096,-0.009786581620574
10,0.00142422295175493,-0.00807289406657219,-0.0161082353442907,-0.015503192320466,-0.00710311345756054,-0.0116258943453431
11,-7.50800536479801E-05,-0.00810333620756865,-0.0160471443086863,-0.0142819490283728,-0.00835153833031654,-0.0131208505481482
12,-0.00127075740601867,-0.00857370998710394,-0.0162353552877903,-0.0121144987642765,-0.00919540785253048,-0.0142216496169567
13,-0.00214407965540886,-0.00879788771271706,-0.0169850699603558,-0.0110477283596992,-0.00947952270507813,-0.0144054545089602
14,-0.00246436079032719,-0.00892460811883211,-0.0175826251506805,-0.0116295535117388,-0.00841196440160275,-0.0130709568038583
15,-0.00242546596564353,-0.00978214386850595,-0.0176544599235058,-0.0123998196795583,-0.00660457648336887,-0.0106624299660325
16,-0.00284540955908597,-0.0114930560812354,-0.0183676388114691,-0.012975187972188,-0.0062685264274478,-0.00961543526500463
17,-0.00382849364541471,-0.0132249416783452,-0.0198100749403238,-0.0131427180022001,-0.00787437241524458,-0.0115949437022209
18,-0.00470950221642852,-0.0140907540917397,-0.0207673199474812,-0.0122611122205853,-0.0101965609937906,-0.0157039798796177
19,-0.00496890302747488,-0.0134892063215375,-0.0211314391344786,-0.0112147573381662,-0.0123381437733769,-0.0203063748776913
20,-0.0041519133374095,-0.0113319121301174,-0.0208900906145573,-0.0110336067155004,-0.0132568692788482,-0.0239521041512489
21,-0.00192626437637955,-0.008667366579175,-0.0192481633275747,-0.0112809324637055,-0.0122855007648468,-0.0264652706682682
22,0.00130765163339674,-0.00702071143314242,-0.0164027772843838,-0.0113421361893415,-0.0104979760944843,-0.0292215384542942
23,0.00383452489040792,-0.00635834177955985,-0.014124795794487,-0.011573288589716,-0.0103320218622684,-0.0311296992003918
24,0.00427039340138435,-0.00599052058532834,-0.0136025240644813,-0.0130215166136622,-0.0124322986230254,-0.0309012811630964
25,0.00317415595054626,-0.00574662815779448,-0.0140187786892056,-0.0158530846238136,-0.0148875704035163,-0.0294005963951349
26,0.00111972750164568,-0.0039581642486155,-0.0145924231037498,-0.0183033905923367,-0.0175085980445147,-0.0233028922230005
27,-0.00138884002808481,-0.000103260004834738,-0.0151801677420735,-0.0188587568700314,-0.0208372455090284,-0.0121496897190809
28,-0.00305625074543059,0.00313314562663436,-0.0150966458022594,-0.0173039175570011,-0.0232565943151712,-0.00302110705524683
29,-0.0031339309643954,0.00368892005644739,-0.0137863112613559,-0.0137408906593919,-0.0230164583772421,0.000939599005505443
30,-0.00157038599718362,0.00225714268162847,-0.0116682015359402,-0.00967904273420572,-0.0198714919388294,0.00148236530367285
31,0.000761092640459538,0.0010236349189654,-0.0101392464712262,-0.00748914014548063,-0.0158471688628197,-0.000566417700611055
32,0.00277530658058822,0.00098684907425195,-0.00949295982718468,-0.00680173793807626,-0.0128426356241107,-0.0033847049344331
33,0.003958685323596,0.00177245738450438,-0.00888947956264019,-0.00573124550282955,-0.0109323495998979,-0.00381322903558612
34,0.00416388921439648,0.00233651138842106,-0.00845816265791655,-0.00530982483178377,-0.00983934756368399,-0.00414212141185999
35,0.00390743603929877,0.00152594409883022,-0.00889888312667608,-0.0072254091501236,-0.00996828265488148,-0.00855971779674292
36,0.0035293644759804,-0.000697434123139828,-0.0105287665501237,-0.0107141248881817,-0.0119435098022223,-0.0155031243339181
37,0.00355684361420572,-0.00331296026706696,-0.0125484755262733,-0.014332689344883,-0.014263235963881,-0.0213645678013563
38,0.00506726931780577,-0.00465698586776853,-0.0131685240194201,-0.0161433275789022,-0.0143408663570881,-0.0230096448212862
39,0.0076745543628931,-0.00476344116032124,-0.0115402713418007,-0.0144256297498941,-0.0117236273363233,-0.0195003543049097
40,0.00963450502604246,-0.00540540786460042,-0.00902339909225702,-0.0103246299549937,-0.00849223416298628,-0.0146972825750709
41,0.00995262339711189,-0.00667768996208906,-0.00792545080184937,-0.00674434658139944,-0.00751957902684808,-0.0128640932962298
42,0.00934763066470623,-0.00794362183660269,-0.00857295095920563,-0.00589831918478012,-0.00896525382995605,-0.0149061055853963
43,0.0094209024682641,-0.00928991939872503,-0.00878095533698797,-0.0081624872982502,-0.00993579998612404,-0.0197709165513515
44,0.0106866806745529,-0.0100813442841172,-0.00688185775652528,-0.0112970732152462,-0.00875260960310698,-0.0239940453320742
45,0.0117401704192162,-0.00969329290091991,-0.0043241111561656,-0.0131719466298819,-0.00741832284256816,-0.0237334668636322
46,0.0112076131626964,-0.00858612451702356,-0.00381638412363827,-0.0145142143592238,-0.00842803623527288,-0.0202433299273252
47,0.00956006813794374,-0.0071735167875886,-0.00535450968891382,-0.0161932706832886,-0.011078679934144,-0.0169875845313072
48,0.00838544964790344,-0.00581506360322237,-0.00698946416378021,-0.0178015399724245,-0.0125424126163125,-0.0156104806810617
49,0.00867402646690607,-0.00581745617091656,-0.00785635784268379,-0.0195295680314302,-0.0106815164908767,-0.0172147080302238
50,0.0101082315668464,-0.0073599680326879,-0.00753840059041977,-0.0200742967426777,-0.00613665208220482,-0.0192357897758484
51,0.0122020579874516,-0.00807997491210699,-0.00565604073926806,-0.0170046053826809,-0.00151872681453824,-0.0172521900385618
52,0.014618281275034,-0.00644767284393311,-0.00342923565767705,-0.0117982793599367,0.000868154573254287,-0.0131393959745765
53,0.0169796105474234,-0.00395215582102537,-0.00230894214473665,-0.0084947356954217,0.000461739982711151,-0.0128711778670549
54,0.0185225494205952,-0.00203575636260211,-0.00284008774906397,-0.00835364311933517,-0.00266865082085133,-0.016036719083786
55,0.0181716307997704,-0.000587893824558705,-0.00464860815554857,-0.00904196407645941,-0.00790842622518539,-0.0160285029560328
56,0.0160959362983704,-0.000442350807134062,-0.00651563890278339,-0.00930441729724407,-0.0129233449697495,-0.0125433132052422
57,0.0134601844474673,-0.00119533122051507,-0.00788654666393995,-0.00950804073363543,-0.0165933948010206,-0.00908935535699129
58,0.0116899078711867,-0.000823749986011535,-0.00815661065280437,-0.00859985966235399,-0.0184008330106735,-0.00607453333213925
59,0.0115580493584275,0.000330581126036122,-0.00682532368227839,-0.00652810279279947,-0.017030069604516,-0.00495250802487135
60,0.0123098790645599,0.00134600105229765,-0.00497907074168324,-0.00481318309903145,-0.0130887553095818,-0.00597111135721207
61,0.0131608787924051,0.00243810191750526,-0.00379734137095511,-0.00366527959704399,-0.00858808774501085,-0.0063523268327117
62,0.0135346818715334,0.00366724212653935,-0.00388077273964882,-0.00259811012074351,-0.00543314078822732,-0.00464180670678616
63,0.0130091346800327,0.00504910293966532,-0.00531955203041434,-0.00105083349626511,-0.0046683456748724,-0.00194609502796084
64,0.0125397145748138,0.00573771120980382,-0.00688306195661426,0.00140856252983212,-0.00523591972887516,-0.000897501886356622
65,0.0126641662791371,0.00370181631296873,-0.00773429032415152,0.00360585167072713,-0.00553343491628766,-0.00393999926745892
66,0.0126583222299814,-0.00104779796674848,-0.00772730400785804,0.00467791547998786,-0.0048915040679276,-0.00906536541879177
67,0.0117062963545322,-0.00581662403419614,-0.00701714167371392,0.00463616894558072,-0.00405033957213163,-0.0122169489040971
68,0.00956099852919579,-0.00828749686479568,-0.00649824645370245,0.00333457440137863,-0.00430699717253447,-0.012978894636035
69,0.00722812442108989,-0.00758237857371569,-0.00633050454780459,0.00229151034727693,-0.00553469639271498,-0.0109029384329915
70,0.00459351856261492,-0.00467599090188742,-0.00746139045804739,0.00243001850321889,-0.00855430401861668,-0.00547802122309804
71,0.000669058877974749,-0.00209393142722547,-0.0114900376647711,0.00158277899026871,-0.0145731568336487,-0.000691581692080945
72,-0.00328087736852467,-0.000579721119720489,-0.0172977969050407,-0.00127160490956157,-0.0219109896570444,0.001358597073704
73,-0.00554290693253279,0.00155709078535438,-0.0223309863358736,-0.00378485070541501,-0.0282965842634439,0.00422641821205616
74,-0.00622499687597156,0.0046536554582417,-0.0252945143729448,-0.00436459854245186,-0.0325645320117474,0.00899848900735378
75,-0.00551710091531277,0.00732633005827665,-0.0256979875266552,-0.00395567901432514,-0.0334103778004646,0.0127815632149577
76,-0.00358209060505033,0.0088978223502636,-0.0240727700293064,-0.00375769659876823,-0.0310540813952684,0.0145937539637089
77,-0.00144599145278335,0.00943984650075436,-0.0218261703848839,-0.00344181503169239,-0.0276794694364071,0.0154936034232378
78,0.000532425765413791,0.00933586247265339,-0.0197081957012415,-0.00218236795626581,-0.0245916116982698,0.0155757116153836
79,0.00194073899183422,0.00931399222463369,-0.0185650251805782,-0.000658426608424634,-0.0228114537894726,0.0151097672060132
80,0.00203586928546429,0.00968315917998552,-0.0188734773546457,0.000183930067578331,-0.0229153260588646,0.0151148336008191
81,0.00123486469965428,0.0100616421550512,-0.0200604125857353,8.79431172506884E-05,-0.0243395939469337,0.0151656456291676
82,-7.00935925124213E-05,0.010226933285594,-0.0217298809438944,-0.000790632795542479,-0.0272525753825903,0.0148998880758882
83,-0.00151539046783,0.010003849864006,-0.0234031025320292,-0.00202253484167159,-0.0308642778545618,0.014324463903904
84,-0.00199346267618239,0.00876484904438257,-0.0244991090148687,-0.00388142629526556,-0.0327917784452438,0.0114943375810981
85,-0.0015589960385114,0.00653655920177698,-0.0256068129092455,-0.00679094763472676,-0.0327884443104267,0.00575947249308228
86,-0.00162881787400693,0.00438758498057723,-0.0278023462742567,-0.0099593959748745,-0.0330472365021706,0.000505010772030801
87,-0.00287663983181119,0.00273938314057887,-0.0307830851525068,-0.0125353960320354,-0.034763976931572,-0.00239136954769492
88,-0.00466551585122943,0.00146000925451517,-0.0330486968159676,-0.0145533960312605,-0.0364552661776543,-0.00568534526973963
89,-0.00637331325560808,0.00109773245640099,-0.0333826579153538,-0.0146606974303722,-0.0362020619213581,-0.00930419564247131
90,-0.00812230445444584,0.00172711303457618,-0.0321969874203205,-0.0118517382070422,-0.0344882607460022,-0.0107354130595922
91,-0.00995955150574446,0.00263622030615807,-0.0309413522481918,-0.00861582532525063,-0.0330832824110985,-0.0113771613687277
92,-0.0120608834549785,0.00328936404548585,-0.0309615824371576,-0.00800716690719128,-0.033425472676754,-0.0111693749204278
93,-0.0140258967876434,0.00316910003311932,-0.0322570838034153,-0.0103097995743155,-0.0351528264582157,-0.00782011821866035
94,-0.0143531365320086,0.00219204323366284,-0.0325988940894604,-0.01241903193295,-0.0352823249995708,-0.000734186905901879
95,-0.0129549913108349,0.00125611899420619,-0.0307762417942286,-0.0121567286550999,-0.0325420945882797,0.00819440651684999
96,-0.0107784932479262,0.000977142713963985,-0.0276754330843687,-0.0109198102727532,-0.0285096392035484,0.0145888673141599
97,-0.0085606137290597,0.000376244075596333,-0.0242169164121151,-0.00985252857208252,-0.0248855575919151,0.0169101282954216
98,-0.00728610716760159,-0.000793669547419995,-0.0215753763914108,-0.00955817755311728,-0.023219209164381,0.0166656970977783
99,-0.00699014589190483,-0.000835165323223919,-0.0201289113610983,-0.0103759281337261,-0.0233955215662718,0.0150478724390268
100,-0.00665379036217928,0.000738023256417364,-0.0186404548585415,-0.0109556866809726,-0.0231315083801746,0.0135670378804207
101,-0.0057756956666708,0.00228689331561327,-0.0168528631329536,-0.0110829202458262,-0.0213374495506287,0.0119273792952299
102,-0.00447088666260242,0.00185835792217404,-0.0156246740370989,-0.0123747540637851,-0.0189641285687685,0.00674401922151446
103,-0.00347261200658977,-0.000299587321933359,-0.0153999421745539,-0.0148345874622464,-0.0173292271792889,-0.00130360666662455
104,-0.00357691920362413,-0.00163472455460578,-0.0161152668297291,-0.0163896959275007,-0.0171410348266363,-0.00612209783867002
105,-0.00381394475698471,-0.000646623549982905,-0.0163632463663816,-0.0155283128842711,-0.0173618346452713,-0.00672963634133339
106,-0.00282298517413437,0.00185400014743209,-0.0144973173737526,-0.0123642170801759,-0.0167736355215311,-0.00686736404895782
107,-0.00057861756067723,0.0043302346020937,-0.0103650679811835,-0.00748145673424006,-0.0152843361720443,-0.00672959489747882
108,0.00241347355768085,0.00639066426083446,-0.00540011143311858,-0.00249496917240322,-0.0133740743622184,-0.00448735896497965
109,0.00522691523656249,0.00819966848939657,-0.00186512875370681,-0.000258234882494435,-0.0121950451284647,0.000217508117202669
110,0.00692271254956722,0.00913957599550486,-0.000975732866209,-0.00208025402389467,-0.0124789420515299,0.00559727335348725
111,0.00727199064567685,0.00919954851269722,-0.00220595323480666,-0.00642048660665751,-0.0140080992132425,0.00863183476030827
112,0.00670074112713337,0.00951866898685694,-0.00367670925334096,-0.0101893516257405,-0.0156787969172001,0.00884986575692892
113,0.00661057885736227,0.00980710797011852,-0.0031406304333359,-0.0115744220092893,-0.015389253385365,0.00581658631563187
114,0.00726149277761579,0.00876125041395426,-0.000905316090211272,-0.0110239740461111,-0.0137857440859079,-0.000398466741899028
115,0.00686506414785981,0.00716473208740354,0.000466320401756093,-0.00926393270492554,-0.0143824238330126,-0.00397258950397372
116,0.00560123194009066,0.00610465044155717,0.000508886470925063,-0.00723925745114684,-0.0169686730951071,-0.00267182081006467
117,0.00508584966883063,0.00520884292200208,0.000501279544550925,-0.00581467151641846,-0.0190282259136438,-0.000912153103854507
118,0.00509533984586596,0.00449699768796563,0.000522281567100436,-0.00473727658390999,-0.0204150136560202,-0.000375874864403158
119,0.00493804411962628,0.00420502433553338,8.13961887615733E-05,-0.00396615080535412,-0.0215149205178022,-0.000797051470726728
120,0.00498549919575453,0.00424381392076612,-0.000193311963812448,-0.00313934101723135,-0.0218642242252827,-0.00209320080466568
121,0.00601125322282314,0.00467778975144029,0.00126632186584175,-0.00137213431298733,-0.0207274351269007,-0.00294652371667326
122,0.00797161739319563,0.0051061543636024,0.00483361631631851,-0.000116295035695657,-0.018091568723321,-0.00424833223223686
123,0.0096172820776701,0.00439404230564833,0.00924925412982702,-0.00112117535900325,-0.0151110542938113,-0.0073399399407208
124,0.010108545422554,0.00252697267569602,0.0134900072589517,-0.00296725356020033,-0.0130371954292059,-0.00979537703096867
125,0.00941328052431345,0.0019817587453872,0.016398835927248,-0.00409372989088297,-0.0132745252922177,-0.00876842066645622
126,0.00720530888065696,0.00424933293834329,0.0162287261337042,-0.00513859884813428,-0.0170017722994089,-0.0037261457182467
127,0.00384291750378907,0.00726668350398541,0.0126482723280787,-0.006797612644732,-0.0233680047094822,0.00237610540352762
128,0.000520177185535431,0.00970796495676041,0.00691816117614508,-0.00817378610372543,-0.0308610741049051,0.0066611785441637
129,-0.00195691455155611,0.0120028723031282,0.000413027300965041,-0.00889352429658175,-0.0388158708810806,0.0080020921304822
130,-0.0028604615945369,0.0128891551867127,-0.00520849460735917,-0.0101215010508895,-0.0452478639781475,0.00424293894320726
131,-0.00229886127635837,0.0123434672132134,-0.00843957625329494,-0.011359890922904,-0.048398282378912,-0.00226395390927792
132,-0.00220669573172927,0.0121021773666143,-0.00998240988701582,-0.0121674360707402,-0.0499377436935902,-0.00570377754047513
133,-0.0030754201579839,0.010776867158711,-0.0110774384811521,-0.0147440079599619,-0.0505035556852818,-0.00811953563243151
134,-0.00259108957834542,0.00650408025830984,-0.0110647976398468,-0.0196657348424196,-0.0479330904781818,-0.0162422377616167
135,-0.000258006621152163,0.0018843172583729,-0.0101290848106146,-0.0239285919815302,-0.0436134822666645,-0.026623921468854
136,0.00188451330177486,0.000716672104317695,-0.010445305146277,-0.0250091683119535,-0.0419646352529526,-0.0290276240557432
137,0.00306074740365148,0.00285923224873841,-0.0131539637222886,-0.023665577173233,-0.0442706570029259,-0.0224385876208544
138,0.0035116751678288,0.00590473879128695,-0.0177004970610142,-0.0223198309540749,-0.0491751655936241,-0.0135733755305409
139,0.00312731484882534,0.00851829629391432,-0.0230247061699629,-0.0225664377212524,-0.0549443550407887,-0.00752388779073954
140,0.0020782919600606,0.0102252047508955,-0.0274343565106392,-0.0237652696669102,-0.0592992231249809,-0.00621288362890482
141,0.000580220483243465,0.0109034003689885,-0.0292949378490448,-0.0240886639803648,-0.0609296634793282,-0.00875251088291407
142,-0.000788680743426085,0.0107925487682223,-0.0283209029585123,-0.0233329460024834,-0.0599665865302086,-0.0131308948621154
143,-0.00106918020173907,0.0100127523764968,-0.0259097162634134,-0.0234162900596857,-0.0574530772864819,-0.0184417925775051
144,-0.000601645093411207,0.00865475926548243,-0.0245684310793877,-0.0257322657853365,-0.0559363476932049,-0.0233998782932758
145,-5.64117544854525E-05,0.00702966749668121,-0.0253335759043694,-0.02924201823771,-0.0563361272215843,-0.026185929775238
146,-0.000128425381262787,0.00686935242265463,-0.0282690897583961,-0.0325667820870876,-0.0582567527890205,-0.0276208203285933
147,-0.00191372458357364,0.00987811200320721,-0.0336015671491623,-0.034842774271965,-0.0630062744021416,-0.0298883821815252
148,-0.0049037323333323,0.0140037443488836,-0.04008399695158,-0.0354513376951218,-0.0707883238792419,-0.0344235971570015
149,-0.00801160000264645,0.0163965653628111,-0.0464432463049889,-0.0353203378617764,-0.0802468582987785,-0.0413197576999664
150,-0.010012642480433,0.0166844502091408,-0.0508969388902187,-0.0352917164564133,-0.0878385454416275,-0.0482990592718124
151,-0.00963961705565453,0.0163301806896925,-0.0516741201281548,-0.034922543913126,-0.0898662731051445,-0.0511085577309132
152,-0.00755524914711714,0.0173023026436567,-0.0501368343830109,-0.0339220352470875,-0.0876784026622772,-0.0460282303392887
153,-0.00576946046203375,0.0190064329653978,-0.0489227324724197,-0.033708855509758,-0.0849278345704079,-0.0353897958993912
154,-0.00558676291257143,0.0188189521431923,-0.0493032522499561,-0.0365595370531082,-0.0835283696651459,-0.0266196243464947
155,-0.0061877160333097,0.0166487991809845,-0.0506261177361012,-0.041973952203989,-0.0832212492823601,-0.0238496344536543
156,-0.00600867858156562,0.0153100788593292,-0.0518813878297806,-0.0468093454837799,-0.08342345058918,-0.0249995533376932
157,-0.00469631468877196,0.0158976931124926,-0.0529939606785774,-0.0491326451301575,-0.084002710878849,-0.026927812024951
158,-0.00224571372382343,0.016773197799921,-0.0533496513962746,-0.0487683974206448,-0.0835615918040276,-0.0290849823504686
159,0.000768846017308533,0.016403678804636,-0.0526157058775425,-0.0465148314833641,-0.0817644149065018,-0.031757190823555
160,0.00261680013500154,0.0143090840429068,-0.0518833100795746,-0.0442277453839779,-0.0808046609163284,-0.0351727120578289
161,0.00292059499770403,0.010691343806684,-0.0517255589365959,-0.0436521656811237,-0.0814168900251389,-0.0417400188744068
162,0.00320611079223454,0.00600107200443745,-0.0514557361602783,-0.0450249090790749,-0.0816449001431465,-0.0535662770271301
163,0.00408396357670426,0.00170651136431843,-0.0507243797183037,-0.0462869293987751,-0.0806882083415985,-0.0646580457687378
164,0.00465515442192554,-0.000196456516277976,-0.050824761390686,-0.0457970388233662,-0.0808152705430985,-0.0660439729690552
165,0.004251295235008,0.000433696404797956,-0.0532488860189915,-0.0447460114955902,-0.0838478654623032,-0.0576378144323826
166,0.00330048822797835,0.00272110546939075,-0.0580781996250153,-0.0448680631816387,-0.08896304666996,-0.0462221838533878
167,0.00307554821483791,0.00667024729773402,-0.0638396665453911,-0.0454288274049759,-0.0937304645776749,-0.0373890288174152
168,0.00415560835972428,0.0113697992637753,-0.0681191012263298,-0.0445405654609203,-0.0956710502505302,-0.0336183235049248
169,0.00586390215903521,0.0141997095197439,-0.0692310035228729,-0.0427723675966263,-0.0942250564694405,-0.0358141958713531
170,0.00758291967213154,0.0141702760010958,-0.067206397652626,-0.0418609082698822,-0.0907102897763252,-0.0422212444245815
171,0.00889660138636827,0.0132523039355874,-0.0637290477752686,-0.0423460938036442,-0.0866329595446587,-0.0475505776703358
172,0.00940969865769148,0.012564018368721,-0.0608510076999664,-0.0445813648402691,-0.0825225561857224,-0.0490089543163776
173,0.00956615339964628,0.0113300988450646,-0.0592832043766975,-0.0482597053050995,-0.0782853290438652,-0.0484264083206654
174,0.00979297794401646,0.0100738033652306,-0.0589531101286411,-0.0515139028429985,-0.0749130547046661,-0.0462675429880619
175,0.00936614163219929,0.00936177838593721,-0.0600817315280437,-0.0537535920739174,-0.0740067362785339,-0.0431618019938469
176,0.00792498327791691,0.00859659537672997,-0.0622268319129944,-0.0557425655424595,-0.0753885135054588,-0.0413576476275921
177,0.00643377238884568,0.00772258546203375,-0.0640770420432091,-0.0574052706360817,-0.0771891251206398,-0.0417529679834843
178,0.00564138079062104,0.00723924627527595,-0.0650594234466553,-0.0583945102989674,-0.0782818049192429,-0.0436173789203167
179,0.00519775412976742,0.00724767707288265,-0.0655929371714592,-0.0584197677671909,-0.078867606818676,-0.0452931933104992
180,0.00529377395287156,0.00705951731652021,-0.0656004995107651,-0.0572687983512878,-0.0786099210381508,-0.0468904562294483
181,0.0062835100106895,0.00669644353911281,-0.0649850592017174,-0.0548574700951576,-0.0774492397904396,-0.0495109297335148
182,0.00704918801784515,0.00719111878424883,-0.0644486993551254,-0.0514669120311737,-0.0766320675611496,-0.0527230277657509
183,0.00710836704820395,0.0084843821823597,-0.0636721178889275,-0.0476184822618961,-0.0757812783122063,-0.0552308484911919
184,0.00730820233002305,0.00978598371148109,-0.0617876425385475,-0.0436304360628128,-0.0733040422201157,-0.054919857531786
185,0.007610565982759,0.0108457580208778,-0.0596226826310158,-0.0406691059470177,-0.0701498463749886,-0.0507044084370136
186,0.00732793565839529,0.0108961947262287,-0.0586457438766956,-0.0403814762830734,-0.0684906169772148,-0.0455011390149593
187,0.0060503026470542,0.00942384358495474,-0.0591982454061508,-0.0420778207480907,-0.0689536035060883,-0.0412652119994164
188,0.00371652864851058,0.00761541351675987,-0.0610316619277,-0.0438505709171295,-0.0710509419441223,-0.037351094186306
189,0.00171349907759577,0.006679009180516,-0.063128300011158,-0.0451518818736076,-0.0728966072201729,-0.0356298759579659
190,0.00164798100013286,0.00661051226779819,-0.064191609621048,-0.0462726317346096,-0.0728846564888954,-0.0377480909228325
191,0.00293162791058421,0.00645736372098327,-0.0644887089729309,-0.0475797206163406,-0.0720185115933418,-0.0422287136316299
192,0.00392124056816101,0.00583321554586291,-0.0647904872894287,-0.0484311953186989,-0.0717136934399605,-0.0455515198409557
193,0.0036633494310081,0.00574064021930099,-0.0652965381741524,-0.0483031943440437,-0.0721713230013847,-0.0457060523331165
194,0.00215698196552694,0.00658841151744127,-0.0658463388681412,-0.0479301474988461,-0.0729410722851753,-0.0445328205823898
195,0.000621993734966964,0.00826914235949516,-0.0654280483722687,-0.0469903610646725,-0.0730263888835907,-0.0428114086389542
196,0.000514522660523653,0.0105952555313706,-0.0627708807587624,-0.0443076118826866,-0.0711370259523392,-0.0394367948174477
197,0.0019364288309589,0.0125599345192313,-0.0583005510270596,-0.0407572351396084,-0.0669348388910294,-0.0346792638301849
198,0.00407342286780477,0.0137882903218269,-0.0541496872901917,-0.0383724980056286,-0.0617375895380974,-0.0291056949645281
199,0.0060206763446331,0.0145295700058341,-0.0521110519766808,-0.0379351861774921,-0.0575376451015472,-0.0243169348686934
200,0.00718084536492825,0.0145855937153101,-0.052320446819067,-0.0387988351285458,-0.0552285872399807,-0.0225061271339655
201,0.00756521197035909,0.0146766332909465,-0.053510956466198,-0.039440181106329,-0.0544452704489231,-0.0225991159677505
202,0.00739098060876131,0.0158290825784206,-0.0544989816844463,-0.0388115309178829,-0.0550083555281162,-0.0223604012280703
203,0.00708785839378834,0.0174104534089565,-0.0550529770553112,-0.0369554683566093,-0.0567670688033104,-0.0216358881443739
204,0.00727574899792671,0.0183212589472532,-0.0555835776031017,-0.0348743945360184,-0.0587358847260475,-0.021697822958231
205,0.00816619768738747,0.0185120180249214,-0.0559081695973873,-0.0333410911262035,-0.0593472197651863,-0.0228049382567406
206,0.00945565570145845,0.0181290358304977,-0.0549548342823982,-0.0315811187028885,-0.0575608424842358,-0.0240087565034628
207,0.0106744915246964,0.0161746516823769,-0.0525378994643688,-0.0293285232037306,-0.0536080040037632,-0.0260319896042347
208,0.0116161312907934,0.0125466547906399,-0.0498621165752411,-0.0276584252715111,-0.0489998236298561,-0.0292857699096203
209,0.0123141864314675,0.00940148625522852,-0.0482545457780361,-0.0270842742174864,-0.0457517579197884,-0.0319281704723835
210,0.0127829341217875,0.00779509032145143,-0.0479174517095089,-0.0274503473192453,-0.0446349903941154,-0.033645149320364
211,0.0128123788163066,0.00634748442098498,-0.0480999909341335,-0.0286645013839006,-0.0449783392250538,-0.0363075733184814
212,0.011886702850461,0.00424456363543868,-0.0484753735363483,-0.0304535366594791,-0.0458612851798534,-0.0392609536647797
213,0.00988114438951015,0.00272760097868741,-0.0494172796607018,-0.0320442989468575,-0.0469250120222569,-0.0382768400013447
214,0.00773099297657609,0.00302525865845382,-0.0512707270681858,-0.0326070226728916,-0.0480945482850075,-0.0320483930408955
215,0.00625438336282969,0.0040000774897635,-0.0539743714034557,-0.0326828882098198,-0.0492288433015347,-0.0262194760143757
216,0.00583399459719658,0.00419345358386636,-0.0561430342495441,-0.0330508202314377,-0.0495360866189003,-0.0256081502884626
217,0.00647412240505219,0.00404416071251035,-0.056128166615963,-0.0329267829656601,-0.0482106581330299,-0.0285272933542728
218,0.00703622912988067,0.0037577860057354,-0.0545947924256325,-0.0316912680864334,-0.0462545305490494,-0.0318382456898689
219,0.00693025486543775,0.00344349816441536,-0.0529514402151108,-0.0294074155390263,-0.0446850098669529,-0.0332777053117752
220,0.00689737219363451,0.00363288237713277,-0.0516540557146072,-0.0274343565106392,-0.043216947466135,-0.0326379612088203
221,0.00771999545395374,0.00381012680009007,-0.0506456010043621,-0.028146555647254,-0.041159812361002,-0.0324781015515327
222,0.0093891154974699,0.00356785766780376,-0.0491285659372807,-0.0309030618518591,-0.0379320569336414,-0.0330199562013149
223,0.0109213320538402,0.00364041049033403,-0.0470466427505016,-0.0325760245323181,-0.0345762111246586,-0.0324216783046722
224,0.011163811199367,0.00416031340137124,-0.0458503067493439,-0.0321995839476585,-0.0330366045236588,-0.0309362262487412
225,0.0100162941962481,0.00411095283925533,-0.0460365973412991,-0.0311869587749243,-0.0333158485591412,-0.0294494740664959
226,0.00840294361114502,0.00275657419115305,-0.0464575029909611,-0.0300206746906042,-0.0342195369303226,-0.0274277050048113
227,0.00718245189636946,-0.000232084072194994,-0.0460691154003143,-0.0282621700316668,-0.0349304415285587,-0.0257977768778801
228,0.00693136733025312,-0.00370104308240116,-0.0447292029857636,-0.0261283125728369,-0.0344426669180393,-0.026753718033433
229,0.00726169999688864,-0.00422263005748391,-0.043148934841156,-0.0234814677387476,-0.0329225212335587,-0.026655025780201
230,0.006912462413311,-0.0013557996135205,-0.0421287529170513,-0.0205862186849117,-0.0316833928227425,-0.0213063713163137
231,0.00621474022045732,0.000799266970716417,-0.0412569753825665,-0.0189310517162085,-0.0300164688378572,-0.0155053297057748
232,0.00638332543894649,6.59534489386715E-05,-0.0399809293448925,-0.0193736273795366,-0.0267772078514099,-0.0147447874769568
233,0.00695478310808539,-0.00238514482043684,-0.0392637103796005,-0.0219642892479897,-0.023272043094039,-0.0185776334255934
234,0.0071828356012702,-0.00473656691610813,-0.0393521413207054,-0.0253659281879663,-0.0205032434314489,-0.0237632896751165
235,0.00734757771715522,-0.00575786177068949,-0.0389162786304951,-0.0272409562021494,-0.0177817400544882,-0.0269260890781879
236,0.00772750377655029,-0.00576475774869323,-0.0378093756735325,-0.0270961839705706,-0.015258677303791,-0.0275892242789268
237,0.00852066930383444,-0.00595049513503909,-0.0366651229560375,-0.0254460237920284,-0.0135607477277517,-0.0280348993837833
238,0.00938706379383802,-0.006728520616889,-0.0357194803655148,-0.0224251803010702,-0.0128979925066233,-0.028989490121603
239,0.00979821477085352,-0.00754831591621041,-0.0348411425948143,-0.0181190576404333,-0.0130793759599328,-0.0289982482790947
240,0.0100767482072115,-0.00792966596782207,-0.0333202816545963,-0.0130155524238944,-0.0131732486188412,-0.0276569351553917
241,0.0109015610069036,-0.00743412366136909,-0.0307502616196871,-0.00862509850412607,-0.0124050257727504,-0.025042837485671
242,0.0126321539282799,-0.00635483488440514,-0.0279318857938051,-0.00691757909953594,-0.0107347685843706,-0.0216296948492527
243,0.0146109480410814,-0.00594761269167066,-0.0266531240195036,-0.00910377595573664,-0.00917971413582563,-0.018582496792078
244,0.0163823068141937,-0.00610080687329173,-0.0272968523204327,-0.013750416226685,-0.00802584830671549,-0.0154779413715005
245,0.0174014177173376,-0.00580139830708504,-0.0286986213177443,-0.0178349874913692,-0.00665095681324601,-0.0109987994655967
246,0.016173554584384,-0.00512435007840395,-0.0302652157843113,-0.0199416745454073,-0.00547735439613461,-0.00556432455778122
247,0.0129302572458982,-0.00483436649665236,-0.0313962884247303,-0.0201932638883591,-0.00448785210028291,-0.0020316110458225
248,0.00960235763341188,-0.00509924720972776,-0.0313638485968113,-0.0191831924021244,-0.00299868662841618,-0.00204991898499429
249,0.00705480482429266,-0.00509054772555828,-0.0305734593421221,-0.0172308627516031,-0.00176880019716918,-0.0029393716249615
250,0.00469312025234103,-0.00454601692035794,-0.0302870348095894,-0.0144674330949783,-0.00240014563314617,-0.00267556891776621
251,0.0020005158148706,-0.00398854305967689,-0.0312936939299107,-0.0122282858937979,-0.00504751782864332,-0.00353985722176731
252,-0.000372675334801897,-0.00381270609796047,-0.0326032042503357,-0.0117635428905487,-0.00764076318591833,-0.00760480621829629
253,-0.00154176948126405,-0.00472363317385316,-0.0323341973125935,-0.0124888755381107,-0.00815539248287678,-0.0140742817893624
254,-0.00144442892633379,-0.00677617080509663,-0.0305445045232773,-0.0136622413992882,-0.00703427754342556,-0.0200727619230747
255,-0.000299286213703454,-0.00872882083058357,-0.0291288290172815,-0.0156211517751217,-0.00575576070696115,-0.0232443399727345
256,0.00154180824756622,-0.00973119866102934,-0.0292092654854059,-0.0183916501700878,-0.0047667040489614,-0.0243772342801094
257,0.00313369347713888,-0.00987840164452791,-0.0304561294615269,-0.020465113222599,-0.00404909532517195,-0.0245360005646944
258,0.00421869708225131,-0.00914930459111929,-0.0312767028808594,-0.0197569038718939,-0.00316619081422687,-0.0230961348861456
259,0.00556835392490029,-0.00750387227162719,-0.0297814812511206,-0.0157959945499897,-0.00124687841162086,-0.0197329148650169
260,0.00697207031771541,-0.00545350974425673,-0.0261591169983149,-0.0104396604001522,0.00139235868118703,-0.014852131716907
261,0.00739707052707672,-0.0038967183791101,-0.0220573432743549,-0.00583828240633011,0.00367615907453001,-0.0099240243434906
262,0.0063658612780273,-0.00374215841293335,-0.0189032293856144,-0.00292466557584703,0.00495966197922826,-0.00703675951808691
263,0.00444168690592051,-0.0048141828738153,-0.0171956866979599,-0.00128008401952684,0.00526754651218653,-0.00596279231831431
264,0.0028277465607971,-0.00597201101481915,-0.0158252585679293,3.21298502967693E-05,0.00568011403083801,-0.00428372714668512
265,0.00185368512757123,-0.0066780555061996,-0.0142496908083558,0.000538448977749795,0.00687221623957157,-0.000754103297367692
266,0.00087070552399382,-0.00734949391335249,-0.0139796044677496,-0.00114888465031981,0.00779518065974116,0.00355873885564506
267,0.000202256589545868,-0.00782729219645262,-0.0159543361514807,-0.00560070108622313,0.00773309450596571,0.00664427876472473
268,0.00074653938645497,-0.00716281216591597,-0.0192540269345045,-0.0120964860543609,0.00719798309728503,0.00648128474131227
269,0.00251789460889995,-0.00565654039382935,-0.0218368209898472,-0.0176565609872341,0.00714440830051899,0.00254117045551538
270,0.00494412239640951,-0.00396281760185957,-0.0214581023901701,-0.0179279372096062,0.00860052928328514,-0.00152135081589222
271,0.00706664938479662,-0.00227961572818458,-0.0175263285636902,-0.0122018121182919,0.0117556881159544,-0.0025784564204514
272,0.00804955512285233,-0.00197926303371787,-0.011863267980516,-0.00532111572101712,0.0154272196814418,-0.003364781383425
273,0.00747203174978495,-0.00349633558653295,-0.00743674673140049,-0.00146656157448888,0.0172862242907286,-0.00468736095353961
274,0.00550895975902677,-0.00513382256031036,-0.00599589478224516,-6.03860389674082E-05,0.0159272849559784,-0.00362853822298348
275,0.00292055541649461,-0.00567337265238166,-0.00748598016798496,0.000681117468047887,0.012262218631804,-0.00129014195408672
276,0.000205019096028991,-0.00526765175163746,-0.0110046276822686,0.00107133283745497,0.00811406411230564,-0.000678308482747525
277,-0.00244564283639193,-0.00485316291451454,-0.0147579116746783,0.00122191093396395,0.00500907516106963,-0.00217804894782603
278,-0.00441659661009908,-0.00494157150387764,-0.0166964996606112,0.00196892092935741,0.00416081864386797,-0.00382622564211488
279,-0.00507469521835446,-0.00543745933100581,-0.016176950186491,0.00284168706275523,0.00606262637302279,-0.00400725472718477
280,-0.00487054558470845,-0.00635519530624151,-0.0146188791841269,0.00175062729977071,0.00951859913766384,-0.00335930637083948
281,-0.00456635560840368,-0.00735241686925292,-0.0140249198302627,-0.00176239805296063,0.012467254884541,-0.00267841084860265
282,-0.00438051344826818,-0.00795874465256929,-0.0148629592731595,-0.00572281703352928,0.0139705082401633,-0.00196094252169132
283,-0.00444586668163538,-0.00820362754166126,-0.0161446444690228,-0.00820315070450306,0.01435402687639,-0.00127774302382022
284,-0.0047306576743722,-0.00797930732369423,-0.0170126836746931,-0.00888920016586781,0.0141771044582129,-0.00038271100493148
285,-0.00514325918629766,-0.007057576905936,-0.0170007552951574,-0.00816827453672886,0.0139201125130057,0.00116174446884543
286,-0.00544327218085527,-0.00580009957775474,-0.0155572080984712,-0.00603284360840917,0.014104557223618,0.00225105066783726
287,-0.00522245233878493,-0.00463393004611135,-0.0130069218575954,-0.00285913655534387,0.0147776678204536,0.00067165371729061
288,-0.00444427831098437,-0.00354159669950604,-0.0105316527187824,0.000716923968866467,0.0156827121973038,-0.0030871513299644
289,-0.0031266852747649,-0.00308505957946181,-0.00867565721273422,0.00415721815079451,0.0171700026839972,-0.00663727847859263
290,-0.00150308024603873,-0.00389605830423534,-0.00744034070521593,0.00588082382455468,0.0192770976573229,-0.00945914071053267
291,-0.00056980480439961,-0.00502926064655185,-0.00711664371192455,0.00475222012028098,0.0207814332097769,-0.0114984000101686
292,-0.000601384439505637,-0.00539105013012886,-0.00747466878965497,0.00219996459782124,0.0211451724171638,-0.0118612637743354
293,-0.000597730162553489,-0.00498760771006346,-0.00717910099774599,0.000363417231710628,0.0215602479875088,-0.00988864153623581
294,-9.96532708086306E-06,-0.00417242338880897,-0.00573556451126933,-0.000825579860247672,0.0229117758572102,-0.00591993285343051
295,0.00103757565375417,-0.00305917393416166,-0.00415666121989489,-0.00206747651100159,0.0245467815548182,-0.000844823953229934
296,0.00201371731236577,-0.00164087198209018,-0.00361345545388758,-0.00277576688677073,0.0250923130661249,0.00399377103894949
297,0.00246538128703833,-0.000483170384541154,-0.00469984579831362,-0.00280434335581958,0.0243142321705818,0.00615433463826776
298,0.00319683505222201,-0.0004379277525004,-0.00661784689873457,-0.00241175899282098,0.0238059312105179,0.00427232729271054
299,0.00527351023629308,-0.00143165793269873,-0.00739097222685814,-0.00116444984450936,0.0249100364744663,-0.000304107612464577
300,0.00831648986786604,-0.0024547609500587,-0.00556177273392677,0.000917029334232211,0.0275111217051744,-0.00536618288606405
301,0.0101882023736835,-0.00301545532420278,-0.00156533508561552,0.00311810779385269,0.0303132031112909,-0.00815948657691479
302,0.00891477521508932,-0.00316764460876584,0.00278379931114614,0.00534070981666446,0.0316213443875313,-0.0052380608394742
303,0.00463060289621353,-0.00312072783708572,0.00559414550662041,0.00761486170813441,0.0304456241428852,0.00351849873550236
304,-0.00134610827080905,-0.00315474066883326,0.00558746233582497,0.0096586337313056,0.0265432316809893,0.0138851776719093
305,-0.00679370667785406,-0.00243730959482491,0.0034059698227793,0.0113543095067143,0.0218645147979259,0.0212342329323292
306,-0.00961641781032085,-0.000319234823109582,0.00107939378358424,0.0124614760279655,0.0196376144886017,0.0234495997428894
307,-0.0102440817281604,0.00177118927240372,-0.000809765071608126,0.0125726880505681,0.0196321159601212,0.02120909281075
308,-0.0100948978215456,0.00217886897735298,-0.00253001693636179,0.0115582160651684,0.019702322781086,0.0162189546972513
309,-0.00961566902697086,0.000415348185924813,-0.00345069612376392,0.00993888266384602,0.0194740034639835,0.00934930425137281
310,-0.00930658634752035,-0.00309913814999163,-0.00316213257610798,0.0087769441306591,0.0190321523696184,0.00106166512705386
311,-0.0091803316026926,-0.00645593693479896,-0.00117717101238668,0.00970831699669361,0.0194323696196079,-0.0059219915419817
312,-0.00844198558479548,-0.00768043100833893,0.0023950117174536,0.0126808565109968,0.0218454767018557,-0.00850032083690166
313,-0.00712815765291452,-0.00716074276715517,0.00591308576986194,0.0142579721286893,0.0252255909144878,-0.00754726305603981
314,-0.00620792852714658,-0.00642640702426434,0.008079226128757,0.012075656093657,0.0277062803506851,-0.00478925555944443
315,-0.00591661781072617,-0.00552570912986994,0.00876831542700529,0.00830541830509901,0.0286031793802977,0.000849167408887297
316,-0.00565864657983184,-0.00394757930189371,0.00853205658495426,0.00598879903554916,0.0287239197641611,0.00911051873117685
317,-0.00581242889165878,-0.00250481255352497,0.00698262499645352,0.00493845250457525,0.0278555676341057,0.016420342028141
318,-0.00633237650617957,-0.00199590320698917,0.00365753169171512,0.00386568251997232,0.0251974388957024,0.019513638690114
319,-0.00609767995774746,-0.00219644559547305,0.000138359580887482,0.00318161840550601,0.0219247005879879,0.0181892532855272
320,-0.00525549752637744,-0.00236476073041558,-0.00165522540919483,0.00383801967836916,0.0195549633353949,0.0155164059251547
321,-0.0044584758579731,-0.00178613874595612,-0.00123720592819154,0.00567623414099216,0.0186976157128811,0.0144559592008591
322,-0.00406618509441614,-0.000508059863932431,0.000548263895325363,0.0075563583523035,0.019159035757184,0.0154543481767178
323,-0.00457548536360264,0.00105657614767551,0.00264982134103775,0.00870852638036013,0.0199175290763378,0.0169586725533009
324,-0.00496151298284531,0.00262970360927284,0.00555085856467485,0.00961353071033955,0.0212903935462236,0.016359131783247
325,-0.0039300830103457,0.00364389014430344,0.00968495663255453,0.0108590135350823,0.024027094244957,0.0127725917845964
326,-0.00248842104338109,0.00348246935755014,0.0137964906170964,0.0120423873886466,0.0268920045346022,0.00863420497626066
327,-0.00193119863979518,0.00248329597525299,0.0172831527888775,0.0131479920819402,0.0289098639041185,0.00758736999705434
328,-0.00176489388104528,0.00174256786704063,0.0204066280275583,0.0150664057582617,0.0305092465132475,0.0111736040562391
329,-0.000940811180043966,0.0014058006927371,0.0227354560047388,0.0176263637840748,0.0322435237467289,0.0164507571607828
330,0.000185765762580559,0.000880116829648614,0.0235741715878248,0.0196009557694197,0.0337072052061558,0.0193958133459091
331,0.000695933878887445,0.000842040171846747,0.0234138946980238,0.0213570222258568,0.0341696999967098,0.0213311333209276
332,0.00054546061437577,0.00183342851232737,0.0236664172261953,0.0236970670521259,0.0339052677154541,0.0257546249777079
333,0.000323024520184845,0.0027666196692735,0.0250421911478043,0.0256387777626514,0.0337896049022675,0.0312441065907478
334,0.00049347645835951,0.00307508395053446,0.0270712748169899,0.0265215653926134,0.0341712310910225,0.0340477451682091
335,0.00093811220722273,0.00339249498210847,0.0287019368261099,0.0272404495626688,0.0346216522157192,0.0340336039662361
336,0.00163478613831103,0.00364560238085687,0.0298324543982744,0.0283134020864964,0.0354564487934113,0.0323987863957882
337,0.00257859984412789,0.00293603306636214,0.0310170408338308,0.0286899246275425,0.0373580045998096,0.0285366103053093
338,0.00373153970576823,0.00140395096968859,0.032694049179554,0.0280397403985262,0.0401900708675385,0.0235298071056604
339,0.00436085555702448,-2.74912581517128E-05,0.0344672054052353,0.0274342447519302,0.0422248877584934,0.0208502095192671
340,0.00308601162396371,-0.000581898260861635,0.0348491556942463,0.0271361041814089,0.0409606657922268,0.0223847199231386
341,0.000399387092329562,0.000390935107134283,0.0334866382181644,0.027061153203249,0.0364134013652802,0.0267650131136179
342,-0.00214042398147285,0.00290402816608548,0.0311202798038721,0.0271678380668163,0.0305831395089626,0.0315746366977692
343,-0.00415494758635759,0.00542068900540471,0.0282232239842415,0.0265722814947367,0.0252175908535719,0.0344265028834343
344,-0.0058341296389699,0.00597733305767179,0.0255484823137522,0.0254470407962799,0.0212868396192789,0.03410554677248
345,-0.00691496999934316,0.00463806977495551,0.024464538320899,0.0257499869912863,0.0193927809596062,0.0321209989488125
346,-0.00683741131797433,0.00244188494980335,0.0255142021924257,0.0276032909750938,0.0201106835156679,0.0292296372354031
347,-0.00531237572431564,1.8286329577677E-05,0.0275474488735199,0.0290240962058306,0.0231814216822386,0.0247195195406675
348,-0.00298945629037917,-0.00220114062540233,0.028841394931078,0.0289259608834982,0.0270872078835964,0.0192893352359533
349,-0.00113741948734969,-0.00368934310972691,0.0289745852351189,0.0281517915427685,0.0300129372626543,0.0146786160767078
350,-0.000254022743320093,-0.0038721994496882,0.0294735208153725,0.0289616398513317,0.0315296985208988,0.0125990640372038
351,0.000173745254869573,-0.00325838592834771,0.0311203692108393,0.0317702852189541,0.0321501158177853,0.0143142724409699
352,0.00102944811806083,-0.00312171527184546,0.0325962565839291,0.0339480936527252,0.0318393036723137,0.019060118123889
353,0.00241918349638581,-0.0035975247155875,0.0330113619565964,0.0340233072638512,0.0302955247461796,0.0245389044284821
354,0.00343256560154259,-0.00337025197222829,0.0330343544483185,0.0331841967999935,0.0280745141208172,0.0292790867388248
355,0.00348613294772804,-0.00198156014084816,0.0333371236920357,0.0321973524987698,0.0261912066489458,0.0321463458240032
356,0.00248183240182698,-0.000468294892925769,0.0334669053554535,0.0307307653129101,0.0242846421897411,0.0333671048283577
357,0.000445344689069316,0.000145578072988428,0.0325801968574524,0.0290548987686634,0.0213781502097845,0.034552626311779
358,-0.00211398117244244,-0.000707016093656421,0.0309552606195211,0.0279692094773054,0.0185061991214752,0.0349788591265678
359,-0.00413769949227571,-0.00237940158694983,0.0298992283642292,0.0280720200389624,0.0179472286254168,0.0330112762749195
360,-0.00481806648895144,-0.00334308901801705,0.0299672447144985,0.029071070253849,0.0199615601450205,0.029528021812439
361,-0.00420434214174747,-0.0033389285672456,0.030566768720746,0.0290238074958324,0.0230111796408892,0.0251595135778189
362,-0.00255221058614552,-0.00306022516451776,0.0313498489558697,0.0268265772610903,0.0266211200505495,0.0200187787413597
363,-0.000472351588541642,-0.00229700771160424,0.0323478654026985,0.0243219826370478,0.0307958368211985,0.0181522388011217
364,0.000752982217818499,-0.000476064218673855,0.0330931358039379,0.0233415439724922,0.0341100804507732,0.0233142022043467
365,0.00059785001212731,0.0018096974818036,0.0328900031745434,0.0233648009598255,0.034992653876543,0.0323858447372913
366,-0.000318536389386281,0.0035675645340234,0.0316525399684906,0.0234935451298952,0.0334623530507088,0.0407604910433292
367,-0.00138969835825264,0.00438296189531684,0.0302171558141708,0.024157389998436,0.0311954636126757,0.0476457551121712
368,-0.00242492137476802,0.00387344206683338,0.0294225551187992,0.0258308444172144,0.0301560256630182,0.0521055944263935
369,-0.0028790975920856,0.00199647364206612,0.0295347943902016,0.0276710726320744,0.0314150676131248,0.0512658096849918
370,-0.00172708788886666,-0.000611594005022198,0.0308151450008154,0.0281780436635017,0.0350662991404533,0.0438584014773369
371,0.000212723549338989,-0.00264654448255897,0.0325916074216366,0.0277567952871323,0.0386926159262657,0.0342855416238308
372,0.000726631318684667,-0.00338190095499158,0.0334800742566586,0.0280628949403763,0.0391246750950813,0.0284282006323338
373,5.56315062567592E-05,-0.00380968302488327,0.0339506343007088,0.0292384885251522,0.0371519140899181,0.0257660858333111
374,0.000347947236150503,-0.00427847262471914,0.0355431102216244,0.0309646427631378,0.0358927547931671,0.0236987862735987
375,0.00181999686174095,-0.00394180370494723,0.0374946147203445,0.0328423902392387,0.0359866470098495,0.023383054882288
376,0.00269232899881899,-0.00258669233880937,0.0374612957239151,0.0337668731808662,0.035941056907177,0.0265107583254576
377,0.00229981914162636,-0.00108868291135877,0.0356344878673553,0.0334768444299698,0.0360335186123848,0.0311738885939121
378,0.00139707396738231,-0.000462959491414949,0.0345481671392918,0.0330386683344841,0.0373568497598171,0.0341149233281612
379,0.000811080913990736,-0.000640896731056273,0.0352142192423344,0.032755259424448,0.0391386896371841,0.0342526584863663
380,0.00105607742443681,-0.00133605732116848,0.0363087691366673,0.0313605070114136,0.0402340032160282,0.0315397493541241
381,0.00184613594319671,-0.0023449482396245,0.0363776125013828,0.0285546407103539,0.0401092134416103,0.027712132781744
382,0.00253582070581615,-0.00243612821213901,0.0355052910745144,0.0264241360127926,0.0387301370501518,0.0266102608293295
383,0.00281833577901125,-0.000995849608443677,0.034653078764677,0.0267693437635899,0.0368180312216282,0.0288293082267046
384,0.00288465199992061,0.000639200385194272,0.0346304327249527,0.0286994837224483,0.0358381569385529,0.0311071705073118
385,0.00293813785538077,0.00185859820339829,0.0355827771127224,0.0306709874421358,0.0363482125103474,0.0329380333423615
386,0.00274698645807803,0.003179901978001,0.037006039172411,0.0323781855404377,0.0374695286154747,0.0360738039016724
387,0.00244588474743068,0.00424480391666293,0.0384297594428062,0.0334870368242264,0.0387809909880161,0.0393987782299519
388,0.00242500519379973,0.00476142670959234,0.0392765924334526,0.0336451977491379,0.039919201284647,0.0409332290291786
389,0.00245798169635236,0.00458315946161747,0.0393649078905582,0.033203337341547,0.0402511358261108,0.0403265319764614
390,0.00248929345980287,0.00343632977455854,0.039962250739336,0.0333659984171391,0.0405717976391315,0.0385753251612186
391,0.00300347385928035,0.00199445686303079,0.0423315390944481,0.0354386121034622,0.0425436459481716,0.0378252640366554
392,0.0035205336753279,0.000167583639267832,0.0451627522706985,0.0380438975989819,0.0459147170186043,0.0382384657859802
393,0.00320798717439175,-0.00263385195285082,0.0460680797696114,0.0384356640279293,0.0489205420017242,0.0378262549638748
394,0.00286461529321969,-0.00475903833284974,0.0449463166296482,0.0370221249759197,0.0507002435624599,0.0362750105559826
395,0.00284785777330399,-0.00490863528102636,0.0421209633350372,0.0358494892716408,0.0497579947113991,0.0332374051213264
396,0.00199989858083427,-0.00453982315957546,0.0375159867107868,0.0354807116091251,0.0450319275259972,0.0276045221835375
397,5.59020154469181E-05,-0.0048322263173759,0.0332860350608826,0.0360661186277866,0.0388116165995598,0.0219363979995251
398,-0.0021466261241585,-0.00585126597434282,0.031573411077261,0.0368658974766731,0.0341873094439507,0.0191108640283346
399,-0.00348021136596799,-0.00737861823290586,0.032410878688097,0.0366422683000565,0.0332080088555813,0.0191786307841539
400,-0.00393425859510899,-0.00881396792829037,0.0342736952006817,0.0351251102983952,0.0350733920931816,0.0224790256470442
401,-0.00391961494460702,-0.00992089416831732,0.0360504277050495,0.0322831384837627,0.0371889173984528,0.0272452980279922
402,-0.00258690910413861,-0.0104866744950414,0.0384712219238281,0.0290464553982019,0.0391047410666943,0.0304405987262726
403,-5.26597141288221E-05,-0.0100975362583995,0.040889784693718,0.0266746170818806,0.0407697707414627,0.0329158268868923
404,0.00240253424271941,-0.00888993497937918,0.0413752309978008,0.025216655805707,0.0417120270431042,0.0362901091575623
405,0.00451327720656991,-0.0076257074251771,0.0401109158992767,0.0243589133024216,0.0426011830568314,0.0386348776519299
406,0.00639675930142403,-0.00672716135159135,0.0383336544036865,0.0242020897567272,0.0433586947619915,0.0380897186696529
407,0.0072692078538239,-0.00630427012220025,0.0362857207655907,0.0247248634696007,0.0423806421458721,0.0358288921415806
408,0.00658307410776615,-0.00675409939140081,0.0339452102780342,0.0256904251873493,0.0391154587268829,0.0333500429987907
409,0.00499569298699498,-0.00825730990618467,0.0317903719842434,0.0271344967186451,0.0350854322314262,0.0303144790232182
410,0.00335594639182091,-0.0099925035610795,0.0303240213543177,0.0294322427362204,0.0321796536445618,0.0258532520383596
411,0.00255051255226135,-0.010617833584547,0.029299458488822,0.0321383289992809,0.0309416893869638,0.0201370026916265
412,0.00334330298937857,-0.00996515620499849,0.0281068608164787,0.0338164307177067,0.0306557659059763,0.0149130551144481
413,0.00468985782936215,-0.00911320094019175,0.0270792301744223,0.0335700698196888,0.0306825432926416,0.0129977324977517
414,0.00465654209256172,-0.00879943557083607,0.0268221795558929,0.0308679211884737,0.0311366207897663,0.0158679485321045
415,0.00334474490955472,-0.00857629999518394,0.0273932404816151,0.0260316748172045,0.0324950031936169,0.0219452586025
416,0.00231057032942772,-0.00799226015806198,0.0291175674647093,0.0213211644440889,0.0351521484553814,0.0274899285286665
417,0.00162003724835813,-0.00738829327747226,0.0313025005161762,0.0190664120018482,0.0378299541771412,0.0308053623884916
418,-5.68279847357189E-06,-0.00644379854202271,0.0314286164939404,0.0193079486489296,0.0373078435659409,0.033962793648243
419,-0.00266154250130057,-0.00437367893755436,0.0285115167498589,0.0206538718193769,0.0324055179953575,0.0391068123281002
420,-0.00538750737905502,-0.00230347807519138,0.0244850516319275,0.0218307450413704,0.0258636362850666,0.0447965525090694
421,-0.00709090614691377,-0.00179774651769549,0.0217178463935852,0.0223949775099754,0.0214068200439215,0.0473031736910343
422,-0.0065042176283896,-0.00215911818668246,0.0215963628143072,0.023205641657114,0.0208785366266966,0.0453330017626286
423,-0.0039265314117074,-0.00271878996863961,0.0237454213202,0.0242798067629337,0.0231341850012541,0.0393989160656929
424,-0.00126742105931044,-0.00420096889138222,0.0259815193712711,0.0237883552908897,0.0256155878305435,0.0290817636996508
425,0.000597174512222409,-0.00632994528859854,0.0266306754201651,0.0216155778616667,0.0270134527236223,0.0165661331266165
426,0.00214040256105363,-0.00781071837991476,0.0262508243322372,0.0203105360269547,0.0280500221997499,0.00784273911267519
427,0.00349535420536995,-0.00809857156127691,0.0262815840542316,0.0211717188358307,0.0298801772296429,0.00670673791319132
428,0.0043211099691689,-0.00759263709187508,0.0272488966584206,0.022937735542655,0.0323403365910053,0.0110973101109266
429,0.00485256500542164,-0.0072564953006804,0.0290848780423403,0.0243941824883223,0.0351525209844112,0.0156937837600708
430,0.00542096700519323,-0.00773892691358924,0.0309082437306643,0.0256953779608011,0.037751592695713,0.0170202013105154
431,0.00557363126426935,-0.00840881559997797,0.0311282202601433,0.0272227320820093,0.0382793396711349,0.0167788565158844
432,0.00486501445993781,-0.0086254058405757,0.0298669580370188,0.0286232922226191,0.0365643948316574,0.0181855205446482
433,0.00444098375737667,-0.00817336142063141,0.0293993018567562,0.0292839035391808,0.0355891659855843,0.0207691974937916
434,0.00515875173732638,-0.00675609242171049,0.0304205324500799,0.0287886504083872,0.0365555174648762,0.0228146146982908
435,0.00592071376740932,-0.00506123062223196,0.0313171669840813,0.0271373242139816,0.0374363549053669,0.0234124362468719
436,0.00594420917332172,-0.00394919980317354,0.0311654470860958,0.0253532323986292,0.0371197015047073,0.0225147493183613
437,0.00511690229177475,-0.00349289807491004,0.0299216620624065,0.0244154557585716,0.035464808344841,0.0217441916465759
438,0.00391120929270983,-0.00346108200028539,0.0284212194383144,0.0240134708583355,0.0329734720289707,0.0217976924031973
439,0.00356890610419214,-0.00349681847728789,0.0279023926705122,0.0234557278454304,0.031063424423337,0.0214608777314425
440,0.0046861176379025,-0.00286016426980495,0.0284283626824617,0.0230099465698004,0.0306898169219494,0.0202919207513332
441,0.00661698216572404,-0.00136654195375741,0.0293973181396723,0.0232293922454119,0.0318492762744427,0.0187082774937153
442,0.00874410476535559,6.69181681587361E-05,0.0308453664183617,0.0241176933050156,0.0341304130852222,0.017753042280674
443,0.0105156395584345,0.000394721544580534,0.0326425842940807,0.0249819811433554,0.036663968116045,0.0181961469352245
444,0.0107435677200556,-0.00119276065379381,0.033349271863699,0.0245137978345156,0.0375485792756081,0.0179962161928415
445,0.00918450299650431,-0.00428762566298246,0.0318501889705658,0.0224272832274437,0.0354490727186203,0.0152083793655038
446,0.00688838446512818,-0.00759371183812618,0.0281500369310379,0.0189406760036945,0.03103949688375,0.0101959891617298
447,0.00493740383535624,-0.0100417593494058,0.0232491251081228,0.0143798496574163,0.0262207798659801,0.00512521341443062
448,0.00395901314914227,-0.0110160317271948,0.0199858620762825,0.0106399999931455,0.0230918861925602,0.00296311196871102
449,0.00409782072529197,-0.0111010186374187,0.0205583702772856,0.00910261180251837,0.0231200568377972,0.00337773794308305
450,0.00481634773313999,-0.0108694452792406,0.02333989366889,0.00908626709133387,0.025723559781909,0.00398797914385796
451,0.00488638738170266,-0.00937795825302601,0.0249019600450993,0.00963578559458256,0.0279203653335571,0.00468032900243998
452,0.00303410249762237,-0.0061577963642776,0.0234846584498882,0.0100434776395559,0.0267371758818626,0.0060864444822073
453,-0.000701209995895624,-0.00254257884807885,0.0199950393289328,0.00982603896409273,0.0220429562032223,0.00749188615009189
454,-0.00447735609486699,-0.000145250611240044,0.0166851375252008,0.00924307014793158,0.0162386614829302,0.00815368723124266
455,-0.00652265548706055,0.00070496293483302,0.0149972904473543,0.00907145440578461,0.0118275098502636,0.00864160247147083
456,-0.00693537248298526,0.000604393484536558,0.0144466878846288,0.0100080436095595,0.00933508854359388,0.00922472029924393
457,-0.00719499634578824,-0.00058187177637592,0.0133747812360525,0.0121143758296967,0.00773521792143583,0.00814950373023748
458,-0.0078920591622591,-0.00298346788622439,0.0115252044051886,0.0148887718096375,0.0070689357817173,0.0041776979342103
459,-0.00765354093164206,-0.00536807999014854,0.0107342153787613,0.0177532341331244,0.00820035394281149,-0.00118726037908345
460,-0.00554748577997088,-0.00675029773265123,0.0121302455663681,0.0197932794690132,0.0105733470991254,-0.0055467002093792
461,-0.00248940684832633,-0.007075235247612,0.015097338706255,0.0202967692166567,0.0128757562488317,-0.0055809011682868
462,0.000265342212514952,-0.00643617520108819,0.0187665745615959,0.0199577435851097,0.0146108791232109,0.00185982370749116
463,0.0015769173623994,-0.00544459419324994,0.0221246480941772,0.0195932928472757,0.0154810063540936,0.0135787008330226
464,0.0011923253769055,-0.00473952060565352,0.0245366394519806,0.0192800611257553,0.0157250035554171,0.0215605664998293
465,0.000189814192708582,-0.00439169304445386,0.0265793390572071,0.0191926453262568,0.0165547523647547,0.0219339039176703
466,-0.000303767097648233,-0.0044081867672503,0.0288474168628454,0.0195016749203205,0.0187372583895922,0.0173148456960917
467,0.00011875806376338,-0.00472592422738671,0.0311595667153597,0.020523514598608,0.0220813602209091,0.0125260828062892
468,0.000762561801820993,-0.00482568284496665,0.0331389904022217,0.0228527262806892,0.0255645085126162,0.0109036238864064
469,0.000915721349883825,-0.00416094437241554,0.0346792303025723,0.0264971405267715,0.0283960122615099,0.0131237031891942
470,0.00083646533312276,-0.00253557227551937,0.0356697514653206,0.0303788352757692,0.0304743088781834,0.0177316293120384
471,0.000825835333671421,-2.84506750176661E-05,0.0361025333404541,0.0335040837526321,0.0313512198626995,0.0225913785398006
472,0.000325757719110698,0.00218618335202336,0.0359585732221603,0.0352850705385208,0.0301315505057573,0.025599081069231
473,-0.00122679735068232,0.00256842747330666,0.0348700396716595,0.0346170626580715,0.0266240555793047,0.0251515172421932
474,-0.00288830720819533,0.00114021834451705,0.0329144634306431,0.0309830531477928,0.0225769951939583,0.0207184124737978
475,-0.0030901120044291,-0.000676292926073074,0.0306228660047054,0.0256293341517448,0.0201923567801714,0.0138472625985742
476,-0.00178851711098105,-0.00151359743904322,0.027890557423234,0.0202747471630573,0.019691301509738,0.00871776044368744
477,-6.58564822515473E-05,-0.00108622026164085,0.0250957105308771,0.016391159966588,0.0206341277807951,0.00925888027995825
478,0.00145088357385248,-0.000251587945967913,0.0239590331912041,0.0152417933568358,0.0232973117381334,0.0144318724051118
479,0.00193769379984587,-0.000344835367286578,0.0249701533466578,0.0167025327682495,0.0266295950859785,0.0193840432912111
480,0.000747603946365416,-0.00156364834401757,0.0272947829216719,0.0201536137610674,0.0288750603795052,0.0215336345136166
481,-0.00125530292280018,-0.0025890083052218,0.0302386581897736,0.0253309216350317,0.0294344443827868,0.0213813371956348
482,-0.00288217863999307,-0.00224597821943462,0.0326093956828117,0.0304059330374002,0.0278658755123615,0.0198264550417662
483,-0.00373275065794587,-0.00072012358577922,0.0332646109163761,0.0322685874998569,0.0242189280688763,0.0172403752803802
484,-0.00357755296863616,0.000850553391501307,0.0321013890206814,0.0297974571585655,0.0199776459485292,0.0143967512995005
485,-0.00274447351694107,0.00154151325114071,0.0295330602675676,0.0246422532945871,0.0164444055408239,0.0130189498886466
486,-0.00251476722769439,0.000843398447614163,0.0259709749370813,0.0191434305161238,0.0133284479379654,0.0136779947206378
487,-0.00324342981912196,-0.0014939762186259,0.0223913360387087,0.0152717567980289,0.0107476143166423,0.0144735956564546
488,-0.0036855498328805,-0.00513853784650564,0.0206048227846622,0.0138674350455403,0.01071737986058,0.0131632592529058
489,-0.00313822645694017,-0.00934809260070324,0.0213652215898037,0.0137094957754016,0.0139346830546856,0.0102813225239515
490,-0.00260143377818167,-0.0133675336837769,0.0231722574681044,0.0130598302930593,0.0178921222686768,0.00821857526898384
491,-0.0032920497469604,-0.0161505304276943,0.0241962037980556,0.0121977422386408,0.0194814335554838,0.00849055871367455
492,-0.00514609785750508,-0.0162326693534851,0.023934081196785,0.0130220130085945,0.0173962153494358,0.0114066638052464
493,-0.00704522198066115,-0.0133417062461376,0.0229540653526783,0.0160820670425892,0.0129488706588745,0.0157796703279018
494,-0.00843223184347153,-0.00944798905402422,0.0215141251683235,0.0194573234766722,0.00824989005923271,0.0197500139474869
495,-0.00968003179877996,-0.00656618643552065,0.0190434530377388,0.0209683775901794,0.00417488208040595,0.0217614863067865
496,-0.0105072185397148,-0.00518163852393627,0.0155539941042662,0.019523523747921,0.0016031147679314,0.0205910373479128
497,-0.00999121181666851,-0.00494109559804201,0.012327385134995,0.0155483307316899,0.00161129666958004,0.0170154627412558
498,-0.00828819442540407,-0.00532939052209258,0.0107776606455445,0.0107635539025068,0.00328501337207854,0.0130929574370384
499,-0.00657831039279699,-0.0057467482984066,0.0114338975399733,0.006763796787709,0.0047100936062634,0.010238136164844
500,-0.00610135914757848,-0.0058381324633956,0.0134698078036308,0.00457729957997799,0.00520496023818851,0.00999675970524549
501,-0.00730383116751909,-0.00559787265956402,0.0155885256826878,0.00501202326267958,0.00476203998550773,0.0138496197760105
502,-0.00850627664476633,-0.00495929410681129,0.0179789643734694,0.00805649533867836,0.00465684151276946,0.0202439893037081
503,-0.00786092039197683,-0.00447495188564062,0.0210764221847057,0.0117455488070846,0.00685225473716855,0.0245407987385988
504,-0.00631345668807626,-0.00505390483886003,0.0236378610134125,0.0140595734119415,0.0106218596920371,0.0242155287414789
505,-0.00583684211596847,-0.00655594654381275,0.0241952836513519,0.0149251036345959,0.0132650369778275,0.0206059701740742
506,-0.00659608328714967,-0.00812522228807211,0.0226610694080591,0.0150489751249552,0.0136750647798181,0.0161397494375706
507,-0.0072956751100719,-0.00915554910898209,0.0203541051596403,0.0148800360038877,0.0129980007186532,0.0123247671872377
508,-0.00746189197525382,-0.00980205461382866,0.0187111031264067,0.014256838709116,0.0123981405049562,0.00851208623498678
509,-0.00748168723657727,-0.0108066033571959,0.0184596739709377,0.012995470315218,0.0126121314242482,0.00340667041018605
510,-0.00705772312358022,-0.0123740583658218,0.0193077977746725,0.0111989919096231,0.0138131557032466,-0.00176557502709329
511,-0.00620435830205679,-0.0136282574385405,0.0197027400135994,0.00894824042916298,0.0142247192561626,-0.00391711434349418
512,-0.00564666651189327,-0.0130627825856209,0.0190883297473192,0.00740307895466685,0.0128547409549356,-0.0010901945643127
513,-0.00571793550625443,-0.0104151349514723,0.0183105431497097,0.00750361522659659,0.0110236369073391,0.00560360308736563
514,-0.00649911025539041,-0.00756824109703302,0.0173403713852167,0.00812114216387272,0.00941492058336735,0.0127080166712403
515,-0.00751385558396578,-0.00601579807698727,0.0161887630820274,0.00839475076645613,0.00822701584547758,0.0176567584276199
516,-0.0075540179386735,-0.00557014159858227,0.0159788113087416,0.00889732036739588,0.00853167567402124,0.0196984000504017
517,-0.00578392902389169,-0.00565553642809391,0.0170620400458574,0.00994519982486963,0.0105619980022311,0.0191599354147911
518,-0.00218681152909994,-0.00591560872271657,0.0189242716878653,0.0111269745975733,0.0137122515588999,0.0169738512486219
519,0.00169637321960181,-0.00652605202049017,0.0211241710931063,0.0119141144677997,0.0171755813062191,0.0132500259205699
520,0.00385832227766514,-0.00743640819564462,0.0231808964163065,0.0126251364126801,0.0195893552154303,0.00838255044072866
521,0.00423669116571546,-0.00795240141451359,0.0248744059354067,0.013594189658761,0.0204394534230232,0.0035903041716665
522,0.00372443255037069,-0.00785030052065849,0.0259027760475874,0.014409895054996,0.0200284533202648,-0.000597408739849925
523,0.003075554035604,-0.00697309244424105,0.0263862032443285,0.015852902084589,0.0188953746110201,-0.00285704084672034
524,0.00232354132458568,-0.00527817057445645,0.0264179930090904,0.0181066729128361,0.0176927037537098,-0.00177753868047148
525,0.000945073668844998,-0.00298291118815541,0.0250114239752293,0.0194294471293688,0.0166397225111723,0.00213634991087019
526,-0.00110836303792894,-0.000913868192583323,0.0217587482184172,0.0187027845531702,0.0155504923313856,0.00617707753553987
527,-0.00352060561999679,-0.00036504227318801,0.0178344864398241,0.0155854057520628,0.0139995161443949,0.00744338566437364
528,-0.00545928860083222,-0.000790648628026247,0.0150591405108571,0.0109845111146569,0.0119533436372876,0.00716013088822365
529,-0.00595414033159614,-0.000857570848893374,0.0147135276347399,0.00705832336097956,0.0105421124026179,0.00782932247966528
530,-0.00464295828714967,-0.000698882038705051,0.0165743436664343,0.00454955548048019,0.0112668788060546,0.00874168146401644
531,-0.00242778123356402,-0.00105492654256523,0.0187474451959133,0.002521081129089,0.013421917334199,0.00885597430169582
532,-0.00118705269414932,-0.00235836859792471,0.0192605368793011,1.00557581390603E-05,0.0145498141646385,0.00868870411068201
533,-0.00209510046988726,-0.00459960987791419,0.0176611505448818,-0.0031098504550755,0.0136931790038943,0.00884569436311722
534,-0.00467503257095814,-0.00666558183729649,0.0150084067136049,-0.0054545346647501,0.0120240533724427,0.00995539780706167
535,-0.00736049376428127,-0.00690931733697653,0.0126987779513001,-0.00511670624837279,0.0107573550194502,0.01248172018677
536,-0.00928502436727285,-0.00564784975722432,0.0108436634764075,-0.00219753920100629,0.00943282246589661,0.0154486047104001
537,-0.0109363924711943,-0.00502211367711425,0.00866129994392395,0.00076447578612715,0.00713938754051924,0.0165698509663343
538,-0.0124399261549115,-0.00597458798438311,0.0065462845377624,0.00130311853718013,0.00489654997363687,0.0140915755182505
539,-0.0128200631588697,-0.00754962954670191,0.00563650671392679,-0.000698553631082177,0.00454930774867535,0.00906740035861731
540,-0.0117785995826125,-0.00852909311652184,0.00579777592793107,-0.00366295012645423,0.00577218970283866,0.00489548780024052
541,-0.0101359849795699,-0.00842022616416216,0.00631037168204784,-0.00602130172774196,0.00708245672285557,0.003672462888062
542,-0.00833834428340197,-0.00716931279748678,0.00679588504135609,-0.00686103757470846,0.0076351840980351,0.00446573738008738
543,-0.00664822058752179,-0.00525724468752742,0.00650406954810023,-0.00693524489179254,0.00673794513568282,0.00438188062980771
544,-0.00549077149480581,-0.00323810521513224,0.00515864230692387,-0.00779837230220437,0.00466448673978448,0.00159117113798857
545,-0.00473306560888886,-0.000934650946874172,0.0036498992703855,-0.00914123561233282,0.00283724558539689,-0.00206248252652586
546,-0.00399664044380188,0.00132663175463676,0.0025227062869817,-0.00961050391197205,0.00217671482823789,-0.00325620756484568
547,-0.00302937789820135,0.00289601390250027,0.00141353963408619,-0.00879071652889252,0.00256160832941532,-0.000681441801134497
548,-0.0021595205180347,0.00334108853712678,-0.000344825995853171,-0.00775924557819963,0.00301386695355177,0.00455549918115139
549,-0.00202347291633487,0.00240140361711383,-0.00314566376619041,-0.00828976184129715,0.00257614022120833,0.0105795040726662
550,-0.0023382396902889,0.00092360278358683,-0.00664782430976629,-0.010800413787365,0.00120819313451648,0.0159856826066971
551,-0.00234871963039041,-6.54763134662062E-05,-0.00996905844658613,-0.0144801363348961,-0.00038186096935533,0.0197150837630033
552,-0.00210940325632691,-0.000615223136264831,-0.0125259039923549,-0.018634170293808,-0.001496332581155,0.0204115975648165
553,-0.00185292982496321,-0.00128593482077122,-0.0145275546237826,-0.0229659359902143,-0.00221840711310506,0.0165868140757084
554,-0.000742746284231544,-0.00193060596939176,-0.0164129380136728,-0.0271065514534712,-0.00252485112287104,0.00887476280331612
555,0.00127207860350609,-0.00213978299871087,-0.0186642929911613,-0.0305981952697039,-0.00240574078634381,0.000663966871798038
556,0.00266185472719371,-0.00214838329702616,-0.0214009303599596,-0.0335161536931992,-0.00239219446666539,-0.00512850843369961
557,0.00270304922014475,-0.00172406726051122,-0.0239976607263088,-0.0358587577939034,-0.00269509595818818,-0.00715396925806999
558,0.00195202021859586,-0.000355925178155303,-0.0255005173385143,-0.0367163680493832,-0.00317251775413752,-0.00509246019646525
559,0.00098700076341629,0.000843105372041464,-0.0256060808897018,-0.0361299589276314,-0.00358849298208952,-0.00120825995691121
560,3.09844836010598E-05,0.000727867300156504,-0.0253047794103622,-0.0355811268091202,-0.00409923912957311,0.00128341920208186
561,-0.000547044910490513,0.000741843366995454,-0.0253504402935505,-0.0350863635540009,-0.00507801724597812,0.00201199296861887
562,-0.000526427058503032,0.00250829663127661,-0.0260538551956415,-0.034346915781498,-0.00680346041917801,0.00235966895706952
563,1.50715313793626E-05,0.00500434264540672,-0.0276548489928246,-0.0346828475594521,-0.00844824779778719,0.00211730715818703
564,0.00118412799201906,0.00604583555832505,-0.0294941887259483,-0.0369367338716984,-0.00811014138162136,-0.00055290391901508
565,0.0023337509483099,0.00489652110263705,-0.031615249812603,-0.0402448363602161,-0.00658017350360751,-0.00553609570488334
566,0.00263240211643279,0.00315873697400093,-0.0345219038426876,-0.0427574180066586,-0.00629975320771337,-0.00928524043411016
567,0.00244252220727503,0.00246984930709004,-0.0372362658381462,-0.0433480627834797,-0.00721029657870531,-0.00961882341653109
568,0.0025920479092747,0.00249134376645088,-0.0384829826653004,-0.0423637516796589,-0.00780410226434469,-0.0086138965561986
569,0.00307587604038417,0.00200822623446584,-0.0385549031198025,-0.0418107286095619,-0.00768026243895292,-0.00971809029579163
570,0.00356709491461515,0.000999313779175282,-0.0383892431855202,-0.0437320955097675,-0.00678472779691219,-0.0136732514947653
571,0.00383543176576495,0.000601769366767257,-0.0386296138167381,-0.0476878508925438,-0.0056082084774971,-0.0170753840357065
572,0.00360288843512535,0.00139825872611254,-0.0393616482615471,-0.051359910517931,-0.00544064212590456,-0.0161397960036993
573,0.00330873718485236,0.00296669197268784,-0.0399856232106686,-0.0533266551792622,-0.00623410847038031,-0.0112923448905349
574,0.00340078887529671,0.0044559882953763,-0.040630679577589,-0.054201427847147,-0.00755417859181762,-0.00662111863493919
575,0.00391422072425485,0.00535795977339149,-0.0409919656813145,-0.0541375279426575,-0.00911664869636297,-0.00578265963122249
576,0.00405910005792975,0.00516675366088748,-0.0405500195920467,-0.0531509071588516,-0.0108426660299301,-0.00928003154695034
577,0.00280936644412577,0.00318259513005614,-0.0403298959136009,-0.0530342310667038,-0.0129843624308705,-0.0150028942152858
578,0.000319896469591185,-0.000569383264519274,-0.0413600914180279,-0.0550594553351402,-0.0153323812410235,-0.0209183022379875
579,-0.00272972346283495,-0.00451193377375603,-0.0431469567120075,-0.0573636777698994,-0.0177791267633438,-0.0252347160130739
580,-0.00517732696607709,-0.00654678419232368,-0.0444622933864594,-0.0576434694230556,-0.0195095930248499,-0.0272977668792009
581,-0.00553665682673454,-0.00623394595459104,-0.0446184277534485,-0.0562457703053951,-0.0189570095390081,-0.0286151263862848
582,-0.00420312257483602,-0.00457194913178682,-0.043721865862608,-0.0540684871375561,-0.0170632191002369,-0.0276917573064566
583,-0.00290506705641747,-0.00279933493584394,-0.0420452393591404,-0.0515935085713863,-0.0161478687077761,-0.0224563665688038
584,-0.00176884443499148,-0.00272612436674535,-0.038816187530756,-0.0492902249097824,-0.0152069153264165,-0.0176851339638233
585,-0.000559096108190715,-0.00490808254107833,-0.0340348035097122,-0.0464772470295429,-0.0129052419215441,-0.0166559685021639
586,-5.00285932503175E-05,-0.00671190675348043,-0.029650779440999,-0.0424946285784245,-0.0108528705313802,-0.015223846770823
587,-0.000290515716187656,-0.00634146807715297,-0.0271755997091532,-0.0387661755084991,-0.0105620203539729,-0.0122662419453263
588,-0.000545170623809099,-0.00468742335215211,-0.0267314966768026,-0.0366896949708462,-0.0117989750579,-0.0100648039951921
589,-0.00045848372974433,-0.00244886917062104,-0.0276461709290743,-0.0356780178844929,-0.0130928056314588,-0.00720151653513312
590,0.000215758220292628,-0.000850514858029783,-0.0293296501040459,-0.0361319705843925,-0.0131002021953464,-0.00604231841862202
591,0.00182831310667098,-0.00180623261258006,-0.0308398772031069,-0.0394262075424194,-0.0112081402912736,-0.0133004831150174
592,0.00383419403806329,-0.00421948870643973,-0.0306509584188461,-0.0428366884589195,-0.00767659256234765,-0.0242581609636545
593,0.00489065703004599,-0.0051561277359724,-0.0281278174370527,-0.0409394353628159,-0.00404767086729407,-0.0282046515494585
594,0.00462261447682977,-0.00444439752027392,-0.0236939247697592,-0.0328889824450016,-0.00116916617844254,-0.0259551648050547
595,0.00363621558062732,-0.00277706631459296,-0.0187944192439318,-0.0231978464871645,0.000996650196611881,-0.0213022213429213
596,0.0019733605440706,0.000212270009797066,-0.0157118663191795,-0.0165461990982294,0.00145189056638628,-0.0136512815952301
597,0.000219730281969532,0.00364406756125391,-0.0148913627490401,-0.0143011640757322,0.000377291464246809,-0.00613325648009777
598,-0.000478926551295444,0.00618419190868735,-0.0145325176417828,-0.0143590476363897,-0.000388995395042002,-0.0020949428435415
599,-0.000818490341771394,0.00777169596403837,-0.0141074853017926,-0.014626887626946,-0.00111992610618472,-0.000117023657367099
600,-0.00162051571533084,0.00843491870909929,-0.0141798127442598,-0.0156023958697915,-0.00233281147666276,0.000969247776083648
601,-0.00201585865579546,0.00803248211741447,-0.0140314185991883,-0.0178417507559061,-0.002301782136783,0.00169755320530385
602,-0.0014675542479381,0.0073799011297524,-0.0130185596644878,-0.0201814994215965,-0.000425298349000514,0.00409078132361174
603,-0.000729211373254657,0.00696988729760051,-0.0116172200068831,-0.0211262479424477,0.00172105524688959,0.00823055487126112
604,-0.000585418194532394,0.0061502093449235,-0.0100270323455334,-0.0200589336454868,0.00302901258692145,0.0113118086010218
605,-0.000653917610179633,0.0045182122848928,-0.00771618820726871,-0.0172276813536882,0.00423547578975558,0.0111078778281808
606,-0.00023653513926547,0.00231306557543576,-0.00479984702542424,-0.0135201187804341,0.00627259211614728,0.00763883208855987
607,0.000482148781884462,0.00015574658755213,-0.00207945029251277,-0.00977455824613571,0.00859501585364342,0.00279128365218639
608,0.000831590732559562,-0.00107712962199003,7.59732756705489E-06,-0.00590665591880679,0.00981386844068766,-0.00022319117852021
609,0.000503569841384888,-0.00139856350142509,0.00143312430009246,-0.00238879304379225,0.00953438878059387,0.000176676185219549
610,0.000171020001289435,-0.001669125049375,0.00269883149303496,-0.000538114691153169,0.00906294211745262,0.00218985159881413
611,0.000696737784892321,-0.00220701214857399,0.00454237917438149,-0.000497132423333824,0.00974642857909203,0.00311402976512909
612,0.00168518873397261,-0.00350659876130521,0.00715386494994164,-0.00130327022634447,0.0117426468059421,0.00115282309707254
613,0.00224928115494549,-0.00594827858731151,0.0094182975590229,-0.00164927367586643,0.0134633239358664,-0.00323643488809466
614,0.00266894069500268,-0.00832244195044041,0.00964972283691168,-0.000479672249639407,0.0126899518072605,-0.00796337518841028
615,0.00357720605097711,-0.00935669522732496,0.00857812259346247,0.00254745990969241,0.00994295254349709,-0.0114133274182677
616,0.00483287032693625,-0.00908771250396967,0.00946502108126879,0.00708766467869282,0.00831098109483719,-0.0123597085475922
617,0.00617438973858953,-0.00819212850183249,0.014353821054101,0.0121892532333732,0.00998474843800068,-0.00975644774734974
618,0.00736903306096792,-0.0072581460699439,0.0219160597771406,0.0170180443674326,0.0147180128842592,-0.00385629222728312
619,0.00786455441266298,-0.00664725853130221,0.0288434475660324,0.0208860170096159,0.020430339500308,0.00320169422775507
620,0.00772004807367921,-0.00645225495100021,0.0335702374577522,0.0239116419106722,0.0256535448133945,0.00894046388566494
621,0.00769300479441881,-0.00635122042149305,0.0376523919403553,0.0279958341270685,0.0305103044956923,0.0125328255817294
622,0.00778223527595401,-0.00611649081110954,0.0424297414720058,0.0341811664402485,0.034617155790329,0.0151193644851446
623,0.0071767745539546,-0.00563471624627709,0.0467416942119598,0.040472324937582,0.0365691520273685,0.0190111752599478
624,0.00562385935336351,-0.00458894437178969,0.0495283044874668,0.0447566844522953,0.0361906662583351,0.025292007252574
625,0.00367003679275513,-0.00325353583320975,0.0513891577720642,0.0468009039759636,0.0347749255597591,0.0312805026769638
626,0.00157424574717879,-0.00248220236971974,0.05238002166152,0.047486424446106,0.0322347581386566,0.0336901359260082
627,-0.000719782372470945,-0.00233900104649365,0.0513777136802673,0.0483741499483585,0.0274508204311132,0.0326299369335175
628,-0.0030031877104193,-0.00247449683956802,0.0475159250199795,0.0492415428161621,0.0208166856318712,0.0295457243919373
629,-0.00471821380779147,-0.0032423788215965,0.0422049164772034,0.0480367802083492,0.0146662006154656,0.0249727293848991
630,-0.00509298918768764,-0.00468175485730171,0.0387890338897705,0.0448041185736656,0.0115524483844638,0.0199287328869104
631,-0.00392101379111409,-0.00563321588560939,0.0383256115019321,0.0414378866553307,0.0117716277018189,0.0169055536389351
632,-0.00256269495002925,-0.00534077407792211,0.038051575422287,0.0391024388372898,0.0127562126144767,0.0170445181429386
633,-0.00261297984980047,-0.00454520806670189,0.0357237532734871,0.0381114780902863,0.0118489135056734,0.0184162482619286
634,-0.00329472729936242,-0.00396261876448989,0.0333739593625069,0.0377332717180252,0.0101345833390951,0.018828796222806
635,-0.00322672235779464,-0.00386001938022673,0.0336878709495068,0.0363753102719784,0.0102769192308187,0.0177206266671419
636,-0.00305511546321213,-0.00433135218918324,0.0356058739125729,0.0337797291576862,0.0120146246626973,0.0163779761642218
637,-0.00390229257754982,-0.00462685292586684,0.0368264093995094,0.0318368263542652,0.0132372519001365,0.0173688177019358
638,-0.00592785840854049,-0.00390677992254496,0.0368241332471371,0.0325986854732037,0.0124595118686557,0.0216023270040751
639,-0.00799361616373062,-0.00207557738758624,0.0365561470389366,0.0353416875004768,0.0103887682780623,0.0268842652440071
640,-0.00839108694344759,-6.01666288275737E-05,0.0365423373878002,0.0370905138552189,0.00904980674386024,0.0297614615410566
641,-0.00666368752717972,0.00106019142549485,0.0362675376236439,0.0372894816100597,0.00889470800757408,0.0287267118692398
642,-0.00397315062582493,0.00118424266111106,0.0354786403477192,0.0370780937373638,0.00932696647942066,0.0243190731853247
643,-0.001927784178406,0.000358262768713757,0.0340653732419014,0.035827249288559,0.0100013697519898,0.0164102651178837
644,-0.00138418760616332,-0.00125118915457278,0.0319360457360744,0.0335684306919575,0.0099760452285409,0.00564423575997353
645,-0.00230166967958212,-0.00304835219867527,0.0296239946037531,0.0318769328296185,0.00833328813314438,-0.00450229924172163
646,-0.00357688427902758,-0.00429524481296539,0.028519919142127,0.0320041291415691,0.00642948970198631,-0.00917218439280987
647,-0.00431423168629408,-0.00452179741114378,0.0295657645910978,0.0340909920632839,0.006424012593925,-0.00585459312424064
648,-0.00500758457928896,-0.00383088761009276,0.0317435711622238,0.0368848815560341,0.0083038043230772,0.00361530063673854
649,-0.0057267751544714,-0.00244825310073793,0.0339074730873108,0.0394095256924629,0.0111736701801419,0.0151623236015439
650,-0.00565066654235125,-0.000839202140923589,0.0362139716744423,0.0416379384696484,0.0147197898477316,0.0243594720959663
651,-0.00472679128870368,0.000145134385093115,0.0378621853888035,0.0427919737994671,0.0180756952613592,0.0281865801662207
652,-0.00376175320707262,-0.000101350880868267,0.0370932556688786,0.0416307486593723,0.0199968460947275,0.0263582970947027
653,-0.00328241544775665,-0.0015201629139483,0.0343299545347691,0.0383431874215603,0.0199939198791981,0.0204455275088549
654,-0.00303013017401099,-0.00325646949931979,0.0315177589654922,0.0337645821273327,0.0184745043516159,0.0132945431396365
655,-0.00224512931890786,-0.0038094415795058,0.0291875973343849,0.0285723172128201,0.0163424536585808,0.00851471722126007
656,-0.000908017565961927,-0.0024351270403713,0.0265202820301056,0.0239906087517738,0.0139307752251625,0.00796903483569622
657,3.09972710965667E-05,-9.86879458650947E-05,0.0234788246452808,0.0210826359689236,0.0116018522530794,0.0100730108097196
658,0.000729985069483519,0.00208448152989149,0.0221626702696085,0.0208026394248009,0.0115394247695804,0.0129566686227918
659,0.00212942529469728,0.00337649788707495,0.0244882106781006,0.0232109557837248,0.0154434964060783,0.0161079782992601
660,0.00411623669788241,0.00279708299785852,0.0299035403877497,0.026305727660656,0.0220517124980688,0.0181729216128588
661,0.00594243779778481,0.000615900615230203,0.0366517454385757,0.0291730891913176,0.0287969708442688,0.0186156667768955
662,0.0067330738529563,-0.00171344529371709,0.0422978550195694,0.0323457792401314,0.0333124324679375,0.0184196289628744
663,0.00610755756497383,-0.00337236258201301,0.0447409600019455,0.0352463684976101,0.0342582836747169,0.0180485974997282
664,0.0043398654088378,-0.0047494862228632,0.0438037179410458,0.0367585048079491,0.031754657626152,0.0174344778060913
665,0.00192345178220421,-0.00701781176030636,0.0403415039181709,0.0358843393623829,0.027102530002594,0.0160237587988377
666,-0.000437198090367019,-0.0101745426654816,0.0357919968664646,0.0327489264309406,0.0225526206195354,0.013454107567668
667,-0.00156514393165708,-0.0122489305213094,0.0322148278355598,0.0290282163769007,0.0204912908375263,0.0102035896852613
668,-0.000362191727617756,-0.0118185728788376,0.0304414108395576,0.0258527547121048,0.0215552840381861,0.00726085342466831
669,0.00224143173545599,-0.00959729216992855,0.0290087554603815,0.0228961128741503,0.0231981799006462,0.00567752029746771
670,0.00428434694185853,-0.00718885054811835,0.0262510422617197,0.0189623348414898,0.0224181041121483,0.00473058549687266
671,0.00517653720453382,-0.00539887556806207,0.0224950220435858,0.0135311326012015,0.0194972045719624,0.00288036349229515
672,0.00503678433597088,-0.0043712891638279,0.0196080394089222,0.008529600687325,0.0169680509716272,0.000689517357386649
673,0.00427092239260674,-0.00421336898580194,0.0192848201841116,0.00706990249454975,0.0167799424380064,-0.000738353759516031
674,0.00362506159581244,-0.00433193054050207,0.0213735550642014,0.0101754637435079,0.0186880845576525,-0.00161654665134847
675,0.00324713694863021,-0.00408854708075523,0.0238397382199764,0.0152644449844956,0.0207796897739172,-0.00218567438423634
676,0.00298767630010843,-0.00339209358207881,0.0247975829988718,0.0186357237398624,0.0217667017132044,-0.00169051962438971
677,0.00275050546042621,-0.00268851080909371,0.0235250145196915,0.0181118696928024,0.0213945917785168,-0.000395335140638053
678,0.0028055333532393,-0.00311275152489543,0.0206782333552837,0.0137216998264194,0.0204313118010759,-0.000572150864172727
679,0.00350079010240734,-0.00522044207900763,0.0175589956343174,0.00789717119187117,0.0197228193283081,-0.00368442595936358
680,0.00456570647656918,-0.00797803327441216,0.0150983976200223,0.00392935890704393,0.0188068598508835,-0.00827143527567387
681,0.00550769455730915,-0.00965967960655689,0.0138319125398993,0.00311599439010024,0.0170739367604256,-0.0108911488205194
682,0.00561391608789563,-0.00964505318552256,0.01322952657938,0.00415554083883762,0.0142122358083725,-0.00910625513643026
683,0.00469122035428882,-0.00859290733933449,0.0121137043461204,0.00541539629921317,0.0105312885716558,-0.00396793056279421
684,0.00331692956387997,-0.00774034718051553,0.0100049264729023,0.00584151549264789,0.00743370549753308,0.000470563652925193
685,0.00199839193373919,-0.00768215954303741,0.00739336106926203,0.00545024918392301,0.00596130918711424,0.00181112322025001
686,0.00131724413949996,-0.00756801385432482,0.00522153312340379,0.0054526156745851,0.00601455848664045,0.00172926101367921
687,0.00175427761860192,-0.00721933972090483,0.00435956614091992,0.00605225609615445,0.00716802477836609,0.00111466797534376
688,0.00284520024433732,-0.00773161556571722,0.00519869290292263,0.00646664900705218,0.00917520467191935,-0.00148173212073743
689,0.00380578939802945,-0.00892268028110266,0.00758640933781862,0.00693381018936634,0.0119576938450336,-0.00545909302309155
690,0.0044542639516294,-0.00982625409960747,0.0105630056932569,0.00780557980760932,0.0149192605167627,-0.00916062481701374
691,0.00496419612318277,-0.0103243067860603,0.0126099288463593,0.0088477898389101,0.016892259940505,-0.011849619448185
692,0.0054827444255352,-0.00976262334734201,0.013423128053546,0.0106092803180218,0.0171931181102991,-0.0114570362493396
693,0.0057084197178483,-0.00818133633583784,0.0137641355395317,0.0124289374798536,0.0159560404717922,-0.00830669607967138
694,0.00555351981893182,-0.00689041661098599,0.0140237351879478,0.0124340197071433,0.0141166131943464,-0.00584658095613122
695,0.00595423206686974,-0.00619206624105573,0.0146662276238203,0.0111969104036689,0.0136457588523626,-0.0044338209554553
696,0.00718818930909038,-0.00613941857591271,0.0159199330955744,0.0100959315896034,0.0157901328057051,-0.00259416433982551
697,0.00794513896107674,-0.00659279059618711,0.0172993931919336,0.00981532968580723,0.0192398726940155,5.6017299357336E-05
698,0.00711047509685159,-0.00676946109160781,0.0183957554399967,0.0113043440505862,0.021425997838378,0.0022975611500442
699,0.00514351949095726,-0.00634519383311272,0.0191481746733189,0.0146735543385148,0.0211920235306025,0.00222620274871588
700,0.00358837330713868,-0.00531189842149615,0.0199744682759047,0.0189417395740747,0.0198880042880774,0.000532482692506164
701,0.00304233306087554,-0.00401134695857763,0.0207416210323572,0.0221392586827278,0.0186461340636015,-0.000415996299125254
702,0.00291232485324144,-0.00345178134739399,0.0200745575129986,0.0221821200102568,0.0171521883457899,-0.000405290687922388
703,0.00323708401992917,-0.00361112761311233,0.0171093642711639,0.0191798564046621,0.0152811221778393,-0.000948598550166935
704,0.00428063794970512,-0.00347567116841674,0.0127012552693486,0.0146661093458533,0.0131219532340765,-0.00264649232849479
705,0.00587501097470522,-0.00298817083239555,0.00889214407652617,0.010076304897666,0.011266510002315,-0.00473578600212932
706,0.00767260091379285,-0.00309112225659192,0.00697440933436155,0.00650437362492085,0.0105304457247257,-0.00642768340185285
707,0.00900531746447086,-0.00453317770734429,0.00678996182978153,0.00440335972234607,0.0111266272142529,-0.00802903901785612
708,0.00928876921534538,-0.00660950969904661,0.00778585858643055,0.00424322206526995,0.0125013366341591,-0.00952951703220606
709,0.00839509256184101,-0.00800041481852531,0.00950271263718605,0.00666538812220097,0.0136449933052063,-0.00970617868006229
710,0.0068924268707633,-0.00837883818894625,0.0124115506187081,0.0118768876418471,0.0147321280092001,-0.00809948798269033
711,0.005587805993855,-0.00828753784298897,0.0170733910053968,0.0187480598688126,0.0166848562657833,-0.00641965493559837
712,0.00465544499456882,-0.00825035572052002,0.0221677273511887,0.0249196775257587,0.0189504362642765,-0.00664754491299391
713,0.00380428112111986,-0.00811375211924315,0.0254599079489708,0.0282403994351625,0.0197940897196531,-0.0079610962420702
714,0.00298567116260529,-0.00765193998813629,0.0261223223060369,0.0277031417936087,0.0184423662722111,-0.00835973862558603
715,0.00220475462265313,-0.00728873070329428,0.0247063655406237,0.0241346564143896,0.0153298266232014,-0.00758613971993327
716,0.0011531519703567,-0.00692631956189871,0.0219085775315762,0.0200284626334906,0.0111497351899743,-0.00545400707051158
717,-0.000313927506795153,-0.00587724149227142,0.0186852719634771,0.0175203457474709,0.00690049072727561,-0.00186250871047378
718,-0.00173849845305085,-0.00450738193467259,0.016545694321394,0.0169654376804829,0.00409254524856806,0.00166654901113361
719,-0.00265590590424836,-0.00370714720338583,0.0169406775385141,0.0180729627609253,0.00426874170079827,0.00387326418422163
720,-0.00305216130800545,-0.00332812615670264,0.0204954072833061,0.0212685707956553,0.00781296752393246,0.00553591269999743
721,-0.00279688951559365,-0.00293409219011664,0.0265696030110121,0.0264817085117102,0.0139330821111798,0.00784689467400312
722,-0.0018031510990113,-0.00290314666926861,0.033149890601635,0.0319750644266605,0.0207588970661163,0.0101012950763106
723,-0.000945208943448961,-0.00309621077030897,0.0374426059424877,0.0362999178469181,0.025069922208786,0.0112278712913394
724,-0.000973976508248597,-0.00238734669983387,0.03844403475523,0.0396797992289066,0.0256886351853609,0.0120631866157055
725,-0.00171124481130391,-0.00119467859622091,0.0368844792246819,0.0413504391908646,0.0238810908049345,0.0130280451849103
726,-0.00284849689342082,-0.00145362690091133,0.0325606651604176,0.0389155372977257,0.0201087165623903,0.0123788202181458
727,-0.00382480770349503,-0.00359275401569903,0.0254992824047804,0.0318417213857174,0.0149925881996751,0.00916857086122036
728,-0.00450373766943812,-0.00626592431217432,0.0172149930149317,0.0224036648869514,0.00933840405195951,0.00491846818476915
729,-0.00505440589040518,-0.00798277370631695,0.00993802398443222,0.01411397382617,0.00382534088566899,0.00158635573461652
730,-0.00483774254098535,-0.00809758994728327,0.0057539870031178,0.0094830272719264,0.000305647845380008,-0.000547052477486432
731,-0.00345832668244839,-0.00739791756495833,0.00518306018784642,0.00866648741066456,0.000105308601632714,-0.00244683725759387
732,-0.00181162008084357,-0.00759024498984218,0.00647708913311362,0.0100525803864002,0.00215517799369991,-0.00508206244558096
733,-0.000641853432171047,-0.00892089772969484,0.007002595346421,0.0117109501734376,0.00444980012252927,-0.00853216648101807
734,0.000485412194393575,-0.00948784686625004,0.00561984907835722,0.0127951763570309,0.00611140998080373,-0.0115570845082402
735,0.00155430531594902,-0.008506597019732,0.00291703105904162,0.0125647382810712,0.00698085455223918,-0.0142013523727655
736,0.00188251084182411,-0.00738302851095796,-0.000181648036232218,0.0102460402995348,0.00730619207024574,-0.0181584060192108
737,0.00165524694602937,-0.00714152678847313,-0.00209339475259185,0.00761270429939032,0.00860217865556479,-0.0223004370927811
738,0.00133401283528656,-0.00761916069313884,-0.000814023544080555,0.00784406810998917,0.0119736632332206,-0.0230054408311844
739,0.00107309385202825,-0.00831584725528955,0.0043918970040977,0.0117634236812592,0.0171549487859011,-0.0191072802990675
740,0.000823182053864002,-0.00877018924802542,0.011553936637938,0.0175793413072824,0.0224291030317545,-0.0130929490551353
741,-2.82868695649086E-05,-0.00869567226618528,0.0159903988242149,0.022370059043169,0.0235990732908249,-0.00870432797819376
742,-0.00151811761315912,-0.00808962434530258,0.0145896887406707,0.023780046030879,0.0185530688613653,-0.00792160630226135
743,-0.00269929668866098,-0.00720094377174973,0.00891386717557907,0.021322950720787,0.0107495300471783,-0.00914313457906246
744,-0.00300984876230359,-0.005977688357234,0.00266821822151542,0.0162909030914307,0.00457760086283088,-0.00817836634814739
745,-0.00274318596348166,-0.00402189278975129,-0.00177816289942712,0.0108617739751935,0.00132776948157698,-0.00271834572777152
746,-0.00267293374054134,-0.00181229668669403,-0.00478419847786427,0.00647825701162219,-0.000485050113638863,0.00412267213687301
747,-0.00305514526553452,-0.000251113233389333,-0.0080692432820797,0.00333242327906191,-0.00302318972535431,0.00726967956870794
748,-0.00350732612423599,0.000323188345646486,-0.0128204915672541,0.000340138154570013,-0.00739044975489378,0.00446948502212763
749,-0.00369920185767114,-0.000330582493916154,-0.018299849703908,-0.00414734007790685,-0.0122114699333906,-0.00337830046191812
750,-0.00307864625938237,-0.00198070798069239,-0.0216349475085735,-0.00971990637481213,-0.0143246948719025,-0.0129967154935002
751,-0.0019485866650939,-0.00370866665616632,-0.0214570518583059,-0.0140420710667968,-0.0134664308279753,-0.0198441483080387
752,-0.00187256769277155,-0.00476746540516615,-0.0203203074634075,-0.0160070322453976,-0.0133457342162728,-0.0210953522473574
753,-0.003179588355124,-0.00482328236103058,-0.020975474268198,-0.0164623763412237,-0.0163298919796944,-0.0174397267401218
754,-0.00455134687945247,-0.00411145342513919,-0.0227308087050915,-0.0166670419275761,-0.0204272866249084,-0.0119600780308247
755,-0.00498049752786756,-0.00331427645869553,-0.0234207175672054,-0.0174385476857424,-0.0223148409277201,-0.00800141599029303
756,-0.00447491370141506,-0.00271758646704257,-0.0225870758295059,-0.0188918691128492,-0.021349286660552,-0.00684545282274485
757,-0.00393003784120083,-0.00244115083478391,-0.0216253567487001,-0.0209602639079094,-0.0196479540318251,-0.00771892489865422
758,-0.00419761799275875,-0.00230199447833002,-0.0217824634164572,-0.0235150959342718,-0.018994377925992,-0.00993836484849453
759,-0.00508295092731714,-0.00155629613436759,-0.0224309079349041,-0.0249831452965736,-0.0192003827542067,-0.0129952030256391
760,-0.00603060284629464,-0.000284798967186362,-0.0218525305390358,-0.0233201254159212,-0.0190883558243513,-0.0155012477189302
761,-0.00667130947113037,0.00108023942448199,-0.0191566832363606,-0.0182363539934158,-0.0178776886314154,-0.0149190248921514
762,-0.00656007463112473,0.00307919224724174,-0.015072519890964,-0.0112441964447498,-0.0156155927106738,-0.00921924412250519
763,-0.00534702511504292,0.00577078433707356,-0.0111983949318528,-0.00501982262358069,-0.0127836409956217,-0.000117556948680431
764,-0.00327653880231082,0.00830407813191414,-0.00877624750137329,-0.00187568226829171,-0.0105408243834972,0.00771384686231613
765,-0.0014077175874263,0.0102357100695372,-0.00865100137889385,-0.00222282623872161,-0.0104837510734797,0.0116105852648616
766,-0.000893800519406796,0.0110317207872868,-0.0113073326647282,-0.00522653572261333,-0.0133534474298358,0.0120760351419449
767,-0.00166682049166411,0.0101560894399881,-0.0158136934041977,-0.00966164842247963,-0.0180446766316891,0.00998822692781687
768,-0.00259654363617301,0.0085514560341835,-0.0203468166291714,-0.0137188555672765,-0.0218962617218494,0.0068535665050149
769,-0.00265132705681026,0.00770279997959733,-0.0234426166862249,-0.0155737046152353,-0.0226649809628725,0.00493052834644914
770,-0.00145959248766303,0.00781708955764771,-0.0235661659389734,-0.0146146193146706,-0.0198974218219519,0.00480198953300714
771,0.000302882137475535,0.00786834675818682,-0.0206217747181654,-0.0125282565131783,-0.01474679261446,0.00470256991684437
772,0.00191208207979798,0.00684430776163936,-0.0169419962912798,-0.0117883943021297,-0.00880872365087271,0.00246226578019559
773,0.00350955780595541,0.0049533355049789,-0.0143314469605684,-0.0119533054530621,-0.00325993122532964,-0.00168956408742815
774,0.00517705082893372,0.00332870869897306,-0.0123318023979664,-0.0106187779456377,0.00109003414399922,-0.0052457838319242
775,0.00636878469958901,0.00264984229579568,-0.00998544972389936,-0.0074695679359138,0.00363101880066097,-0.00642837537452579
776,0.00655848113819957,0.00275924382731318,-0.00786557700484991,-0.00433697085827589,0.00345349498093128,-0.00564612913876772
777,0.00601293239742517,0.00306114391423762,-0.00703516229987144,-0.00299516436643898,0.000637627381365746,-0.00494872499257326
778,0.00549240736290812,0.00343996589072049,-0.00740425894036889,-0.00362814706750214,-0.00295739714056253,-0.00577417807653546
779,0.00517940940335393,0.00450899731367826,-0.00844147335737944,-0.0045121000148356,-0.00621262891218066,-0.00749214692041278
780,0.00502040050923824,0.00632088584825397,-0.00891902949661016,-0.00364478514529765,-0.00856202468276024,-0.00855917576700449
781,0.00566288875415921,0.00856164749711752,-0.00742555828765035,-0.00107714650221169,-0.00890112482011318,-0.00691767409443855
782,0.00698039494454861,0.0107720056548715,-0.00531190494075418,0.000650257454253733,-0.00803877785801888,-0.00186534284148365
783,0.00823531858623028,0.012297511100769,-0.00497323134914041,-0.000622371444478631,-0.00765093043446541,0.00421296013519168
784,0.00985400564968586,0.0132475420832634,-0.00599429570138454,-0.00433852197602391,-0.00724993227049708,0.00830224994570017
785,0.0119778737425804,0.0136301070451736,-0.00653265370056033,-0.0084669878706336,-0.00578270573168993,0.00914125237613916
786,0.0134034631773829,0.012639569118619,-0.00619414588436484,-0.0114188743755221,-0.00399663904681802,0.00784221012145281
787,0.0128861740231514,0.0101107796654105,-0.00611004140228033,-0.0128105022013187,-0.00387788913212717,0.00679430877789855
788,0.0107205361127853,0.00703371642157435,-0.00720988307148218,-0.0137628298252821,-0.00582683645188808,0.00635920511558652
789,0.00851641688495874,0.00503809470683336,-0.00945174228399992,-0.0156124727800488,-0.00824347138404846,0.00495584588497877
790,0.00744731724262238,0.00517034670338035,-0.0119535196572542,-0.0182494018226862,-0.00966061186045408,0.00181226839777082
791,0.00759001495316625,0.00595125649124384,-0.0134053640067577,-0.0209739152342081,-0.0096434336155653,-0.00430093007162213
792,0.00853653624653816,0.00585690652951598,-0.0131467776373029,-0.0217086784541607,-0.009199608117342,-0.0123595176264644
793,0.0097442427650094,0.0056443614885211,-0.0115308137610555,-0.0182307548820972,-0.00985138025134802,-0.017012307420373
794,0.00988414697349072,0.0056138620711863,-0.00959550030529499,-0.0127785382792354,-0.0124304704368114,-0.0160276032984257
795,0.00766153400763869,0.00536932423710823,-0.0082926033064723,-0.0087958537042141,-0.0168638024479151,-0.0114402882754803
796,0.00370687991380692,0.00493913516402245,-0.00773771619424224,-0.00701046176254749,-0.0214187540113926,-0.00543717481195927
797,-0.000260421598795801,0.0043706432916224,-0.00740725779905915,-0.00709400279447436,-0.0239967443048954,0.000375586183508858
798,-0.00323328305967152,0.00349287199787796,-0.00722048291936517,-0.00877337623387575,-0.0245193168520927,0.00406290497630835
799,-0.00459115253761411,0.00139136926736683,-0.00750928185880184,-0.0124721126630902,-0.0234725754708052,0.00173512601759285
800,-0.00435304176062346,-0.00102890643756837,-0.00792232155799866,-0.0170298125594854,-0.0210593789815903,-0.0046202102676034
801,-0.00379041535779834,-0.000715506554115564,-0.00787060149013996,-0.019172003492713,-0.0184691976755857,-0.00536600686609745
802,-0.00310439080931246,0.00197622063569725,-0.00654716975986958,-0.0180597621947527,-0.015370724722743,0.000570083735510707
803,-0.00133555789943784,0.00473916344344616,-0.00340572861023247,-0.0149273984134197,-0.0108144506812096,0.0064118504524231
804,0.000826787960249931,0.00784935243427753,-0.000371401140000671,-0.0109703429043293,-0.00740180863067508,0.0102914702147245
805,0.00178134615998715,0.0114805763587356,-0.000123365884064697,-0.00793289858847857,-0.00802275072783232,0.0129871899262071
806,0.00101361877750605,0.0138597581535578,-0.00253330334089696,-0.00641064718365669,-0.0120837157592177,0.0134695526212454
807,-0.000698435469530523,0.0137016950175166,-0.00487313838675618,-0.00485336408019066,-0.0167400352656841,0.0100629208609462
808,-0.00245125754736364,0.0111773880198598,-0.00486317416653037,-0.00218546413816512,-0.0194414425641298,0.00315800402313471
809,-0.00364530785009265,0.0073269079439342,-0.00234406674280763,0.000471532723167911,-0.0189907010644674,-0.00340741476975381
810,-0.0033317687921226,0.00394014129415154,0.00155052507761866,0.00150981091428548,-0.0151689341291785,-0.00508033111691475
811,-0.00140698940958828,0.00226641888730228,0.00476540438830853,0.000609834503848106,-0.0096615431830287,-0.000610885850619525
812,0.000970090564806014,0.00199751392938197,0.00589460087940097,-0.0015066706109792,-0.00524166412651539,0.00733966287225485
813,0.00293125258758664,0.00237246928736568,0.00614544562995434,-0.00340704689733684,-0.00296766497194767,0.015211290679872
814,0.00400944240391254,0.0031436609569937,0.00702362507581711,-0.00365071999840438,-0.00259896204806864,0.0211999602615833
815,0.00366195407696068,0.00376119767315686,0.00756469275802374,-0.00305186444893479,-0.00421153986826539,0.0241691321134567
816,0.00209578243084252,0.00347188045270741,0.00645220279693604,-0.00361423729918897,-0.00739970151335001,0.0229522660374641
817,0.000225067313294858,0.0024503767490387,0.00380067224614322,-0.00541928177699447,-0.0112902065739036,0.0182783361524343
818,-0.00124958285596222,0.00107258523348719,0.000169030638062395,-0.00742540555074811,-0.0154463537037373,0.0117480717599392
819,-0.00211705919355154,-0.000112808047560975,-0.00301716383546591,-0.00811048783361912,-0.0188689604401588,0.00491658924147487
820,-0.00247968616895378,3.41595550708007E-05,-0.00358809507451952,-0.00508737051859498,-0.0197983719408512,0.000495519139803946
821,-0.0029741229955107,0.00125480792485178,-0.00155628426000476,0.00147569726686925,-0.0186447370797396,4.1264360106652E-07
822,-0.00431092875078321,0.00248386571183801,0.000636335753370076,0.00750940013676882,-0.017888005822897,0.00275904103182256
823,-0.0058653149753809,0.00373028963804245,0.00139090907759964,0.00937743578106165,-0.0178925413638353,0.00792151130735874
824,-0.00644290633499622,0.0050340429879725,0.00104270642623305,0.00668289931491017,-0.0169637724757195,0.0143269542604685
825,-0.00574217410758138,0.00601993594318628,0.000889464979991317,0.00141387840267271,-0.013982648961246,0.0194660816341639
826,-0.00425034947693348,0.00652685016393662,0.00131541735026985,-0.00414995802566409,-0.00965188723057508,0.0208370182663202
827,-0.00300125568173826,0.00675776228308678,0.000742169562727213,-0.00866840034723282,-0.00700221443548799,0.0186563227325678
828,-0.00285799871198833,0.00655905483290553,-0.00186264875810593,-0.0114068109542131,-0.00823034252971411,0.0142952483147383
829,-0.00327064725570381,0.00549578620120883,-0.00494821416214108,-0.0121565442532301,-0.011305496096611,0.00774840079247952
830,-0.00318323168903589,0.00397260719910264,-0.00602266704663634,-0.0108393132686615,-0.0125759672373533,-0.000148737715790048
831,-0.0026415956672281,0.00308638252317905,-0.00404056161642075,-0.00729262363165617,-0.0110457660630345,-0.0057230475358665
832,-0.00245220609940588,0.00338168512098491,-0.000350501184584573,-0.00256514246575534,-0.00858423579484224,-0.00576946930959821
833,-0.00338437943719327,0.00420638313516974,0.00256594549864531,0.00161968031898141,-0.00762469274923205,-0.00171960704028606
834,-0.00537954410538077,0.00486261630430818,0.00360155059024692,0.00446539791300893,-0.00910995993763208,0.00254983082413673
835,-0.00690405024215579,0.00495283165946603,0.00382952974177897,0.00532223144546151,-0.011223629117012,0.0040628700517118
836,-0.00670367246493697,0.0043203947134316,0.0047952919267118,0.00421033008024096,-0.0114680314436555,0.00280595477670431
837,-0.00581245962530375,0.00419955793768168,0.00629852432757616,0.00318923918530345,-0.0103570399805903,0.00302231125533581
838,-0.00556123396381736,0.00557018909603357,0.00651794020086527,0.00304621690884233,-0.0103497244417667,0.00698555074632168
839,-0.00520703848451376,0.00765677075833082,0.00501920003443956,0.0020888929720968,-0.0117110321298242,0.0122390855103731
840,-0.0041201189160347,0.00969438534229994,0.00286974362097681,-0.00058336032088846,-0.013019947335124,0.0168889742344618
841,-0.0033116820268333,0.0115646757185459,0.000422180630266666,-0.0040454869158566,-0.0138028655201197,0.0204338002949953
842,-0.00296370661817491,0.0125883845612407,-0.00134538032580167,-0.0064482088200748,-0.0131335398182273,0.0217131860554218
843,-0.00228588376194239,0.0121581563726068,-0.00126912584528327,-0.00696605257689953,-0.010347762145102,0.0200039464980364
844,-0.00195555365644395,0.0113977901637554,-0.000922482926398516,-0.00667786691337824,-0.00808881688863039,0.0175818484276533
845,-0.00300536886788905,0.0114936083555222,-0.0026577627286315,-0.00715463003143668,-0.00926474574953318,0.0163916181772947
846,-0.00484704039990902,0.0112034929916263,-0.00628099823370576,-0.00911596231162548,-0.013420645147562,0.0138309933245182
847,-0.00621520029380918,0.00897311046719551,-0.00907379854470491,-0.0112479263916612,-0.0174461491405964,0.00795639865100384
848,-0.00684394873678684,0.00551795260980725,-0.00905396603047848,-0.0116359703242779,-0.0188010595738888,0.000757305708248168
849,-0.00787116307765245,0.00294771254993975,-0.00758138066157699,-0.00994097162038088,-0.0188838858157396,-0.0040059657767415
850,-0.00948272738605738,0.00280220014974475,-0.00650097616016865,-0.00654565542936325,-0.0200467202812433,-0.0039946180768311
851,-0.0102819595485926,0.00487356912344694,-0.0062603373080492,-0.00255340174771845,-0.0220147669315338,-0.000253544742008671
852,-0.00982499122619629,0.00806515105068684,-0.00706343865022063,0.000542118679732084,-0.0239809881895781,0.00552074611186981
853,-0.00878334231674671,0.0108087677508593,-0.00849403161555529,0.00144337327219546,-0.0259098783135414,0.0104012144729495
854,-0.00781865697354078,0.0114661352708936,-0.0101845366880298,-0.00118853524327278,-0.0277364794164896,0.0108003532513976
855,-0.00752749620005488,0.0101645961403847,-0.0128115862607956,-0.00753232184797525,-0.0294393114745617,0.00718289241194725
856,-0.00761923985555768,0.00883650127798319,-0.0161110553890467,-0.0155669925734401,-0.0304840374737978,0.00308122835122049
857,-0.00779088400304317,0.00908882264047861,-0.018739115446806,-0.0217543374747038,-0.0304394401609898,0.00274476641789079
858,-0.00867719389498234,0.00988676492124796,-0.0199899096041918,-0.0244325064122677,-0.029311329126358,0.00688761891797185
859,-0.0100243696942925,0.00871170405298471,-0.0196432750672102,-0.0248260144144297,-0.0264505241066217,0.0103674447163939
860,-0.0108165089040995,0.00574071099981666,-0.0186399631202221,-0.0244639031589031,-0.0226101744920015,0.00980814732611179
861,-0.0106776338070631,0.00250682444311678,-0.0184543523937464,-0.0249591171741486,-0.0194406285881996,0.00457279942929745
862,-0.00971782766282558,-0.00158082856796682,-0.0188755225390196,-0.0269829370081425,-0.0168633945286274,-0.00666941655799747
863,-0.00855210050940514,-0.00545716099441051,-0.019003514200449,-0.0276633985340595,-0.0151731539517641,-0.0176268257200718
864,-0.00863165594637394,-0.00542336236685514,-0.0191872604191303,-0.023829847574234,-0.0160588230937719,-0.0165650490671396
865,-0.0104851461946964,-0.00105118250939995,-0.0200173761695623,-0.0167264714837074,-0.0196870286017656,-0.00346358027309179
866,-0.0128245074301958,0.00468755001202226,-0.0215080287307501,-0.0105467904359102,-0.0246180202811956,0.0112509932368994
867,-0.0140393450856209,0.00899876933544874,-0.023022435605526,-0.00811573583632708,-0.0290670618414879,0.0194493923336267
868,-0.0131287761032581,0.0105180386453867,-0.0230789836496115,-0.00822221953421831,-0.0308697931468487,0.0188563466072083
869,-0.0108947781845927,0.0100109409540892,-0.0223595909774303,-0.00906060542911291,-0.0303969942033291,0.0115714697167277
870,-0.00911746174097061,0.00946312677115202,-0.0222697872668505,-0.0104070855304599,-0.029231084510684,0.00250260718166828
871,-0.00812158454209566,0.0102323135361075,-0.02108652330935,-0.0107780760154128,-0.0267371311783791,-0.00312544801272452
872,-0.007355154491961,0.0121652707457542,-0.0180531032383442,-0.0092729814350605,-0.023267038166523,-0.00340072670951486
873,-0.00686707394197583,0.0140254478901625,-0.0155774038285017,-0.00745073752477765,-0.0206905119121075,0.000204522206331603
874,-0.00682063447311521,0.0150714488700032,-0.0154137443751097,-0.00707674352452159,-0.0194221064448357,0.00518028251826763
875,-0.00658063311129808,0.0154898641631007,-0.0161310583353043,-0.00841070059686899,-0.0177297461777925,0.0101204803213477
876,-0.00582158146426082,0.0151785481721163,-0.0151143623515964,-0.0100877992808819,-0.0144527377560735,0.0149648245424032
877,-0.00503503205254674,0.0142598850652575,-0.0117909945547581,-0.0104108098894358,-0.0111012784764171,0.0193250682204962
878,-0.00382427964359522,0.0138420248404145,-0.00714167580008507,-0.00896264985203743,-0.00865505170077085,0.0221681371331215
879,-0.00166594993788749,0.0145123871043324,-0.00305926194414496,-0.00702939601615071,-0.0068598841316998,0.0221743490546942
880,0.000890217022970319,0.0159105509519577,-0.00136979436501861,-0.00597642967477441,-0.00587861938402057,0.0188745558261871
881,0.0029439099598676,0.0173474568873644,-0.00194471189752221,-0.00666061183437705,-0.00569617375731468,0.0126358764246106
882,0.00408673146739602,0.0175068862736225,-0.00355787202715874,-0.00985975377261639,-0.00583032472059131,0.00275490642525256
883,0.00408971682190895,0.0164480246603489,-0.00554792070761323,-0.0134235797449946,-0.00690104439854622,-0.00636346265673637
884,0.00228403136134148,0.015294655226171,-0.00747897149994969,-0.013682896271348,-0.00960238836705685,-0.00657134689390659
885,-0.000843584421090782,0.0131847718730569,-0.00791034381836653,-0.0107392333447933,-0.0116330096498132,0.00072321598418057
886,-0.0046775508671999,0.0113262897357345,-0.00680244900286198,-0.00614560721442103,-0.0128710102289915,0.0103036658838391
887,-0.00908237230032682,0.0123068811371922,-0.00616696011275053,-0.000912409625016153,-0.0159774608910084,0.0191342644393444
888,-0.0119065726175904,0.0139653477817774,-0.00631335936486721,0.00231291120871902,-0.0188011340796947,0.0217246506363153
889,-0.0110112372785807,0.0143558392301202,-0.00608342839404941,0.00183980236761272,-0.0175338089466095,0.0173372104763985
890,-0.00813317205756903,0.0151832429692149,-0.0060282745398581,-0.00141370925121009,-0.0140853459015489,0.012467916123569
891,-0.00638730125501752,0.0167308934032917,-0.00681568449363112,-0.00558828236535192,-0.0115717547014356,0.0115464935079217
892,-0.0058754775673151,0.0175524279475212,-0.00669743586331606,-0.00801668595522642,-0.00891874730587006,0.0141244363039732
893,-0.00548371346667409,0.017202265560627,-0.00527881691232324,-0.00798992440104485,-0.00593557674437761,0.0175051689147949
894,-0.00460522389039397,0.0157107766717672,-0.0046255998313427,-0.00830452516674995,-0.00429532630369067,0.0173960346728563
895,-0.00357556459493935,0.0134689975529909,-0.00604273844510317,-0.0106608578935266,-0.00491074565798044,0.0133853601291776
896,-0.00384154636412859,0.0116883581504226,-0.00917517580091953,-0.0134307397529483,-0.00812300946563482,0.0106925088912249
897,-0.00545795727521181,0.010476847179234,-0.0124910725280643,-0.0153551110997796,-0.0125053618103266,0.0100448317825794
898,-0.00692731933668256,0.00905361771583557,-0.0143189057707787,-0.0165368504822254,-0.0158137083053589,0.00795050244778395
899,-0.00708467001095414,0.00768235232681036,-0.0136335073038936,-0.0164315216243267,-0.016602972522378,0.00399424135684967
900,-0.0058743879199028,0.00660209869965911,-0.0105466982349753,-0.014854596927762,-0.0145833594724536,-0.000609520997386426
901,-0.0040537710301578,0.00632609147578478,-0.00634672539308667,-0.012150994502008,-0.0112475352361798,-0.00278333993628621
902,-0.0031015845015645,0.00773576879873872,-0.00295784138143063,-0.00872940383851528,-0.00910169072449207,0.000275555648840964
903,-0.00370062817819417,0.0101563055068254,-0.00146040669642389,-0.00546912616118789,-0.00931302737444639,0.00634829280897975
904,-0.0043440293520689,0.0108647048473358,-0.00120866170618683,-0.0036430605687201,-0.0101555362343788,0.00996832456439734
905,-0.00380042335018516,0.00783127266913652,-0.0010408068774268,-0.00480520073324442,-0.00904805492609739,0.00583246257156134
906,-0.00306421751156449,0.00374255841597915,-0.00155513524077833,-0.00892904866486788,-0.00786311365664005,-0.00425944803282619
907,-0.00378591218031943,0.00294762477278709,-0.00376655254513025,-0.0123505275696516,-0.0112626720219851,-0.00843770802021027
908,-0.0058174142614007,0.0054670856334269,-0.00556809082627296,-0.0116888452321291,-0.0176104344427586,-0.00137179216835648
909,-0.00783656165003777,0.0086044343188405,-0.00517722405493259,-0.00838189478963614,-0.0219016745686531,0.00821310468018055
910,-0.00934428535401821,0.0108817890286446,-0.00399676989763975,-0.00578419072553515,-0.023868864402175,0.012544197961688
911,-0.0109861250966787,0.0122582577168942,-0.00371149787679315,-0.00559392245486379,-0.0263619311153889,0.0109513029456139
912,-0.0130917308852077,0.0139885861426592,-0.00437653437256813,-0.00619162106886506,-0.029851945117116,0.0102622685953975
913,-0.0135508328676224,0.0155933666974306,-0.00449334131553769,-0.00616558594629169,-0.0298609621822834,0.0143869407474995
914,-0.0105949370190501,0.0141868907958269,-0.00310695264488459,-0.00691680563613772,-0.0237725581973791,0.0155387986451387
915,-0.00565640581771731,0.0104286568239331,-0.000588687427807599,-0.00822523608803749,-0.0145460283383727,0.0104846898466349
916,-0.000598707469180226,0.00763769214972854,0.00269973743706942,-0.0089863920584321,-0.00532787851989269,0.0043652867898345
917,0.00367521704174578,0.00607331469655037,0.00679476838558912,-0.00925844721496105,0.00255673611536622,0.000899380596820265
918,0.00594895193353295,0.00620623305439949,0.0106008239090443,-0.00793979410082102,0.00636691553518176,0.00380012323148549
919,0.00543403998017311,0.0092384722083807,0.0122398938983679,-0.00459659565240145,0.00369677413254976,0.013458414003253
920,0.00394077273085713,0.0124080581590533,0.0123057356104255,-0.00153144588693976,-0.00128392840269953,0.0228779837489128
921,0.00332696689292789,0.0138599472120404,0.0121666267514229,0.000275669648544863,-0.00464470637962222,0.028264781460166
922,0.00244722119532526,0.0140630677342415,0.011641682125628,0.00193751219194382,-0.00810403004288673,0.0310362111777067
923,0.000255652237683535,0.0129197258502245,0.0111162289977074,0.00386203895322979,-0.0116191199049354,0.0319257639348507
924,-0.00232648942619562,0.0109194694086909,0.0115391332656145,0.00563263799995184,-0.0132709322497249,0.0313026756048203
925,-0.0039336122572422,0.00799923483282328,0.0133066894486547,0.0061009987257421,-0.0122275659814477,0.0278123039752245
926,-0.00413974327966571,0.00489995116367936,0.0159046072512865,0.00459013087674975,-0.0090321796014905,0.0217404793947935
927,-0.00403152778744698,0.00363159854896367,0.0175451952964067,0.00178090296685696,-0.00687315966933966,0.0155028207227588
928,-0.00476170657202601,0.00375725724734366,0.0174285471439362,-0.00105697673279792,-0.0074586677365005,0.00944190379232168
929,-0.0060283518396318,0.00379358883947134,0.0178622305393219,-0.0017919511301443,-0.00805580988526344,0.00588581804186106
930,-0.0066786827519536,0.00367551040835679,0.021104708313942,0.000776825996581465,-0.00659718923270702,0.00689961668103933
931,-0.00673592137172818,0.00408763298764825,0.0252647697925568,0.00462934514507651,-0.00543983420357108,0.00974435266107321
932,-0.00740592181682587,0.00536826718598604,0.0261705480515957,0.00631545810028911,-0.00815141946077347,0.0117300972342491
933,-0.00858139526098967,0.00701622711494565,0.0233659762889147,0.00491969846189022,-0.0141596700996161,0.0128196002915502
934,-0.00934743974357843,0.00880136527121067,0.0202873889356852,0.00267131440341473,-0.0196061655879021,0.0148462876677513
935,-0.0104383984580636,0.0105878422036767,0.0181534178555012,0.00109565991442651,-0.024040374904871,0.0194081570953131
936,-0.012841316871345,0.011760862544179,0.0158119294792414,-0.000374461873434484,-0.030084690079093,0.0242162737995386
937,-0.0150608737021685,0.0111171388998628,0.0146876573562622,-0.00253049097955227,-0.0348522737622261,0.0235175434499979
938,-0.0153492912650108,0.00854031927883625,0.0170612316578627,-0.0042656441219151,-0.0335959307849407,0.0167786590754986
939,-0.0147128440439701,0.00622203014791012,0.0215645972639322,-0.00327955977991223,-0.0297539327293634,0.0111529445275664
940,-0.0136996125802398,0.00463194167241454,0.026222126558423,-0.000423672754550353,-0.0262901205569506,0.00921105500310659
941,-0.0113914841786027,0.00270500290207565,0.0304422080516815,0.00102787476498634,-0.0220995023846626,0.006080889608711
942,-0.009481530636549,0.00169408740475774,0.0326328463852406,0.00109193124808371,-0.0214943680912256,0.00271341600455344
943,-0.00930503755807877,0.00302319065667689,0.0327876098453999,0.00206600525416434,-0.0236248690634966,0.00642660912126303
944,-0.00847672298550606,0.00480079231783748,0.0337316617369652,0.00310458103194833,-0.0187866222113371,0.0139985363930464
945,-0.0067024203017354,0.00508917355909944,0.0358173400163651,0.00276058679446578,-0.00886398274451494,0.0171028263866901
946,-0.00651156669482589,0.00486617814749479,0.0367599315941334,0.0023630284704268,-0.00359161850064993,0.0173422880470753
947,-0.00783426687121391,0.00507052335888147,0.0371008962392807,0.00380159704945982,-0.00326992245391011,0.0187877863645554
948,-0.00880661886185408,0.00606839777901769,0.0384426675736904,0.00785580277442932,-0.00429288018494844,0.0222593136131763
949,-0.00881776865571737,0.00718598766252398,0.0398569293320179,0.0127601800486445,-0.0059475265443325,0.0244005173444748
950,-0.00799505598843098,0.00702746165916324,0.0410361774265766,0.0168191865086555,-0.0065587549470365,0.0216056276112795
951,-0.00579685345292091,0.00560968788340688,0.0435974895954132,0.0200611185282469,-0.00277104042470455,0.0157897192984819
952,-0.00253171124495566,0.0034751461353153,0.0474381968379021,0.0211553834378719,0.0053755440749228,0.00978408008813858
953,-0.000359542085789144,0.00163436529692262,0.049569945782423,0.0184162128716707,0.0123328706249595,0.00511298840865493
954,-0.000648746092338115,0.00132498040329665,0.0472463555634022,0.0124806696549058,0.0124828545376658,0.00388785358518362
955,-0.00272367359139025,0.00300729577429593,0.0412297807633877,0.00613445695489645,0.00592619320377707,0.00717439502477646
956,-0.00571442907676101,0.00595312379300594,0.0345717892050743,0.00181969406548887,-0.00318351108580828,0.0126061597838998
957,-0.00919921696186066,0.00822500791400671,0.0293866489082575,-0.000377982476493344,-0.0114395841956139,0.0164976306259632
958,-0.0115914875641465,0.00857567321509123,0.0273688547313213,-0.000999810523353517,-0.0156346149742603,0.0169907137751579
959,-0.0117224538698792,0.00697966665029526,0.0289462152868509,-0.000108948042907286,-0.0145731056109071,0.0139287626370788
960,-0.0102542331442237,0.00331124104559422,0.0319138988852501,0.000757146044634283,-0.0107445269823074,0.00641976343467832
961,-0.00760835595428944,-0.0014747679233551,0.0349683724343777,0.000868996954523027,-0.00533750094473362,-0.00346868461929262
962,-0.00437562307342887,-0.0055078393779695,0.038419459015131,0.00234086974523962,0.001159927691333,-0.00772069068625569
963,-0.00184297177474946,-0.00828578602522612,0.0414219200611115,0.00559905916452408,0.00630449503660202,-0.00340315653011203
964,-0.000859724532347173,-0.00994420982897282,0.0418576933443546,0.00734108872711658,0.00741364527493715,0.00169787462800741
965,-0.00153663125820458,-0.010149460285902,0.0387015268206596,0.00526276184245944,0.00388246914371848,0.00105865835212171
966,-0.00340392114594579,-0.00858919881284237,0.0338859185576439,0.00222170888446271,-0.00210690777748823,-0.00105544668622315
967,-0.00496103474870324,-0.00597850093618035,0.0308074876666069,0.00140730058774352,-0.00631098030135036,8.018813241506E-05
968,-0.00517899170517921,-0.00303313229233027,0.030262790620327,0.00190278503578156,-0.00726104807108641,0.00185170152690262
