,AF3,AF4,Fp1,Fp2,AF7,AF8
0,-0.00937005504965782,-0.0313818752765656,0.0638587400317192,0.0218338780105114,0.0275083743035793,0.0549437552690506
1,0.0210676975548267,-0.0298507008701563,0.0946360900998116,0.0392504706978798,0.0598029121756554,0.0488058663904667
2,0.044331856071949,-0.0228809732943773,0.101669013500214,0.0413263477385044,0.0665655136108398,0.0540492497384548
3,0.053306445479393,-0.00426182150840759,0.0904189422726631,0.0371517352759838,0.0562479719519615,0.0845714956521988
4,0.0543057695031166,0.0184338446706533,0.0687136203050613,0.0301512815058231,0.0418134331703186,0.107767887413502
5,0.0606993548572063,0.0351037904620171,0.0473282784223557,0.0217000339180231,0.0343183130025864,0.0915455296635628
6,0.0672262385487556,0.0357977859675884,0.0300641562789679,0.00705592567101121,0.0348204374313354,0.0448659472167492
7,0.0642866790294647,0.0206583868712187,0.0101417684927583,-0.0223788674920797,0.0350946001708508,-1.11261315396405E-05
8,0.0544483475387096,-0.0012991763651371,-0.0176114961504936,-0.064094290137291,0.0253458693623543,-0.0237128604203463
9,0.0457923673093319,-0.0177096556872129,-0.0442876741290092,-0.10145290941,0.00672503793612123,-0.0256602689623833
10,0.0405828878283501,-0.0174846760928631,-0.0538342036306858,-0.117862403392792,-0.00626739766448736,-0.0115295629948378
11,0.0265815109014511,-0.00747324572876096,-0.0495742820203304,-0.116008602082729,-0.0136328563094139,0.00307899317704141
12,-0.00227013346739113,0.00313898455351591,-0.0498140230774879,-0.110406048595905,-0.0306918248534203,0.00452964939177036
13,-0.0269735865294933,0.0141692524775863,-0.0534847229719162,-0.10090097039938,-0.0492604598402977,0.00299811316654086
14,-0.0292708687484264,0.0218071006238461,-0.0448319017887115,-0.0782693549990654,-0.0428203791379929,0.014235264621675
15,-0.0128035340458155,0.0284387171268463,-0.0257711987942457,-0.0502734519541264,-0.00822692830115557,0.0323211774230003
16,0.00669703958556056,0.0321642793715,-0.0112395687028766,-0.0326463580131531,0.0317380651831627,0.036329124122858
17,0.0179316774010658,0.0219806171953678,-0.00620627263560891,-0.0250993221998215,0.0578443445265293,0.0192488580942154
18,0.0251403413712978,0.00535792065784335,-0.00303324311971664,-0.0161316841840744,0.0720731616020203,0.00278021022677422
19,0.0354934260249138,-0.00482189515605569,0.00223373109474778,-0.00232836790382862,0.0824122726917267,0.00972284004092216
20,0.0469018071889877,-0.0113721555098891,0.00254597910679877,0.0072358213365078,0.082379586994648,0.0390098132193089
21,0.0637648105621338,-0.0113682169467211,0.00468193739652634,0.0130969509482384,0.0711711943149567,0.0774581208825111
22,0.0883137881755829,-0.00441006477922201,0.0182112976908684,0.0221230760216713,0.0612675361335278,0.0994455814361572
23,0.0992254242300987,-0.0074635655619204,0.0228454452008009,0.02238461188972,0.0501256473362446,0.0791336223483086
24,0.0843130126595497,-0.0234970469027758,0.00779387401416898,0.0100527238100767,0.0302145201712847,0.025670126080513
25,0.0604742355644703,-0.042095422744751,-0.006614422891289,-0.000551147037185729,0.00732784904539585,-0.0289053861051798
26,0.0453596226871014,-0.0480894558131695,-0.00472569558769464,-0.00477402936667204,-0.00708640553057194,-0.0535246580839157
27,0.0419842787086964,-0.0234150718897581,0.0113322231918573,-0.0029986638110131,-0.00721389800310135,-0.0295928232371807
28,0.0416387431323528,0.0200036969035864,0.031092457473278,0.00693554664030671,-0.00132603920064867,0.0232439283281565
29,0.042095310986042,0.0508903227746487,0.0564637929201126,0.0308830868452787,0.0105403969064355,0.0684083327651024
30,0.0486147962510586,0.0576457418501377,0.0915721207857132,0.0676881819963455,0.0370974130928516,0.0942343324422836
31,0.0565451048314571,0.0456827990710735,0.11485293507576,0.0947826504707336,0.065949060022831,0.102597534656525
32,0.0621571913361549,0.0279296468943357,0.10552891343832,0.093395322561264,0.0777011886239052,0.0970223173499107
33,0.0644004791975021,0.0230419561266899,0.0669721961021423,0.0660878270864487,0.0634340569376946,0.0837182849645615
34,0.0588218830525875,0.0379177145659924,0.0107631925493479,0.0193253047764301,0.024372885003686,0.0645911544561386
35,0.0473043471574783,0.0642112269997597,-0.0443434156477451,-0.0335103571414948,-0.0163486748933792,0.0428637303411961
36,0.0329952202737331,0.0853702425956726,-0.0748940259218216,-0.0665432810783386,-0.0318882390856743,0.0263270493596792
37,0.0259018875658512,0.0834732726216316,-0.069650873541832,-0.0636032968759537,-0.0162964053452015,0.0263370350003242
38,0.0382064580917358,0.0567658245563507,-0.0379270240664482,-0.0330270603299141,0.0183061752468348,0.0483119189739227
39,0.0596352890133858,0.0219818856567144,-0.00405604997649789,0.00148639793042094,0.0495493151247501,0.0774343684315681
40,0.0734799727797508,0.00367530644871295,0.0178904253989458,0.025804715231061,0.066861130297184,0.0913996919989586
41,0.0736271888017654,0.00505869137123227,0.029971519485116,0.0388999171555042,0.0721920803189278,0.0748670697212219
42,0.0636836737394333,0.00442832801491022,0.0286673307418823,0.0336570367217064,0.0642968043684959,0.0277144964784384
43,0.0596110187470913,-0.00354043045081198,0.021392310038209,0.0176979228854179,0.0543544925749302,-0.0214795395731926
44,0.0685851722955704,-0.0114654656499624,0.0295769926160574,0.0192075818777084,0.0567435622215271,-0.0418880134820938
45,0.0772290900349617,-0.0190953351557255,0.0500356778502464,0.0412398502230644,0.0632864162325859,-0.0363484844565392
46,0.0767300575971603,-0.019158473238349,0.0725066885352135,0.0688973292708397,0.0695676356554031,-0.0158629529178143
47,0.0711337998509407,-0.000529510551132262,0.100050047039986,0.0960810929536819,0.0826510265469551,0.0223521701991558
48,0.065107099711895,0.0352942831814289,0.126984506845474,0.116865269839764,0.0965781584382057,0.078037366271019
49,0.0616363026201725,0.0739980489015579,0.140360906720161,0.127981707453728,0.1033531203866,0.141417592763901
50,0.0527953691780567,0.0986624583601952,0.123865708708763,0.117771573364735,0.0925294160842896,0.187554642558098
51,0.0325713604688644,0.104695968329906,0.0761609300971031,0.0749234855175018,0.0568510480225086,0.196014896035194
52,0.018827311694622,0.0985484793782234,0.0298597272485495,0.0254225879907608,0.0202300231903791,0.174250870943069
53,0.021036559715867,0.0816533863544464,0.00181512057315558,-0.00382947362959385,0.00260245497338474,0.126046270132065
54,0.0290283039212227,0.0524307079613209,-0.0157417189329863,-0.0117184920236468,0.00105027412064373,0.0561587549746037
55,0.0397503860294819,0.018359387293458,-0.0146408025175333,0.00461484398692846,0.016243290156126,0.000594682875089347
56,0.0534683503210545,-0.00912176072597504,0.00520732020959258,0.0368692204356194,0.0379163511097431,-0.0131096541881561
57,0.0663431286811829,-0.0268208775669336,0.0231160037219524,0.0579345896840096,0.0454107448458672,-0.00651888735592365
58,0.0677007883787155,-0.033606942743063,0.0238980520516634,0.0496206805109978,0.0313732139766216,-0.0153668960556388
59,0.0510051585733891,-0.021879006177187,0.00894677173346281,0.0214839186519384,0.00752602564170957,-0.0364659428596497
60,0.0374706499278545,0.00884916633367538,9.35440129978815E-06,0.00387952732853591,0.00195611966773868,-0.0397880934178829
61,0.0468156225979328,0.0402004979550838,0.0126288272440434,0.0121502615511417,0.0231751780956984,-0.0178635381162167
62,0.0683182775974274,0.0525118447840214,0.0350707583129406,0.0329187959432602,0.047942329198122,0.0115028005093336
63,0.0880705043673515,0.0462471395730972,0.0557676628232002,0.0533457733690739,0.0637428015470505,0.0327166803181171
64,0.0980994179844856,0.0359034352004528,0.0733944550156593,0.0711449161171913,0.0725132375955582,0.0393995605409145
65,0.0917270556092262,0.0349371880292892,0.0869216844439507,0.0840906277298927,0.0760604590177536,0.0409593768417835
66,0.0754748210310936,0.0453885942697525,0.096864752471447,0.0912141129374504,0.080847330391407,0.0545162595808506
67,0.063604548573494,0.0583990849554539,0.0979674756526947,0.0877681076526642,0.0895795971155167,0.0795653164386749
68,0.0613419935107231,0.0679649114608765,0.0829157829284668,0.0685915648937225,0.0976375117897987,0.106960311532021
69,0.056459117680788,0.0737256556749344,0.0522915720939636,0.0356544740498066,0.0936244949698448,0.127613335847855
70,0.0338124148547649,0.0736166015267372,0.00706072431057692,-0.0130379647016525,0.064563937485218,0.125799000263214
71,-0.00105208670720458,0.0610727965831757,-0.0454325899481773,-0.0725063234567642,0.0177662279456854,0.0900310128927231
72,-0.0333869196474552,0.0303007811307907,-0.0902394577860832,-0.125426203012466,-0.027914734557271,0.0193283278495073
73,-0.0538748055696487,-0.0143700605258346,-0.120954401791096,-0.158785462379456,-0.0628193318843842,-0.0638144090771675
74,-0.0565695092082024,-0.0584458820521832,-0.130971044301987,-0.158043712377548,-0.0771131664514542,-0.116573072969913
75,-0.0472666323184967,-0.0844075828790665,-0.109147101640701,-0.116900578141212,-0.0648185834288597,-0.116427399218082
76,-0.0322452299296856,-0.0802011713385582,-0.0571297667920589,-0.0527835637331009,-0.0316199883818626,-0.0727211907505989
77,-0.00970908347517252,-0.050783783197403,0.0106056183576584,0.0125250816345215,0.0130537748336792,-0.0111763281747699
78,0.0134159522131085,-0.0192743614315987,0.0701817274093628,0.0627832487225533,0.0518563203513622,0.033718429505825
79,0.0315021649003029,0.000701100274454802,0.102278470993042,0.0897335410118103,0.0696515887975693,0.0455551333725452
80,0.0491762198507786,0.0152019672095776,0.110320992767811,0.0990253761410713,0.0708751156926155,0.0407689400017262
81,0.0686927810311317,0.0291115436702967,0.106107756495476,0.0995789095759392,0.0670291110873222,0.0415195859968662
82,0.0855618640780449,0.0438220575451851,0.0955198183655739,0.0950832515954971,0.0620688311755657,0.0565309301018715
83,0.0858706757426262,0.0597601644694805,0.0752345621585846,0.0779871195554733,0.0497917123138905,0.0792466551065445
84,0.0599221102893353,0.0770084634423256,0.0406696908175945,0.0393731594085693,0.0238228254020214,0.0962810963392258
85,0.0194451734423637,0.0891527608036995,0.00310756103135645,-0.00521504832431674,-0.00686681549996138,0.0952097177505493
86,-0.0151790594682097,0.0818115919828415,-0.0257892664521933,-0.0348946303129196,-0.0300636794418097,0.0690238475799561
87,-0.0333220399916172,0.0534762665629387,-0.0499103665351868,-0.0526088364422321,-0.0463259741663933,0.0253585800528526
88,-0.0343450903892517,0.015628308057785,-0.0651181787252426,-0.0583542287349701,-0.0526850931346416,-0.0154600581154227
89,-0.0257002878934145,-0.0151719823479652,-0.060094453394413,-0.0446325354278088,-0.0394976399838924,-0.0342186465859413
90,-0.0170988980680704,-0.0200897641479969,-0.037423200905323,-0.0186563059687614,-0.00807241629809141,-0.0272593125700951
91,-0.0068853422999382,-0.00236260332167149,-0.00688722589984536,0.0118188075721264,0.0298758875578642,-0.0103492755442858
92,0.00516527704894543,0.00626140367239714,0.0120808891952038,0.0340241752564907,0.052434042096138,-0.00934841856360435
93,0.0109977992251515,-0.0146237844601274,0.00692619848996401,0.0344854965806007,0.0468128249049187,-0.0309534184634686
94,0.00982050783932209,-0.0541071854531765,-0.00710898172110319,0.0212490074336529,0.0281994473189116,-0.0574136413633823
95,0.00399073539301753,-0.0867320671677589,-0.0159141048789024,0.00579845905303955,0.0117283957079053,-0.0716690421104431
96,-0.00159680552314967,-0.081735797226429,-0.0153313241899014,-0.00365257053636014,0.00652124173939228,-0.0572826415300369
97,-0.00261064781807363,-0.0366051867604256,-0.00528142554685473,-0.00844900496304035,0.0187376514077187,-0.0165099445730448
98,-0.00221021845936775,0.0100051108747721,0.00494631240144372,-0.0220688916742802,0.0346233658492565,0.0238000433892012
99,0.00123943155631423,0.0300112366676331,0.00742763932794333,-0.0385872982442379,0.0342612341046333,0.0560705736279488
100,0.00240637338720262,0.0237312763929367,-0.00529149454087019,-0.0475059896707535,0.00483994791284204,0.07913638651371
101,-0.0127021092921495,0.00554155185818672,-0.0313789248466492,-0.0513279996812344,-0.0470375083386898,0.0788066312670708
102,-0.0378356985747814,-0.0133037492632866,-0.0483918562531471,-0.0431490838527679,-0.0874142646789551,0.0499946922063828
103,-0.0566267743706703,-0.0346242338418961,-0.0442266799509525,-0.021722286939621,-0.0914673507213593,-0.00451619690284133
104,-0.0604398213326931,-0.0494543388485909,-0.0297069251537323,-0.000970108725596219,-0.0629265531897545,-0.0609502345323563
105,-0.0539665743708611,-0.0449955500662327,-0.0239545237272978,0.00215129926800728,-0.0276681073009968,-0.0909768715500832
106,-0.0485431961715221,-0.0269845221191645,-0.0341569520533085,-0.0193983241915703,-0.0134251248091459,-0.0971710160374641
107,-0.0370478071272373,-0.00479290401563048,-0.0371178686618805,-0.0365693345665932,-0.0114939380437136,-0.0826270878314972
108,-0.0126224830746651,0.00957522075623274,-0.0169808864593506,-0.0187734179198742,0.00195038202218711,-0.0508372336626053
109,0.0112813273444772,0.00368565903045237,0.00695071835070848,0.0145677998661995,0.0230534616857767,-0.0264866668730974
110,0.0234330743551254,-0.0126620540395379,0.0156580898910761,0.029618825763464,0.0336182080209255,-0.0178043600171804
111,0.0194361954927444,-0.0276065468788147,0.00471738120540977,0.0208735931664705,0.0218257158994675,-0.0135009223595262
112,0.000506049545947462,-0.0460880771279335,-0.0220599677413702,0.00111065770033747,-0.00863937474787235,-0.0123953027650714
113,-0.0201368574053049,-0.0667306035757065,-0.0469767823815346,-0.0159868821501732,-0.0349941439926624,-0.0152626391500235
114,-0.0317283794283867,-0.0785218104720116,-0.0519122444093227,-0.02332085929811,-0.0405856221914291,-0.0186037421226501
115,-0.0317818038165569,-0.0731176286935806,-0.0322796180844307,-0.0137926191091537,-0.026613749563694,-0.0151242800056934
116,-0.0192798003554344,-0.053084172308445,0.00601011049002409,0.0147355766966939,0.00299377599731088,0.00365623133257031
117,-8.36230901768431E-06,-0.0302877016365528,0.0405871756374836,0.0375909171998501,0.0299222134053707,0.0242684278637171
118,0.0123335830867291,-0.0118355760350823,0.0436005890369415,0.0290714669972658,0.0310474578291178,0.027202345430851
119,0.00232642283663154,-0.00332703557796776,0.00903362315148115,-0.00659496989101171,0.00646890979260206,0.0230251103639603
120,-0.0314157195389271,-0.0114371934905648,-0.0451105125248432,-0.0527328290045261,-0.0339965932071209,0.02145273424685
121,-0.0676107555627823,-0.0297971665859222,-0.0913324356079102,-0.0904965475201607,-0.0776863843202591,0.00590241421014071
122,-0.0872532203793526,-0.0490234009921551,-0.113616973161697,-0.10767862200737,-0.108096823096275,-0.0336511842906475
123,-0.0881446301937103,-0.070246085524559,-0.110976472496986,-0.1026855930686,-0.114169418811798,-0.0793443098664284
124,-0.0720492228865623,-0.0840200185775757,-0.0815650075674057,-0.0709534958004951,-0.0909056663513184,-0.098115585744381
125,-0.0475726053118706,-0.0748415589332581,-0.0343879908323288,-0.0228305980563164,-0.0484640412032604,-0.0761146619915962
126,-0.0309754963964224,-0.0403612740337849,0.00536987744271755,0.00888630002737045,-0.00879899971187115,-0.0349085852503777
127,-0.02907226793468,0.00675341626629233,0.0221299827098846,0.00486701633781195,0.0174158718436956,-0.00728976679965854
128,-0.0367332138121128,0.0334692969918251,0.0104876849800348,-0.0301021281629801,0.0267033465206623,-0.0123168714344502
129,-0.0450134947896004,0.0233372282236815,-0.0225233137607574,-0.0764944851398468,0.018583782017231,-0.0381536930799484
130,-0.0503010377287865,-0.00373780145309865,-0.050440326333046,-0.107617504894733,0.00359205389395356,-0.0561075359582901
131,-0.0540737546980381,-0.0332793593406677,-0.0576303489506245,-0.112631373107433,-0.00788519997149706,-0.0573997125029564
132,-0.0511137023568153,-0.0618854947388172,-0.0529821626842022,-0.0960041433572769,-0.0131806628778577,-0.0442711934447289
133,-0.0380086004734039,-0.0815281644463539,-0.0488616116344929,-0.064012348651886,-0.0178310088813305,-0.0108988815918565
134,-0.024578046053648,-0.082311175763607,-0.0490928255021572,-0.0337674655020237,-0.03006243519485,0.0285194981843233
135,-0.0220825728029013,-0.0611769929528236,-0.0512035489082336,-0.0213527549058199,-0.0454412959516048,0.0355225391685963
136,-0.0319598615169525,-0.0344554893672466,-0.049965463578701,-0.0242119506001472,-0.0518918372690678,-0.002005330985412
137,-0.0418403260409832,-0.0145844286307693,-0.0416007302701473,-0.0337832421064377,-0.0448493249714375,-0.0505091585218906
138,-0.0419262163341045,-0.000925351167097688,-0.034017413854599,-0.0477204732596874,-0.0345122516155243,-0.0764954164624214
139,-0.0393643938004971,-0.00550457183271647,-0.041306771337986,-0.0647856295108795,-0.0384730361402035,-0.0879068672657013
140,-0.0394745767116547,-0.0315852835774422,-0.0564254261553288,-0.0736408978700638,-0.0547706708312035,-0.103291667997837
141,-0.0451639480888844,-0.0661811530590057,-0.0606136098504066,-0.0638804584741592,-0.0672010332345963,-0.115714274346828
142,-0.0610024780035019,-0.10023221373558,-0.0512359589338303,-0.0420653782784939,-0.0704190507531166,-0.10774739086628
143,-0.0748492330312729,-0.111596964299679,-0.0309706032276154,-0.0166791006922722,-0.0618153139948845,-0.0671664997935295
144,-0.0743485987186432,-0.083298072218895,-0.00670767528936267,0.00473272195085883,-0.0445994958281517,-0.00668220175430179
145,-0.0623163059353828,-0.0393078550696373,0.00546716898679733,0.0098186656832695,-0.0294426362961531,0.0301419217139483
146,-0.0406559146940708,-0.0076545337215066,0.00465646339580417,0.00503539992496371,-0.0121061448007822,0.0215306021273136
147,-0.0184580534696579,0.0115281930193305,0.00382978632114828,0.00726555194705725,0.0100920014083385,-0.00836031883955002
148,-0.0132310381159186,0.0227403454482555,0.00640349602326751,0.0143300266936421,0.0254978630691767,-0.0266189854592085
149,-0.0219139512628317,0.0237167458981276,0.00955012626945972,0.0202559735625982,0.0363800935447216,-0.0145170968025923
150,-0.0254542753100395,0.00896338932216167,0.0100421383976936,0.0232626479119062,0.048301313072443,0.0101795578375459
151,-0.0140114314854145,-0.0205807164311409,0.0045271348208189,0.0173523332923651,0.0546602793037891,0.00386517215520144
152,0.00506946537643671,-0.0489274859428406,-0.0074097546748817,0.000735926325432956,0.0540239661931992,-0.0421521030366421
153,0.0072705140337348,-0.0635770931839943,-0.0297250393778086,-0.024537505581975,0.0372812561690807,-0.0961768925189972
154,-0.0186242200434208,-0.0658441185951233,-0.0597176030278206,-0.0523556210100651,-0.00471584219485521,-0.12585337460041
155,-0.0560554563999176,-0.0614425390958786,-0.0792222544550896,-0.0699421912431717,-0.0520249418914318,-0.121899023652077
156,-0.0844897553324699,-0.0521548613905907,-0.0744973868131638,-0.0658833906054497,-0.0766468271613121,-0.0941478535532951
157,-0.0855066254734993,-0.0317960828542709,-0.0452679172158241,-0.0384863652288914,-0.068017840385437,-0.0471859537065029
158,-0.0572218857705593,-0.00567046366631985,-0.00544976396486163,-0.00403920235112309,-0.0367739051580429,0.0047827297821641
159,-0.0242522526532412,0.00834494363516569,0.0212496872991323,0.0138352196663618,-0.00693305628374219,0.0292173232883215
160,-0.0065615032799542,0.00953413918614388,0.0291622783988714,0.0135747659951448,0.0101313451305032,0.0266676973551512
161,-0.00573574658483267,0.00469042360782623,0.0288140252232552,0.00954381749033928,0.0166383516043425,0.0284351352602243
162,-0.0165580883622169,-0.00568883726373315,0.0216097608208656,0.0046864990144968,0.0107774697244167,0.0398404262959957
163,-0.0287302192300558,-0.015119549818337,0.00819270312786102,-0.0034451640676707,-0.00419662380591035,0.0407199747860432
164,-0.0380236431956291,-0.0188935212790966,-0.00945698283612728,-0.0152652794495225,-0.0213841702789068,0.024135971441865
165,-0.0505600981414318,-0.0202391352504492,-0.0323649980127811,-0.03041579015553,-0.0390646941959858,0.00898904725909233
166,-0.0664283633232117,-0.0165404919534922,-0.055335883051157,-0.0423712730407715,-0.0547234863042831,0.00039412805926986
167,-0.0806654915213585,-0.00951392855495214,-0.073668584227562,-0.0489805564284325,-0.0665384754538536,-0.0271158702671528
168,-0.0862084776163101,-0.0087146433070302,-0.0812968909740448,-0.051153689622879,-0.0682650506496429,-0.0693737417459488
169,-0.0818317830562592,-0.0168591011315584,-0.0732864663004875,-0.0493948645889759,-0.0574752204120159,-0.0953058749437332
170,-0.0790752843022347,-0.034876249730587,-0.0656162425875664,-0.0561528652906418,-0.0477563515305519,-0.103696823120117
171,-0.0734575316309929,-0.0568644851446152,-0.0714601278305054,-0.0710852518677711,-0.0367950946092606,-0.103543289005756
172,-0.0505671985447407,-0.0729953646659851,-0.0777445659041405,-0.0712034329771996,-0.00846516154706478,-0.095525324344635
173,-0.0183324031531811,-0.0806508287787437,-0.0687404572963715,-0.0470975898206234,0.0278311539441347,-0.0876523777842522
174,0.00752774113789201,-0.0823994874954224,-0.0432785302400589,-0.011213612742722,0.0503443069756031,-0.0849220678210258
175,0.0141888866201043,-0.0858421549201012,-0.018153477460146,0.0168005805462599,0.0440081730484962,-0.0881072357296944
176,-0.00199334905482829,-0.0911408215761185,-0.00624992093071342,0.0284923613071442,0.0127162244170904,-0.0931845232844353
177,-0.0239461995661259,-0.0909848213195801,0.00309733464382589,0.032893244177103,-0.0128841307014227,-0.0865791067481041
178,-0.0346081852912903,-0.0855041667819023,0.0135665219277143,0.0336967296898365,-0.0160424448549747,-0.0694367438554764
179,-0.0314234830439091,-0.0741956159472466,0.0154689615592361,0.0245105642825365,-0.0122549133375287,-0.0532073192298412
180,-0.0272243618965149,-0.0574242807924747,0.00539093557745218,0.001314542372711,-0.0221027228981256,-0.0367552116513252
181,-0.0393305607140064,-0.0469101890921593,-0.0197697337716818,-0.0339889191091061,-0.053357157856226,-0.0132434340193868
182,-0.0650409832596779,-0.042844045907259,-0.0564345493912697,-0.0662788301706314,-0.0903330966830254,0.0101726455613971
183,-0.0881434306502342,-0.0379449129104614,-0.0868263989686966,-0.0782200619578362,-0.107449442148209,0.0122707234695554
184,-0.0971975103020668,-0.0413509719073772,-0.0951366424560547,-0.072444461286068,-0.0979597195982933,-0.005340242292732
185,-0.0900425389409065,-0.0493321493268013,-0.0793076604604721,-0.0617617554962635,-0.0721879601478577,-0.0179473217576742
186,-0.0809908732771873,-0.0478697903454304,-0.0576132833957672,-0.0583630539476871,-0.0503709875047207,-0.0314905382692814
187,-0.0818413943052292,-0.0420565195381641,-0.0507191121578217,-0.0655364021658897,-0.0461468175053597,-0.0648531690239906
188,-0.0845571234822273,-0.0349748767912388,-0.0514143444597721,-0.067274384200573,-0.0471024326980114,-0.0977542698383331
189,-0.0839364677667618,-0.0257410854101181,-0.0439503975212574,-0.0533647425472736,-0.0416770912706852,-0.110417179763317
190,-0.0809590965509415,-0.0246074441820383,-0.0287725366652012,-0.0315934233367443,-0.0350652933120728,-0.109714396297932
191,-0.0762814879417419,-0.0398531146347523,-0.0151375820860267,-0.0113894008100033,-0.0311674028635025,-0.101460352540016
192,-0.0723623633384705,-0.0681528225541115,-0.0125882709398866,0.00231420574709773,-0.0301716923713684,-0.0903313159942627
193,-0.0598734878003597,-0.0952150151133537,-0.0158811565488577,0.0153680993244052,-0.0274251122027636,-0.0753278136253357
194,-0.0327855572104454,-0.107175566256046,-0.0103227645158768,0.0355041846632957,-0.0205624029040337,-0.0461009368300438
195,-0.011711492203176,-0.102718308568001,-0.00187487003859133,0.0546111799776554,-0.0236583445221186,-0.00833606533706188
196,-0.0128300497308373,-0.08210838586092,-0.00537483766674995,0.0603471249341965,-0.0441660210490227,0.0165324807167053
197,-0.0253200512379408,-0.0459583066403866,-0.0197381842881441,0.0485320463776588,-0.070096030831337,0.0210064239799976
198,-0.0338230840861797,-0.00445811450481415,-0.0319767706096172,0.0259573850780725,-0.086765818297863,0.0224647335708141
199,-0.0369639322161675,0.0288144312798977,-0.0288020502775908,0.00563971791416407,-0.0850618556141853,0.0336381569504738
200,-0.0426403433084488,0.0362742729485035,-0.0154790654778481,-0.0101812649518251,-0.071890577673912,0.0322979912161827
201,-0.0479389801621437,0.00911250058561563,-0.00686226645484567,-0.021740086376667,-0.0578495934605598,-0.000716647948138416
202,-0.0467182546854019,-0.032762810587883,-0.00771369365975261,-0.0262573976069689,-0.0440958291292191,-0.0496979840099812
203,-0.0494153425097466,-0.0656815096735954,-0.019072849303484,-0.0297265872359276,-0.0366286225616932,-0.0970678329467773
204,-0.0650471225380898,-0.0885667502880096,-0.0371984615921974,-0.036891832947731,-0.0412787236273289,-0.134730145335197
205,-0.0872468650341034,-0.111955769360065,-0.053924698382616,-0.0436636917293072,-0.0534313432872295,-0.155633509159088
206,-0.0972553491592407,-0.134084939956665,-0.0597906745970249,-0.0412396602332592,-0.0578337386250496,-0.157742902636528
207,-0.0802371129393578,-0.136980459094048,-0.0487766526639462,-0.0255216937512159,-0.0411829762160778,-0.140051782131195
208,-0.0487717092037201,-0.117138959467411,-0.0318415053188801,-0.00714036589488387,-0.0155407367274165,-0.1097706630826
209,-0.0244678761810064,-0.0908408537507057,-0.0222201570868492,0.0039289016276598,-0.00401262333616614,-0.0798599645495415
210,-0.0136276138946414,-0.0689784437417984,-0.0164361167699099,0.0123367244377732,-0.00974450819194317,-0.0500406511127949
211,-0.0189196094870567,-0.0571604147553444,-0.0120679559186101,0.0191647335886955,-0.0250472985208035,-0.0150734661146998
212,-0.0447095148265362,-0.0507144518196583,-0.0201067496091127,0.0114783151075244,-0.0501066632568836,0.020479042083025
213,-0.0854664593935013,-0.0387482643127441,-0.0499185845255852,-0.0180360693484545,-0.083467148244381,0.0387684926390648
214,-0.120173923671246,-0.0291061121970415,-0.0925387144088745,-0.0587363876402378,-0.111782789230347,0.0166626498103142
215,-0.12556554377079,-0.028743714094162,-0.126514419913292,-0.0936640650033951,-0.123945541679859,-0.0436942614614964
216,-0.108746767044067,-0.0349629893898964,-0.144751399755478,-0.114062659442425,-0.130737647414207,-0.108709670603275
217,-0.0981937646865845,-0.0557223036885262,-0.153685927391052,-0.12083226442337,-0.147555291652679,-0.151222765445709
218,-0.0976478755474091,-0.0861435458064079,-0.150305837392807,-0.118279561400414,-0.160624906420708,-0.168180018663406
219,-0.0953289866447449,-0.106888957321644,-0.131710633635521,-0.10846720635891,-0.149451404809952,-0.165258660912514
220,-0.0866051539778709,-0.112870812416077,-0.105635792016983,-0.0885817259550095,-0.121396817266941,-0.143423214554787
221,-0.0672020092606544,-0.102382235229015,-0.0760753601789474,-0.0573911629617214,-0.0911259278655052,-0.104977898299694
222,-0.0463119223713875,-0.0795977339148521,-0.0513377077877522,-0.0316495671868324,-0.0678394883871078,-0.075392372906208
223,-0.0336827524006367,-0.0654550716280937,-0.0417746007442474,-0.027293948456645,-0.0552697852253914,-0.0798046663403511
224,-0.0207830779254436,-0.0730782449245453,-0.0362379997968674,-0.0283299554139376,-0.0451644696295261,-0.096967525780201
225,-0.0164098031818867,-0.101892665028572,-0.033321488648653,-0.0266805179417133,-0.0459824800491333,-0.106550171971321
226,-0.0361550264060497,-0.145631328225136,-0.0539663806557655,-0.0415720045566559,-0.0757234990596771,-0.129935294389725
227,-0.0659165307879448,-0.180028632283211,-0.0939455553889275,-0.0730074718594551,-0.119936406612396,-0.165729358792305
228,-0.0900405645370483,-0.175599724054337,-0.125922679901123,-0.100116617977619,-0.150707006454468,-0.178810134530067
229,-0.101330608129501,-0.132166430354118,-0.129617169499397,-0.103861644864082,-0.150786012411118,-0.154596999287605
230,-0.0928358361124992,-0.0782219469547272,-0.103063561022282,-0.079081118106842,-0.119673013687134,-0.109016314148903
231,-0.0751665160059929,-0.036220908164978,-0.0671469867229462,-0.0470558181405067,-0.0820979923009872,-0.0713563114404678
232,-0.0618021078407764,-0.0040650493465364,-0.0437276922166348,-0.0302119087427855,-0.0593590103089809,-0.0577132813632488
233,-0.055653840303421,0.0208387356251478,-0.0461608283221722,-0.035446397960186,-0.0560066737234592,-0.0624460279941559
234,-0.0587685294449329,0.0260895509272814,-0.0813950970768929,-0.0617878064513206,-0.0757434144616127,-0.0754218101501465
235,-0.0653983876109123,0.00995095353573561,-0.132328301668167,-0.0916195437312126,-0.111218854784966,-0.0915224626660347
236,-0.0679878368973732,-0.0165045987814665,-0.175292760133743,-0.11161981523037,-0.149396568536758,-0.117166168987751
237,-0.0694677755236626,-0.0572096593677998,-0.207335993647575,-0.132461756467819,-0.187524318695068,-0.159783512353897
238,-0.0768115520477295,-0.121242448687553,-0.231568738818169,-0.160017341375351,-0.223517060279846,-0.212259516119957
239,-0.0941952615976334,-0.194387048482895,-0.24189980328083,-0.181545838713646,-0.249296635389328,-0.259044796228409
240,-0.114016801118851,-0.244520261883736,-0.234279438853264,-0.184948429465294,-0.252371579408646,-0.282577604055405
241,-0.123173616826534,-0.255946964025497,-0.221222043037415,-0.174877509474754,-0.229843705892563,-0.272859990596771
242,-0.12304313480854,-0.238059177994728,-0.219688951969147,-0.17034587264061,-0.201314613223076,-0.244032233953476
243,-0.117477402091026,-0.193118453025818,-0.226879894733429,-0.179510772228241,-0.183905974030495,-0.221457540988922
244,-0.101756885647774,-0.123389132320881,-0.235334575176239,-0.195962101221085,-0.179275557398796,-0.211298182606697
245,-0.0780623629689217,-0.0613068155944347,-0.260118722915649,-0.223821043968201,-0.196446746587753,-0.210372239351273
246,-0.0556384287774563,-0.0378529950976372,-0.305275738239288,-0.259816288948059,-0.235902279615402,-0.217050224542618
247,-0.0443724021315575,-0.0440530590713024,-0.339688956737518,-0.278146356344223,-0.274884909391403,-0.220290422439575
248,-0.049861628562212,-0.0474182926118374,-0.33923214673996,-0.264507532119751,-0.298139899969101,-0.211256340146065
249,-0.0641546696424484,-0.0308583602309227,-0.307785183191299,-0.22629389166832,-0.301310777664185,-0.191322773694992
250,-0.0756676495075226,-0.00418102089315653,-0.267195671796799,-0.183139979839325,-0.287826776504517,-0.16811491549015
251,-0.0803985819220543,0.0204402487725019,-0.236609593033791,-0.151434764266014,-0.270842254161835,-0.150332316756248
252,-0.0801942273974419,0.0307946521788836,-0.211791500449181,-0.126989185810089,-0.253772765398026,-0.143081113696098
253,-0.0834215134382248,0.0101437149569392,-0.19191774725914,-0.108553789556026,-0.240397825837135,-0.153504252433777
254,-0.0900232642889023,-0.0287412963807583,-0.190825492143631,-0.110460996627808,-0.239872694015503,-0.182240515947342
255,-0.0910994783043861,-0.0604512169957161,-0.217302605509758,-0.144313350319862,-0.249274030327797,-0.223731011152267
256,-0.0899534896016121,-0.0933903381228447,-0.266718000173569,-0.203684717416763,-0.259718596935272,-0.272507846355438
257,-0.0925275906920433,-0.139101311564446,-0.309766978025436,-0.256203383207321,-0.263857930898666,-0.308485209941864
258,-0.09661765396595,-0.17903196811676,-0.316844910383224,-0.270349234342575,-0.261249721050262,-0.311334043741226
259,-0.0938493385910988,-0.18560129404068,-0.286671370267868,-0.240826189517975,-0.254253953695297,-0.285136848688126
260,-0.0753631815314293,-0.148751139640808,-0.229061007499695,-0.177752003073692,-0.234222948551178,-0.238737031817436
261,-0.0513182356953621,-0.0903058722615242,-0.16255247592926,-0.105578355491161,-0.202086597681046,-0.179295539855957
262,-0.0383886732161045,-0.0418560393154621,-0.113261714577675,-0.0528697818517685,-0.17656035721302,-0.118525832891464
263,-0.0377304330468178,-0.00532757584005594,-0.0915629491209984,-0.0273893419653177,-0.16663034260273,-0.056411188095808
264,-0.0498833805322647,0.0360396020114422,-0.0991362854838371,-0.0331237651407719,-0.175295025110245,-0.00606310972943902
265,-0.0718369781970978,0.0801532864570618,-0.130569860339165,-0.0709754005074501,-0.200456351041794,0.00241227261722088
266,-0.0872981399297714,0.0994648486375809,-0.166603222489357,-0.116175837814808,-0.220523491501808,-0.0352694801986218
267,-0.0846709609031677,0.0759157463908196,-0.197751298546791,-0.150051563978195,-0.219060868024826,-0.101715192198753
268,-0.0653208121657372,0.0311271827667952,-0.218089878559113,-0.170066729187965,-0.199239864945412,-0.165789544582367
269,-0.0480334050953388,-0.00412038201466203,-0.215755298733711,-0.170894756913185,-0.172455787658691,-0.191028594970703
270,-0.0509022176265717,-0.0292731951922178,-0.198246702551842,-0.157263875007629,-0.154631033539772,-0.17388653755188
271,-0.0597656518220901,-0.0554527118802071,-0.182698905467987,-0.138482376933098,-0.151027008891106,-0.143881157040596
272,-0.0572964586317539,-0.0817232802510262,-0.172786861658096,-0.117929264903069,-0.154762864112854,-0.12720251083374
273,-0.0471439696848392,-0.0993351116776466,-0.16386741399765,-0.0977920740842819,-0.160535722970963,-0.121042244136333
274,-0.038405530154705,-0.0967994630336761,-0.151331678032875,-0.0803296566009521,-0.163568109273911,-0.11184000223875
275,-0.0439599491655827,-0.0764332115650177,-0.140123948454857,-0.079616516828537,-0.165957286953926,-0.115550890564919
276,-0.0647199600934982,-0.0589879415929317,-0.133215636014938,-0.103680744767189,-0.168003246188164,-0.146512821316719
277,-0.0808683335781097,-0.0552821196615696,-0.112707503139973,-0.121983960270882,-0.14950130879879,-0.175787389278412
278,-0.0836928188800812,-0.0583602860569954,-0.0719517022371292,-0.108811266720295,-0.105823040008545,-0.17639122903347
279,-0.0792465284466743,-0.0650156140327454,-0.0397182255983353,-0.0828539058566093,-0.0710371285676956,-0.156967550516129
280,-0.0707001090049744,-0.0765871331095696,-0.0436168164014816,-0.0698715299367905,-0.0735122486948967,-0.135001644492149
281,-0.0664379000663757,-0.0799224153161049,-0.0751484856009483,-0.0722631365060806,-0.103675208985806,-0.116034992039204
282,-0.0746830999851227,-0.0609433203935623,-0.104136444628239,-0.0768643245100975,-0.132257401943207,-0.0967689454555511
283,-0.0932742431759834,-0.0310623776167631,-0.117691315710545,-0.0762592032551765,-0.145513162016869,-0.0776020139455795
284,-0.105759032070637,-0.00634811446070671,-0.121163040399551,-0.0747538134455681,-0.143796250224113,-0.0618569403886795
285,-0.090481199324131,0.00751087348908186,-0.110875144600868,-0.0665775835514069,-0.120631754398346,-0.0475976020097733
286,-0.0532814897596836,-0.000536176608875394,-0.0784071236848831,-0.036603394895792,-0.0746713727712631,-0.0322632491588593
287,-0.012715233489871,-0.0265088882297277,-0.0288315732032061,0.0128033459186554,-0.0195630472153425,-0.0104391817003489
288,0.0242410618811846,-0.047684021294117,0.0198484323918819,0.0612089931964874,0.0285159032791853,0.0259373895823956
289,0.0435619167983532,-0.0557223185896873,0.0460988134145737,0.0842691585421562,0.0564430803060532,0.0703298225998878
290,0.0354285649955273,-0.0500029362738132,0.0420767776668072,0.0712717100977898,0.0606937818229198,0.101489640772343
291,0.00826194509863853,-0.0324234813451767,0.0212882459163666,0.0368154644966125,0.0467824190855026,0.102441519498825
292,-0.0259630307555199,-0.0165793392807245,-0.000118565832963213,0.000915512850042433,0.0189633872359991,0.0779688581824303
293,-0.0497837774455547,-0.00236166757531464,-0.00760878622531891,-0.018951928243041,-0.00593586964532733,0.0584684014320374
294,-0.0537535771727562,0.0268009603023529,0.00559747312217951,-0.011800691485405,-0.00867273658514023,0.0673679336905479
295,-0.0505114495754242,0.0671738386154175,0.0225425697863102,0.010334181599319,0.00240197288803756,0.0917801409959793
296,-0.0456318184733391,0.0932270884513855,0.0348682291805744,0.0368033237755299,0.0180451516062021,0.106566533446312
297,-0.0344671048223972,0.0875766277313232,0.0534571595489979,0.0680873021483421,0.039552241563797,0.0959890708327293
298,-0.0232130233198404,0.0605768635869026,0.0703539252281189,0.0876654982566834,0.0519245453178883,0.0559558309614658
299,-0.0212668254971504,0.0285959485918283,0.0624535158276558,0.070558212697506,0.0356225855648518,-0.00187845155596733
300,-0.0282050669193268,-0.0128905419260263,0.0251964535564184,0.0212435219436884,-0.0028678618837148,-0.0618531182408333
301,-0.0324222445487976,-0.0591386631131172,-0.0130137652158737,-0.0149140534922481,-0.0288956873118877,-0.100071474909782
302,-0.0265334956347942,-0.0866627618670464,-0.017418010160327,-0.00136861961800605,-0.0144858686253428,-0.0839826390147209
303,-0.0131996953859925,-0.0882339775562286,0.0109406439587474,0.0449414625763893,0.0364923663437366,-0.00875847321003675
304,0.00644973525777459,-0.0710960105061531,0.0462610833346844,0.0862778648734093,0.0988283306360245,0.0880258157849312
305,0.0213124714791775,-0.0456338189542294,0.0712219700217247,0.104756988584995,0.139097318053246,0.153803363442421
306,0.0196982622146606,-0.0231232009828091,0.0856178253889084,0.105635493993759,0.141747698187828,0.166141286492348
307,0.0105491131544113,0.000213755673030391,0.103178694844246,0.108192682266235,0.128638342022896,0.152448132634163
308,0.000354099116520956,0.0257403235882521,0.128992810845375,0.125557571649551,0.124782547354698,0.149135828018188
309,-0.00358793628402054,0.045151099562645,0.154322952032089,0.153235450387001,0.131462141871452,0.161279544234276
310,0.00946770794689655,0.0679747387766838,0.17570686340332,0.180338129401207,0.141764938831329,0.177150368690491
311,0.0260633230209351,0.0960762277245522,0.186392918229103,0.1950414031744,0.147681310772896,0.190894201397896
312,0.0322155803442001,0.110216043889523,0.17907902598381,0.191753476858139,0.145732522010803,0.206846386194229
313,0.0313857533037663,0.102713271975517,0.162489593029022,0.180875882506371,0.140010252594948,0.219899848103523
314,0.021187137812376,0.0777149349451065,0.149223059415817,0.171031534671783,0.129159197211266,0.201570078730583
315,0.0028402500320226,0.0464503057301044,0.150247663259506,0.163429424166679,0.114657446742058,0.150631323456764
316,-0.0104189235717058,0.0191450491547585,0.167543396353722,0.162351489067078,0.106135994195938,0.113093532621861
317,-0.0120938364416361,-0.00250203674659133,0.183215990662575,0.164105519652367,0.106350295245647,0.116437502205372
318,0.000401366618461907,-0.0115411039441824,0.184789568185806,0.162227734923363,0.114983536303043,0.136072531342506
319,0.0206579193472862,-0.00813984777778387,0.177748888731003,0.15800267457962,0.128553375601768,0.137861907482147
320,0.0304951034486294,-0.0016464019427076,0.166680797934532,0.149219945073128,0.137241959571838,0.121000736951828
321,0.0261341407895088,0.0113084968179464,0.153315261006355,0.131423652172089,0.140742421150208,0.104165159165859
322,0.0221497863531113,0.0358984842896461,0.136783808469772,0.101892441511154,0.143895074725151,0.0967803373932838
323,0.0294939614832401,0.066745288670063,0.108076930046082,0.0612046755850315,0.139084056019783,0.107075743377209
324,0.0370578840374947,0.0896658152341843,0.0666477233171463,0.0229379776865244,0.121616840362549,0.143112987279892
325,0.0253918282687664,0.0783552527427673,0.029068062081933,0.000124300218885764,0.102584235370159,0.173099175095558
326,0.00517885480076075,0.0264798626303673,0.0170540753751993,-0.00563848624005914,0.097663052380085,0.151612833142281
327,0.000165858044056222,-0.0270168222486973,0.0436481013894081,0.0107334973290563,0.117732629179955,0.0984039008617401
328,0.00402083294466138,-0.0458463355898857,0.0953853279352188,0.0497675985097885,0.150719985365868,0.0675173029303551
329,0.0051491130143404,-0.0325117409229279,0.147786051034927,0.0995317921042442,0.173716023564339,0.0778466537594795
330,0.00720422202721238,-0.00787357985973358,0.192654952406883,0.150504440069199,0.185142070055008,0.117254078388214
331,0.0130266100168228,0.0185503643006086,0.230839475989342,0.198549598455429,0.193908631801605,0.169541150331497
332,0.0262463539838791,0.0523253530263901,0.262326508760452,0.239949613809586,0.204289391636848,0.225657239556313
333,0.0458638742566109,0.0846698582172394,0.280136406421661,0.263397961854935,0.214597806334496,0.267590552568436
334,0.0636394023895264,0.0965525433421135,0.273830413818359,0.253937572240829,0.218340933322906,0.269178509712219
335,0.0747082829475403,0.092555858194828,0.245625674724579,0.214333072304726,0.212037563323975,0.23409740626812
336,0.0738399550318718,0.0851057395339012,0.205116212368011,0.161852866411209,0.192052319645882,0.192378327250481
337,0.0560828819870949,0.0744180977344513,0.157578319311142,0.108889177441597,0.154871746897697,0.162281602621078
338,0.0264459382742643,0.0658977031707764,0.108402647078037,0.0631345808506012,0.107239849865437,0.144539281725883
339,-0.0038872454315424,0.068411648273468,0.0631394758820534,0.0279095415025949,0.0630485862493515,0.134414538741112
340,-0.025617329403758,0.0704764649271965,0.0268618147820234,0.00258094188757241,0.0352111272513866,0.127494737505913
341,-0.0321409031748772,0.0514920614659786,0.00914140418171883,-0.00679328199476004,0.0337111428380013,0.126398429274559
342,-0.0213058870285749,0.0136843891814351,0.00963381119072437,-0.000169136197655462,0.0534743927419186,0.127613440155983
343,0.00589750427752733,-0.0231949873268604,0.00911239627748728,0.00808598287403584,0.0731602683663368,0.109663732349873
344,0.0359228700399399,-0.0555942803621292,-0.00559810921549797,0.00502914609387517,0.0771354362368584,0.0590948909521103
345,0.0473097003996372,-0.0879958346486092,-0.0203935690224171,-0.00641115428879857,0.0674800351262093,-0.00120339810382575
346,0.043632548302412,-0.0972290933132172,-0.00369784072972834,0.00303226104006171,0.0656596943736076,-0.0229738634079695
347,0.0452596098184586,-0.060086190700531,0.0627670660614967,0.0608694404363632,0.0963556841015816,0.0151764480397105
348,0.058768916875124,0.0109651554375887,0.164964780211449,0.156236916780472,0.159662619233131,0.0891059264540672
349,0.0768520906567574,0.0867162421345711,0.267870962619781,0.252602398395538,0.231518387794495,0.167932003736496
350,0.0847251191735268,0.140396431088448,0.328502595424652,0.306474506855011,0.277516424655914,0.226332917809486
351,0.0754072070121765,0.160967156291008,0.323249161243439,0.293484002351761,0.278536766767502,0.252129107713699
352,0.0559587404131889,0.16081514954567,0.271296381950378,0.23522099852562,0.248373180627823,0.26060163974762
353,0.0304327830672264,0.154394686222076,0.203321814537048,0.164901450276375,0.205226942896843,0.256805032491684
354,0.00559564540162683,0.141032353043556,0.140862911939621,0.0978242158889771,0.160971850156784,0.223922610282898
355,-0.011268388479948,0.11071339994669,0.0957987606525421,0.0440170876681805,0.124190889298916,0.16365884244442
356,-0.0191896110773087,0.0639049038290977,0.0617418326437473,0.00700490549206734,0.0941617414355278,0.108812212944031
357,-0.00667094998061657,0.0207457561045885,0.0383922159671783,-0.00951799936592579,0.0787902101874352,0.0942348837852478
358,0.0272340904921293,-0.00772490864619613,0.0371945835649967,0.00253090262413025,0.0845636650919914,0.113817885518074
359,0.0596310794353485,-0.0222810339182615,0.0533848293125629,0.035270020365715,0.0999114513397217,0.125355392694473
360,0.0816367939114571,-0.0161271318793297,0.0778294205665588,0.0721043050289154,0.120060428977013,0.109812669456005
361,0.101351641118526,0.00394256738945842,0.104720368981361,0.101790875196457,0.142186239361763,0.0849819034337997
362,0.117680571973324,0.0209680441766977,0.127543449401855,0.122084826231003,0.153464674949646,0.071518786251545
363,0.119137294590473,0.0307578220963478,0.146851122379303,0.137921392917633,0.150735810399055,0.0733523145318031
364,0.0948945060372353,0.0334730185568333,0.148171469569206,0.134543463587761,0.133541435003281,0.070583738386631
365,0.0508359223604202,0.0401446856558323,0.11550198495388,0.096777617931366,0.0983365029096603,0.0526812858879566
366,0.00869289226830006,0.0592253543436527,0.0712539106607437,0.0503844395279884,0.0574833191931248,0.036447037011385
367,-0.0162205137312412,0.0660690888762474,0.0416825637221336,0.0223969891667366,0.0322053767740726,0.0267503075301647
368,-0.0140169644728303,0.0507781095802784,0.0347055941820145,0.0155138820409775,0.036077868193388,0.0265189222991467
369,0.0113866934552789,0.0455491840839386,0.0568269938230515,0.0311984624713659,0.0674774423241615,0.0526469275355339
370,0.0332077294588089,0.0639248192310333,0.0996636375784874,0.0616896599531174,0.111721850931644,0.100009858608246
371,0.0419104397296906,0.0878373607993126,0.146711498498917,0.0940836220979691,0.158742368221283,0.149175211787224
372,0.0532232001423836,0.10169679671526,0.182285293936729,0.119353383779526,0.195064842700958,0.19197815656662
373,0.0677901357412338,0.0984808355569839,0.189889445900917,0.127704486250877,0.203177392482758,0.214925214648247
374,0.0707511305809021,0.0779911056160927,0.174929618835449,0.121845960617065,0.186481833457947,0.199577867984772
375,0.0644241124391556,0.0508768893778324,0.15732903778553,0.112282328307629,0.156891539692879,0.154354512691498
376,0.0696104094386101,0.0421596132218838,0.152653411030769,0.111625693738461,0.128209218382835,0.126341164112091
377,0.0898549109697342,0.0718234553933144,0.161608219146729,0.127580225467682,0.115369312465191,0.150259897112846
378,0.094233326613903,0.124134384095669,0.155471280217171,0.131830394268036,0.105470545589924,0.19293025135994
379,0.0639680325984955,0.161877110600472,0.121375896036625,0.096370741724968,0.08478082716465,0.202332049608231
380,0.0277094468474388,0.165483221411705,0.0908321663737297,0.0452747717499733,0.0695733577013016,0.166790321469307
381,0.0211061388254166,0.136843681335449,0.0872983261942863,0.0179209876805544,0.0741148367524147,0.10387010872364
382,0.0494162924587727,0.095827080309391,0.112673744559288,0.0360097736120224,0.101674430072308,0.0571837909519672
383,0.091643750667572,0.0674725696444511,0.159001857042313,0.0925580784678459,0.142896682024002,0.0648595839738846
384,0.122062310576439,0.0564120002090931,0.199195608496666,0.1457789093256,0.170413225889206,0.106071874499321
385,0.130165860056877,0.055264163762331,0.212035447359085,0.16392408311367,0.169174745678902,0.13575367629528
386,0.118334084749222,0.0572033636271954,0.201948747038841,0.152812525629997,0.148395970463753,0.145289197564125
387,0.101914405822754,0.0645666122436523,0.185787573456764,0.132710218429565,0.128380551934242,0.154917418956757
388,0.102429240942001,0.0857827886939049,0.179748922586441,0.123653501272202,0.128495246171951,0.170788273215294
389,0.118731409311295,0.113432660698891,0.185360237956047,0.131514772772789,0.149058490991592,0.174847081303597
390,0.131182998418808,0.131684437394142,0.189372196793556,0.137622490525246,0.175168126821518,0.158356338739395
391,0.126880720257759,0.136535808444023,0.176279753446579,0.119755990803242,0.192480191588402,0.129122227430344
392,0.101453401148319,0.130907535552979,0.132781267166138,0.0718098431825638,0.183194637298584,0.0892311185598373
393,0.0630838572978973,0.128754168748856,0.0700899586081505,0.0161782428622246,0.145795598626137,0.0488518550992012
394,0.0305811837315559,0.142268240451813,0.023194270208478,-0.00930950324982405,0.105631947517395,0.033654622733593
395,0.0142355877906084,0.149139076471329,0.00212319428101182,-0.0017551725031808,0.0734914019703865,0.0520414672791958
396,0.0153216449543834,0.129648625850677,-0.00126661150716245,0.0175883881747723,0.0480262488126755,0.0892851203680038
397,0.0313834846019745,0.0989986658096313,0.0192399956285954,0.0506398119032383,0.0437847301363945,0.121417053043842
398,0.0558355040848255,0.0703015401959419,0.0629044249653816,0.104833543300629,0.0654989778995514,0.127720177173615
399,0.0841786786913872,0.0398922637104988,0.111430965363979,0.169534727931023,0.0959843918681145,0.113303110003471
400,0.103973940014839,0.00911480560898781,0.142590001225472,0.220006197690964,0.113793075084686,0.0969954431056976
401,0.100909776985645,-0.00614025164395571,0.149634510278702,0.239819020032883,0.110104463994503,0.0875943601131439
402,0.0865003243088722,0.00519797299057245,0.151517227292061,0.245947793126106,0.101563364267349,0.0898994207382202
403,0.0769989937543869,0.028469905257225,0.153907969594002,0.249494805932045,0.0987113267183304,0.0953147262334824
404,0.0715462192893028,0.0471282638609409,0.141810864210129,0.235472187399864,0.0931278541684151,0.0935417264699936
405,0.0634881556034088,0.0642081648111343,0.116500407457352,0.203860431909561,0.0824922248721123,0.0875681340694427
406,0.0467665232717991,0.0833343863487244,0.0899963453412056,0.170718312263489,0.0667546615004539,0.0722618624567986
407,0.0235974565148354,0.0986387357115746,0.0685447975993156,0.14885339140892,0.0476212278008461,0.0544720105826855
408,0.00750976148992777,0.1014299467206,0.0522306747734547,0.141065716743469,0.03436578810215,0.0580386519432068
409,0.0148175181820989,0.0896288603544235,0.0390954092144966,0.137045457959175,0.0360155627131462,0.0730490460991859
410,0.0421605035662651,0.0706561133265495,0.0319002866744995,0.126669809222221,0.0541393123567104,0.0660146176815033
411,0.065234363079071,0.0549211464822292,0.0263483729213476,0.1040083989501,0.0744376480579376,0.0329824648797512
412,0.075994998216629,0.0530866160988808,0.00790339801460505,0.0664079934358597,0.0761392265558243,-0.00251195975579321
413,0.0773593932390213,0.0600311011075974,-0.0258646495640278,0.0241739507764578,0.0533635765314102,-0.0206321440637112
414,0.0594223402440548,0.0579449348151684,-0.0559734180569649,-0.00490976590663195,0.020868606865406,-0.0132509730756283
415,0.0284714754670858,0.0537954196333885,-0.0572895295917988,-0.00809176079928875,0.00495174806565046,0.0200731828808784
416,0.0044486946426332,0.0616882517933846,-0.028954166918993,0.0121715208515525,0.0129802823066711,0.0583078823983669
417,-0.00991650391370058,0.0677382275462151,0.00787675660103559,0.0416436605155468,0.0300634745508432,0.0707835108041763
418,-0.014138194732368,0.0596725419163704,0.0476033166050911,0.078248456120491,0.0518782287836075,0.0632136017084122
419,-0.00752457324415445,0.044938500970602,0.0923821404576302,0.125670433044434,0.0775784775614738,0.0660457983613014
420,0.00183375412598252,0.0327591188251972,0.125965103507042,0.165341779589653,0.0953436344861984,0.0816152468323708
421,0.0133541421964765,0.0332025848329067,0.137766182422638,0.177428156137466,0.103560768067837,0.0932952016592026
422,0.028778588399291,0.045366957783699,0.131431549787521,0.16355188190937,0.107221432030201,0.0908219888806343
423,0.0442155264317989,0.056536328047514,0.106948591768742,0.131570339202881,0.101826123893261,0.0706092119216919
424,0.0580901056528091,0.0620616860687733,0.069912426173687,0.0894553437829018,0.0843473896384239,0.0460239946842194
425,0.0610667839646339,0.0522384494543076,0.0323315635323524,0.0432785674929619,0.0560893230140209,0.0280850902199745
426,0.0474013350903988,0.0247588362544775,0.00984254665672779,0.0043890024535358,0.0282559655606747,0.0152049213647842
427,0.0322711691260338,0.004284733440727,0.0174579713493586,-0.00844880472868681,0.01963896676898,0.0122522953897715
428,0.0281109474599361,0.00494821975007653,0.0452210120856762,0.00403776671737432,0.0276413541287184,0.0169928222894669
429,0.0353601314127445,0.0187611076980829,0.071671724319458,0.0234772656112909,0.0406194031238556,0.0194203983992338
430,0.0511711798608303,0.0357384718954563,0.0925154685974121,0.0416446141898632,0.0609978251159191,0.0251548402011395
431,0.0671394020318985,0.0503769256174564,0.106510244309902,0.0552001371979713,0.0845955014228821,0.0423511937260628
432,0.077556848526001,0.0648386627435684,0.104646004736423,0.0556961074471474,0.0970399156212807,0.0631916224956512
433,0.0771239474415779,0.0753198638558388,0.0804168358445168,0.0378561727702618,0.0890857130289078,0.0716812834143639
434,0.0543508380651474,0.0723141059279442,0.0388102866709232,0.00016338299610652,0.0602541118860245,0.0566401667892933
435,0.0169239863753319,0.0622650124132633,-0.000938848650548607,-0.0479545220732689,0.0252706222236156,0.0261425394564867
436,-0.00879633333534002,0.0502276532351971,-0.0252988524734974,-0.087872177362442,0.0028123059310019,-0.00562406610697508
437,-0.01074000261724,0.024458535015583,-0.039038859307766,-0.109464436769485,-0.00107521668542176,-0.0344767794013023
438,0.00254952046088874,-0.0141429249197245,-0.048837523907423,-0.113973863422871,0.00742229958996177,-0.0543961748480797
439,0.0143234878778458,-0.043573834002018,-0.0511694476008415,-0.109255112707615,0.0155865792185068,-0.064143642783165
440,0.0202793553471565,-0.0447669625282288,-0.030776385217905,-0.0908776968717575,0.0258090328425169,-0.0577279850840569
441,0.0318372696638107,-0.0152345029637218,0.0194786675274372,-0.044736884534359,0.0497352033853531,-0.0127337034791708
442,0.0492416061460972,0.0319750867784023,0.0732119679450989,0.0157744362950325,0.0755155235528946,0.061732079833746
443,0.0658683255314827,0.0774023458361626,0.103707298636436,0.0653730034828186,0.0918227583169937,0.123552598059177
444,0.0780633464455605,0.104709029197693,0.113518491387367,0.0913865119218826,0.10087726265192,0.145801350474358
445,0.0767941921949387,0.104971654713154,0.108684465289116,0.0844750255346298,0.0931451469659805,0.125463843345642
446,0.0630132704973221,0.0808732211589813,0.0926458388566971,0.0551611855626106,0.0697086155414581,0.08425073325634
447,0.0456620380282402,0.0438442640006542,0.0701351463794708,0.0252851489931345,0.0479468069970608,0.0453056506812572
448,0.0303396862000227,0.0123414294794202,0.0429977551102638,-0.00292356219142675,0.0342255309224129,0.0115089258179069
449,0.022430332377553,0.00256939698010683,0.0126270083710551,-0.0366180129349232,0.0237691532820463,-0.0155942682176828
450,0.0147013468667865,0.00635534571483731,-0.0248363558202982,-0.0773374512791634,0.00347138568758965,-0.0342878140509129
451,-0.00830036215484142,0.00774982292205095,-0.0678354874253273,-0.120846509933472,-0.0338411927223206,-0.0408528223633766
452,-0.0463328324258327,0.00224474049173296,-0.10090396553278,-0.156548783183098,-0.0733420625329018,-0.0361108519136906
453,-0.0797098577022552,-0.01239647064358,-0.116384044289589,-0.173907250165939,-0.0969687476754189,-0.0444099195301533
454,-0.0845011845231056,-0.0265512298792601,-0.111858107149601,-0.163186654448509,-0.0929076448082924,-0.0714454129338264
455,-0.0585354752838612,-0.0254357773810625,-0.0776112824678421,-0.118622466921806,-0.0585916042327881,-0.0847197920084
456,-0.0201598796993494,-0.00208181096240878,-0.0168627388775349,-0.0520911067724228,-0.0104196295142174,-0.0590677335858345
457,0.0156823918223381,0.038414504379034,0.0465506203472614,0.0118061983957887,0.0333949401974678,0.00131057342514396
458,0.0385276526212692,0.069989837706089,0.0858862921595573,0.0515054352581501,0.0653109475970268,0.0652860030531883
459,0.0469886511564255,0.0739617347717285,0.0931038707494736,0.0617585815489292,0.0857974514365196,0.0991059690713882
460,0.0545994751155376,0.0575661472976208,0.0862871930003166,0.0560510456562042,0.101185627281666,0.103681914508343
461,0.0649837702512741,0.0326761268079281,0.0799781978130341,0.0444679446518421,0.106120213866234,0.0945215150713921
462,0.0691375136375427,0.00824272818863392,0.0689044520258904,0.0287628378719091,0.0895952731370926,0.0694423764944077
463,0.0677976533770561,-0.0121147083118558,0.0499711856245995,0.0156919825822115,0.0554174743592739,0.0290755052119493
464,0.0573945380747318,-0.0274900421500206,0.0230385679751635,0.000586726586334407,0.00801784358918667,-0.0158005561679602
465,0.0268967840820551,-0.0266384407877922,-0.0102607356384397,-0.027808541432023,-0.0440488047897816,-0.0506211631000042
466,-0.0133855398744345,-0.0124131049960852,-0.037170521914959,-0.0596608407795429,-0.0782857984304428,-0.0629174262285233
467,-0.036903653293848,-0.00775758968666196,-0.0512107685208321,-0.0825714990496635,-0.0850584506988525,-0.0629229471087456
468,-0.0333780571818352,-0.0202116742730141,-0.0560630485415459,-0.0959340110421181,-0.0726857557892799,-0.0655060932040215
469,-0.0171317178755999,-0.0386254899203777,-0.0504313856363297,-0.0972440913319588,-0.0482856519520283,-0.057694137096405
470,7.01119352015667E-05,-0.0404639393091202,-0.0290450416505337,-0.0820868611335754,-0.0101857976987958,-0.0231911614537239
471,0.0210762023925781,-0.00591756543144584,0.0106049189344049,-0.0471807569265366,0.0457447096705437,0.0355208963155746
472,0.0393261536955833,0.0559877343475819,0.0560535900294781,-0.00179874454624951,0.0998972356319427,0.0965756177902222
473,0.0415375232696533,0.113068982958794,0.0879067927598953,0.0339775532484055,0.120022810995579,0.125524967908859
474,0.0320916026830673,0.135425642132759,0.107360184192657,0.0560708716511726,0.108509108424187,0.120507977902889
475,0.0214238334447145,0.114592187106609,0.119410485029221,0.0658331289887428,0.0879308879375458,0.103852011263371
476,0.0184226557612419,0.0737292245030403,0.117451317608356,0.0614498443901539,0.0679951682686806,0.0838995948433876
477,0.0338504798710346,0.0434177443385124,0.103894412517548,0.0545884892344475,0.0520578622817993,0.0712907388806343
478,0.0605819001793861,0.0246310476213694,0.0809193849563599,0.0503216460347176,0.0366397202014923,0.073464922606945
479,0.0775342211127281,0.00821856502443552,0.0440677776932716,0.0360234975814819,0.0168135818094015,0.0777761936187744
480,0.0676943212747574,-0.00321432901546359,-0.00651661306619644,-0.00181714666541666,-0.0104591511189938,0.058307096362114
481,0.0320679992437363,-0.0127726970240474,-0.0621981434524059,-0.0580970831215382,-0.0438533760607243,0.00582330953329802
482,0.00144576258026063,-0.0259997397661209,-0.10162416100502,-0.104423902928829,-0.0599471218883991,-0.0523500107228756
483,-0.0053568365983665,-0.0413005575537682,-0.117127120494843,-0.127895087003708,-0.0532287620007992,-0.0912501662969589
484,-0.00567911332473159,-0.0495528466999531,-0.116766773164272,-0.13330452144146,-0.0534882508218288,-0.0962861776351929
485,-0.0070974575355649,-0.0374662019312382,-0.0911002978682518,-0.10951804369688,-0.0625221505761147,-0.0611651577055454
486,-0.00270361616276205,-0.00864166673272848,-0.0352076031267643,-0.053688071668148,-0.0529113113880157,-0.0128135615959764
487,0.00549999205395579,0.0146675184369087,0.0268718097358942,0.00668711215257645,-0.0164173319935799,0.0234805811196566
488,0.0143401632085443,0.0199666302651167,0.0680726692080498,0.0451860427856445,0.0282784570008516,0.0490694306790829
489,0.0197188369929791,0.0140871508046985,0.0811000764369965,0.0586290843784809,0.0565368160605431,0.0635740682482719
490,0.0194699484854937,0.00663944100961089,0.0780614987015724,0.0567855946719646,0.0645278766751289,0.0588758289813995
491,0.0193565096706152,-0.00325621757656336,0.0732527077198029,0.0465552657842636,0.0698315352201462,0.0332637615501881
492,0.0250005125999451,-0.0172336623072624,0.067096009850502,0.0279002580791712,0.0802663043141365,-0.00612786738201976
493,0.0376842655241489,-0.0227213241159916,0.0610635727643967,0.0103940516710281,0.0875810980796814,-0.0388163439929485
494,0.0481750890612602,-0.0136551018804312,0.0613873600959778,0.00724265212193131,0.0821270942687988,-0.0453392639756203
495,0.0441954508423805,-0.0026197659317404,0.0569665022194386,0.00937522947788239,0.0564528293907642,-0.0285392664372921
496,0.0311306770890951,0.00700251618400216,0.0346740484237671,0.00353940762579441,0.0173415541648865,-0.00150566082447767
497,0.0201818495988846,0.0204562209546566,-0.000746896781492978,-0.0128496885299683,-0.0167287439107895,0.0156038608402014
498,0.0126271741464734,0.0350465923547745,-0.043449092656374,-0.0471176318824291,-0.0398849360644817,0.00418272567912936
499,0.0106392474845052,0.0483502112329006,-0.0900169610977173,-0.0996882915496826,-0.0606005415320396,-0.0234239865094423
500,0.0143905822187662,0.0522579289972782,-0.12651327252388,-0.14835587143898,-0.0851296782493591,-0.0403470955789089
501,0.0169658344238997,0.0330170281231403,-0.136143058538437,-0.167341396212578,-0.106624431908131,-0.0421037934720516
502,0.0138825820758939,-0.00551926484331489,-0.113785356283188,-0.147639274597168,-0.109302438795567,-0.0366241335868835
503,0.00172078923787922,-0.0446202494204044,-0.07026257365942,-0.101648271083832,-0.0902463346719742,-0.0314531773328781
504,-0.0153912026435137,-0.0658960938453674,-0.0214519258588552,-0.0502831116318703,-0.0591695494949818,-0.0270404107868671
505,-0.0243093725293875,-0.062813326716423,0.0231541655957699,-0.00508416024968028,-0.0238749627023935,-0.00708099780604243
506,-0.0168874338269234,-0.046610414981842,0.0532585754990578,0.0256294533610344,0.00773023627698421,0.0313265509903431
507,0.00551590416580439,-0.0215913243591785,0.0609545633196831,0.0342698469758034,0.0316983349621296,0.0683131888508797
508,0.0278429314494133,0.0175038557499647,0.0501882992684841,0.0250487383455038,0.0456266738474369,0.0888461694121361
509,0.0348094627261162,0.0540004745125771,0.0310432594269514,0.00832995027303696,0.0501178726553917,0.086095355451107
510,0.0289936158806086,0.0669618993997574,0.0155301950871944,-0.00819219369441271,0.0557367131114006,0.0593765042722225
511,0.0190917067229748,0.0537331737577915,0.00581829808652401,-0.0212633181363344,0.0582918524742126,0.0155809903517365
512,0.0126914214342833,0.0145831909030676,-0.0109115801751614,-0.0349620692431927,0.0421736165881157,-0.0323322080075741
513,0.012530367821455,-0.0448145978152752,-0.040999062359333,-0.0548302717506886,0.0128430342301726,-0.0713460072875023
514,0.00854600314050913,-0.0990879088640213,-0.0743589773774147,-0.0809862017631531,-0.018735196441412,-0.0959478914737701
515,-0.00491614267230034,-0.109292738139629,-0.0947056859731674,-0.10642021894455,-0.0520599856972694,-0.0976058095693588
516,-0.0217676069587469,-0.0701975375413895,-0.0942215472459793,-0.120809197425842,-0.0831698104739189,-0.0635952055454254
517,-0.0353940986096859,-0.0184946041554213,-0.0839230790734291,-0.122930660843849,-0.102806530892849,-0.00219753733836114
518,-0.0316094979643822,0.0237119477242231,-0.0735398605465889,-0.111608318984509,-0.0972067788243294,0.0583959557116032
519,-0.00126097025349736,0.0488417558372021,-0.0576225407421589,-0.0813506171107292,-0.0600975640118122,0.0975831896066666
520,0.031524159014225,0.0384579338133335,-0.0410567596554756,-0.0473329685628414,-0.0169462747871876,0.0958539173007011
521,0.0418530777096748,-0.0101357903331518,-0.0333488993346691,-0.0289348606020212,0.00451372284442186,0.0436517111957073
522,0.0356194749474525,-0.0634697824716568,-0.0271989088505507,-0.0219501908868551,0.00884292554110289,-0.0280591063201427
523,0.0229784287512302,-0.0798371806740761,-0.0100278966128826,-0.0136960372328758,0.0125404112040997,-0.0750726312398911
524,0.00964801385998726,-0.0524526387453079,0.0175328701734543,-0.00228057894855738,0.021915515884757,-0.086195632815361
525,-0.00433567399159074,-0.0164849460124969,0.0273456368595362,-0.00533558707684278,0.0196896195411682,-0.0867844894528389
526,-0.0227967724204063,-0.000757165485993028,0.00608106981962919,-0.026131696999073,-0.00551392324268818,-0.0899836122989655
527,-0.0378733351826668,0.00248930044472218,-0.010512026026845,-0.0308591090142727,-0.0313984118402004,-0.0742294862866402
528,-0.0402274690568447,0.0097888158634305,0.00413924036547542,-0.00160450185649097,-0.0381630472838879,-0.0269605834037066
529,-0.0251654870808125,0.0272836517542601,0.0383502282202244,0.0433432534337044,-0.0218562353402376,0.0403012000024319
530,0.00167032179888338,0.0465803295373917,0.0687172934412956,0.0801437497138977,0.0107880607247353,0.102352686226368
531,0.0227613020688295,0.0508604049682617,0.0796935930848122,0.0969084426760674,0.0403601601719856,0.133759140968323
532,0.0347149334847927,0.0466575287282467,0.075369268655777,0.100522696971893,0.0576469339430332,0.139106631278992
533,0.0435979925096035,0.052762757986784,0.0621875673532486,0.0953167378902435,0.0653255507349968,0.141717121005058
534,0.0502302162349224,0.0634175166487694,0.0414494425058365,0.0779128819704056,0.0652303695678711,0.145810469985008
535,0.0585014075040817,0.0654569938778877,0.0215268731117249,0.0530269667506218,0.0613723769783974,0.135470330715179
536,0.061514250934124,0.0556003786623478,-0.00286944420076907,0.0133690470829606,0.0435092374682426,0.0969983115792274
537,0.0480781458318233,0.032791793346405,-0.0459983199834824,-0.0476840510964394,-0.00299365073442459,0.0277696214616299
538,0.0232801232486963,-0.00190498260781169,-0.0999281629920006,-0.110777772963047,-0.0640701353549957,-0.0608139112591743
539,-0.00460718246176839,-0.0472426749765873,-0.148495569825172,-0.158032193779945,-0.113132737576962,-0.144857555627823
540,-0.0255421027541161,-0.0884452238678932,-0.172509893774986,-0.172508075833321,-0.125143498182297,-0.193879902362823
541,-0.031297255307436,-0.0954991057515144,-0.145027562975883,-0.133953839540482,-0.0829895287752151,-0.182480677962303
542,-0.0285756010562181,-0.0615935735404491,-0.0710156261920929,-0.0593561679124832,-0.0109641067683697,-0.123339243233204
543,-0.0248155388981104,-0.00434901099652052,0.0117510175332427,0.0111318407580256,0.0462929792702198,-0.0583355836570263
544,-0.0261565838009119,0.0560369305312634,0.0705943256616592,0.0548175051808357,0.0669746249914169,-0.0123915495350957
545,-0.0371129959821701,0.0983023345470428,0.0896760001778603,0.0665314197540283,0.0518627874553204,0.0218877196311951
546,-0.0438907332718372,0.115513317286968,0.0816082656383514,0.0624362453818321,0.02559694647789,0.0638554245233536
547,-0.036031860858202,0.109354287385941,0.0706708207726479,0.0626393780112267,0.0122581515461206,0.104960165917873
548,-0.0185484495013952,0.0816389992833138,0.0658704489469528,0.0702245384454727,0.0132504533976316,0.123535200953484
549,0.00245983619242907,0.0477314740419388,0.0649436265230179,0.0807643681764603,0.0244406033307314,0.12561009824276
550,0.0142399901524186,0.0218350645154715,0.0540845170617104,0.0800235643982887,0.0336755625903606,0.117298640310764
551,0.00986040383577347,0.0146894315257669,0.0245780348777771,0.0568771287798882,0.0281329099088907,0.0904727950692177
552,-0.00189491733908653,0.0336867794394493,-0.011600942350924,0.0219988077878952,0.0147036416456103,0.0574688278138638
553,-0.0127538349479437,0.0574247315526009,-0.0445734523236752,-0.0128562357276678,0.00634317006915808,0.0338510908186436
554,-0.00877373293042183,0.058801643550396,-0.0733181014657021,-0.0472442917525768,0.00748655991628766,0.00883623771369457
555,0.0175569206476212,0.0314810276031494,-0.0988145247101784,-0.0844044014811516,0.00534165743738413,-0.033271785825491
556,0.0414513312280178,-0.0146043030545115,-0.126598566770554,-0.123972125351429,-0.0230764411389828,-0.0834834575653076
557,0.0365197993814945,-0.052722979336977,-0.15227897465229,-0.150446996092796,-0.0758304744958878,-0.108830183744431
558,0.0024336613714695,-0.0713828429579735,-0.159815162420273,-0.148518323898315,-0.12421603500843,-0.105153664946556
559,-0.038591742515564,-0.0805717185139656,-0.142202153801918,-0.122375883162022,-0.140330955386162,-0.102416440844536
560,-0.0594656094908714,-0.0781345441937447,-0.102414824068546,-0.0823848992586136,-0.113011866807938,-0.106184415519238
561,-0.0580172128975391,-0.0625217482447624,-0.0545484721660614,-0.0414830632507801,-0.0624602735042572,-0.101476706564426
562,-0.0452372841536999,-0.0373439453542233,-0.00859947223216295,-0.00478816870599985,-0.0165880620479584,-0.0762136280536652
563,-0.0265590269118547,-0.00142128369770944,0.046471793204546,0.04001060500741,0.0231708753854036,-0.02544204890728
564,-0.00867198500782251,0.0359139069914818,0.108646661043167,0.0922989845275879,0.0588588640093803,0.0366706214845181
565,0.00685513997450471,0.0639356151223183,0.152867123484612,0.133993029594421,0.0830718800425529,0.0924845710396767
566,0.0171959009021521,0.0777525380253792,0.155209392309189,0.147202759981155,0.0892580598592758,0.137043505907059
567,0.00757669750601053,0.0750430375337601,0.0987312868237495,0.10812946408987,0.0640882030129433,0.151373669505119
568,-0.0205402877181768,0.0633222982287407,-0.00546290911734104,0.0135622192174196,0.0089402673766017,0.109588630497456
569,-0.0448203422129154,0.047430120408535,-0.113471791148186,-0.0944322869181633,-0.0483760237693787,0.0302080884575844
570,-0.0537955015897751,0.0284893084317446,-0.184447720646858,-0.167811706662178,-0.0865463390946388,-0.0444625057280064
571,-0.0435314401984215,0.00978456810116768,-0.193743944168091,-0.180869907140732,-0.0932436138391495,-0.0941480621695518
572,-0.0139336381107569,-0.0116590028628707,-0.14045937359333,-0.134806409478188,-0.0636138170957565,-0.11259900778532
573,0.0250547640025616,-0.0318797528743744,-0.0498461909592152,-0.0528431534767151,-0.0101212272420526,-0.0964163988828659
574,0.0591318123042583,-0.0414091572165489,0.0454061590135098,0.0369368717074394,0.0452991090714931,-0.0552797503769398
575,0.070089302957058,-0.0436295457184315,0.114562690258026,0.104983069002628,0.0783096924424171,-0.013940847478807
576,0.0531413927674294,-0.0398377627134323,0.143920391798019,0.135055169463158,0.0809501335024834,0.0116382380947471
577,0.0223281960934401,-0.0201154071837664,0.140085622668266,0.133232250809669,0.0651819333434105,0.0242753233760595
578,-0.0128369657322764,0.0176142081618309,0.106437407433987,0.106284022331238,0.0361277386546135,0.0305065158754587
579,-0.0457418337464333,0.0612021163105965,0.0494594797492027,0.0613730102777481,-0.00425005564466119,0.0377321504056454
580,-0.0648210123181343,0.0916661694645882,-0.00749419815838337,0.0175721924751997,-0.0411128476262093,0.0512976497411728
581,-0.0678854212164879,0.0921887829899788,-0.0486191511154175,-0.0152800194919109,-0.0632699206471443,0.0618511438369751
582,-0.0608970783650875,0.0661740824580193,-0.0728042870759964,-0.0400104075670242,-0.0690110698342323,0.0626080706715584
583,-0.0520473383367062,0.0333813391625881,-0.0835555642843246,-0.0557257197797298,-0.0639462023973465,0.0535355806350708
584,-0.0510067380964756,0.00592716876417398,-0.0878830701112747,-0.0641541257500649,-0.0634556338191032,0.031902339309454
585,-0.0543927401304245,-0.0179336853325367,-0.0885683000087738,-0.0668377429246902,-0.0726345628499985,0.00759278703480959
586,-0.0506203472614288,-0.0449064634740353,-0.0934443920850754,-0.0679356306791306,-0.0837912410497665,-0.0166955310851336
587,-0.0394854247570038,-0.0693994984030724,-0.114474192261696,-0.0807178318500519,-0.091837652027607,-0.0480709932744503
588,-0.0339148156344891,-0.0810175687074661,-0.144197940826416,-0.106438845396042,-0.0968142002820969,-0.0797838345170021
589,-0.0415113419294357,-0.0793584957718849,-0.16095694899559,-0.125159367918968,-0.101491786539555,-0.103845864534378
590,-0.0512751303613186,-0.0652402490377426,-0.149586990475655,-0.112646251916885,-0.102271787822247,-0.111270487308502
591,-0.0565294101834297,-0.0481054484844208,-0.11622841656208,-0.0697736367583275,-0.0941366925835609,-0.0929382741451263
592,-0.0637746155261993,-0.0447504669427872,-0.084461435675621,-0.0287514049559832,-0.0824382305145264,-0.0647471323609352
593,-0.0685063526034355,-0.0473908148705959,-0.0627902373671532,-0.0103076193481684,-0.0689391791820526,-0.0519370920956135
594,-0.0632481873035431,-0.0350535847246647,-0.0475492440164089,-0.0114360954612494,-0.0536621809005737,-0.0530712492763996
595,-0.0578966364264488,-0.0195109453052282,-0.0512758195400238,-0.032810240983963,-0.0528515763580799,-0.0549179129302502
596,-0.066953606903553,-0.0234256535768509,-0.0759590715169907,-0.0646667554974556,-0.0740965381264687,-0.0547700300812721
597,-0.0866651087999344,-0.0368046648800373,-0.0954985320568085,-0.08041150867939,-0.097691185772419,-0.0494128316640854
598,-0.093506321310997,-0.0345660820603371,-0.0902946442365646,-0.0683351531624794,-0.0998676717281342,-0.0265516471117735
599,-0.0775994881987572,-0.011808855459094,-0.0655647814273834,-0.042275495827198,-0.0754933953285217,0.00527001731097698
600,-0.057130966335535,0.0114460214972496,-0.0400857292115688,-0.0255454406142235,-0.0441473796963692,0.0126497913151979
601,-0.0419444553554058,0.0247759371995926,-0.02016931027174,-0.0200574714690447,-0.0236756224185228,-0.0017627211054787
602,-0.0259258672595024,0.034234993159771,0.00324420654214919,-0.00669857580214739,-0.0104599390178919,-0.00665535498410463
603,-0.0112061873078346,0.0356291718780994,0.0272011607885361,0.0180932246148586,-0.00047624041326344,0.00538033805787563
604,-0.000749207742046565,0.0286267455667257,0.0428223200142384,0.0427876673638821,0.00641370005905628,0.0360188260674477
605,0.00768863689154387,0.0190797708928585,0.0484865121543407,0.059964045882225,0.0130378156900406,0.0760876834392548
606,0.013620370067656,0.00405539385974407,0.0445464700460434,0.0671065375208855,0.019700275734067,0.0882015526294708
607,0.014397332444787,-0.0135958828032017,0.0334010720252991,0.0639500841498375,0.0228040684014559,0.0579821169376373
608,0.00335859623737633,-0.0293923448771238,0.0088520459830761,0.0460754819214344,0.0111601939424872,0.00501178903505206
609,-0.0209011603146791,-0.0422505177557468,-0.0317634865641594,0.0116991633549333,-0.0183459222316742,-0.0501844473183155
610,-0.0483632609248161,-0.0458871126174927,-0.0680625960230827,-0.0284121446311474,-0.0464915335178375,-0.0868661776185036
611,-0.0733864530920982,-0.0404078215360641,-0.0864662602543831,-0.0674508139491081,-0.0599698722362518,-0.0968394950032234
612,-0.0923428535461426,-0.0316572524607182,-0.0898116677999496,-0.0993764027953148,-0.0618673078715801,-0.0883893072605133
613,-0.0961700826883316,-0.0182045120745897,-0.0768639147281647,-0.109545841813087,-0.0540463402867317,-0.0663168579339981
614,-0.0867210328578949,0.00259747542440891,-0.0564739555120468,-0.103266663849354,-0.0433499254286289,-0.0361028239130974
615,-0.0749068185687065,0.0287989359349012,-0.0455987751483917,-0.0992415845394135,-0.0384127534925938,-0.00583723420277238
616,-0.0650254637002945,0.0472498349845409,-0.0513254404067993,-0.10375127196312,-0.0442698523402214,0.01009367313236
617,-0.0551041252911091,0.0410841889679432,-0.0718133300542831,-0.113373018801212,-0.0634923353791237,0.00251049525104463
618,-0.0429859235882759,0.0244143772870302,-0.0843924582004547,-0.107239380478859,-0.0795801803469658,-0.00227859406732023
619,-0.0357793271541595,0.0176538955420256,-0.0634194761514664,-0.0656837001442909,-0.0742930546402931,0.0127252815291286
620,-0.0399290956556797,0.00977565534412861,-0.014805868268013,-0.000811946578323841,-0.0517143756151199,0.026181710883975
621,-0.047083605080843,-0.00413528038188815,0.0386066250503063,0.0610448755323887,-0.023257764056325,0.0279312413185835
622,-0.0483774580061436,-0.01201799698174,0.0785720720887184,0.102921918034554,0.000752604799345136,0.0224133469164371
623,-0.0389584377408028,-0.0115328198298812,0.0979000553488731,0.121982261538506,0.0157137494534254,0.0149706611409783
624,-0.0190317705273628,-0.00683502526953816,0.095463290810585,0.120180957019329,0.0228151436895132,0.0181637872010469
625,-0.00932888872921467,-0.00704875681549311,0.0584682002663612,0.0859596431255341,0.00970248226076365,0.026904221624136
626,-0.0293938163667917,-0.0184593573212624,-0.0112675195559859,0.0135678425431252,-0.0286390725523233,0.0118631822988391
627,-0.0671400129795074,-0.0329814292490482,-0.0723586827516556,-0.0659647062420845,-0.064563661813736,-0.0359758660197258
628,-0.0957275852560997,-0.0393336154520512,-0.092718817293644,-0.109615966677666,-0.0758032351732254,-0.0865196287631989
629,-0.0989541858434677,-0.0289340242743492,-0.0767961367964745,-0.100567944347858,-0.0625320002436638,-0.102040715515614
630,-0.0821318030357361,-0.00343669136054814,-0.0430035106837749,-0.0551354438066483,-0.0309898890554905,-0.0710805281996727
631,-0.0610575303435326,0.0294587798416615,-0.0110179483890533,-0.00814779009670019,0.00500575080513954,-0.0136619945988059
632,-0.0384147427976131,0.061080664396286,0.00705989357084036,0.0159139297902584,0.0306261871010065,0.0351371839642525
633,-0.0107169738039374,0.062891997396946,0.00495147798210382,0.0146177150309086,0.0398394092917442,0.0419395938515663
634,0.015084377489984,0.0222121514379978,-0.0216161459684372,-0.0109847439453006,0.0310615729540586,0.00115860684309155
635,0.0241570677608252,-0.0257580205798149,-0.0590004175901413,-0.0543333627283573,0.0105870245024562,-0.0572295561432838
636,0.0078784478828311,-0.0514845252037048,-0.082519955933094,-0.0884052142500877,-0.00969005282968283,-0.0960600897669792
637,-0.0243102665990591,-0.0557159222662449,-0.0821873620152473,-0.0884100273251534,-0.0286396443843842,-0.0979275926947594
638,-0.057804461568594,-0.0490270145237446,-0.063609354197979,-0.0585405081510544,-0.0502631552517414,-0.0761272683739662
639,-0.0814516246318817,-0.0417270921170712,-0.0366538688540459,-0.0221970565617085,-0.0675041675567627,-0.051067378371954
640,-0.0831774175167084,-0.0325715243816376,-0.00699539622291923,0.0068127540871501,-0.0660466253757477,-0.0128085697069764
641,-0.0687568262219429,-0.0126645471900702,0.0150668369606137,0.0233420301228762,-0.050010085105896,0.0482513345777988
642,-0.0625192001461983,0.013344787992537,0.0139938481152058,0.0143878581002355,-0.0452346950769424,0.0894966498017311
643,-0.0678270384669304,0.0284600369632244,0.000622838095296174,-0.00962790567427874,-0.0545316301286221,0.0715843141078949
644,-0.067950114607811,0.0225653909146786,-0.00295087555423379,-0.0177838932722807,-0.0581657700240612,0.0187337882816792
645,-0.05763179063797,0.00278466381132603,0.00126574235036969,-0.0110113099217415,-0.0515544153749943,-0.026496896520257
646,-0.0390023812651634,-0.00892657693475485,0.010348123498261,-0.00425839237868786,-0.0344737358391285,-0.0426364652812481
647,-0.0177296381443739,-0.003115069353953,0.0229942388832569,-0.00352856074459851,-0.0122583266347647,-0.0313578136265278
648,-0.00340741570107639,0.0094450581818819,0.0218508653342724,-0.0180157832801342,-0.0044080326333642,-0.0148230576887727
649,-0.000372990645701066,0.02042574621737,-0.00621298421174288,-0.0483456514775753,-0.021329952403903,-0.0157904401421547
650,-0.0112077221274376,0.0157012883573771,-0.0533028021454811,-0.0826436728239059,-0.0567417740821838,-0.0387948527932167
651,-0.0294920094311237,-0.00782610569149256,-0.0866846442222595,-0.100582249462605,-0.0827915295958519,-0.0621918886899948
652,-0.0385385528206825,-0.0206431522965431,-0.0759086459875107,-0.0862753912806511,-0.0712240189313889,-0.0576267912983894
653,-0.0342208482325077,-0.00585148902609944,-0.0331542380154133,-0.0500492267310619,-0.0328635759651661,-0.0245812870562077
654,-0.0231708809733391,0.0261954329907894,0.0137459626421332,-0.00863344687968493,0.0111008835956454,0.0169815272092819
655,-0.0131819872185588,0.0524563603103161,0.0530941188335419,0.0282102264463902,0.054212611168623,0.0428902618587017
656,-0.0149136474356055,0.04442373290658,0.0726825445890427,0.0410226806998253,0.0813115984201431,0.0307907313108444
657,-0.0263427421450615,-0.000993832014501095,0.0617843419313431,0.0214705038815737,0.0762838646769524,-0.0134619008749723
658,-0.0377035215497017,-0.0577343590557575,0.0261371769011021,-0.0121786631643772,0.0409609116613865,-0.0598752386868
659,-0.0463602803647518,-0.0930263921618462,-0.0102252271026373,-0.0337674953043461,-0.00310146785341203,-0.0800774618983269
660,-0.0431074090301991,-0.0877591520547867,-0.023137329146266,-0.0229128766804934,-0.0234969165176153,-0.059130847454071
661,-0.0258969478309155,-0.0547311156988144,-0.0206057243049145,0.0082652447745204,-0.016342781484127,-0.0119821708649397
662,-0.0111232157796621,-0.0148711670190096,-0.0249258503317833,0.0257800165563822,-0.00984211359173059,0.0339275188744068
663,-0.0084350174292922,0.0301952939480543,-0.0382344275712967,0.0235062148422003,-0.0183851793408394,0.0643688961863518
664,-0.0149329341948032,0.0672914460301399,-0.051602728664875,0.0165434312075377,-0.0338202640414238,0.0694483071565628
665,-0.0185080636292696,0.0661832913756371,-0.0571110509335995,0.0143710784614086,-0.0417712405323982,0.0498300120234489
666,-0.0120060499757528,0.0340908020734787,-0.0569133795797825,0.0142855551093817,-0.0416009314358234,0.021137148141861
667,-0.0100875580683351,0.00945170037448406,-0.0650291740894318,0.00142097659409046,-0.0530336908996105,-0.00743463402613997
668,-0.0194164719432592,0.00953398924320936,-0.0804200768470764,-0.0257058516144753,-0.0784566253423691,-0.0304166600108147
669,-0.0289001166820526,0.0130081465467811,-0.0871410369873047,-0.0533626973628998,-0.0961963757872581,-0.0473954938352108
670,-0.0347103960812092,-0.00829593371599913,-0.0775275751948357,-0.0722823664546013,-0.0905331149697304,-0.0668491274118423
671,-0.031835213303566,-0.038850624114275,-0.046222697943449,-0.0648926198482513,-0.05297826603055,-0.075145997107029
672,-0.0196649767458439,-0.0492112785577774,6.4479187130928E-05,-0.0254973582923412,0.00321878050453961,-0.0562656000256538
673,-0.0111668296158314,-0.0426420718431473,0.0384901389479637,0.0212990734726191,0.0446565039455891,-0.0274665653705597
674,-0.00773042626678944,-0.0331095978617668,0.0637470632791519,0.0617952048778534,0.0639273300766945,-0.00563756842166185
675,-0.00328487600199878,-0.0303423088043928,0.0806763842701912,0.0922550037503242,0.0734535306692123,0.00888784322887659
676,0.00331404432654381,-0.032160721719265,0.0841973870992661,0.100733414292336,0.0773644596338272,0.0156294908374548
677,0.0114809153601527,-0.0192361585795879,0.072114109992981,0.0832453817129135,0.0740594938397408,0.0166783649474382
678,0.00806860439479351,0.00844189338386059,0.0337877795100212,0.0322786457836628,0.0472838655114174,0.0181373674422503
679,-0.0159965045750141,0.0237688384950161,-0.0413517467677593,-0.0528058484196663,-0.0141282277181745,0.0157547239214182
680,-0.0461810007691383,0.00867999903857708,-0.127333164215088,-0.134722769260406,-0.0846671983599663,-0.010128335095942
681,-0.0618846751749516,-0.0315750874578953,-0.178213819861412,-0.168372392654419,-0.12242267280817,-0.0603517331182957
682,-0.0524647235870361,-0.0751546993851662,-0.171056255698204,-0.143383547663689,-0.109461285173893,-0.101457610726357
683,-0.0274035930633545,-0.101035490632057,-0.120815448462963,-0.083146944642067,-0.0670148804783821,-0.105199486017227
684,-0.00258269556798041,-0.0976496040821075,-0.0530776381492615,-0.0128397587686777,-0.0193968135863543,-0.0636857897043228
685,0.0165098756551743,-0.0586838237941265,0.0185128021985292,0.0583942383527756,0.0257471762597561,0.0166741013526917
686,0.0219604726880789,0.00174559408333153,0.0697015449404716,0.112400978803635,0.0479590855538845,0.0927700996398926
687,0.0115373898297548,0.0524907410144806,0.0725037753582001,0.119489207863808,0.0301642473787069,0.10942005366087
688,-0.00436864932999015,0.0799461975693703,0.0360586605966091,0.0799092501401901,-0.00851097423583269,0.0662113055586815
689,-0.0191998984664679,0.0816575437784195,-0.00556196644902229,0.0266325939446688,-0.0373972058296204,0.00523068848997355
690,-0.0255482587963343,0.0539894551038742,-0.0297307521104813,-0.00970131903886795,-0.0411598980426788,-0.0398892462253571
691,-0.0163993164896965,0.0182334762066603,-0.0318684726953506,-0.0208576768636703,-0.0256965085864067,-0.0534375682473183
692,-0.00205039605498314,0.00129549717530608,-0.0193649102002382,-0.0185885466635227,-0.0110847791656852,-0.0432476103305817
693,0.00760720483958721,-0.00568706588819623,0.00256521813571453,-0.00942211598157883,-0.00156780797988176,-0.0302982069551945
694,0.0198300573974848,-0.0226552244275808,0.0321138165891171,0.010557540692389,0.0124491723254323,-0.0188608728349209
695,0.0378545895218849,-0.0408484973013401,0.0540436170995235,0.0302715077996254,0.0239505432546139,-0.000622784136794508
696,0.0517599359154701,-0.0352202989161015,0.0558841340243816,0.0346434824168682,0.0248574260622263,0.0279199108481407
697,0.0487596392631531,-0.00668420270085335,0.0407257676124573,0.0180395655333996,0.0184878874570131,0.0544461980462074
698,0.0268817599862814,0.0226854365319014,0.0140350749716163,-0.0191499628126621,0.00620659161359072,0.0601523965597153
699,0.0041281352750957,0.0363162532448769,-0.0152965150773525,-0.0550909303128719,-0.00481157144531608,0.0417185239493847
700,-0.00574163626879454,0.0176550000905991,-0.0389564447104931,-0.0670375376939774,-0.0101188402622938,0.00503552472218871
701,-0.00426901737228036,-0.026860173791647,-0.0467020124197006,-0.0513443015515804,-0.0113485874608159,-0.0320484302937984
702,0.00471981754526496,-0.0592780113220215,-0.0290237218141556,-0.0127615081146359,-0.0044316379353404,-0.0383348912000656
703,0.0119453752413392,-0.0607230141758919,0.000239792178035714,0.0288521256297827,0.00459436327219009,-0.0111277876421809
704,0.0140946451574564,-0.0458745770156384,0.0182897001504898,0.0495241731405258,0.00436824001371861,0.0174207948148251
705,0.0144067481160164,-0.0310984663665295,0.020931513980031,0.0456428378820419,-0.00452281115576625,0.0250174198299646
706,0.0116113601252437,-0.0138468630611897,0.0197034757584333,0.0332281515002251,-0.0128344604745507,0.0180055499076843
707,0.0111755058169365,0.0215779542922974,0.0272382069379091,0.0276330914348364,-0.00391667941585183,0.0148889673873782
708,0.0214566197246313,0.0758688822388649,0.0385375320911407,0.0214054565876722,0.026171987876296,0.0142879895865917
709,0.0388602055609226,0.114537373185158,0.0335541777312756,-0.00323332753032446,0.0510105676949024,-0.00341993104666471
710,0.0490095093846321,0.10189975053072,0.00990517716854811,-0.0361628457903862,0.0453765615820885,-0.0345447212457657
711,0.0412245616316795,0.0440732277929783,-0.011895707808435,-0.0506054870784283,0.0141713907942176,-0.0536087453365326
712,0.0259886402636766,-0.0181100182235241,-0.0100782513618469,-0.0383210070431232,-0.0140319541096687,-0.043392688035965
713,0.0206382963806391,-0.0465872511267662,0.0204719938337803,-0.0060290596447885,-0.0127589264884591,-0.00212364969775081
714,0.0198553986847401,-0.0431034676730633,0.0504504106938839,0.0230084657669067,0.00878522172570229,0.0471791736781597
715,0.0113503150641918,-0.0282973609864712,0.0502480268478394,0.0272218771278858,0.0220581442117691,0.0732568129897118
716,-0.00326022529043257,-0.00421608285978436,0.0336172021925449,0.0206377282738686,0.0197011884301901,0.0712183713912964
717,-0.0180641636252403,0.0304717347025871,0.0197875164449215,0.0193971637636423,0.00728927506133914,0.0517041310667992
718,-0.02287308126688,0.0666313022375107,0.00674787163734436,0.0192868765443563,-0.00568153662607074,0.0295370817184448
719,-0.0144840991124511,0.0868796482682228,-0.0106039680540562,0.013222093693912,-0.0109289353713393,0.018440056592226
720,-0.00646184524521232,0.0753426104784012,-0.0358730927109718,-0.00513627380132675,-0.0160784628242254,0.0160309597849846
721,-0.00116970611270517,0.0381384789943695,-0.0593771748244762,-0.0230998359620571,-0.0253525655716658,0.0156731978058815
722,0.00984567776322365,-0.0068807122297585,-0.0626202970743179,-0.0181065630167723,-0.0314677730202675,0.0105838561430573
723,0.0243784300982952,-0.0464897453784943,-0.036039762198925,0.0106890574097633,-0.0262048188596964,-0.00347883556969464
724,0.0354981757700443,-0.0644938573241234,0.0196567792445421,0.0517902448773384,-0.000721923948731273,-0.0140112498775125
725,0.0394341871142387,-0.0547711700201035,0.0869052931666374,0.0934813022613525,0.0404004976153374,-0.00972023326903582
726,0.0442727021872997,-0.0259884241968393,0.143771901726723,0.127551838755608,0.0844436287879944,0.00948081538081169
727,0.0573307350277901,0.0111239952966571,0.177370175719261,0.148857653141022,0.121980421245098,0.0407322831451893
728,0.0674647837877274,0.0417875871062279,0.172503724694252,0.143014699220657,0.138059511780739,0.071026898920536
729,0.0713302567601204,0.0587687641382217,0.128863796591759,0.103325538337231,0.130998119711876,0.091618187725544
730,0.0725846588611603,0.0610996037721634,0.0672139748930931,0.0428864285349846,0.116058677434921,0.101721331477165
731,0.0582925081253052,0.0485208481550217,-0.00154590606689453,-0.0301996935158968,0.0872081816196442,0.0899684280157089
732,0.0247163251042366,0.0337093025445938,-0.0670166984200478,-0.101935796439648,0.0297103561460972,0.0547738559544086
733,-0.0114597976207733,0.0237426105886698,-0.108075484633446,-0.142481535673141,-0.0429156050086021,0.014190218411386
734,-0.0342376418411732,0.0126062044873834,-0.115756444633007,-0.139322802424431,-0.100739650428295,-0.0123901115730405
735,-0.0328295007348061,0.00337258772924542,-0.0900205299258232,-0.0965399295091629,-0.116641156375408,-0.0138079030439258
736,-0.00880798511207104,0.00473920069634914,-0.0366438999772072,-0.0272920168936253,-0.0854421928524971,-0.000867708469741046
737,0.0213561523705721,0.0166920535266399,0.0188496299088001,0.0361449904739857,-0.032559409737587,-0.00103443791158497
738,0.040121391415596,0.0217323340475559,0.0467992350459099,0.0654257982969284,0.00915245246142149,-0.0289516374468803
739,0.0400522127747536,0.0018153713317588,0.0417041480541229,0.0595850422978401,0.024766281247139,-0.069077230989933
740,0.0304898619651794,-0.0259615853428841,0.0279445443302393,0.0418801307678223,0.0296154040843248,-0.0829269886016846
741,0.0235737226903439,-0.0327701345086098,0.0288397669792175,0.0328627377748489,0.0451495908200741,-0.0494785942137241
742,0.0201285257935524,-0.0172740891575813,0.0389871075749397,0.0287170819938183,0.0664291307330132,0.0127776972949505
743,0.0191204566508532,0.00837682653218508,0.0468094348907471,0.0257131271064281,0.0776005759835243,0.0700018107891083
744,0.017182532697916,0.0262414515018463,0.0451652444899082,0.0267099533230066,0.0696023032069206,0.090826578438282
745,0.0137771274894476,0.0192497838288546,0.0290755294263363,0.0279161874204874,0.0448505729436874,0.069553017616272
746,0.0196240991353989,-0.00312816561199725,0.0134001467376947,0.0342653505504131,0.0237276889383793,0.0386010445654392
747,0.0340023003518581,-0.020433584228158,0.0125751467421651,0.0499241538345814,0.0167072340846062,0.0286587681621313
748,0.0442370437085629,-0.0241944547742605,0.0256694629788399,0.0683934912085533,0.0194092225283384,0.035841315984726
749,0.0484657995402813,-0.0130465822294354,0.0519985593855381,0.0879011377692223,0.0364177376031876,0.0402559861540794
750,0.0478041842579842,0.00634368695318699,0.0780898481607437,0.100360617041588,0.0581129938364029,0.0336765386164188
751,0.0454890727996826,0.0259046498686075,0.0852789655327797,0.0975714102387428,0.0645314529538155,0.0291900299489498
752,0.0441852733492851,0.0412407591938972,0.0702741667628288,0.0850531011819839,0.0550158210098743,0.0426572784781456
753,0.0304300077259541,0.0497881323099136,0.0304708611220121,0.0559167079627514,0.0327740684151649,0.0537267103791237
754,0.00232317252084613,0.0551582798361778,-0.0310154017060995,0.00127398804761469,-0.00031106811366044,0.025222085416317
755,-0.0198001023381948,0.0504835061728954,-0.0921523198485374,-0.060114998370409,-0.0349648334085941,-0.0420130230486393
756,-0.0283239185810089,0.0226755458861589,-0.128022536635399,-0.102165259420872,-0.0585429333150387,-0.10923957079649
757,-0.0284992195665836,-0.0164407137781382,-0.124599397182465,-0.108044654130936,-0.0607063695788383,-0.13770654797554
758,-0.0204384531825781,-0.0460314080119133,-0.0847248136997223,-0.0739356502890587,-0.0413094498217106,-0.118927955627441
759,-0.00489275809377432,-0.054809182882309,-0.0297956373542547,-0.0211519841104746,-0.00822050869464874,-0.0691496133804321
760,0.00864266511052847,-0.0414607897400856,0.0160594005137682,0.0210390482097864,0.0277241803705692,-0.0111910169944167
761,0.00989569164812565,-0.0213447939604521,0.0357686765491962,0.0344463437795639,0.0472444295883179,0.0253984071314335
762,0.00619296543300152,-0.0024977745488286,0.0286348592489958,0.023611119017005,0.0427379235625267,0.032382570207119
763,0.0102489544078708,0.0153255313634872,0.0146906478330493,0.015980813652277,0.0310772489756346,0.0288470536470413
764,0.0213689375668764,0.01844915561378,0.0057249590754509,0.0217238496989012,0.0250455383211374,0.0173677299171686
765,0.038647472858429,0.00273082102648914,0.00176050548907369,0.0299880653619766,0.0294195599853992,-0.00449683936312795
766,0.0543670393526554,-0.0219581127166748,0.00486069684848189,0.0339813753962517,0.0467751249670982,-0.0270792283117771
767,0.0516841635107994,-0.05129299685359,0.0044875917956233,0.0252500418573618,0.0630170926451683,-0.0478918105363846
768,0.0318428725004196,-0.0721816048026085,-0.0103261973708868,0.00295959692448378,0.0595183558762074,-0.0603165775537491
769,0.00518857501447201,-0.0628734156489372,-0.0318250581622124,-0.0208467021584511,0.0338988341391087,-0.0523796454071999
770,-0.0213692076504231,-0.0269312150776386,-0.044226411730051,-0.0332207717001438,0.00168433727230877,-0.0296670198440552
771,-0.0341357327997684,0.00885639246553183,-0.032926432788372,-0.0203990172594786,-0.0118036298081279,-0.00668063154444098
772,-0.0287691652774811,0.0255746673792601,-0.00339365703985095,0.0123706366866827,-0.000919062935281545,0.00339161930605769
773,-0.0170702505856752,0.0224861782044172,0.024510208517313,0.0416315458714962,0.0171952079981565,-0.00144437549170107
774,-0.00961424876004457,0.0111961700022221,0.0441064909100533,0.0552514269948006,0.0314348936080933,-0.001359315472655
775,-0.00764466868713498,-0.00115130096673965,0.0522987619042397,0.0517381839454174,0.0411564521491528,0.00914556253701448
776,0.00352409156039357,-0.0135263064876199,0.0494548566639423,0.0363461077213287,0.0600821152329445,0.00860503595322371
777,0.0316316969692707,-0.0300780907273293,0.0380594283342361,0.0147280832752585,0.0956737250089645,-0.0237966682761908
778,0.0582619346678257,-0.0577070266008377,0.00374823273159564,-0.0185982882976532,0.116135574877262,-0.0904086381196976
779,0.0693409219384193,-0.0807569250464439,-0.050837904214859,-0.0579045601189137,0.0910854935646057,-0.148057341575623
780,0.0615215115249157,-0.0718818604946136,-0.0919387340545654,-0.0803087055683136,0.0341243781149387,-0.137291699647903
781,0.0322498232126236,-0.0209390968084335,-0.101665787398815,-0.0771391838788986,-0.0219564083963633,-0.0583012998104095
782,-0.0113587286323309,0.0550474300980568,-0.0921474695205688,-0.0597359053790569,-0.0627057999372482,0.0345090851187706
783,-0.0521203875541687,0.108774155378342,-0.079153336584568,-0.0397236011922359,-0.088305227458477,0.0910025015473366
784,-0.0679485127329826,0.108983866870403,-0.0554735511541367,-0.00963432900607586,-0.083280898630619,0.101100690662861
785,-0.0504628606140614,0.076305590569973,-0.00388342165388167,0.0463736765086651,-0.0300269406288862,0.0903855115175247
786,-0.0194673668593168,0.0373829156160355,0.056955736130476,0.109921813011169,0.046417735517025,0.0753217786550522
787,0.00539429113268852,0.000432172295404598,0.0853338167071342,0.138128414750099,0.0953091457486153,0.0529090650379658
788,0.0221113152801991,-0.0269859079271555,0.0717926323413849,0.118897967040539,0.0965841263532639,0.0233542658388615
789,0.0306161493062973,-0.0391635894775391,0.0365202575922012,0.0743565931916237,0.0669804364442825,-0.00589051144197583
790,0.0324607565999031,-0.0333457551896572,-0.00110069499351084,0.0277591571211815,0.0327117554843426,-0.0221749171614647
791,0.026881055906415,-0.0197925698012114,-0.0326746068894863,-0.0123783778399229,0.00688251387327909,-0.0251414738595486
792,0.0146594885736704,-0.0185728520154953,-0.0569569692015648,-0.0464985147118568,-0.0103007834404707,-0.0295308288186789
793,0.0103298183530569,-0.0323585793375969,-0.0707928910851479,-0.0713442042469978,-0.0149684865027666,-0.042834535241127
794,0.0176342688500881,-0.0559639260172844,-0.0743516981601715,-0.0816561207175255,-0.00996438413858414,-0.0635038018226624
795,0.0260358415544033,-0.0795533284544945,-0.0710824877023697,-0.0741187781095505,-0.00474324077367783,-0.0870999172329903
796,0.0377767346799374,-0.0738987922668457,-0.0560397729277611,-0.0439568608999252,0.0121820149943233,-0.0962156802415848
797,0.0499228946864605,-0.0317217297852039,-0.0269985869526863,-0.00164911232423037,0.0506238527595997,-0.0707961991429329
798,0.0456231571733952,0.0103754475712776,0.005274030379951,0.0292443800717592,0.0855782553553581,-0.0235559195280075
799,0.0267226845026016,0.027043029665947,0.0319031849503517,0.0512709803879261,0.0913209691643715,0.0132047198712826
800,0.0090596117079258,0.0260025542229414,0.0496542081236839,0.082218199968338,0.073841854929924,0.0274821501225233
801,0.00520088896155357,0.0223479513078928,0.0600347481667995,0.12204547971487,0.0567021444439888,0.0328343659639359
802,0.0156823098659515,0.023168046027422,0.0689998641610146,0.156892210245132,0.0521073527634144,0.0522883236408234
803,0.0219778418540955,0.0272290837019682,0.0733253285288811,0.167034968733788,0.0488470047712326,0.0853874832391739
804,0.0142341004684567,0.035616934299469,0.0642168670892715,0.143163502216339,0.037743728607893,0.105617821216583
805,-0.00315851508639753,0.0393848568201065,0.0335620082914829,0.0913506001234055,0.0188998989760876,0.0889555811882019
806,-0.0262992642819881,0.0197856407612562,-0.0205579027533531,0.0211847610771656,-0.00993769429624081,0.032022126019001
807,-0.037172194570303,-0.014400833286345,-0.07237808406353,-0.041726253926754,-0.0329590104520321,-0.0324176549911499
808,-0.0208297129720449,-0.0390168391168118,-0.0930535495281219,-0.0683686658740044,-0.029491238296032,-0.0703075006604195
809,0.0138178756460547,-0.0446556471288204,-0.0806223079562187,-0.0528794564306736,-0.00363228772766888,-0.0776270627975464
810,0.0542496219277382,-0.026055870577693,-0.0402988940477371,-0.00237918295897543,0.033079482614994,-0.0517315529286861
811,0.0843483135104179,0.00958351604640484,0.00994780566543341,0.0558577887713909,0.065295472741127,-0.00662781950086355
812,0.0927693992853165,0.0340085476636887,0.0422113090753555,0.0874094218015671,0.0792677998542786,0.0237117353826761
813,0.0852645561099052,0.0317133031785488,0.0521214231848717,0.0906011462211609,0.0816449597477913,0.0360461138188839
814,0.0644967034459114,0.0248335991054773,0.0466532781720161,0.0772187113761902,0.0774495750665665,0.0394301302731037
815,0.0337303765118122,0.0325629897415638,0.0249364618211985,0.0496421568095684,0.0608159601688385,0.0283913742750883
816,0.00701423082500696,0.0325038284063339,-0.00697174947708845,0.0177337415516377,0.0359267368912697,0.00748073775321245
817,-0.00802732817828655,0.00708603532984853,-0.034263227134943,-0.0037446515634656,0.0130081744864583,-0.0183566007763147
818,-0.0152401095256209,-0.0242366641759872,-0.0422843471169472,-0.00708201806992292,0.00167377491015941,-0.0485249124467373
819,-0.017442861571908,-0.037883598357439,-0.0235204715281725,0.0118593098595738,0.00717526907101274,-0.0606421828269959
820,-0.0128511236980557,-0.0264970697462559,0.0115779954940081,0.0478415600955486,0.0210342779755592,-0.0352568067610264
821,0.00149347784463316,0.000457909132819623,0.0473198145627975,0.0839641243219376,0.0355172194540501,0.00728747434914112
822,0.0242333766072989,0.0236918348819017,0.0705361813306808,0.100437991321087,0.0486509427428246,0.0356068052351475
823,0.0440106578171253,0.0343796573579311,0.0647257938981056,0.085247591137886,0.0518497414886951,0.0436963923275471
824,0.0504968650639057,0.0402432829141617,0.0330670326948166,0.0481142066419125,0.0454866960644722,0.0422097481787205
825,0.0460678450763226,0.0414000526070595,-0.00864252913743258,0.00228712055832148,0.0359433069825172,0.0316186770796776
826,0.0379599668085575,0.029625590890646,-0.0497569069266319,-0.0456105582416058,0.0197098385542631,0.00549469143152237
827,0.0268764235079288,0.00491497479379177,-0.0720097422599792,-0.0759978666901588,-0.00203332933597267,-0.0283633731305599
828,0.0110872983932495,-0.0313760861754417,-0.0704183876514435,-0.0761267319321632,-0.0243263859301806,-0.0602458380162716
829,-0.00108356401324272,-0.0666832253336906,-0.0528798066079617,-0.0508070811629295,-0.0352069921791554,-0.0791446268558502
830,-0.00564510654658079,-0.0802097767591476,-0.0222488082945347,-0.0094925919547677,-0.0218973569571972,-0.0673946142196655
831,-0.0082216514274478,-0.0650014504790306,0.0104921096935868,0.0291183721274138,0.00357645167969167,-0.0296182632446289
832,-0.00381135172210634,-0.0279463976621628,0.0353706814348698,0.0538988225162029,0.0236896127462387,0.0109460400417447
833,0.0100096557289362,0.0146667798981071,0.0479933321475983,0.0680889114737511,0.0331262685358524,0.0420916825532913
834,0.0211686734110117,0.0486337803304195,0.0423676781356335,0.0685840249061584,0.0289956126362085,0.0659626349806786
835,0.0195375792682171,0.0643068253993988,0.0220045447349548,0.0540608651936054,0.0139862215146422,0.0819062069058418
836,0.00624117674306035,0.0535464957356453,0.000475655717309564,0.0349158085882664,0.00135811336804181,0.0788700059056282
837,-0.0063876686617732,0.0258609708398581,-0.00958564039319754,0.0220358185470104,0.00779354246333241,0.0584755204617977
838,-0.0106612369418144,0.00352230318821967,-0.0110646672546864,0.0141879003494978,0.0298932660371065,0.0255942456424236
839,-0.0108346277847886,-0.0103492327034473,-0.022582171484828,-0.003796995151788,0.0377788655459881,-0.0298612155020237
840,-0.00417875638231635,-0.0276768058538437,-0.0441296473145485,-0.0303193219006062,0.0200045928359032,-0.0938898697495461
841,0.0102813020348549,-0.0456397496163845,-0.0547690242528915,-0.0436326824128628,-0.00216842233203352,-0.127473741769791
842,0.0174490492790937,-0.0458381995558739,-0.0449061803519726,-0.0390725284814835,-0.0115456450730562,-0.113551117479801
843,0.0155668733641505,-0.0150102563202381,-0.0109541984274983,-0.0181793589144945,0.00216616480611265,-0.0588871538639069
844,0.0128050027415156,0.0324220880866051,0.0379164218902588,0.0153429601341486,0.0340603478252888,0.00558545254170895
845,0.00279953889548779,0.0679768323898315,0.0687256157398224,0.0391585230827332,0.0540421940386295,0.0356390587985516
846,-0.0114747919142246,0.0783917456865311,0.0675294697284698,0.0450092740356922,0.0519521459937096,0.0264768060296774
847,-0.0168907716870308,0.059412058442831,0.0529373809695244,0.0428114794194698,0.0483280792832375,0.0061695990152657
848,-0.0106962835416198,0.017551239579916,0.0420054011046886,0.0361736603081226,0.0576981045305729,-0.000929346599150449
849,0.00543798645958304,-0.0264260098338127,0.0338742472231388,0.0292746629565954,0.0723921284079552,0.0163009967654943
850,0.0198886059224606,-0.0559367351233959,0.0142768584191799,0.0192455295473337,0.0670790001749992,0.0387257970869541
851,0.0187472235411406,-0.05602215975523,-0.0215204600244761,-0.00504562305286527,0.0333857089281082,0.0406619906425476
852,0.00440263701602817,-0.0264958553016186,-0.0596592836081982,-0.0405598878860474,-0.0047199297696352,0.020107202231884
853,-0.0184124000370502,-0.00355754839256406,-0.0881599634885788,-0.0759894549846649,-0.0290910117328167,-0.0235517118126154
854,-0.0444254539906979,-0.0154745699837804,-0.100413724780083,-0.101580999791622,-0.0432689562439919,-0.0860484316945076
855,-0.0628174021840096,-0.0487400628626347,-0.0909511297941208,-0.103987298905849,-0.0523322969675064,-0.141111344099045
856,-0.0680253282189369,-0.0754424482584,-0.0660220608115196,-0.0813467875123024,-0.0523949004709721,-0.159837976098061
857,-0.0587547048926353,-0.0771978199481964,-0.0448396503925323,-0.056719746440649,-0.0419168658554554,-0.139490216970444
858,-0.040695920586586,-0.0562339872121811,-0.0398953557014465,-0.0480732172727585,-0.0314400643110275,-0.104713425040245
859,-0.0200751125812531,-0.0317400917410851,-0.040208987891674,-0.0416300110518932,-0.0250642355531454,-0.0727215334773064
860,0.00751656712964177,-0.0174655150622129,-0.0267389714717865,-0.014185968786478,-0.00717009976506233,-0.0429940745234489
861,0.0366028659045696,-0.0176513586193323,-0.000832081132102758,0.0341165587306023,0.0276001524180174,-0.0209003146737814
862,0.0516482219099998,-0.0276969764381647,0.0230825003236532,0.080756701529026,0.0600201971828938,-0.011578525416553
863,0.0458636209368706,-0.0345594957470894,0.0358405411243439,0.104318685829639,0.0697097182273865,-0.00688975816592574
864,0.0206653364002705,-0.0283337440341711,0.0298417992889881,0.0986397638916969,0.0495351664721966,0.00111846486106515
865,-0.00867278315126896,-0.00503952009603381,0.0113263782113791,0.0811159834265709,0.0166996251791716,0.0145444963127375
866,-0.0230809468775988,0.0237465221434832,-0.00118115916848183,0.0771948173642159,-0.00342026958242059,0.0308215413242579
867,-0.0213196743279696,0.0345146507024765,-0.00812259595841169,0.0855831503868103,-0.0102235255762935,0.0407104678452015
868,-0.0123339705169201,0.0282615404576063,-0.0169951915740967,0.0908982306718826,-0.0131706204265356,0.0400446727871895
869,-0.00690188491716981,0.0242930501699448,-0.0251009557396173,0.0864093601703644,-0.0155737018212676,0.0304110646247864
870,-0.0128991920500994,0.0190979037433863,-0.0368767380714417,0.0627454146742821,-0.0226922240108252,0.00827089045196772
871,-0.0205989629030228,-0.00277023995295167,-0.0550110600888729,0.022381741553545,-0.0326792523264885,-0.0269666016101837
872,-0.0137135945260525,-0.0399010851979256,-0.0670072585344315,-0.00828332547098398,-0.0359503701329231,-0.0669982507824898
873,0.00719816749915481,-0.074021965265274,-0.0628144592046738,-0.00984904542565346,-0.0297546405345201,-0.0967930853366852
874,0.02704525180161,-0.0886223614215851,-0.046744417399168,0.0105592850595713,-0.0194211229681969,-0.10355294495821
875,0.0328732542693615,-0.0841004922986031,-0.0288926158100367,0.0337493866682053,-0.0101703023537993,-0.0910459086298943
876,0.0300728194415569,-0.0630339458584785,-0.00634389836341143,0.054160475730896,0.0046625379472971,-0.0674362406134605
877,0.0269834138453007,-0.031559094786644,0.0254639331251383,0.0733912959694862,0.0290422774851322,-0.0337043516337872
878,0.0182780083268881,-0.00437093898653984,0.0509280115365982,0.0813491269946098,0.0481352061033249,0.00219316524453461
879,0.0075537939555943,0.0245187170803547,0.0523399114608765,0.0679705515503883,0.0555881671607494,0.0249314568936825
880,0.00561121804639697,0.0589520707726479,0.0284488890320063,0.034643616527319,0.06114661693573,0.0310193207114935
881,0.0106566771864891,0.0724230632185936,-0.00292131607420743,-0.000515208521392196,0.0651597380638123,0.0321867763996124
882,0.0140704121440649,0.0525731965899467,-0.0166963022202253,-0.010229678824544,0.0625358298420906,0.0371916629374027
883,0.0113752307370305,0.0137433260679245,-0.0102834245190024,0.00907947216182947,0.0536067597568035,0.0391735732555389
884,0.00717738457024097,-0.0258181467652321,-0.00482406001538038,0.0305135603994131,0.0342609509825706,0.0263066273182631
885,0.00295773870311677,-0.0522855818271637,-0.0141451433300972,0.0302859358489513,0.00173066975548863,0.00487400032579899
886,-0.0118379518389702,-0.0647388026118279,-0.0339125208556652,0.00869185104966164,-0.0370904840528965,-0.0085610244423151
887,-0.0336359031498432,-0.0614437647163868,-0.0488258041441441,-0.0138792209327221,-0.0687650069594383,-0.0120163457468152
888,-0.0417439080774784,-0.0395166650414467,-0.0436687842011452,-0.0159094724804163,-0.0805079564452171,-0.0167206283658743
889,-0.0335815474390984,-0.0168151929974556,-0.0202096849679947,0.0028888089582324,-0.072981558740139,-0.0299332346767187
890,-0.0226529166102409,-0.0131155345588923,0.00937300641089678,0.0300868768244982,-0.0518952682614326,-0.0421326458454132
891,-0.013820362277329,-0.0253820642828941,0.0408265590667725,0.0618239641189575,-0.0181613173335791,-0.037329375743866
892,-0.00419819261878729,-0.0360426865518093,0.0681811422109604,0.0896585956215858,0.0180908627808094,-0.0111065963283181
893,0.00992830004543066,-0.0214611403644085,0.0803928598761559,0.0967316925525665,0.0437330976128578,0.0325444787740707
894,0.0252352803945541,0.0191601179540157,0.0741241723299026,0.079697273671627,0.0553601160645485,0.0739874467253685
895,0.0339698046445847,0.0489865653216839,0.052894052118063,0.047075554728508,0.0537626706063747,0.083149291574955
896,0.0400704219937325,0.0458014644682407,0.0273095685988665,0.0133437672629952,0.0448111966252327,0.059215035289526
897,0.0449004434049129,0.0225799381732941,0.00627909600734711,-0.00713471043854952,0.0319538302719593,0.0264389961957932
898,0.0389557853341103,-0.00215210928581655,-0.0105990013107657,-0.013811681419611,0.0162970330566168,0.00365128484554589
899,0.0231007672846317,-0.0168286766856909,-0.0236611980944872,-0.015321884304285,0.00627986714243889,-0.00755576090887189
900,0.00534423952922225,-0.0219071097671986,-0.0343057438731194,-0.0165815968066454,0.00474635930731893,-0.0217968802899122
901,-0.0035765313077718,-0.0244789179414511,-0.0382977575063705,-0.00943483505398035,0.0146045917645097,-0.0429050847887993
902,0.00428882101550698,-0.030750809237361,-0.0251749809831381,0.0166572369635105,0.0405176095664501,-0.0573900826275349
903,0.0166468732059002,-0.0439990498125553,0.00066747551318258,0.0474591888487339,0.0638908296823502,-0.0557593628764153
904,0.0199168547987938,-0.0540036968886852,0.0209796149283648,0.0575770549476147,0.0633485093712807,-0.0359836518764496
905,0.0141036380082369,-0.0515269674360752,0.0165101438760757,0.0414149239659309,0.0378664471209049,-0.0111135113984346
906,0.00376076390966773,-0.0406551212072372,-0.0103041399270296,0.0150771280750632,-0.00189906382001936,-0.00103288772515953
907,-0.00412390101701021,-0.0218985378742218,-0.0298425368964672,-0.00073623436037451,-0.0356830395758152,-0.00397877581417561
908,-0.00923674739897251,0.000436739064753056,-0.0322900414466858,-0.00542321242392063,-0.0534211173653603,-0.0155933229252696
909,-0.0158889461308718,0.014075418934226,-0.0357524827122688,-0.0115106664597988,-0.0643145218491554,-0.0391104780137539
910,-0.0227253250777721,0.0203296896070242,-0.0414835661649704,-0.0160934049636126,-0.0708350837230682,-0.0554520450532436
911,-0.0274408627301455,0.0364614501595497,-0.0388784669339657,-0.0143215553835034,-0.0685357004404068,-0.0394902043044567
912,-0.024048212915659,0.0665441304445267,-0.0335455015301704,-0.0184905659407377,-0.0603333972394466,0.00716624082997441
913,-0.0104205068200827,0.0800394117832184,-0.0346630848944187,-0.0331754125654697,-0.0525143295526505,0.053515862673521
914,0.00193948345258832,0.0537373870611191,-0.0316847562789917,-0.0362549610435963,-0.0429810620844364,0.0649114847183228
915,0.0129792876541615,0.0122715821489692,-0.000839526182971895,-0.00158092333003879,-0.015310313552618,0.0473642386496067
916,0.0329899676144123,-0.0100568570196629,0.0598579272627831,0.0649130642414093,0.0376280173659325,0.0328268073499203
917,0.0540647134184837,-0.0150939440354705,0.115938484668732,0.124339833855629,0.0934083461761475,0.0254189502447844
918,0.0576249472796917,-0.0253405794501305,0.127206817269325,0.14083132147789,0.117736577987671,0.0118465339764953
919,0.0366761386394501,-0.0476803705096245,0.0874677076935768,0.108318768441677,0.095964103937149,-0.0047655813395977
920,0.00843214336782694,-0.0649459138512611,0.0284292809665203,0.0548752583563328,0.0489022359251976,-0.0143301747739315
921,0.00216538459062576,-0.0597074255347252,-0.00641996553167701,0.0244021136313677,0.0192572865635157,-0.013059445656836
922,0.0236568041145802,-0.0369048193097115,0.00252345995977521,0.0289909150451422,0.0324649550020695,-0.00456945598125458
923,0.0514084212481976,-0.0138974608853459,0.0303393471986055,0.0357721149921417,0.0700018852949142,-1.37031593112624E-05
924,0.0641664639115334,-0.00499355746433139,0.0414427556097507,0.0207266006618738,0.0944254770874977,-0.0112108057364821
925,0.0579798631370068,-0.00746707618236542,0.0294591337442398,-0.00632606912404299,0.0891539305448532,-0.0381330884993076
926,0.050947155803442,0.000575250422116369,0.0132438717409968,-0.0237811282277107,0.0707651376724243,-0.0561808906495571
927,0.0589027553796768,0.0283624138683081,0.0148053858429194,-0.0153573052957654,0.0668642297387123,-0.0315053276717663
928,0.0691722705960274,0.0634526610374451,0.0326909348368645,0.0101396609097719,0.07730433344841,0.0303250420838594
929,0.0679346174001694,0.0929029062390327,0.0500063970685005,0.0299798063933849,0.0865067765116692,0.0824643447995186
930,0.0587038472294807,0.101848594844341,0.0605790764093399,0.0383089371025562,0.0924968048930168,0.0943471193313599
931,0.0439542829990387,0.0816725566983223,0.0589766316115856,0.0368333086371422,0.0900292694568634,0.0700317770242691
932,0.0297511648386717,0.0453035160899162,0.0422629490494728,0.0296427626162767,0.0729866698384285,0.0393100678920746
933,0.0224406681954861,0.00777242425829172,0.0185191817581654,0.0229600202292204,0.0465616919100285,0.0339996367692947
934,0.0201782118529081,-0.0196887124329805,-0.00581655837595463,0.0125661641359329,0.021372789517045,0.041654646396637
935,0.0267266109585762,-0.0267516430467367,-0.0264398604631424,-0.00734055368229747,0.0129298362880945,0.029833298176527
936,0.0310822110623121,-0.0255569387227297,-0.0473080277442932,-0.0455332137644291,0.0126933651044965,-0.0113367531448603
937,0.0134134367108345,-0.0372212193906307,-0.0708761066198349,-0.0981710180640221,-0.005434466060251,-0.0740249827504158
938,-0.0144171305000782,-0.0633854642510414,-0.0788281485438347,-0.127223581075668,-0.0336785353720188,-0.13344332575798
939,-0.0266701634973288,-0.0832208320498466,-0.0537399612367153,-0.10325425863266,-0.039150781929493,-0.157656714320183
940,-0.0140240816399455,-0.0637348294258118,0.00347090186551213,-0.0350747518241405,-0.00368954264558852,-0.125047877430916
941,0.0133319236338139,0.000916076533030719,0.0702136382460594,0.0447830222547054,0.0542624592781067,-0.0436528883874416
942,0.0354392305016518,0.080068476498127,0.108567900955677,0.0949846804141998,0.0909729152917862,0.0474255420267582
943,0.0367182232439518,0.148304998874664,0.0989212170243263,0.0948406234383583,0.0814633518457413,0.116023048758507
944,0.0139239383861423,0.177497163414955,0.0544486604630947,0.0600324235856533,0.0359654426574707,0.142562091350555
945,-0.0147877801209688,0.138403668999672,0.00833348743617535,0.0275207571685314,-0.012823186814785,0.120683036744595
946,-0.0169372968375683,0.0596313625574112,-0.00142812135163695,0.0337960012257099,-0.0235525313764811,0.0795726999640465
947,0.0131121631711721,-0.00244718999601901,0.0306105334311724,0.0752068907022476,0.0138279879465699,0.0439612381160259
948,0.0454894453287125,-0.0288569629192352,0.0681229382753372,0.107575930655003,0.0629779994487762,0.00717757828533649
949,0.0584576912224293,-0.0293717626482248,0.0819481983780861,0.105828881263733,0.089441642165184,-0.0279875304549932
950,0.0516341179609299,-0.0268829129636288,0.0695992782711983,0.0783552452921867,0.0843324139714241,-0.0523359030485153
951,0.0343984812498093,-0.0412839874625206,0.0430000387132168,0.0439792610704899,0.0566111542284489,-0.0682461857795715
952,0.0196036100387573,-0.0720512419939041,0.0180503185838461,0.0216682367026806,0.0252390801906586,-0.0748046860098839
953,0.0153843406587839,-0.103337354958057,0.00141511741094291,0.0164507459849119,0.00124882627278566,-0.0705985650420189
954,0.024562194943428,-0.108180463314056,0.000399617973016575,0.0281766150146723,-0.00715933227911592,-0.0459356307983398
955,0.0365941375494003,-0.0709960907697678,0.0190306045114994,0.0552790202200413,0.00454647885635495,0.00522062508389354
956,0.0357452481985092,-0.0134650515392423,0.0389863885939121,0.0776273235678673,0.0234623160213232,0.0569527372717857
957,0.0224300622940063,0.0301869846880436,0.0405786335468292,0.0733601376414299,0.0353581085801125,0.0857059136033058
958,0.00519375829026103,0.0492852665483952,0.0169476792216301,0.0365545935928822,0.0302604604512453,0.0892868265509605
959,-0.00347341946326196,0.0547599978744984,-0.0266409646719694,-0.0173389110714197,0.00731201423332095,0.0729724019765854
960,0.0073179118335247,0.0473929010331631,-0.063068725168705,-0.0486066266894341,-0.00961351674050093,0.0518832020461559
961,0.0284300837665796,0.014371981844306,-0.0639351531863213,-0.0312678664922714,0.000130541302496567,0.0306064058095217
962,0.0424300357699394,-0.0273923892527819,-0.0292177330702543,0.0185069553554058,0.0238282848149538,0.00173959811218083
963,0.0427639447152615,-0.0319482870399952,0.0158588010817766,0.0668108984827995,0.0360381454229355,-0.0250450372695923
964,0.0344411805272102,0.0154498238116503,0.0483321808278561,0.0916794687509537,0.0305749587714672,-0.0291685592383146
965,0.0264704432338476,0.0773281157016754,0.0655196607112885,0.0953549742698669,0.0211533699184656,-0.00385057111270726
966,0.0188146010041237,0.113071970641613,0.0718603059649467,0.0919338017702103,0.0179340243339539,0.029953770339489
967,0.0104138208553195,0.108262583613396,0.0706301033496857,0.0903090238571167,0.0206236857920885,0.0389830842614174
968,0.0142669202759862,0.0671486631035805,0.0698323026299477,0.0959463343024254,0.032406572252512,0.0182068794965744
969,0.0318182334303856,0.00886104442179203,0.0649341642856598,0.0974885523319244,0.0496568456292152,-0.012904847972095
970,0.0432041808962822,-0.0503062047064304,0.0393217131495476,0.0694096609950066,0.0541497804224491,-0.0426965802907944
971,0.0453672669827938,-0.100174330174923,-0.00248899636790156,0.0131430551409721,0.0415341779589653,-0.0629198998212814
972,0.0508141666650772,-0.126452043652534,-0.045986033976078,-0.0479746237397194,0.0194488670676947,-0.0699130967259407
973,0.0541406646370888,-0.1206174492836,-0.0834174379706383,-0.100143767893314,-0.00948792230337858,-0.0687541589140892
974,0.0440921671688557,-0.0855176150798798,-0.0947244465351105,-0.127027571201324,-0.0315587446093559,-0.0500306151807308
975,0.0253368932753801,-0.0383219942450523,-0.0729213356971741,-0.116427712142468,-0.0365536585450172,-0.00591528601944447
976,0.0135207735002041,0.000726111349649727,-0.0344558358192444,-0.0744973570108414,-0.0278336703777313,0.0482524037361145
977,0.0167662985622883,0.0294736474752426,0.0144378030672669,-0.0139803439378738,-0.00190802256111056,0.0953055918216705
978,0.0233383644372225,0.0524290278553963,0.0630180835723877,0.0412108711898327,0.0367088243365288,0.126948103308678
979,0.0285484045743942,0.0742845237255096,0.096980020403862,0.0742493867874146,0.0779090002179146,0.141634196043015
980,0.0371747873723507,0.0962916761636734,0.112444475293159,0.0834534466266632,0.110300749540329,0.13343770802021
981,0.0419702865183353,0.108920998871326,0.105919048190117,0.068433441221714,0.112253829836845,0.102388098835945
982,0.0416309162974358,0.111567951738834,0.0826803743839264,0.0403903238475323,0.080585353076458,0.0739844590425491
983,0.0401377603411675,0.105813838541508,0.0479751490056515,0.0071834116242826,0.0330206155776978,0.0602269172668457
984,0.0370193794369698,0.0788597092032433,0.00398160517215729,-0.0301591847091913,-0.00976716727018356,0.039945088326931
985,0.0330196730792522,0.0307899825274944,-0.0390551462769508,-0.0626027956604958,-0.0313187651336193,-0.00771546130999923
986,0.0246504154056311,-0.0209474619477987,-0.0786808580160141,-0.0922956317663193,-0.0386956185102463,-0.084786556661129
987,0.0147313140332699,-0.0625321790575981,-0.105635896325111,-0.117429241538048,-0.0450259409844875,-0.153405860066414
988,0.0162561647593975,-0.0787582695484161,-0.0884420424699783,-0.105344712734222,-0.0359141789376736,-0.151007577776909
989,0.0346946753561497,-0.0609910897910595,-0.0190637167543173,-0.0375207141041756,0.00601760484278202,-0.0663254931569099
990,0.063136100769043,-0.0223110355436802,0.0679897218942642,0.0536397062242031,0.068051777780056,0.0449449196457863
991,0.0882859826087952,0.0154272234067321,0.131945788860321,0.121188648045063,0.121057271957397,0.121841505169868
992,0.102574348449707,0.0394671000540257,0.157843619585037,0.14796470105648,0.147619873285294,0.145068541169167
993,0.110073268413544,0.0532444044947624,0.159559682011604,0.148969665169716,0.151355683803558,0.138698443770409
994,0.111964821815491,0.0672089084982872,0.148004576563835,0.135224163532257,0.140768125653267,0.128243818879128
995,0.104262433946133,0.0830798372626305,0.117844857275486,0.0980944335460663,0.119950167834759,0.118436187505722
996,0.0935071930289268,0.0962047576904297,0.078517735004425,0.0423677451908588,0.101385317742825,0.114798195660114
997,0.0873736068606377,0.0996657162904739,0.046578548848629,-0.0129765747115016,0.0952438339591026,0.117855593562126
998,0.0835112482309341,0.0852851271629334,0.020408758893609,-0.0584104917943478,0.0949463397264481,0.111752845346928
999,0.0794313326478004,0.0567797683179379,-0.00348327658139169,-0.091582365334034,0.087662510573864,0.079493336379528
