,AF3,AF4,Fp1,Fp2,AF7,AF8
0,0.0158720146864653,-0.0922944918274879,-0.0102815236896276,-0.5,0.0130330817773938,0.0359124355018139
1,0.0173673443496227,-0.0869883000850677,-0.0326165184378624,-0.5,-0.0218669548630714,0.0410721860826015
2,0.000208217898034491,-0.0843216180801392,-0.0444579310715199,-0.5,-0.0629092752933502,0.0339330770075321
3,-0.0304509997367859,-0.0841475278139114,-0.0457072518765926,-0.5,-0.0940025448799133,0.0175507888197899
4,-0.0565082579851151,-0.0962147787213326,-0.0287391562014818,-0.5,-0.0972715765237808,0.0104168672114611
5,-0.0578885152935982,-0.115668468177319,0.0102254739031196,-0.5,-0.0636560842394829,0.027664914727211
6,-0.0335065275430679,-0.133161202073097,0.0569661967456341,-0.5,-0.00674209417775273,0.0592782720923424
7,0.000247140502324328,-0.146890684962273,0.0908910036087036,0.5,0.0548809133470058,0.0824469923973084
8,0.0259555857628584,-0.159316092729568,0.0996397733688354,0.5,0.108878597617149,0.0798884779214859
9,0.0305373128503561,-0.178480759263039,0.0829391106963158,0.5,0.132551684975624,0.0488627068698406
10,0.0142797166481614,-0.204353675246239,0.0543240606784821,0.5,0.107132501900196,0.00414523156359792
11,-0.000552146520931274,-0.215154692530632,0.0368116237223148,0.5,0.0571970492601395,-0.0259134061634541
12,0.0088854655623436,-0.196126416325569,0.040683064609766,0.5,0.0282942019402981,-0.012466293759644
13,0.0387940406799316,-0.160858631134033,0.0497894771397114,0.5,0.0279843155294657,0.0442350842058659
14,0.0627983883023262,-0.126498997211456,0.0477966889739037,0.5,0.0285801272839308,0.105118781328201
15,0.0569850951433182,-0.0977718755602837,0.0393607616424561,0.5,0.0133001115173101,0.132049322128296
16,0.0264243185520172,-0.0806758925318718,0.0329434834420681,0.5,-0.010220605880022,0.115769065916538
17,-0.000141475247801282,-0.0851343870162964,0.02336360886693,0.5,-0.02950269728899,0.0731295421719551
18,-0.00885206181555986,-0.10735596716404,0.0041037704795599,0.5,-0.0379194095730782,0.0336703546345234
19,-0.00966240279376507,-0.128819912672043,-0.016495306044817,-0.5,-0.0348880179226398,0.0169950816780329
20,-0.0123772080987692,-0.135470762848854,-0.0283367969095707,-0.5,-0.0292599573731422,0.0225116275250912
21,-0.0204905457794666,-0.125142022967339,-0.0348558090627193,-0.5,-0.0309545621275902,0.0285456366837025
22,-0.0313701666891575,-0.108227252960205,-0.0408254042267799,-0.5,-0.0319425985217094,0.0149249667301774
23,-0.0272043533623219,-0.102626614272594,-0.0352903343737125,-0.5,-0.00808357261121273,-0.00477336114272475
24,0.0093238465487957,-0.116625659167767,-0.00342739443294704,-0.5,0.0480970330536366,-0.00482757110148668
25,0.0633504986763,-0.138920679688454,0.0475570112466812,-0.5,0.108011774718761,0.0180293451994658
26,0.0988030433654785,-0.153490170836449,0.0920857340097427,-0.5,0.135564267635345,0.0507621131837368
27,0.103454254567623,-0.161089897155762,0.115580633282661,-0.5,0.126901522278786,0.08075001090765
28,0.0991286113858223,-0.16023400425911,0.131718307733536,-0.5,0.116212978959084,0.107634380459785
29,0.104344584047794,-0.138431593775749,0.154119342565537,-0.5,0.128305196762085,0.143849760293961
30,0.109071709215641,-0.103694401681423,0.163571119308472,-0.5,0.135691255331039,0.187443092465401
31,0.0975953340530396,-0.0748786181211472,0.140645280480385,-0.5,0.10305380821228,0.211416244506836
32,0.0759062543511391,-0.0510416217148304,0.10480373352766,-0.5,0.0468729361891747,0.205449625849724
33,0.0636146664619446,-0.0242864135652781,0.0874567702412605,-0.5,0.0126629769802094,0.191525340080261
34,0.0680505931377411,0.00327088520862162,0.091085821390152,-0.5,0.0190427713096142,0.183120474219322
35,0.0793741941452026,0.0229951627552509,0.0977490842342377,-0.5,0.0484984703361988,0.167299017310143
36,0.090901643037796,0.0219394657760859,0.09681636095047,-0.5,0.0764740258455276,0.130747735500336
37,0.101622737944126,-0.00904687494039536,0.0832936316728592,-0.5,0.0858613476157188,0.078330010175705
38,0.103681415319443,-0.0568303316831589,0.0577872544527054,-0.5,0.0750849097967148,0.0321990661323071
39,0.100223824381828,-0.0856188386678696,0.0374089255928993,-0.5,0.0720327571034431,0.0196698289364576
40,0.110307328402996,-0.0752131566405296,0.0398488417267799,-0.5,0.101006634533405,0.0441183894872665
41,0.129174754023552,-0.050038855522871,0.0701323077082634,-0.5,0.139927133917809,0.0842588469386101
42,0.132121190428734,-0.0422968082129955,0.125150576233864,-0.5,0.155647873878479,0.12771113216877
43,0.117053866386414,-0.053772896528244,0.186782613396645,-0.5,0.150432258844376,0.17148432135582
44,0.101047448813915,-0.0681594759225845,0.229411453008652,-0.5,0.144737005233765,0.207150921225548
45,0.0969483181834221,-0.0710170790553093,0.242658466100693,-0.5,0.14322617650032,0.223194494843483
46,0.100850336253643,-0.0646232515573502,0.228268295526505,-0.5,0.131440415978432,0.210555851459503
47,0.0993779227137566,-0.0574798621237278,0.194381579756737,-0.5,0.104078345000744,0.179681569337845
48,0.0951115861535072,-0.0451225712895393,0.159927606582642,-0.5,0.0811582580208778,0.168400958180428
49,0.0970694422721863,-0.0237269215285778,0.135943740606308,-0.5,0.0804349556565285,0.193587347865105
50,0.104552805423737,-0.00418304326012731,0.117926381528378,-0.5,0.0992218106985092,0.213194102048874
51,0.12084674090147,0.00301390048116446,0.111803650856018,-0.5,0.132379874587059,0.194673523306847
52,0.146498635411263,0.00545497052371502,0.126094773411751,-0.5,0.172056287527084,0.164645910263062
53,0.167484521865845,0.0177646819502115,0.147462725639343,-0.5,0.200613841414452,0.153287142515183
54,0.172039344906807,0.0430502220988274,0.159782722592354,-0.5,0.206082165241241,0.154567629098892
55,0.166659757494926,0.0704185590147972,0.162830397486687,-0.5,0.192119762301445,0.152768969535828
56,0.1673254519701,0.0813425034284592,0.161625385284424,0.5,0.174226030707359,0.143292620778084
57,0.171605825424194,0.0581093356013298,0.153522655367851,0.5,0.158094570040703,0.121129207313061
58,0.161687403917313,0.00605619605630636,0.13596673309803,0.5,0.13624170422554,0.0872088447213173
59,0.138703301548958,-0.0384829975664616,0.121393792331219,0.5,0.116869069635868,0.0603809617459774
60,0.124559819698334,-0.0501458011567593,0.128103032708168,0.5,0.120698861777782,0.0585884675383568
61,0.129582419991493,-0.042660478502512,0.152722388505936,0.5,0.143336802721024,0.0799887105822563
62,0.142072230577469,-0.0342936515808105,0.177601605653763,0.5,0.158128753304482,0.114689156413078
63,0.152463644742966,-0.0166772864758968,0.206053301692009,0.5,0.165748119354248,0.161724224686623
64,0.163468837738037,0.0194492302834988,0.244018644094467,0.5,0.191976100206375,0.218284830451012
65,0.175122484564781,0.0584516376256943,0.26578152179718,0.5,0.224968358874321,0.274624526500702
66,0.178769335150719,0.0860700011253357,0.239416047930717,0.5,0.214184299111366,0.317509233951569
67,0.17068900167942,0.107958190143108,0.177143514156342,0.5,0.150661051273346,0.32613679766655
68,0.158287391066551,0.12332110106945,0.129307627677917,0.5,0.0869213342666626,0.295665383338928
69,0.149266362190247,0.119194559752941,0.1248619556427,0.5,0.0667223855853081,0.24553669989109
70,0.147717416286469,0.0939231216907501,0.151340588927269,0.5,0.0870383232831955,0.196523368358612
71,0.155317842960358,0.0678199231624603,0.186099007725716,0.5,0.123582296073437,0.170690387487412
72,0.16951297223568,0.0671930611133575,0.219310402870178,0.5,0.162843823432922,0.18471348285675
73,0.190693601965904,0.0957341641187668,0.250348657369614,0.5,0.207739949226379,0.224225044250488
74,0.213910430669785,0.122699648141861,0.27322992682457,0.5,0.252892255783081,0.245788171887398
75,0.219566464424133,0.106642745435238,0.272316098213196,0.5,0.268003910779953,0.21425011754036
76,0.205273479223251,0.0509041808545589,0.24605156481266,0.5,0.237566083669662,0.147132948040962
77,0.19249252974987,0.00912740640342236,0.218572944402695,0.5,0.19120854139328,0.104574158787727
78,0.191718921065331,0.0161262061446905,0.207176744937897,0.5,0.162189483642578,0.122109778225422
79,0.195611581206322,0.0568886287510395,0.205667197704315,0.5,0.154604822397232,0.177679553627968
80,0.1933553814888,0.100623540580273,0.202624335885048,0.5,0.154744550585747,0.220896676182747
81,0.181100830435753,0.124757021665573,0.196978285908699,0.5,0.150259479880333,0.224399194121361
82,0.166392311453819,0.123873367905617,0.19772407412529,0.5,0.145177900791168,0.204898431897163
83,0.161762565374374,0.117531262338161,0.210436284542084,0.5,0.152539134025574,0.193148657679558
84,0.170990347862244,0.128156557679176,0.225514307618141,0.5,0.173732846975327,0.201062351465225
85,0.18494887650013,0.14848330616951,0.226408436894417,0.5,0.197286039590836,0.216757878661156
86,0.195771649479866,0.152909949421883,0.208919987082481,0.5,0.213425680994987,0.220933958888054
87,0.202645480632782,0.13376060128212,0.182812824845314,0.5,0.217852383852005,0.205805212259293
88,0.204768866300583,0.105243243277073,0.157331332564354,0.5,0.2072963565588,0.181290119886398
89,0.199028983712196,0.0813416391611099,0.134977802634239,0.5,0.183341547846794,0.163365304470062
90,0.181065648794174,0.0691913142800331,0.117783546447754,0.5,0.156365558505058,0.149627923965454
91,0.157999843358994,0.0742698013782501,0.111600011587143,0.5,0.141762360930443,0.128805190324783
92,0.15232440829277,0.0912728309631348,0.120034582912922,0.5,0.151797816157341,0.105786234140396
93,0.171045750379562,0.0949435606598854,0.131770938634872,0.5,0.179123237729073,0.082721620798111
94,0.19652333855629,0.067863330245018,0.128811582922935,0.5,0.199086472392082,0.052955474704504
95,0.217227175831795,0.0313677676022053,0.112565830349922,0.5,0.200783163309097,0.0344232693314552
96,0.229584500193596,0.0166059732437134,0.095315232872963,0.5,0.189502581954002,0.0501771979033947
97,0.220153495669365,0.0222842544317245,0.0785287469625473,0.5,0.167666465044022,0.0735911950469017
98,0.186988055706024,0.0250398032367229,0.0692801773548126,0.5,0.14581798017025,0.0661796256899834
99,0.15959857404232,0.0239514205604792,0.0924483612179756,0.5,0.15008619427681,0.0454874411225319
100,0.164114892482758,0.0457292459905148,0.156044900417328,0.5,0.192127913236618,0.0506984367966652
101,0.188720673322678,0.0908994674682617,0.224812760949135,0.5,0.24756233394146,0.0798113122582436
102,0.207704901695251,0.125547721982002,0.256328672170639,0.5,0.283875644207001,0.101458035409451
103,0.219661697745323,0.132467046380043,0.247443124651909,0.5,0.295645326375961,0.103425778448582
104,0.235435023903847,0.121492169797421,0.22540158033371,0.5,0.293955773115158,0.0983949229121208
105,0.250465482473373,0.111282899975777,0.210645541548729,0.5,0.285270541906357,0.10097199678421
106,0.251967132091522,0.121564745903015,0.202560365200043,0.5,0.27132049202919,0.111285872757435
107,0.233350872993469,0.156372353434563,0.189751103520393,0.5,0.249866887927055,0.115389421582222
108,0.200349435210228,0.191257834434509,0.167168915271759,0.5,0.223087847232819,0.10983881354332
109,0.170929923653603,0.190793186426163,0.140622854232788,0.5,0.201371744275093,0.108183570206165
110,0.158887028694153,0.149288445711136,0.121481731534004,0.5,0.19158099591732,0.119599111378193
111,0.164460673928261,0.0952101051807404,0.12601038813591,0.5,0.198590248823166,0.129678279161453
112,0.18130911886692,0.0541336052119732,0.157459259033203,0.5,0.221378982067108,0.114598892629147
113,0.200530141592026,0.0359930358827114,0.191444978117943,0.5,0.244070470333099,0.0770418345928192
114,0.218252748250961,0.0391204096376896,0.207102030515671,0.5,0.256600171327591,0.0449825786054134
115,0.238657981157303,0.0466981306672096,0.206667214632034,0.5,0.262380927801132,0.0305439867079258
116,0.251266121864319,0.0373162180185318,0.184148415923119,0.5,0.249741524457932,0.00830005016177893
117,0.234619498252869,0.0136421239003539,0.134054809808731,0.5,0.21031391620636,-0.0385969467461109
118,0.197729051113129,-0.00509798526763916,0.0832443088293076,0.5,0.171260580420494,-0.0823879614472389
119,0.170625120401382,-0.0121436137706041,0.058845616877079,0.5,0.157775193452835,-0.0892041176557541
120,0.164311408996582,-0.00337988883256912,0.0648581013083458,0.5,0.170613348484039,-0.0527376718819141
121,0.172445878386498,0.0280902814120054,0.0979193449020386,0.5,0.200131997466087,0.010013161227107
122,0.188723713159561,0.0756806656718254,0.154049471020699,0.5,0.233727514743805,0.0822111517190933
123,0.20817331969738,0.122841276228428,0.22229328751564,0.5,0.263655751943588,0.153902173042297
124,0.228470697999001,0.162366554141045,0.28134560585022,0.5,0.289478868246078,0.214987367391586
125,0.254343211650848,0.196995377540588,0.316513210535049,0.5,0.318151086568832,0.262414395809174
126,0.284980416297913,0.220116570591927,0.325030982494354,0.5,0.348501414060593,0.284728348255157
127,0.305025905370712,0.217815071344376,0.302830040454865,0.5,0.359414488077164,0.265614658594131
128,0.299191325902939,0.197173446416855,0.253726243972778,0.5,0.3354232609272,0.210826396942139
129,0.265265017747879,0.173433244228363,0.194922089576721,0.5,0.28630855679512,0.138265371322632
130,0.216804385185242,0.139132097363472,0.146148592233658,0.5,0.236610412597656,0.0681869983673096
131,0.17862856388092,0.0902717113494873,0.124064333736897,0.5,0.206221133470535,0.020699393004179
132,0.165163218975067,0.0453743413090706,0.129165709018707,0.5,0.197997465729713,-0.000756030611228198
133,0.168397471308708,0.0226451065391302,0.142162337899208,0.5,0.202537566423416,-0.00826469715684652
134,0.174773022532463,0.02114362642169,0.145627677440643,0.5,0.208654001355171,-0.0109954485669732
135,0.17651179432869,0.0244260262697935,0.135546699166298,0.5,0.205868408083916,-0.00896001141518354
136,0.179153919219971,0.0304442886263132,0.121209137141705,0.5,0.193209245800972,0.00833235215395689
137,0.195963010191917,0.0536356084048748,0.120610289275646,0.5,0.18204128742218,0.046537097543478
138,0.216932848095894,0.0900216326117516,0.13704526424408,0.5,0.17497929930687,0.0880398601293564
139,0.217248260974884,0.121333390474319,0.156181782484055,0.5,0.165303573012352,0.120805010199547
140,0.197340875864029,0.13877734541893,0.168803378939629,0.5,0.155266776680946,0.150873750448227
141,0.184448584914207,0.140919253230095,0.177625194191933,0.5,0.156119242310524,0.176922827959061
142,0.189125865697861,0.131515443325043,0.185840770602226,0.5,0.166860684752464,0.187500387430191
143,0.18635082244873,0.117852829396725,0.18681675195694,0.5,0.166096940636635,0.169058531522751
144,0.162742853164673,0.107444547116756,0.175375908613205,0.5,0.14603228867054,0.126318320631981
145,0.1420558989048,0.106935657560825,0.159255653619766,0.5,0.12721748650074,0.0865328535437584
146,0.144204795360565,0.112604171037674,0.144312143325806,0.5,0.123014323413372,0.0647902190685272
147,0.158114105463028,0.112080663442612,0.130409374833107,0.5,0.12225554138422,0.0529760755598545
148,0.167334228754044,0.105005420744419,0.127861484885216,0.5,0.117242455482483,0.0492798276245594
149,0.173495814204216,0.109846480190754,0.149931222200394,0.5,0.119536392390728,0.0712984055280685
150,0.184635385870934,0.141408771276474,0.191311538219452,0.5,0.140297427773476,0.125977978110313
151,0.198189467191696,0.186136662960052,0.229253351688385,0.5,0.173890203237534,0.194575220346451
152,0.202009201049805,0.209854170680046,0.240561574697495,-0.5,0.20163469016552,0.248461663722992
153,0.190435737371445,0.198076024651527,0.219027504324913,-0.5,0.207597225904465,0.262786865234375
154,0.172729760408401,0.167871937155724,0.181190177798271,-0.5,0.195488855242729,0.234060481190681
155,0.16181156039238,0.138103261590004,0.153112143278122,-0.5,0.188069671392441,0.18513685464859
156,0.165190190076828,0.117672368884087,0.145340621471405,-0.5,0.20010781288147,0.146504938602448
157,0.181491568684578,0.1135448589921,0.145531266927719,-0.5,0.218388974666595,0.138594120740891
158,0.193585306406021,0.134172976016998,0.142836302518845,-0.5,0.217999339103699,0.159765839576721
159,0.184946313500404,0.170165941119194,0.137820512056351,-0.5,0.187525779008865,0.176290944218636
160,0.163447096943855,0.189910545945168,0.131599172949791,-0.5,0.137408256530762,0.156578674912453
161,0.146002992987633,0.185718864202499,0.128411248326302,-0.5,0.0906020477414131,0.122982338070869
162,0.134657979011536,0.173968926072121,0.131987795233727,-0.5,0.061353575438261,0.107013560831547
163,0.126511856913567,0.162178933620453,0.140492349863052,-0.5,0.0492595806717873,0.0976098999381065
164,0.128402605652809,0.157303810119629,0.154651418328285,-0.5,0.0547767654061317,0.0856877416372299
165,0.145081877708435,0.162231117486954,0.174469321966171,-0.5,0.0826478973031044,0.08570846170187
166,0.167611688375473,0.168887063860893,0.193231701850891,-0.5,0.123108983039856,0.102392978966236
167,0.182739108800888,0.167446866631508,0.20307782292366,-0.5,0.148505017161369,0.122489407658577
168,0.187489598989487,0.155732810497284,0.20364385843277,-0.5,0.147916078567505,0.13816899061203
169,0.188212245702744,0.145443186163902,0.202802732586861,-0.5,0.139774277806282,0.154613524675369
170,0.191222161054611,0.147327646613121,0.206873640418053,-0.5,0.141240462660789,0.174008771777153
171,0.196230515837669,0.15744760632515,0.210983097553253,0.5,0.152628153562546,0.188379645347595
172,0.193908840417862,0.167653799057007,0.203090608119965,0.5,0.163597285747528,0.19765530526638
173,0.176191702485085,0.178513184189796,0.178092822432518,0.5,0.160614624619484,0.215496838092804
174,0.145860269665718,0.188005834817886,0.141679704189301,0.5,0.138587400317192,0.231576353311539
175,0.11772346496582,0.192754060029984,0.107977658510208,0.5,0.110434398055077,0.219963744282722
176,0.10484654456377,0.203456997871399,0.0900643467903137,0.5,0.0930547416210175,0.186620131134987
177,0.0997800230979919,0.214351922273636,0.0864104479551315,0.5,0.0876954793930054,0.146519869565964
178,0.0850691795349121,0.194397523999214,0.0852198749780655,0.5,0.0806064680218697,0.0950287282466888
179,0.0584472268819809,0.132314711809158,0.0781138017773628,0.5,0.0581493638455868,0.0343105830252171
180,0.0431630462408066,0.0577243380248547,0.0778091549873352,0.5,0.035221666097641,-0.00591390114277601
181,0.0661421269178391,0.0196010507643223,0.110217392444611,0.5,0.0459627062082291,0.00380584760569036
182,0.121155463159084,0.0390533730387688,0.172971099615097,-0.5,0.0916257500648499,0.0600381754338741
183,0.176332518458366,0.0949891954660416,0.235156446695328,-0.5,0.142451703548431,0.139484167098999
184,0.212787017226219,0.156776115298271,0.276544123888016,-0.5,0.183634400367737,0.216579049825668
185,0.230739578604698,0.20490637421608,0.29407012462616,-0.5,0.215840712189674,0.267415523529053
186,0.233347460627556,0.22932156920433,0.284110456705093,-0.5,0.229974746704102,0.283357858657837
187,0.21856215596199,0.22460113465786,0.242394790053368,-0.5,0.213132262229919,0.269444018602371
188,0.18530298769474,0.202279165387154,0.178635314106941,-0.5,0.16856124997139,0.238065510988235
189,0.145865023136139,0.20139017701149,0.121143713593483,-0.5,0.11773831397295,0.208943799138069
190,0.11904576420784,0.237845852971077,0.0907374769449234,-0.5,0.0817197039723396,0.188592433929443
191,0.113992713391781,0.271281331777573,0.0800270587205887,-0.5,0.0638327896595001,0.171684920787811
192,0.126818001270294,0.264594346284866,0.0746492221951485,-0.5,0.0567400753498077,0.152382135391235
193,0.14947322010994,0.220996379852295,0.0740842297673225,-0.5,0.0592020228505135,0.126186102628708
194,0.1726293861866,0.165779620409012,0.0889943242073059,-0.5,0.0744388848543167,0.105373963713646
195,0.181850373744965,0.12595571577549,0.124511525034904,-0.5,0.0995440781116486,0.106028378009796
196,0.168826073408127,0.112703301012516,0.161955207586288,-0.5,0.121670387685299,0.121743932366371
197,0.140147849917412,0.115478947758675,0.17653152346611,-0.5,0.126371383666992,0.128258466720581
198,0.109365798532963,0.111897885799408,0.170673474669456,-0.5,0.117388322949409,0.111615248024464
199,0.0898758471012115,0.096516564488411,0.162890061736107,-0.5,0.113089613616467,0.0870807319879532
200,0.0876073390245438,0.0885808989405632,0.161956086754799,-0.5,0.120754353702068,0.0789604485034943
201,0.0969240367412567,0.10128628462553,0.166365936398506,-0.5,0.130228787660599,0.0939486399292946
202,0.107356056571007,0.130960777401924,0.170200526714325,-0.5,0.12693290412426,0.123348079621792
203,0.113345265388489,0.168612256646156,0.173133358359337,-0.5,0.109815247356892,0.158418849110603
204,0.118579968810081,0.202069014310837,0.179482206702232,-0.5,0.0925603955984116,0.197022333741188
205,0.128234088420868,0.223339274525642,0.186268627643585,-0.5,0.0861662179231644,0.237315639853477
206,0.140208229422569,0.234589457511902,0.186652645468712,-0.5,0.0912956520915031,0.26642170548439
207,0.145117670297623,0.237987637519836,0.175131574273109,-0.5,0.0975434482097626,0.268313854932785
208,0.140678286552429,0.240491598844528,0.154229402542114,-0.5,0.0949767082929611,0.248922646045685
209,0.139233753085136,0.252708971500397,0.138279944658279,-0.5,0.0894749686121941,0.233029723167419
210,0.146497815847397,0.259786486625671,0.135537087917328,-0.5,0.0912743434309959,0.225780427455902
211,0.15609185397625,0.233431339263916,0.139493748545647,-0.5,0.103676870465279,0.203397169709206
212,0.161946147680283,0.170529514551163,0.138864904642105,-0.5,0.120912529528141,0.150833815336227
213,0.15605317056179,0.0962217822670937,0.128502637147903,-0.5,0.127510920166969,0.0797556191682816
214,0.134404197335243,0.0389911569654942,0.113876588642597,-0.5,0.1124372407794,0.0140741867944598
215,0.10551729798317,0.00407331576570868,0.101119972765446,-0.5,0.0782202854752541,-0.0260860342532396
216,0.0812823697924614,-0.012418745085597,0.0935146808624268,-0.5,0.038729764521122,-0.0289601869881153
217,0.0705371871590614,0.00152911548502743,0.0978327170014381,-0.208951756358147,0.0137509051710367,0.00997192040085793
218,0.0784361436963081,0.0540755093097687,0.11889324337244,0.5,0.0169391706585884,0.0850024744868279
219,0.100344337522984,0.129111841320992,0.14784100651741,0.5,0.0428941696882248,0.175260409712791
220,0.12359681725502,0.197299137711525,0.168441653251648,0.5,0.0730182975530624,0.245808362960815
221,0.138877838850021,0.235395491123199,0.168210074305534,0.5,0.0925043895840645,0.264651030302048
222,0.14139112830162,0.233549654483795,0.139389500021935,0.5,0.0950292199850082,0.225660145282745
223,0.12712374329567,0.194979593157768,0.0887965261936188,0.5,0.0784897655248642,0.153578117489815
224,0.0996506959199905,0.138683453202248,0.0403906144201756,0.5,0.0445874705910683,0.0851069912314415
225,0.0710636600852013,0.0926058739423752,0.0176878031343222,0.5,0.00762394489720464,0.0458753183484077
226,0.0487939678132534,0.0803307518362999,0.0248278584331274,0.5,-0.00897309836000204,0.0410862602293491
227,0.0353248827159405,0.107856616377831,0.0472279414534569,0.5,0.00576407462358475,0.062585137784481
228,0.035949133336544,0.157953158020973,0.0706939548254013,0.5,0.0377480946481228,0.0997032523155212
229,0.0492924973368645,0.196894109249115,0.0885022059082985,0.5,0.0624144971370697,0.132323250174522
230,0.0645192563533783,0.192945525050163,0.0937822312116623,0.5,0.0639799237251282,0.132284477353096
231,0.0734030827879906,0.157108381390572,0.0843303576111794,0.5,0.0421976707875729,0.105478227138519
232,0.0721574872732162,0.138136461377144,0.0694598034024239,0.5,0.0118039343506098,0.0857516154646873
233,0.0623531378805637,0.152230560779572,0.060883030295372,0.5,-0.00862180814146996,0.0789921656250954
234,0.0548336058855057,0.179208427667618,0.0663682296872139,0.5,-0.00405624648556113,0.0766018778085709
235,0.0611950680613518,0.206142410635948,0.0873869806528091,0.5,0.029342008754611,0.0858350545167923
236,0.0789940655231476,0.218942567706108,0.113835208117962,0.5,0.0728747546672821,0.109016977250576
237,0.0938867256045341,0.204061582684517,0.131868094205856,0.5,0.102364212274551,0.129710391163826
238,0.0994452089071274,0.170975163578987,0.138649970293045,0.5,0.11345224827528,0.129511103034019
239,0.102353364229202,0.138161331415176,0.139427989721298,0.5,0.112309008836746,0.104391269385815
240,0.106898970901966,0.113399349153042,0.138357445597649,0.0667953640222549,0.102531366050243,0.0701415166258812
241,0.109769240021706,0.0998433902859688,0.135574504733086,-0.5,0.0886619389057159,0.0521431490778923
242,0.110404670238495,0.104823857545853,0.129676550626755,-0.5,0.0768160820007324,0.06014608964324
243,0.112275525927544,0.126465559005737,0.12046505510807,-0.5,0.0693254992365837,0.0796716883778572
244,0.113207869231701,0.147197365760803,0.105367049574852,-0.5,0.062971256673336,0.0905577391386032
245,0.108450196683407,0.158938825130463,0.0854541659355164,-0.5,0.0596647821366787,0.0860198959708214
246,0.0990153402090073,0.166122496128082,0.0714747160673141,-0.5,0.064301535487175,0.0747708827257156
247,0.0898094326257706,0.165239259600639,0.0681061595678329,-0.5,0.0698985308408737,0.0710387676954269
248,0.0814595595002174,0.156055688858032,0.0669225379824638,-0.5,0.0676212087273598,0.0852888748049736
249,0.067026399075985,0.156589984893799,0.0655288994312286,-0.5,0.0594316199421883,0.114022433757782
250,0.046100590378046,0.175056114792824,0.0696250796318054,-0.5,0.0480599254369736,0.134226694703102
251,0.0268101952970028,0.190942019224167,0.0739961713552475,-0.5,0.0322816371917725,0.133363857865334
252,0.0172387100756168,0.192553251981735,0.0730535835027695,-0.5,0.020079430192709,0.132710814476013
253,0.0290172509849072,0.195012539625168,0.0840264856815338,-0.5,0.0320321656763554,0.159104198217392
254,0.0668493807315826,0.207503452897072,0.122307956218719,-0.5,0.0764646753668785,0.207262307405472
255,0.112989962100983,0.223319485783577,0.169091463088989,-0.5,0.130162015557289,0.238589376211166
256,0.141543045639992,0.238828644156456,0.193371891975403,-0.5,0.160480946302414,0.224716395139694
257,0.144473508000374,0.246678918600082,0.185381844639778,-0.5,0.158265814185143,0.17927660048008
258,0.134182676672935,0.231758818030357,0.158829316496849,-0.5,0.140515819191933,0.135557174682617
259,0.124675780534744,0.197289392352104,0.133324012160301,-0.5,0.12915600836277,0.105842813849449
260,0.113803163170815,0.162311583757401,0.112226478755474,-0.5,0.128385230898857,0.0749256983399391
261,0.0920292809605598,0.136920139193535,0.0842276141047478,-0.5,0.122115209698677,0.0343112498521805
262,0.0654587224125862,0.118432939052582,0.053491048514843,-0.5,0.0988151878118515,0.00164944643620402
263,0.0498309619724751,0.101564235985279,0.0393749997019768,0.341284483671188,0.0660194009542465,-0.00399202993139625
264,0.0518594644963741,0.0924836844205856,0.0425722412765026,0.5,0.0415282137691975,0.0141335595399141
265,0.0706198811531067,0.101908519864082,0.0479083396494389,0.5,0.0465556308627129,0.0370692424476147
266,0.100502170622349,0.11857758462429,0.0514758341014385,0.5,0.0837847739458084,0.0538384839892387
267,0.11983023583889,0.121822722256184,0.0594023242592812,0.5,0.122440174221992,0.0705577284097672
268,0.107252284884453,0.11959145963192,0.0746223255991936,0.5,0.132583394646645,0.0942003652453423
269,0.0801527574658394,0.140622526407242,0.100118190050125,0.5,0.122180357575417,0.129577964544296
270,0.0704508349299431,0.193525716662407,0.139342412352562,0.5,0.119011998176575,0.177404016256332
271,0.0773210525512695,0.253066211938858,0.184591427445412,0.5,0.128869518637657,0.22036749124527
272,0.0814132839441299,0.285336166620255,0.216363847255707,0.5,0.136200606822968,0.230413660407066
273,0.0752433091402054,0.275038421154022,0.218235179781914,0.5,0.129893988370895,0.190089911222458
274,0.0605817697942257,0.232545331120491,0.188631176948547,0.5,0.106779433786869,0.114188708364964
275,0.0415820963680744,0.187756299972534,0.139836207032204,0.5,0.0692213028669357,0.0427925810217857
276,0.0264430548995733,0.163145214319229,0.0896943062543869,0.5,0.0303163640201092,0.0028495523147285
277,0.0198787543922663,0.151061832904816,0.050407636910677,0.5,0.00434760516509414,-0.00871603284031153
278,0.0212254375219345,0.140318959951401,0.029817707836628,0.5,-0.000799385772552341,-0.0029425835236907
279,0.031835850328207,0.139977797865868,0.0343146324157715,0.5,0.0175850912928581,0.0222828276455402
280,0.0498863607645035,0.158094599843025,0.0571451149880886,0.5,0.050361379981041,0.0738789811730385
281,0.0693386942148209,0.184914156794548,0.0813151225447655,0.5,0.0842588022351265,0.138605132699013
282,0.090015783905983,0.205578953027725,0.0961689278483391,0.5,0.118020683526993,0.181706950068474
283,0.119189225137234,0.212398439645767,0.0994950458407402,0.5,0.156610086560249,0.182516992092133
284,0.154428228735924,0.198624357581139,0.0949375554919243,0.5,0.191507935523987,0.149400606751442
285,0.16695736348629,0.161408737301826,0.0924141183495522,0.5,0.201093941926956,0.103302955627441
286,0.137324541807175,0.117467276751995,0.101389959454536,0.5,0.178599983453751,0.0613822415471077
287,0.0886905342340469,0.0925514027476311,0.120709739625454,0.5,0.140729755163193,0.0346228294074535
288,0.0521873123943806,0.0962687730789185,0.139014899730682,0.5,0.105254530906677,0.0340763740241528
289,0.03629045560956,0.121530145406723,0.14734411239624,0.5,0.0784925296902657,0.0649039819836617
290,0.0317736119031906,0.159301429986954,0.145499259233475,0.5,0.0594839192926884,0.119779318571091
291,0.0289799682796001,0.203045129776001,0.139460504055023,0.5,0.0492012910544872,0.17566291987896
292,0.026968315243721,0.228495225310326,0.126664787530899,0.5,0.0454227589070797,0.192257940769196
293,0.0225493684411049,0.20656543970108,0.0941599383950233,0.5,0.0344061888754368,0.14866603910923
294,0.0152143202722073,0.159319788217545,0.0521367341279984,0.5,0.0142793767154217,0.0834575966000557
295,0.0188831221312284,0.137670144438744,0.0350428223609924,0.5,0.00780152482911944,0.0556363314390183
296,0.0440387986600399,0.154088631272316,0.0586940199136734,0.5,0.0324287004768848,0.0792819783091545
297,0.0798488110303879,0.185022115707397,0.105538442730904,0.5,0.077785387635231,0.122815303504467
298,0.11021526157856,0.206113442778587,0.149052649736404,0.5,0.122214652597904,0.154978007078171
299,0.133598461747169,0.210700273513794,0.172922030091286,-0.5,0.151302084326744,0.175281763076782
300,0.152385324239731,0.212388053536415,0.175569847226143,-0.5,0.160547703504562,0.201299414038658
301,0.160423338413239,0.226930677890778,0.168318018317223,-0.5,0.157816424965858,0.234999552369118
302,0.149941325187683,0.24945279955864,0.150678545236588,-0.5,0.146311491727829,0.255659282207489
303,0.11943643540144,0.262408196926117,0.11242551356554,-0.5,0.117243595421314,0.244359701871872
304,0.0793667510151863,0.259351134300232,0.0717969909310341,-0.5,0.0807534754276276,0.200813159346581
305,0.049282543361187,0.24081215262413,0.0608049482107162,-0.5,0.0685668662190437,0.140551686286926
306,0.0411885790526867,0.202289521694183,0.0810149386525154,-0.5,0.0931085795164108,0.0815017446875572
307,0.0512500032782555,0.148235529661179,0.107617348432541,0.107687421143055,0.131618916988373,0.0432227775454521
308,0.0655989423394203,0.0998915359377861,0.125362128019333,0.5,0.153566390275955,0.0377609394490719
309,0.0748770162463188,0.0761213377118111,0.139163166284561,0.5,0.148660913109779,0.0489278584718704
310,0.0813020318746567,0.0801489874720573,0.147232696413994,0.5,0.12112882733345,0.0568411014974117
311,0.0854199975728989,0.106306076049805,0.134830445051193,0.5,0.076961524784565,0.061918493360281
312,0.0867241993546486,0.147903546690941,0.108259819447994,0.5,0.0340575650334358,0.070999875664711
313,0.0919412970542908,0.187780171632767,0.0914801135659218,0.5,0.0125734033063054,0.0806429386138916
314,0.104089565575123,0.203900635242462,0.094471350312233,0.5,0.0189513992518187,0.0838872864842415
315,0.115631528198719,0.19589501619339,0.116250745952129,0.5,0.0517567060887814,0.0899886935949326
316,0.119818150997162,0.17963907122612,0.14977440237999,0.5,0.0985015332698822,0.111835151910782
317,0.119512774050236,0.167748361825943,0.176661640405655,0.5,0.134790137410164,0.141947284340858
318,0.118546597659588,0.16605506837368,0.180192336440086,0.5,0.143219843506813,0.16206556558609
319,0.118759214878082,0.174509689211845,0.162350386381149,0.5,0.132269293069839,0.168008089065552
320,0.12115640193224,0.187470763921738,0.136623904109001,0.5,0.120797321200371,0.166873782873154
321,0.117479376494884,0.196195840835571,0.10775563120842,0.5,0.106254704296589,0.15780109167099
322,0.0982182919979095,0.200788587331772,0.0714760422706604,0.5,0.0725976750254631,0.138864383101463
323,0.0669288039207459,0.203655228018761,0.0299735702574253,0.5,0.0199969355016947,0.115588210523129
324,0.0343142002820969,0.188178762793541,-0.00466956058517098,0.5,-0.0273840744048357,0.0849847868084908
325,0.0114324185997248,0.147307053208351,-0.0137782795354724,0.5,-0.0330090522766113,0.0456368178129196
326,0.011170924641192,0.108935907483101,0.0138110248371959,0.5,0.0198702942579985,0.0183074772357941
327,0.0356806851923466,0.0966665148735046,0.0575762465596199,0.5,0.0924511775374413,0.0159332398325205
328,0.0664706826210022,0.105067797005177,0.081646092236042,0.5,0.121480844914913,0.027183810248971
329,0.0819362103939056,0.116831667721272,0.0796093195676804,0.5,0.0955028533935547,0.0441947691142559
330,0.0771073326468468,0.122494623064995,0.0755608379840851,0.5,0.0552275851368904,0.0659326910972595
331,0.0661991536617279,0.125400304794312,0.0883814096450806,0.5,0.0352685004472733,0.088049627840519
332,0.0601526312530041,0.128483027219772,0.110221900045872,0.5,0.0366926789283752,0.104116454720497
333,0.0527317374944687,0.131244584918022,0.119600705802441,0.5,0.0391882061958313,0.111838512122631
334,0.0421699360013008,0.138778105378151,0.114284366369247,0.5,0.0340292267501354,0.122522220015526
335,0.0385037437081337,0.155780628323555,0.109417542815208,0.326308280229568,0.0328015238046646,0.143408700823784
336,0.048997774720192,0.175103098154068,0.108987212181091,-0.5,0.0463347546756268,0.155954480171204
337,0.0675245895981789,0.182340949773788,0.103328838944435,-0.5,0.0676762312650681,0.138314455747604
338,0.0735904946923256,0.170519858598709,0.0829978063702583,-0.5,0.0741605088114738,0.0946894809603691
339,0.0555347315967083,0.140698358416557,0.0507140681147575,-0.5,0.0548310503363609,0.046263549476862
340,0.0286795385181904,0.0971475318074226,0.0199629683047533,-0.5,0.0257783923298121,0.0121156675741076
341,0.0168348550796509,0.0542080216109753,0.00108837219886482,-0.5,0.0105184279382229,-0.000933307979721576
342,0.0216473918408155,0.0355550236999989,-0.00336366356350482,-0.5,0.0115072708576918,-0.00200683530420065
343,0.0215554311871529,0.0425375737249851,-0.000940056808758527,-0.5,0.00776223046705127,-0.00384256755933166
344,0.00739011634141207,0.0494331680238247,-0.000686090847011656,-0.5,-0.00799797754734755,-0.00911925919353962
345,-0.00458691734820604,0.0542628616094589,0.0100792506709695,-0.5,-0.00831203069537878,-0.00853227917104959
346,-0.00190316932275891,0.0741017833352089,0.0458131209015846,-0.5,0.0260775592178106,0.00158702628687024
347,0.00760509166866541,0.10258986800909,0.0829699710011482,-0.251963287591934,0.0686457976698875,0.011223841458559
348,0.0117150852456689,0.127972617745399,0.087817370891571,0.5,0.0811764374375343,0.0175507813692093
349,0.00683048227801919,0.146987631917,0.0597011931240559,0.5,0.0522304549813271,0.0262404605746269
350,-0.0050914129242301,0.145411431789398,0.0197836644947529,0.5,-0.00403524283319712,0.0354002192616463
351,-0.0136877810582519,0.113606378436089,-0.0104992901906371,0.5,-0.0493661388754845,0.0438825748860836
352,-4.0593742596684E-05,0.0734193474054337,-0.0235574673861265,0.5,-0.0444443076848984,0.054900299757719
353,0.0339585430920124,0.050956666469574,-0.0350228548049927,0.5,-0.00492700841277838,0.0511861369013786
354,0.0552529245615005,0.039735559374094,-0.0604435242712498,0.5,0.0129120005294681,0.00740055460482836
355,0.0506239496171474,0.0256902500987053,-0.0825887098908424,0.5,-0.00448027811944485,-0.0583749152719975
356,0.0418072529137135,0.0172083657234907,-0.07177734375,0.5,-0.0255512502044439,-0.0959137231111526
357,0.0359174162149429,0.0242806635797024,-0.028735863044858,0.5,-0.0327157266438007,-0.081523671746254
358,0.0191464647650719,0.0426638461649418,0.0208963714540005,0.5,-0.0312989987432957,-0.0335137061774731
359,-0.00972560234367847,0.0647392868995667,0.0536054745316505,0.5,-0.0296362601220608,0.0135101359337568
360,-0.0369650833308697,0.0856658741831779,0.0615735985338688,0.5,-0.0293187778443098,0.0435228906571865
361,-0.0491330437362194,0.0977176204323769,0.0544101968407631,0.5,-0.0234900079667568,0.0595720335841179
362,-0.0431920140981674,0.0902812406420708,0.0406101420521736,0.5,-0.0106106195598841,0.0568105168640614
363,-0.0274183228611946,0.0643755123019218,0.0165969803929329,0.5,-0.00420529302209616,0.0344405584037304
364,-0.0128900101408362,0.0334247350692749,-0.0190250482410192,0.5,-0.0174725446850061,0.0103859072551131
365,-0.00843098480254412,0.0138259762898088,-0.0578690357506275,0.5,-0.0485514290630817,-0.00219401088543236
366,-0.0160834100097418,0.0194905269891024,-0.0855351984500885,0.5,-0.0818112716078758,-0.00552975153550506
367,-0.0314352065324783,0.044753722846508,-0.0959185734391212,0.5,-0.104841329157352,-0.00472792983055115
368,-0.0527184270322323,0.0630585625767708,-0.101088829338551,0.5,-0.117505051195621,-0.0112243499606848
369,-0.077296756207943,0.0547516420483589,-0.109251476824284,0.5,-0.116361744701862,-0.0397325530648232
370,-0.0899792909622192,0.0259785130620003,-0.107583478093147,0.5,-0.092841811478138,-0.0795846730470657
371,-0.0789808630943298,-0.00631019379943609,-0.0877422392368317,0.5,-0.0528228804469109,-0.105780512094498
372,-0.0553656294941902,-0.0332933031022549,-0.0665967389941216,0.5,-0.0193034540861845,-0.117871053516865
373,-0.0369758903980255,-0.0507217384874821,-0.0610056966543198,0.5,-0.0110217425972223,-0.126982510089874
374,-0.0316180251538754,-0.0564485006034374,-0.0632490739226341,0.5,-0.0241756737232208,-0.125747978687286
375,-0.0349887870252132,-0.0472486279904842,-0.0535167492926121,0.5,-0.0388754792511463,-0.0972914025187492
376,-0.0362634062767029,-0.0176190137863159,-0.0302061140537262,0.5,-0.0465447902679443,-0.0414473973214626
377,-0.0314325578510761,0.0272230971604586,-0.0128340851515532,0.5,-0.0568044297397137,0.0226961188018322
378,-0.0232488363981247,0.070919506251812,-0.0117158778011799,0.5,-0.0682257115840912,0.0769707337021828
379,-0.0150467241182923,0.0952420607209206,-0.0240207090973854,0.5,-0.0682108327746391,0.101789385080338
380,-0.0161761827766895,0.0861620232462883,-0.0491683185100555,0.5,-0.0671860426664352,0.0796580016613007
381,-0.0404670163989067,0.0443661250174046,-0.0908642932772636,0.5,-0.0940406620502472,0.0189018659293652
382,-0.0852416083216667,-0.00741405179724097,-0.151163503527641,0.5,-0.156115159392357,-0.0505067184567451
383,-0.122901685535908,-0.032270323485136,-0.21104970574379,0.5,-0.223275482654572,-0.0979953855276108
384,-0.132613807916641,-0.0199006386101246,-0.234610810875893,0.089788906276226,-0.256429851055145,-0.113804146647453
385,-0.122358649969101,-0.00189246248919517,-0.206826865673065,-0.5,-0.241318345069885,-0.111557707190514
386,-0.104392617940903,-0.000922081468161196,-0.1496791690588,-0.5,-0.192297324538231,-0.106360994279385
387,-0.084105521440506,-0.0135653270408511,-0.101688794791698,-0.5,-0.13639372587204,-0.106966264545918
388,-0.0670464113354683,-0.0328338220715523,-0.0801529660820961,-0.5,-0.0874359533190727,-0.114683829247952
389,-0.0534852407872677,-0.0514868013560772,-0.0685150623321533,-0.5,-0.0421723574399948,-0.119943559169769
390,-0.0457009188830853,-0.0718470960855484,-0.0560058616101742,-0.5,-0.00882901251316071,-0.123326778411865
391,-0.0477100387215614,-0.0999616682529449,-0.0533348247408867,-0.5,-0.00381203810684383,-0.137926086783409
392,-0.0570899248123169,-0.1217021048069,-0.0587554723024368,-0.5,-0.0257061179727316,-0.157989174127579
393,-0.0725110918283463,-0.118284337222576,-0.0569426789879799,-0.5,-0.0571620762348175,-0.158240780234337
394,-0.0921725630760193,-0.0926449373364449,-0.0495739355683327,-0.5,-0.0834466814994812,-0.122810535132885
395,-0.109756760299206,-0.0638189390301704,-0.0590975694358349,-0.5,-0.105266503989697,-0.0708389952778816
396,-0.121372058987617,-0.0510762818157673,-0.100138314068317,-0.5,-0.130504965782166,-0.0486348494887352
397,-0.12905091047287,-0.0577732883393765,-0.156953543424606,-0.5,-0.160402491688728,-0.0711603388190269
398,-0.135421916842461,-0.0685699582099915,-0.20136758685112,-0.5,-0.190231546759605,-0.106561101973057
399,-0.135766953229904,-0.0756204128265381,-0.217943772673607,-0.5,-0.208409547805786,-0.128032207489014
400,-0.123478598892689,-0.0820527970790863,-0.20225191116333,-0.5,-0.197796955704689,-0.135299026966095
401,-0.10441841930151,-0.0832404121756554,-0.162162348628044,-0.5,-0.158344522118568,-0.137946054339409
402,-0.0895412191748619,-0.0710779577493668,-0.113992176949978,-0.5,-0.110639132559299,-0.132036238908768
403,-0.0837462469935417,-0.0449348129332066,-0.0693715885281563,-0.5,-0.0730921179056168,-0.105137720704079
404,-0.0917028933763504,-0.0209825690835714,-0.0407788269221783,-0.5,-0.058087270706892,-0.0669354796409607
405,-0.110649630427361,-0.0194844733923674,-0.0368436649441719,-0.5,-0.0661212205886841,-0.043922170996666
406,-0.122223138809204,-0.0366459153592587,-0.0491312816739082,-0.5,-0.0800799429416656,-0.0503514222800732
407,-0.115750648081303,-0.0578102245926857,-0.0660217106342316,-0.5,-0.0891722366213799,-0.0821333676576614
408,-0.100102990865707,-0.0817538723349571,-0.0841523483395576,-0.5,-0.0982878506183624,-0.126087114214897
409,-0.0880163982510567,-0.108689777553082,-0.102472774684429,-0.5,-0.115235656499863,-0.167163014411926
410,-0.0930046290159225,-0.130919426679611,-0.1222133487463,-0.5,-0.146658807992935,-0.191035851836205
411,-0.117398478090763,-0.142577990889549,-0.144688069820404,-0.5,-0.187493368983269,-0.185781180858612
412,-0.146344810724258,-0.140243873000145,-0.167012393474579,-0.5,-0.219779133796692,-0.153687804937363
413,-0.16697496175766,-0.122125454246998,-0.181810185313225,-0.5,-0.22902823984623,-0.117190659046173
414,-0.171045064926147,-0.0911549478769302,-0.177182227373123,-0.5,-0.209913328289986,-0.0920914262533188
415,-0.158581882715225,-0.0587591975927353,-0.153476059436798,-0.5,-0.173203766345978,-0.0710207223892212
416,-0.144196525216103,-0.0473186038434505,-0.136900991201401,-0.5,-0.145398214459419,-0.0572417415678501
417,-0.138122230768204,-0.0695757865905762,-0.150250732898712,-0.5,-0.141117542982101,-0.0720112696290016
418,-0.136660516262054,-0.108755737543106,-0.183854192495346,-0.5,-0.151338189840317,-0.11628096550703
419,-0.13812880218029,-0.142316460609436,-0.212591797113419,-0.5,-0.165071859955788,-0.1693025380373
420,-0.144422575831413,-0.164698973298073,-0.219841450452805,-0.5,-0.177226111292839,-0.206673070788383
421,-0.150466501712799,-0.170300602912903,-0.203628942370415,-0.5,-0.180620685219765,-0.214003071188927
422,-0.148537158966064,-0.157725885510445,-0.179881751537323,-0.5,-0.171123027801514,-0.208202183246613
423,-0.138781622052193,-0.146158993244171,-0.17144650220871,-0.5,-0.153002351522446,-0.21642017364502
424,-0.130284130573273,-0.151612013578415,-0.18043951690197,-0.5,-0.12901546061039,-0.237416282296181
425,-0.127361908555031,-0.162190064787865,-0.180484935641289,-0.5,-0.0954279080033302,-0.249589368700981
426,-0.124467819929123,-0.15460379421711,-0.149634823203087,-0.5,-0.0618402175605297,-0.237311318516731
427,-0.123022265732288,-0.128989785909653,-0.104536980390549,-0.5,-0.0586433112621307,-0.206391409039497
428,-0.133418515324593,-0.104199253022671,-0.0818493142724037,-0.5,-0.0992496833205223,-0.170561447739601
429,-0.152293518185616,-0.0883760675787926,-0.0968376621603966,-0.5,-0.155036896467209,-0.125387623906136
430,-0.163781836628914,-0.0709837079048157,-0.135677844285965,-0.5,-0.190747916698456,-0.0696329548954964
431,-0.16469419002533,-0.0415245033800602,-0.174152463674545,-0.5,-0.200760766863823,-0.0315888896584511
432,-0.163860961794853,-0.0165549218654633,-0.199600383639336,-0.5,-0.20131953060627,-0.0439292304217815
433,-0.164438918232918,-0.0253609232604504,-0.214813485741615,-0.5,-0.20757195353508,-0.10820596665144
434,-0.163695693016052,-0.0792022719979286,-0.231019929051399,-0.5,-0.223986312747002,-0.197343230247498
435,-0.164503768086433,-0.164153173565865,-0.251053392887115,-0.5,-0.242070451378822,-0.279137939214706
436,-0.169449463486671,-0.242829695343971,-0.251881331205368,-0.5,-0.238680586218834,-0.322884500026703
437,-0.173531800508499,-0.281608521938324,-0.216012597084045,-0.5,-0.197476357221603,-0.310683608055115
438,-0.172358840703964,-0.273963540792465,-0.160061940550804,-0.5,-0.1340172290802,-0.253500401973724
439,-0.164107963442802,-0.228782698512077,-0.112083420157433,-0.5,-0.0833669155836105,-0.185058370232582
440,-0.15264680981636,-0.162834629416466,-0.0893954411149025,-0.5,-0.0670026242733002,-0.139331743121147
441,-0.146595075726509,-0.100110195577145,-0.0908646211028099,-0.5,-0.0784344077110291,-0.124158151447773
442,-0.147542744874954,-0.0583236739039421,-0.103307075798512,-0.5,-0.097738966345787,-0.120636112987995
443,-0.147492527961731,-0.0401737429201603,-0.122922345995903,-0.5,-0.113149434328079,-0.114587344229221
444,-0.138436168432236,-0.0409257486462593,-0.152186572551727,-0.5,-0.119949504733086,-0.112703137099743
445,-0.126755177974701,-0.0628805756568909,-0.186426088213921,-0.5,-0.11930338293314,-0.13047482073307
446,-0.130828678607941,-0.114166088402271,-0.221986278891563,-0.5,-0.133441865444183,-0.181339755654335
447,-0.153884142637253,-0.182410821318626,-0.251800149679184,-0.5,-0.176273286342621,-0.255300909280777
448,-0.176826506853104,-0.234296023845673,-0.26467952132225,-0.5,-0.221242532134056,-0.308503240346909
449,-0.1841871291399,-0.243512436747551,-0.261468112468719,-0.5,-0.240877032279968,-0.30575105547905
450,-0.175833880901337,-0.207467377185822,-0.244632065296173,-0.5,-0.233075305819511,-0.257636517286301
451,-0.156263947486877,-0.155093163251877,-0.211908504366875,-0.5,-0.202486053109169,-0.201780781149864
452,-0.133477345108986,-0.122950322926044,-0.172316789627075,-0.5,-0.161526620388031,-0.166746184229851
453,-0.122172027826309,-0.121127650141716,-0.143296450376511,-0.5,-0.133187398314476,-0.161127343773842
454,-0.128587990999222,-0.139602839946747,-0.137787267565727,-0.5,-0.130536541342735,-0.178078889846802
455,-0.138890340924263,-0.167076632380486,-0.157628044486046,-0.5,-0.14605188369751,-0.198946923017502
456,-0.139805927872658,-0.19182376563549,-0.190964102745056,-0.5,-0.164770245552063,-0.203857570886612
457,-0.138875737786293,-0.20426844060421,-0.222556576132774,-0.5,-0.17520560324192,-0.191923335194588
458,-0.149746552109718,-0.207054898142815,-0.245221808552742,-0.5,-0.175144657492638,-0.182761326432228
459,-0.173388838768005,-0.205859959125519,-0.262453466653824,-0.5,-0.178738474845886,-0.191694349050522
460,-0.199014753103256,-0.19156289100647,-0.279487460851669,-0.5,-0.195102781057358,-0.214743599295616
461,-0.214244708418846,-0.15699902176857,-0.290411949157715,-0.5,-0.208392336964607,-0.232817232608795
462,-0.21401147544384,-0.118636451661587,-0.285463154315948,-0.5,-0.203714147210121,-0.237486392259598
463,-0.19941109418869,-0.0971880853176117,-0.261022448539734,-0.5,-0.185345515608788,-0.236839145421982
464,-0.176401451230049,-0.0990873575210571,-0.220126688480377,-0.5,-0.162255167961121,-0.229961171746254
465,-0.15632663667202,-0.119904138147831,-0.174323976039886,-0.5,-0.141249448060989,-0.212964773178101
466,-0.148904338479042,-0.150056213140488,-0.14191497862339,-0.5,-0.133625581860542,-0.197060137987137
467,-0.155502021312714,-0.181139141321182,-0.138885617256165,-0.5,-0.150448560714722,-0.192966163158417
468,-0.165636047720909,-0.200996354222298,-0.163666024804115,-0.5,-0.184360146522522,-0.19063238799572
469,-0.164519369602203,-0.202039897441864,-0.197072073817253,-0.5,-0.212422445416451,-0.182723015546799
470,-0.150743320584297,-0.197374179959297,-0.219629645347595,-0.5,-0.218376725912094,-0.179353460669518
471,-0.137195944786072,-0.198173955082893,-0.225074991583824,-0.5,-0.200453013181686,-0.18375201523304
472,-0.133363679051399,-0.194416105747223,-0.214918822050095,-0.5,-0.166592434048653,-0.184485048055649
473,-0.139737412333488,-0.17519736289978,-0.189910918474197,-0.5,-0.132137328386307,-0.167436718940735
474,-0.154286071658134,-0.150245323777199,-0.163955137133598,-0.5,-0.113471992313862,-0.132850393652916
475,-0.168576598167419,-0.138003334403038,-0.15956799685955,-0.5,-0.117298595607281,-0.104728057980537
476,-0.16393880546093,-0.140562325716019,-0.176099807024002,-0.5,-0.132983759045601,-0.11021363735199
477,-0.135505720973015,-0.138550639152527,-0.187626928091049,-0.5,-0.136983796954155,-0.139972731471062
478,-0.110878199338913,-0.116504289209843,-0.179967954754829,-0.5,-0.123453676700592,-0.160915151238441
479,-0.114453487098217,-0.0925702527165413,-0.165509879589081,-0.5,-0.114655561745167,-0.170317620038986
480,-0.135268703103065,-0.0944030731916428,-0.153328105807304,-0.5,-0.125292122364044,-0.184586584568024
481,-0.149161532521248,-0.117633938789368,-0.137120008468628,-0.5,-0.144368574023247,-0.195654630661011
482,-0.149192526936531,-0.142857477068901,-0.11381783336401,-0.5,-0.156737700104713,-0.185796737670898
483,-0.140617728233337,-0.162398934364319,-0.0884201899170876,-0.5,-0.157658785581589,-0.155683308839798
484,-0.127241268754005,-0.174950584769249,-0.0702749937772751,-0.5,-0.147500947117805,-0.121352851390839
485,-0.113827966153622,-0.182552188634872,-0.0704512149095535,-0.5,-0.130255565047264,-0.102478504180908
486,-0.104819364845753,-0.183410495519638,-0.0908882170915604,-0.5,-0.116044342517853,-0.0988874137401581
487,-0.108333118259907,-0.163688838481903,-0.127552017569542,-0.5,-0.12104357779026,-0.089387983083725
488,-0.138121321797371,-0.123123437166214,-0.178402855992317,-0.5,-0.15621842443943,-0.0789225995540619
489,-0.187857538461685,-0.100676044821739,-0.229313790798187,-0.5,-0.206144839525223,-0.0995683744549751
490,-0.224193125963211,-0.131801471114159,-0.253468960523605,-0.5,-0.236882194876671,-0.144680455327034
491,-0.223368257284164,-0.196489945054054,-0.23624312877655,-0.5,-0.22808313369751,-0.165940120816231
492,-0.193898260593414,-0.250081688165665,-0.184781655669212,-0.5,-0.183189913630486,-0.150550737977028
493,-0.16145883500576,-0.270206093788147,-0.1237598285079,-0.5,-0.126710623502731,-0.133305132389069
494,-0.144656807184219,-0.256651401519775,-0.0870808288455009,-0.5,-0.0928513258695602,-0.136175036430359
495,-0.144249781966209,-0.227264434099197,-0.0893895849585533,-0.5,-0.0958189740777016,-0.155807659029961
496,-0.153554081916809,-0.209031656384468,-0.114920400083065,-0.5,-0.124590188264847,-0.184848591685295
497,-0.165922254323959,-0.202573791146278,-0.144888654351234,-0.5,-0.163288623094559,-0.212785199284554
498,-0.167152568697929,-0.186354607343674,-0.166206076741219,-0.5,-0.188567504286766,-0.222984224557877
499,-0.145326480269432,-0.160658910870552,-0.169103965163231,-0.5,-0.180090457201004,-0.208960428833961
500,-0.109246373176575,-0.141578689217567,-0.156271949410439,-0.5,-0.149048358201981,-0.184225261211395
501,-0.079619973897934,-0.132837399840355,-0.138704657554626,-0.5,-0.120313704013824,-0.161948174238205
502,-0.0696029588580132,-0.130662351846695,-0.126984730362892,-0.5,-0.107223555445671,-0.141345128417015
503,-0.0822966694831848,-0.128567546606064,-0.122622296214104,-0.5,-0.112131789326668,-0.114205002784729
504,-0.112314738333225,-0.115652166306973,-0.120614759624004,-0.5,-0.131092861294746,-0.077908955514431
505,-0.146679773926735,-0.0922877937555313,-0.126727312803268,-0.5,-0.161212548613548,-0.0451190769672394
506,-0.172406569123268,-0.0756509602069855,-0.146777868270874,-0.5,-0.189173981547356,-0.0340685434639454
507,-0.186047345399857,-0.0817944407463074,-0.166076391935349,-0.5,-0.193290159106255,-0.0555593743920326
508,-0.195281088352203,-0.117508627474308,-0.171044483780861,-0.5,-0.178561627864838,-0.110341593623161
509,-0.20079842209816,-0.173738479614258,-0.161880001425743,-0.5,-0.166423380374908,-0.179886549711227
510,-0.192730098962784,-0.221893280744553,-0.136645585298538,-0.5,-0.158889383077621,-0.227257639169693
511,-0.16847226023674,-0.237146601080894,-0.0975163951516151,-0.5,-0.145917862653732,-0.22995238006115
512,-0.137093111872673,-0.222367584705353,-0.0593100115656853,-0.5,-0.127039417624474,-0.202244892716408
513,-0.113494150340557,-0.200364202260971,-0.0407559052109718,-0.5,-0.115054585039616,-0.173997119069099
514,-0.105674423277378,-0.184909790754318,-0.0496632792055607,-0.5,-0.120342262089252,-0.160849496722221
515,-0.108968630433083,-0.171613529324532,-0.0742610916495323,-0.5,-0.134318485856056,-0.159045591950417
516,-0.115303970873356,-0.149768516421318,-0.0956015661358833,-0.5,-0.139337450265884,-0.155129492282867
517,-0.12055154889822,-0.110717244446278,-0.105477288365364,-0.5,-0.129984885454178,-0.136417761445045
518,-0.123723074793816,-0.0641157329082489,-0.108610063791275,-0.5,-0.115981377661228,-0.105101570487022
519,-0.125410825014114,-0.0425072871148586,-0.115625031292439,-0.5,-0.110307544469833,-0.0847841501235962
520,-0.12690307199955,-0.0625964552164078,-0.129888564348221,-0.5,-0.115764878690243,-0.0933281853795052
521,-0.125591784715652,-0.104087091982365,-0.141101881861687,-0.5,-0.125332802534103,-0.114404238760471
522,-0.118652693927288,-0.137545630335808,-0.145426481962204,-0.5,-0.137817114591599,-0.119588412344456
523,-0.114515200257301,-0.145396173000336,-0.157226428389549,-0.5,-0.162071540951729,-0.109583511948586
524,-0.123742111027241,-0.129996433854103,-0.180570393800735,-0.5,-0.196076840162277,-0.112020894885063
525,-0.139860481023788,-0.115076094865799,-0.192825496196747,-0.5,-0.217278495430946,-0.137119486927986
526,-0.144284442067146,-0.117827244102955,-0.173773214221001,-0.5,-0.207302466034889,-0.160585626959801
527,-0.126853406429291,-0.129239112138748,-0.12677326798439,-0.5,-0.165731057524681,-0.162391230463982
528,-0.0977145433425903,-0.130067303776741,-0.070025160908699,-0.5,-0.104502260684967,-0.146431520581245
529,-0.0760101079940796,-0.112521849572659,-0.0241680983453989,-0.5,-0.0520402900874615,-0.120443657040596
530,-0.07090113312006,-0.0865398198366165,-0.00093115825438872,-0.5,-0.0363682359457016,-0.0921274945139885
531,-0.0758868828415871,-0.0610988102853298,0.0035052748862654,-0.5,-0.051067266613245,-0.0698317140340805
532,-0.0805554315447807,-0.0358442030847073,-0.002577755600214,-0.5,-0.0668909922242165,-0.0626348257064819
533,-0.0849995613098145,-0.011952567845583,-0.017950963228941,0.5,-0.0667441040277481,-0.0768983885645866
534,-0.0999510362744331,-0.00382474274374545,-0.0532721914350986,0.5,-0.0639666318893433,-0.110131360590458
535,-0.134047597646713,-0.0346637815237045,-0.116844192147255,0.5,-0.0901764705777168,-0.161059573292732
536,-0.173963487148285,-0.102095812559128,-0.184920817613602,0.5,-0.149719461798668,-0.216543525457382
537,-0.1929562240839,-0.173030540347099,-0.222911968827248,0.5,-0.21149368584156,-0.24769614636898
538,-0.178158491849899,-0.204950854182243,-0.218260854482651,0.5,-0.240107953548431,-0.238370954990387
539,-0.136832147836685,-0.171655267477036,-0.171204373240471,0.5,-0.217665299773216,-0.18869061768055
540,-0.0935514569282532,-0.0994065999984741,-0.0999460890889168,0.5,-0.161751270294189,-0.114568315446377
541,-0.0698621049523354,-0.0446334630250931,-0.0386639721691608,0.5,-0.108875326812267,-0.0514601357281208
542,-0.0608449466526508,-0.0326165929436684,-0.00560077605769038,0.5,-0.0758731737732887,-0.0272049773484468
543,-0.0550604872405529,-0.0468001700937748,0.00295290001668036,0.5,-0.0597719326615334,-0.0399075262248516
544,-0.0539915785193443,-0.0583407133817673,-0.00113110500387847,0.5,-0.0515244454145432,-0.0717463344335556
545,-0.0551679544150829,-0.0519146472215652,-0.00397455785423517,0.5,-0.039094477891922,-0.101673394441605
546,-0.0536151826381683,-0.0336403511464596,0.00211133155971766,0.5,-0.0204760488122702,-0.110174298286438
547,-0.0544089488685131,-0.020042022690177,0.0065156351774931,0.5,-0.0101373121142387,-0.0928588584065437
548,-0.0569906309247017,-0.0190935544669628,-0.00864148326218128,0.5,-0.0190790798515081,-0.0660108476877213
549,-0.0538957193493843,-0.0251025706529617,-0.0497516728937626,0.5,-0.0428748428821564,-0.0565056316554546
550,-0.0518357008695602,-0.0315552316606045,-0.108303524553776,0.5,-0.0750871077179909,-0.0769381299614906
551,-0.0637997016310692,-0.0346532240509987,-0.156453877687454,0.5,-0.109100714325905,-0.104438200592995
552,-0.0893712863326073,-0.0307704601436853,-0.168834462761879,0.5,-0.133080959320068,-0.108652897179127
553,-0.114927180111408,-0.0232385061681271,-0.147037521004677,0.5,-0.142259851098061,-0.0901634320616722
554,-0.123810552060604,-0.0177402589470148,-0.107260517776012,0.5,-0.14243084192276,-0.0701099708676338
555,-0.113140188157558,-0.0233472306281328,-0.070738673210144,0.5,-0.139057278633118,-0.0667193010449409
556,-0.0966096073389053,-0.0549592636525631,-0.0562176033854485,0.5,-0.13258583843708,-0.0828613564372063
557,-0.0860161855816841,-0.105761282145977,-0.0613988637924194,0.5,-0.12302552908659,-0.105632409453392
558,-0.0773459747433662,-0.140686675906181,-0.0601092875003815,0.5,-0.107405699789524,-0.111764527857304
559,-0.0596210658550262,-0.134065762162209,-0.0315151214599609,0.5,-0.076627142727375,-0.0844659432768822
560,-0.0379589423537254,-0.101610794663429,0.00852238293737173,0.5,-0.0366655774414539,-0.0370081812143326
561,-0.0279204677790403,-0.0801900178194046,0.0241826996207237,0.5,-0.0125867826864123,-0.00128959212452173
562,-0.0344394147396088,-0.0809509754180908,0.00581297464668751,0.5,-0.016066974028945,0.000178502465132624
563,-0.0489285029470921,-0.0867028906941414,-0.0208617728203535,0.5,-0.0307100377976894,-0.0274286475032568
564,-0.0567201189696789,-0.0761198028922081,-0.0344966873526573,0.5,-0.0384115278720856,-0.058852419257164
565,-0.0558074004948139,-0.044921986758709,-0.0453557595610619,0.5,-0.0484466999769211,-0.0770476832985878
566,-0.0589313879609108,-0.0128637701272964,-0.0641320571303368,0.5,-0.0774941295385361,-0.0741744041442871
567,-0.0699846297502518,0.00455145677551627,-0.0761568024754524,0.5,-0.113628245890141,-0.0473774522542953
568,-0.0804328322410584,0.0118341613560915,-0.0690260678529739,0.5,-0.131390437483788,-0.00861498527228832
569,-0.0871482193470001,0.0178003292530775,-0.0511044263839722,0.5,-0.126293271780014,0.0266350246965885
570,-0.091703824698925,0.024006525054574,-0.0366631112992764,0.5,-0.11048512160778,0.053714644163847
571,-0.0904107391834259,0.0246605407446623,-0.0328451246023178,0.5,-0.0895700305700302,0.0691772177815437
572,-0.077079065144062,0.0151562038809061,-0.039998784661293,0.5,-0.0611275993287563,0.0574852004647255
573,-0.0529522821307182,-0.000522376678418368,-0.0529128052294254,0.5,-0.0272472091019154,0.00642301002517343
574,-0.0316928774118423,-0.0135350776836276,-0.0638479515910149,0.5,-0.00184706167783588,-0.0665142759680748
575,-0.0246152617037296,-0.020132027566433,-0.0667313635349274,0.5,-0.00130640552379191,-0.123635955154896
576,-0.0303468499332666,-0.0261619929224253,-0.0574705265462399,0.5,-0.0250873658806086,-0.137327760457993
577,-0.0436140410602093,-0.0348611548542976,-0.039775587618351,0.5,-0.0537839345633984,-0.110449142754078
578,-0.0559761896729469,-0.0394611656665802,-0.0267816949635744,0.5,-0.0689637213945389,-0.0709470808506012
579,-0.0610038675367832,-0.0435663312673569,-0.031870249658823,0.5,-0.0711270421743393,-0.0410083308815956
580,-0.0635530576109886,-0.0600950606167316,-0.050951212644577,0.5,-0.065654955804348,-0.0266776718199253
581,-0.0676006078720093,-0.0848569422960281,-0.057048324495554,0.5,-0.0456024818122387,-0.0277312807738781
582,-0.0740329623222351,-0.10485965013504,-0.0374762378633022,0.5,-0.0194956138730049,-0.0383996926248074
583,-0.0832841470837593,-0.108964174985886,-0.0110309412702918,0.5,-0.0150444414466619,-0.0473066717386246
584,-0.0865273252129555,-0.0816146656870842,0.00998221151530743,0.5,-0.0328895002603531,-0.0370069779455662
585,-0.076181061565876,-0.0185475014150143,0.0201921220868826,0.5,-0.0539940930902958,-0.0023297811858356
586,-0.0581768080592155,0.0582330599427223,0.00212300149723887,0.5,-0.0777487084269524,0.0319325141608715
587,-0.0465895049273968,0.110222600400448,-0.0428278706967831,0.5,-0.106241397559643,0.0415661744773388
588,-0.0460438653826714,0.112723112106323,-0.0834623128175735,0.5,-0.120380066335201,0.0293790251016617
589,-0.0446833521127701,0.0761733949184418,-0.0960477143526077,0.5,-0.103550881147385,0.00822125654667616
590,-0.0358380749821663,0.0264490563422441,-0.0853612273931503,0.5,-0.0677467659115791,-0.0181043576449156
591,-0.0257768612354994,-0.0197390951216221,-0.0691509544849396,0.5,-0.0375552102923393,-0.0507490821182728
592,-0.0175411198288202,-0.0576394908130169,-0.0585376508533955,0.5,-0.0262074004858732,-0.0804129391908646
593,-0.011575311422348,-0.0864734500646591,-0.0530037768185139,0.5,-0.0290945414453745,-0.0927555337548256
594,-0.013547046110034,-0.100755572319031,-0.0460717566311359,0.5,-0.0334251038730145,-0.0884635671973228
595,-0.0234470460563898,-0.0938708409667015,-0.0300590582191944,0.5,-0.0268455389887095,-0.0709992945194244
596,-0.0306086707860231,-0.0666992142796516,-0.00130447826813906,0.5,0.000505781732499599,-0.0333861149847507
597,-0.0328319817781448,-0.0315194688737392,0.0279122162610292,0.5,0.0364041663706303,0.0116224782541394
598,-0.0423515550792217,-0.00622947979718447,0.0379983447492123,0.5,0.0447405390441418,0.0356435589492321
599,-0.0653979778289795,0.000406157138058916,0.0225596986711025,0.5,0.00645709875971079,0.0353772714734077
600,-0.091114342212677,-0.00262436829507351,-0.00817820150405169,0.5,-0.0558628290891647,0.0217123348265886
601,-0.104242496192455,0.000497719447594136,-0.0412831902503967,0.5,-0.103969804942608,-0.00248611555434763
602,-0.102354310452938,0.0175527259707451,-0.0720794349908829,0.5,-0.119760155677795,-0.0280958730727434
603,-0.0895759090781212,0.0468804650008678,-0.0940489917993546,0.5,-0.106864310801029,-0.036200899630785
604,-0.0686099082231522,0.0751080885529518,-0.102270595729351,0.5,-0.0788329839706421,-0.0293005555868149
605,-0.0466669984161854,0.0782108679413795,-0.104451723396778,0.5,-0.0514226444065571,-0.0380003675818443
606,-0.0317919813096523,0.0396838560700417,-0.110269337892532,0.5,-0.0379317179322243,-0.0765194520354271
607,-0.0292301718145609,-0.0282014105468988,-0.1218651086092,0.5,-0.04942886531353,-0.119628712534904
608,-0.0369788706302643,-0.0849315524101257,-0.127912312746048,0.5,-0.0764866173267365,-0.131888523697853
609,-0.042644914239645,-0.0949618443846703,-0.11014749109745,0.5,-0.0880111977458,-0.102485977113247
610,-0.0360480770468712,-0.0648832842707634,-0.0700060576200485,0.5,-0.0703796073794365,-0.0521309971809387
611,-0.0162951126694679,-0.0338812135159969,-0.0354434065520763,0.5,-0.041945893317461,-0.00943608395755291
612,0.00494296289980412,-0.0255197696387768,-0.0275846421718597,0.5,-0.0239552706480026,0.0216957330703735
613,0.00164515431970358,-0.0314012132585049,-0.0345536507666111,0.5,-0.0184988752007484,0.043685857206583
614,-0.0385415926575661,-0.0367710776627064,-0.0322380103170872,0.5,-0.0165519546717405,0.0342513248324394
615,-0.0872517600655556,-0.0358182713389397,-0.0101525764912367,0.5,-0.00787063501775265,-0.00746272876858711
616,-0.105273313820362,-0.0295970253646374,0.0222230553627014,0.5,0.00893949810415506,-0.0425408147275448
617,-0.0870446041226387,-0.0229600910097361,0.0433653295040131,0.5,0.0244602616876364,-0.0482490658760071
618,-0.0558413118124008,-0.0176321677863598,0.0376311093568802,0.5,0.030349362641573,-0.0357992127537727
619,-0.0353385396301746,-0.0140958381816745,0.00232393201440573,0.5,0.0163097195327282,-0.031534269452095
620,-0.0286406576633453,-0.0212745778262615,-0.0501558147370815,0.5,-0.0200542882084847,-0.0528337843716145
621,-0.0261995326727629,-0.0443352162837982,-0.0975363776087761,0.5,-0.0619977526366711,-0.0899030342698097
622,-0.0299080088734627,-0.0674329549074173,-0.121630094945431,0.5,-0.0917100310325623,-0.113170355558395
623,-0.0424346961081028,-0.0643863305449486,-0.115716442465782,0.5,-0.0967884883284569,-0.0938784778118134
624,-0.0508319735527039,-0.0287113077938557,-0.0897300764918327,0.5,-0.0707786902785301,-0.0341301336884499
625,-0.0473050102591515,0.0158312078565359,-0.0684576109051704,0.5,-0.0268132146447897,0.0235315170139074
626,-0.0519993156194687,0.0355809256434441,-0.0749317705631256,0.5,-0.00278383446857333,0.0305567197501659
627,-0.0834128558635712,0.0131601225584745,-0.108232781291008,0.5,-0.0301629435271025,-0.0166724715381861
628,-0.117872126400471,-0.0302059128880501,-0.132907524704933,0.5,-0.0878657624125481,-0.0680184587836266
629,-0.12054205685854,-0.0551386252045631,-0.113108158111572,0.5,-0.121828965842724,-0.0767833441495895
630,-0.0938666686415672,-0.0513670183718205,-0.0592251643538475,0.5,-0.109565317630768,-0.0431918874382973
631,-0.0616042725741863,-0.0313018225133419,-0.00659042783081532,0.5,-0.0676405131816864,0.000255529099376872
632,-0.0387279540300369,-0.00342278555035591,0.0315383970737457,0.5,-0.0161203071475029,0.0223860517144203
633,-0.0330909341573715,0.0223435293883085,0.0548964478075504,0.5,0.0269848741590977,0.0155050735920668
634,-0.0432439483702183,0.0300693903118372,0.0541870817542076,0.5,0.0440512150526047,-0.00827338825911283
635,-0.0570120252668858,0.0133865848183632,0.0249889828264713,0.5,0.0329552441835403,-0.033599816262722
636,-0.0645602643489838,-0.0155401565134525,-0.0218361299484968,0.5,0.00990816205739975,-0.0527226962149143
637,-0.0596682317554951,-0.0421356447041035,-0.0736525803804398,0.5,-0.00503555778414011,-0.0689217001199722
638,-0.044904749840498,-0.0659075900912285,-0.124336801469326,0.5,-0.0152125926688313,-0.0845692604780197
639,-0.0402735508978367,-0.0826748982071877,-0.161419317126274,0.5,-0.0430110245943069,-0.0834607556462288
640,-0.0608098730444908,-0.0635081380605698,-0.165452197194099,0.5,-0.0843906849622726,-0.0501186959445477
641,-0.0925531312823296,0.00145211373455822,-0.133625879883766,0.0767959803342819,-0.107278361916542,0.00392174581065774
642,-0.113174274563789,0.0611860230565071,-0.0849160104990005,-0.5,-0.10128777474165,0.0468058623373508
643,-0.11897774040699,0.0604353174567223,-0.0413537845015526,-0.5,-0.0870916396379471,0.0446458980441093
644,-0.109892070293427,0.00912532769143581,-0.00569540122523904,-0.178944617509842,-0.0700237825512886,0.00121493439655751
645,-0.0807171612977982,-0.0402952022850513,0.0373873934149742,0.204999417066574,-0.0335030518472195,-0.0373733676970005
646,-0.0394453965127468,-0.0608028620481491,0.0842267945408821,0.294983893632889,0.0168090686202049,-0.0427901893854141
647,-0.00760185951367021,-0.0630139335989952,0.100818008184433,-0.0591938160359859,0.0471262484788895,-0.0287728440016508
648,0.00189078121911734,-0.0569301024079323,0.0658598691225052,-0.5,0.0389622896909714,-0.0172591153532267
649,-0.00250696134753525,-0.0466609932482243,-0.00390392728149891,-0.5,0.0133245522156358,-0.0145651642233133
650,-0.00803772825747728,-0.0498441196978092,-0.0782922357320786,-0.5,-0.00415494246408343,-0.0248755477368832
651,-0.0187970492988825,-0.0725096464157104,-0.138044610619545,-0.5,-0.0189140904694796,-0.0596021935343742
652,-0.0465643294155598,-0.0953416973352432,-0.17061460018158,-0.5,-0.043576680123806,-0.1133092045784
653,-0.0846889019012451,-0.106300957500935,-0.159871444106102,-0.5,-0.0652236193418503,-0.152920410037041
654,-0.107559561729431,-0.103223964571953,-0.104927524924278,-0.5,-0.0643687918782234,-0.148052394390106
655,-0.101422913372517,-0.083581954240799,-0.037834394723177,0.5,-0.0430673845112324,-0.101941600441933
656,-0.0754845142364502,-0.0505461506545544,0.00914275087416172,0.5,-0.0151814576238394,-0.0410754829645157
657,-0.0457685366272926,-0.0120013672858477,0.0326009765267372,0.5,0.00892861932516098,0.0137317990884185
658,-0.0263321902602911,0.0249316785484552,0.0398235507309437,0.5,0.0205664839595556,0.0532114915549755
659,-0.0251928828656673,0.0549376904964447,0.0305732227861881,0.5,0.0108120664954185,0.0763161033391953
660,-0.0377085879445076,0.0721989423036575,0.00447300961241126,0.5,-0.0165205951780081,0.0791923329234123
661,-0.0529890768229961,0.067784383893013,-0.0335669331252575,0.5,-0.044660359621048,0.0462991520762444
662,-0.0726367831230164,0.0314495675265789,-0.0802314952015877,0.5,-0.0729723796248436,-0.0221810378134251
663,-0.0982972979545593,-0.0273213312029839,-0.129533737897873,0.5,-0.112807221710682,-0.0985724478960037
664,-0.109631702303886,-0.0758975595235825,-0.158825933933258,0.5,-0.147827744483948,-0.152011603116989
665,-0.0903087705373764,-0.0918692052364349,-0.143801555037498,0.5,-0.142999812960625,-0.159254148602486
666,-0.0514138527214527,-0.0773731023073196,-0.0955252349376678,0.5,-0.0924920961260796,-0.119394406676292
667,-0.0184415429830551,-0.0576955862343311,-0.0596253797411919,0.5,-0.0322824381291866,-0.0695839002728462
668,-0.0134893730282784,-0.0645530819892883,-0.0673312842845917,0.5,-0.00538676744326949,-0.052423033863306
669,-0.0352961532771587,-0.0934718698263168,-0.0997331067919731,0.5,-0.0186611823737621,-0.065797820687294
670,-0.0637643039226532,-0.111244075000286,-0.116390466690063,0.5,-0.0443653985857964,-0.081675261259079
671,-0.0862224400043488,-0.107583440840244,-0.103167869150639,0.5,-0.0592115521430969,-0.0941104143857956
672,-0.0970796495676041,-0.0967396423220634,-0.0728698968887329,0.5,-0.0604820363223553,-0.106751941144466
673,-0.0896503925323486,-0.0819290950894356,-0.0434321127831936,0.5,-0.0551359504461288,-0.111536160111427
674,-0.0669776275753975,-0.056868102401495,-0.0285162907093763,0.5,-0.0491419993340969,-0.0986368209123611
675,-0.0452961511909962,-0.0228475145995617,-0.0296132955700159,0.5,-0.0412615574896336,-0.0640075877308846
676,-0.0390829630196095,0.016612445935607,-0.0359631143510342,0.5,-0.0287388190627098,-0.0154268378391862
677,-0.0506784617900848,0.055145837366581,-0.0413825213909149,0.5,-0.020114516839385,0.0321691483259201
678,-0.067950002849102,0.079816646873951,-0.0524793826043606,0.5,-0.0292690210044384,0.0559336058795452
679,-0.0774763152003288,0.068326398730278,-0.075905829668045,0.5,-0.0583131536841393,0.0273817796260118
680,-0.0868911668658257,0.00603835517540574,-0.109303593635559,0.5,-0.0987544879317284,-0.0463709346950054
681,-0.104165010154247,-0.0756660252809525,-0.134788066148758,0.5,-0.130475401878357,-0.116598665714264
682,-0.11438063532114,-0.129246190190315,-0.128932893276215,0.5,-0.128472819924355,-0.146878495812416
683,-0.104915671050549,-0.144782185554504,-0.0967061072587967,0.5,-0.0938963741064072,-0.138729006052017
684,-0.0779850855469704,-0.135666519403458,-0.0666087418794632,0.5,-0.0483351685106754,-0.111920222640038
685,-0.0438958778977394,-0.116648837924004,-0.060201495885849,0.5,-0.00965568609535694,-0.090959332883358
686,-0.0184432063251734,-0.0956436321139336,-0.0741421952843666,0.5,0.0106771206483245,-0.0832773894071579
687,-0.0140718016773462,-0.0700903162360191,-0.0859424322843552,0.5,0.00911143515259027,-0.0707371905446053
688,-0.0297380238771439,-0.0439261868596077,-0.085769809782505,0.5,-0.0100992172956467,-0.0496278144419193
689,-0.0493337661027908,-0.0249610263854265,-0.0752310752868652,0.5,-0.0320965759456158,-0.0349346809089184
690,-0.0598866380751133,-0.00981127098202705,-0.0564081519842148,0.5,-0.0419822409749031,-0.0299615878611803
691,-0.0650250017642975,0.00876655895262957,-0.0395967438817024,0.5,-0.0385671891272068,-0.0313755944371223
692,-0.0735467374324799,0.0268451161682606,-0.0361793749034405,0.5,-0.0294160768389702,-0.043516181409359
693,-0.0880750268697739,0.0231058020144701,-0.0489991791546345,0.5,-0.0274638291448355,-0.0704399421811104
694,-0.0965890362858772,-0.0111662996932864,-0.0651252642273903,0.5,-0.0341029092669487,-0.0957560688257217
695,-0.0810271427035332,-0.0485852584242821,-0.067026674747467,0.5,-0.0321323871612549,-0.0932288765907288
696,-0.0461765378713608,-0.0667665898799896,-0.0573974698781967,0.5,-0.019141998142004,-0.0644984841346741
697,-0.0178500674664974,-0.0753307789564133,-0.051940131932497,0.5,-0.0149961272254586,-0.0318522229790688
698,-0.0153577411547303,-0.0878335312008858,-0.0555773414671421,0.5,-0.0295766200870276,-0.0108464127406478
699,-0.038043349981308,-0.108669430017471,-0.065846212208271,0.5,-0.0568134225904942,-0.0123940631747246
700,-0.0688627511262894,-0.136210560798645,-0.0816635116934776,0.5,-0.0849042534828186,-0.037982277572155
701,-0.0910688489675522,-0.158566534519196,-0.0955405980348587,0.5,-0.0980444550514221,-0.0752428621053696
702,-0.0975489318370819,-0.158173874020576,-0.0921227931976318,0.5,-0.084318071603775,-0.105977907776833
703,-0.0834992229938507,-0.127109885215759,-0.0664806440472603,0.5,-0.0441207028925419,-0.110511757433414
704,-0.055498119443655,-0.0857426002621651,-0.0441200360655785,0.5,-0.00429462781175971,-0.0916484445333481
705,-0.034945622086525,-0.0605118200182915,-0.048654031008482,0.5,0.000532136356923729,-0.0774286165833473
706,-0.0321686491370201,-0.0427166037261486,-0.0656780004501343,0.5,-0.0240074619650841,-0.0784310027956963
707,-0.0414524078369141,-0.0129800122231245,-0.0753839612007141,0.5,-0.0468805804848671,-0.0783848986029625
708,-0.052144106477499,0.0206979904323816,-0.0778874084353447,0.5,-0.0562102124094963,-0.0623275525867939
709,-0.060405008494854,0.0424972698092461,-0.0802762284874916,0.5,-0.0622071884572506,-0.0425475984811783
710,-0.0767306014895439,0.0439154580235481,-0.0877509489655495,0.5,-0.075753465294838,-0.0401011481881142
711,-0.097315788269043,0.0202665962278843,-0.0943830832839012,0.5,-0.0896864980459213,-0.034349799156189
712,-0.100944727659225,-0.0183489453047514,-0.0897209942340851,0.5,-0.0875412598252296,-0.00582872843369842
713,-0.0864841490983963,-0.0574901662766933,-0.077024407684803,0.5,-0.0625780522823334,0.00943358056247234
714,-0.0690416172146797,-0.0916886925697327,-0.0649537220597267,0.5,-0.0190969295799732,-0.0134596023708582
715,-0.0570438615977764,-0.114509783685207,-0.056966345757246,0.5,0.0285386480391026,-0.047141071408987
716,-0.0499713495373726,-0.119163289666176,-0.0558848679065704,0.5,0.0589864179491997,-0.0660252198576927
717,-0.0415154844522476,-0.112851060926914,-0.0637899935245514,0.5,0.0516885071992874,-0.0780744031071663
718,-0.0323338285088539,-0.11151897162199,-0.0723186433315277,0.5,0.00584975257515907,-0.0950029790401459
719,-0.0307771805673838,-0.113238982856274,-0.0663808509707451,0.5,-0.0470959059894085,-0.105424739420414
720,-0.0345906987786293,-0.0998809859156609,-0.0452014617621899,0.5,-0.0729285106062889,-0.0918942615389824
721,-0.0357446521520615,-0.0651218518614769,-0.0256356373429298,0.5,-0.0668647065758705,-0.0561946369707584
722,-0.0383805185556412,-0.0167659819126129,-0.0257714111357927,0.5,-0.0514510124921799,-0.0172720234841108
723,-0.0558524951338768,0.0271198097616434,-0.0481961257755756,0.5,-0.0515802204608917,-0.00240281294099987
724,-0.0876004472374916,0.0431063547730446,-0.0772169530391693,0.5,-0.0696508288383484,-0.0249824821949005
725,-0.11301227658987,0.0268225204199553,-0.0950593501329422,0.5,-0.0864673405885696,-0.058235552161932
726,-0.116801388561726,-0.00875973328948021,-0.102617278695107,0.5,-0.0918007865548134,-0.069001205265522
727,-0.103749625384808,-0.044082373380661,-0.115161523222923,0.5,-0.0961877107620239,-0.0544801577925682
728,-0.0868245735764503,-0.0627200528979301,-0.131730705499649,0.5,-0.10142133384943,-0.03276726603508
729,-0.0724328309297562,-0.0795786529779434,-0.141115546226501,0.5,-0.0988689884543419,-0.0347731336951256
730,-0.0637201592326164,-0.115722008049488,-0.141592025756836,0.5,-0.0875580310821533,-0.0744460895657539
731,-0.0608339756727219,-0.154102802276611,-0.123316220939159,0.5,-0.063335582613945,-0.121316328644753
732,-0.0565820299088955,-0.169410452246666,-0.0772638916969299,0.5,-0.0245982985943556,-0.137468919157982
733,-0.0456653423607349,-0.158172622323036,-0.0161107815802097,0.5,0.0160600338131189,-0.114120773971081
734,-0.0283391308039427,-0.126006633043289,0.0421788729727268,0.5,0.0521099269390106,-0.0679699555039406
735,-0.00884873606264591,-0.0865422561764717,0.0800138413906097,0.5,0.0862743034958839,-0.0315358974039555
736,0.00313420174643397,-0.0560649856925011,0.0776162073016167,0.5,0.105033233761787,-0.0273710787296295
737,0.000456705660326406,-0.0389842726290226,0.0353409238159657,0.5,0.0883257538080215,-0.0461003109812737
738,-0.0103012444451451,-0.0273410156369209,-0.0189073719084263,0.5,0.0462227687239647,-0.0615398809313774
739,-0.020544221624732,-0.00624374533072114,-0.0600406527519226,0.5,0.00774424290284514,-0.0558480136096478
740,-0.0352367758750916,0.0194581616669893,-0.0909840166568756,0.5,-0.0249722208827734,-0.033971581608057
741,-0.0651867389678955,0.0263351239264011,-0.129879996180534,0.5,-0.0762746930122375,-0.0243963673710823
742,-0.105703718960285,0.0117531083524227,-0.17415876686573,0.5,-0.141467571258545,-0.0473365858197212
743,-0.133257806301117,-0.0126386899501085,-0.194830253720284,0.5,-0.175988033413887,-0.0769389122724533
744,-0.134086206555367,-0.0316385924816132,-0.173575609922409,0.5,-0.158121213316917,-0.0770480781793594
745,-0.115411557257175,-0.0333241298794746,-0.119756445288658,0.5,-0.111483544111252,-0.0550054498016834
746,-0.0907308012247086,-0.034815352410078,-0.0555333867669106,0.5,-0.0668639615178108,-0.0370359867811203
747,-0.0677886381745338,-0.0539716593921185,-0.000866320158820599,-0.5,-0.0362628996372223,-0.0324943624436855
748,-0.0461319796741009,-0.0761829391121864,0.0312307216227055,-0.5,-0.0168392397463322,-0.0348224751651287
749,-0.0248189829289913,-0.0848080664873123,0.0326203666627407,-0.5,-0.00457523390650749,-0.033770639449358
750,-0.00134847813751549,-0.0888447612524033,0.00778332725167274,-0.5,0.00377307506278157,-0.0297134704887867
751,0.0214210469275713,-0.101883828639984,-0.0277087837457657,-0.5,0.00854740478098392,-0.0325399450957775
752,0.0294095687568188,-0.114254415035248,-0.0603976100683212,-0.5,0.00626372173428535,-0.0419052541255951
753,0.0130154602229595,-0.107299976050854,-0.0861119329929352,-0.5,-0.00750926649197936,-0.0556210950016975
754,-0.0247292313724756,-0.0831692665815353,-0.106801688671112,-0.5,-0.0349171496927738,-0.0827606618404388
755,-0.0622818320989609,-0.0525771155953407,-0.115798190236092,-0.5,-0.0605996698141098,-0.113582603633404
756,-0.076520748436451,-0.0186891220510006,-0.108113631606102,-0.5,-0.0683431029319763,-0.12811142206192
757,-0.0711542144417763,0.00798729062080383,-0.0949187651276588,-0.5,-0.0659819543361664,-0.122581392526627
758,-0.0592979080975056,0.0118200797587633,-0.0819075703620911,-0.5,-0.0615433044731617,-0.0905974805355072
759,-0.0467871837317944,-0.00192304421216249,-0.0612981170415878,-0.5,-0.0483935847878456,-0.0282427556812763
760,-0.0416723340749741,-0.00829133205115795,-0.0333685390651226,-0.5,-0.0294434186071157,0.0332571603357792
761,-0.047512449324131,-0.00321173504926264,-0.0115713933482766,-0.5,-0.023174287751317,0.0452896617352962
762,-0.0543396137654781,-0.0102522931993008,-0.00474051991477609,-0.5,-0.0310554504394531,0.00169389497023076
763,-0.0537166409194469,-0.0387417189776897,-0.00802841410040855,-0.5,-0.0353033393621445,-0.0565714240074158
764,-0.0451053343713284,-0.0697070211172104,-0.0115647185593843,-0.5,-0.0289311651140451,-0.0902201980352402
765,-0.0278985984623432,-0.0866711214184761,-0.011802826076746,-0.5,-0.0183543991297483,-0.0897809192538261
766,-0.00644822884351015,-0.0888062566518784,-0.00848266948014498,-0.5,-0.00704201171174645,-0.066222570836544
767,0.00887447316199541,-0.0709467083215714,0.00187410216312855,-0.5,0.00742296222597361,-0.0295319147408009
768,0.00994516350328922,-0.0338076092302799,0.0176007598638535,-0.5,0.0231928285211325,0.0107847945764661
769,-2.1409114197013E-05,0.00336029217578471,0.0314510241150856,-0.5,0.0386480055749416,0.0396445840597153
770,-0.00898125767707825,0.0306251272559166,0.0379083789885044,-0.5,0.0566531717777252,0.0489552468061447
771,-0.010716687887907,0.0472796447575092,0.0295373853296041,-0.5,0.0708001628518105,0.038915827870369
772,-0.00908836349844933,0.0457526445388794,-0.00243958528153598,-0.5,0.0651222616434097,0.00844072829931974
773,-0.0152522791177034,0.026374151930213,-0.0568344406783581,-0.5,0.0285351425409317,-0.0378353074193001
774,-0.0350918471813202,-0.00231692148372531,-0.115120157599449,0.5,-0.0328675545752048,-0.080998569726944
775,-0.0563844852149487,-0.0362480543553829,-0.151099905371666,0.346643477678299,-0.0864506214857101,-0.0963505282998085
776,-0.0616120994091034,-0.0726180225610733,-0.149969309568405,-0.5,-0.0945446267724037,-0.0870719775557518
777,-0.0510535687208176,-0.110653951764107,-0.12337539345026,-0.5,-0.064440131187439,-0.0948581025004387
778,-0.0449867993593216,-0.14791613817215,-0.103541538119316,-0.5,-0.0442217290401459,-0.14175009727478
779,-0.0546537153422832,-0.167054310441017,-0.101513765752316,-0.5,-0.0537580475211143,-0.187674909830093
780,-0.0649188384413719,-0.150256216526031,-0.0918183177709579,-0.5,-0.0666117444634438,-0.180567741394043
781,-0.0564197115600109,-0.104192487895489,-0.0541080459952354,-0.5,-0.0582014583051205,-0.121338121592999
782,-0.0323493033647537,-0.0563069693744183,-0.000851563643664122,-0.5,-0.0322196483612061,-0.0502878092229366
783,-0.0110609363764524,-0.0290932301431894,0.0416285507380962,-0.5,-0.00883767753839493,0.00128152244724333
784,0.000203855670406483,-0.022580411285162,0.0613278895616531,-0.5,-0.000349122419720516,0.026067029684782
785,0.0020419608335942,-0.0207804068922997,0.0598242655396461,-0.5,-0.00110963557381183,0.0330902859568596
786,-0.00566278770565987,-0.00633624102920294,0.041546892374754,-0.5,0.00150469446089119,0.0364290103316307
787,-0.0195543263107538,0.0163337755948305,0.0136310337111354,-0.5,0.0102171609178185,0.0415720455348492
788,-0.0330992117524147,0.0254854559898376,-0.0140928784385324,-0.5,0.0142839774489403,0.0470974892377853
789,-0.0369170680642128,0.0243758577853441,-0.0321003869175911,-0.5,0.00878988578915596,0.0507054403424263
790,-0.0277155116200447,0.0296884942799807,-0.0426256656646729,-0.5,0.00288277654908597,0.0415175035595894
791,-0.0168294403702021,0.0276051480323076,-0.0631092339754105,-0.5,-0.00377736077643931,0.00375844654627144
792,-0.0164033677428961,-0.00431501818820834,-0.0997346267104149,-0.5,-0.0261071063578129,-0.059453871101141
793,-0.0247220452874899,-0.0562876872718334,-0.131681904196739,-0.5,-0.0653989315032959,-0.113129280507565
794,-0.038939718157053,-0.0986046642065048,-0.139892786741257,-0.5,-0.104721985757351,-0.124059863388538
795,-0.0592746920883656,-0.110246315598488,-0.130244061350822,-0.5,-0.129875645041466,-0.107158876955509
796,-0.0739191919565201,-0.093421459197998,-0.114363260567188,-0.5,-0.133001983165741,-0.0970908254384995
797,-0.0700301378965378,-0.0691662132740021,-0.0913946181535721,-0.5,-0.107295043766499,-0.0928559303283691
798,-0.0519411563873291,-0.0516209341585636,-0.0596805587410927,-0.5,-0.0580767095088959,-0.0761620551347733
799,-0.0332353003323078,-0.0419903323054314,-0.0291067715734243,-0.5,-0.00942940730601549,-0.0495685823261738
800,-0.025391498580575,-0.0400453917682171,-0.0136491544544697,-0.5,0.0158816277980804,-0.0349899008870125
801,-0.029946593567729,-0.0443851910531521,-0.0147286774590611,-0.5,0.0195729229599237,-0.0456881448626518
802,-0.0395573750138283,-0.0484002567827702,-0.0211247764527798,-0.5,0.0150170596316457,-0.0670800730586052
803,-0.0502302870154381,-0.0438079200685024,-0.0205713585019112,-0.5,0.00743262469768524,-0.075959600508213
804,-0.058868870139122,-0.0279579572379589,-0.0101825166493654,-0.5,0.00344775267876685,-0.061950646340847
805,-0.0621358565986156,-0.0125573268160224,-0.00503320340067148,-0.5,0.00621659867465496,-0.0344521291553974
806,-0.0596057400107384,-0.0208802353590727,-0.0204758103936911,-0.5,-0.00113070930819958,-0.0185814667493105
807,-0.0489209182560444,-0.0512318350374699,-0.0498018823564053,-0.5,-0.0295893456786871,-0.0266455803066492
808,-0.0332703217864037,-0.0692332684993744,-0.0717750266194344,-0.5,-0.0585838966071606,-0.0458130799233913
809,-0.0227999221533537,-0.0572963021695614,-0.074463278055191,-0.5,-0.0673716589808464,-0.060966320335865
810,-0.0181730277836323,-0.0360454693436623,-0.0653034746646881,-0.5,-0.0590921193361282,-0.066315233707428
811,-0.0142771014943719,-0.0300069376826286,-0.055529598146677,-0.5,-0.0459643267095089,-0.0663493722677231
812,-0.0169683992862701,-0.0395850799977779,-0.0468975193798542,-0.5,-0.038610402494669,-0.0696555823087692
813,-0.0292811654508114,-0.0485145598649979,-0.0340778417885304,-0.5,-0.0383308753371239,-0.0671942681074142
814,-0.0389870777726173,-0.0406359434127808,-0.0157030671834946,-0.5,-0.0386053435504436,-0.0479557253420353
815,-0.0381696559488773,-0.0178289469331503,-0.000611737137660384,-0.5,-0.038203276693821,-0.0255969762802124
816,-0.0316087454557419,-0.00229822401888669,0.00493934703990817,-0.5,-0.0387997776269913,-0.0175966788083315
817,-0.026143167167902,-0.0133482255041599,0.00159300374798477,-0.5,-0.0407741144299507,-0.0302836000919342
818,-0.0275803040713072,-0.0463655516505241,-0.0146633936092258,-0.5,-0.0472603291273117,-0.0592577755451202
819,-0.0389116629958153,-0.0733122825622559,-0.0430875457823277,-0.5,-0.0543537139892578,-0.0838930308818817
820,-0.0559196285903454,-0.0743885263800621,-0.0706536322832108,-0.5,-0.0518292523920536,-0.0915071964263916
821,-0.0697701051831245,-0.0619934350252151,-0.0881203562021255,-0.5,-0.0448850095272064,-0.0917875394225121
822,-0.0714502483606339,-0.0569014698266983,-0.0950157940387726,-0.5,-0.0499090105295181,-0.0924344509840012
823,-0.0608960427343845,-0.0583607852458954,-0.0928400829434395,-0.5,-0.0690448358654976,-0.0891362801194191
824,-0.050145298242569,-0.0490960851311684,-0.0806881338357925,-0.5,-0.0855876877903938,-0.0724177733063698
825,-0.0466499365866184,-0.0231195669621229,-0.0573919266462326,-0.5,-0.0812223628163338,-0.0409837104380131
826,-0.0411609187722206,0.00451329024508595,-0.0212851818650961,-0.5,-0.047010637819767,-0.0106324059888721
827,-0.0208268705755472,0.0215269029140472,0.0279013402760029,-0.5,0.00835404917597771,0.00575166242197156
828,0.0069281798787415,0.0313664749264717,0.0716385021805763,-0.5,0.0528581701219082,0.0181877873837948
829,0.0224522538483143,0.0362165048718452,0.0766369700431824,-0.5,0.0553932450711727,0.032774593681097
830,0.0198003873229027,0.0285686887800694,0.0291432030498981,-0.5,0.0121255833655596,0.0259987432509661
831,-0.0014079698594287,0.00457360222935677,-0.0432917550206184,-0.5,-0.0525675266981125,-0.0150342658162117
832,-0.0410187877714634,-0.0285507123917341,-0.0947686657309532,-0.5,-0.10369161516428,-0.0644581466913223
833,-0.0786619186401367,-0.0556295365095139,-0.0998639985918999,-0.5,-0.115844897925854,-0.0894606336951256
834,-0.0912166610360146,-0.0654267072677612,-0.0650729611515999,-0.5,-0.0864548832178116,-0.0802508741617203
835,-0.0874918103218079,-0.0596868433058262,-0.0260855760425329,-0.5,-0.0453618094325066,-0.0567413717508316
836,-0.089780867099762,-0.0426332503557205,-0.0199940297752619,-0.5,-0.0289490148425102,-0.046105869114399
837,-0.0950075089931488,-0.0222215540707111,-0.0446366220712662,-0.5,-0.037668589502573,-0.0445949472486973
838,-0.0837003216147423,-0.00719488924369216,-0.0718970149755478,-0.5,-0.0457227528095245,-0.0367353036999702
839,-0.0603997260332108,0.00195257924497128,-0.0897800698876381,-0.5,-0.047573059797287,-0.0364731661975384
840,-0.0510018244385719,-0.00480625219643116,-0.106836050748825,-0.5,-0.0622724182903767,-0.063022643327713
841,-0.056443065404892,-0.0368344560265541,-0.126590475440025,-0.5,-0.0913428738713264,-0.110705770552158
842,-0.0500684455037117,-0.0812852010130882,-0.130927070975304,-0.5,-0.110222287476063,-0.15579828619957
843,-0.0241963509470224,-0.117440581321716,-0.0972751900553703,-0.5,-0.100563772022724,-0.171693414449692
844,0.00180591398384422,-0.126370310783386,-0.0271577574312687,-0.5,-0.063223198056221,-0.143047705292702
845,0.0146068017929792,-0.0989811196923256,0.0540308766067028,-0.5,-0.0103318905457854,-0.071844682097435
846,0.0164221841841936,-0.0464423261582851,0.114064186811447,-0.5,0.0342834964394569,0.0140468953177333
847,0.0106543228030205,0.00642935186624527,0.127260029315948,-0.5,0.0462586209177971,0.0669459849596024
848,-0.00451539503410459,0.0399808399379253,0.089963436126709,-0.5,0.0251305177807808,0.0624827444553375
849,-0.0286359507590532,0.0504779480397701,0.0257547739893198,-0.5,-0.0099653135985136,0.017074728384614
850,-0.0558393523097038,0.0371187813580036,-0.0365140065550804,-0.5,-0.0470911450684071,-0.0404027029871941
851,-0.0770947262644768,0.00274923234246671,-0.0805030539631844,-0.5,-0.0810062810778618,-0.0855433940887451
852,-0.0824763849377632,-0.0332187190651894,-0.0954068377614021,-0.5,-0.0966162979602814,-0.0996567606925964
853,-0.0725915282964706,-0.0491098053753376,-0.0794263929128647,-0.5,-0.0837142467498779,-0.0818016827106476
854,-0.0580100007355213,-0.0447707809507847,-0.0520409382879734,-0.5,-0.0550504215061665,-0.0557067357003689
855,-0.0478145480155945,-0.0389757864177227,-0.0402740091085434,-0.5,-0.0347108542919159,-0.0389287285506725
856,-0.0485367812216282,-0.0463037714362144,-0.0557324774563313,-0.5,-0.0373143777251244,-0.0313444137573242
857,-0.0606292448937893,-0.0655872523784637,-0.0888230800628662,-0.5,-0.0587580054998398,-0.0469468384981155
858,-0.0762952044606209,-0.0851211622357368,-0.120458491146564,-0.5,-0.0862745642662048,-0.0956423357129097
859,-0.0886965543031693,-0.0981089100241661,-0.138420343399048,-0.5,-0.112769529223442,-0.152508467435837
860,-0.0946150794625282,-0.10211556404829,-0.134460300207138,-0.5,-0.129976287484169,-0.18390978872776
861,-0.0889348462224007,-0.0909051597118378,-0.105944380164146,-0.5,-0.127702116966248,-0.17843309044838
862,-0.0736921355128288,-0.0648845732212067,-0.0708407238125801,-0.5,-0.112465091049671,-0.148029416799545
863,-0.0643323808908463,-0.0362814404070377,-0.0521068871021271,-0.5,-0.0992432609200478,-0.110579714179039
864,-0.0688901543617249,-0.0211509428918362,-0.051110602915287,-0.5,-0.0902094021439552,-0.0790918916463852
865,-0.0789142623543739,-0.0246774796396494,-0.0521659664809704,-0.5,-0.0803208276629448,-0.0571687631309032
866,-0.0817863121628761,-0.0340211614966393,-0.0440594889223576,-0.5,-0.0699330046772957,-0.0383251272141933
867,-0.0705625712871552,-0.0320128574967384,-0.0307199824601412,-0.5,-0.0630743280053139,-0.0206960588693619
868,-0.0508896522223949,-0.0152465291321278,-0.0235757175832987,-0.5,-0.0613148733973503,-0.0121875451877713
869,-0.0342345871031284,0.00122060813009739,-0.0237111076712608,-0.5,-0.0604601167142391,-0.0157718546688557
870,-0.0229712463915348,-0.00127915048506111,-0.0203486252576113,-0.5,-0.0521757118403912,-0.0289686117321253
871,-0.0118936570361257,-0.0236984677612782,-0.0102716367691755,-0.5,-0.0331726260483265,-0.047583345323801
872,0.00166811677627265,-0.0454141348600388,-0.00205717911012471,-0.5,-0.00772861065343022,-0.06150196865201
873,0.0101284338161349,-0.0485486648976803,-0.00394793972373009,-0.5,0.0111537510529161,-0.0619647242128849
874,-0.00607062177732587,-0.0375283434987068,-0.0234111193567514,-0.5,0.00327044446021318,-0.0580079220235348
875,-0.048334002494812,-0.0231970250606537,-0.0602763928472996,-0.5,-0.0283217169344425,-0.0699673965573311
876,-0.088658407330513,-0.0181505214422941,-0.0968921184539795,-0.5,-0.0585526078939438,-0.104323096573353
877,-0.107205905020237,-0.0344482287764549,-0.118442669510841,-0.5,-0.0840590447187424,-0.148890897631645
878,-0.103543639183044,-0.0611451715230942,-0.125428944826126,-0.5,-0.114287301898003,-0.176770716905594
879,-0.0887359008193016,-0.0754662528634071,-0.118690580129623,-0.5,-0.142220258712769,-0.166614919900894
880,-0.0783302634954453,-0.0723027139902115,-0.0952126532793045,-0.5,-0.15420201420784,-0.126012846827507
881,-0.0715749636292458,-0.0642595738172531,-0.0591844990849495,-0.5,-0.143378108739853,-0.0739082470536232
882,-0.0578636899590492,-0.0604817010462284,-0.0264895725995302,-0.5,-0.113658227026463,-0.0256263557821512
883,-0.0402938462793827,-0.0568753592669964,-0.0125866280868649,-0.5,-0.0786201432347298,0.00197362387552857
884,-0.0297326110303402,-0.0496094636619091,-0.0207934621721506,-0.5,-0.0504857525229454,0.000934637791942805
885,-0.0292135532945395,-0.0439824052155018,-0.0442679040133953,-0.5,-0.0349548421800137,-0.0182405803352594
886,-0.0281503051519394,-0.0397289209067822,-0.0712301209568977,-0.5,-0.0317380130290985,-0.0476718917489052
887,-0.0178327597677708,-0.0316817872226238,-0.0918076038360596,-0.5,-0.0349036678671837,-0.0979865938425064
888,-0.00884305965155363,-0.0272599179297686,-0.104291059076786,-0.5,-0.04366809502244,-0.160324141383171
889,-0.0141281886026263,-0.031966008245945,-0.107751235365868,-0.5,-0.0633947923779488,-0.191833019256592
890,-0.0329011790454388,-0.0358351804316044,-0.0947855859994888,-0.5,-0.0884587913751602,-0.166865989565849
891,-0.0538173243403435,-0.0263284724205732,-0.0649754554033279,-0.5,-0.103024519979954,-0.10072598606348
892,-0.0637706741690636,-0.000172144777025096,-0.0292190182954073,-0.5,-0.0978435054421425,-0.0240314081311226
893,-0.0607784278690815,0.0280466638505459,0.00262962630949914,-0.5,-0.0771864056587219,0.0344503074884415
894,-0.0545541830360889,0.0376308411359787,0.0159176867455244,-0.5,-0.0579078420996666,0.0502914004027843
895,-0.0522576682269573,0.0256131682544947,-0.00358855235390365,-0.5,-0.0549425184726715,0.0220699738711119
896,-0.0516835562884808,0.00498733157292008,-0.0415869131684303,-0.5,-0.0628525093197823,-0.0238693580031395
897,-0.0493803396821022,-0.0118197901174426,-0.0672625079751015,-0.5,-0.0665819570422173,-0.0607904903590679
898,-0.0493228882551193,-0.0267725139856339,-0.0759773328900337,-0.5,-0.0682963654398918,-0.0773571878671646
899,-0.0571631602942944,-0.0528323873877525,-0.0855714976787567,-0.5,-0.0818026214838028,-0.0815482288599014
900,-0.0682782009243965,-0.0853465721011162,-0.094335101544857,-0.5,-0.099634625017643,-0.087048128247261
901,-0.0694151669740677,-0.0972641184926033,-0.0808692052960396,-0.5,-0.0942904874682426,-0.0834773108363152
902,-0.0557036511600018,-0.0748281553387642,-0.046518687158823,-0.5,-0.0620047114789486,-0.0553382188081741
903,-0.0373447500169277,-0.0350994765758514,-0.0229468140751123,-0.5,-0.0345002636313438,-0.0280597433447838
904,-0.0255140475928783,-0.00805203430354595,-0.0305616352707148,-0.5,-0.0368434190750122,-0.0413612760603428
905,-0.0268081966787577,-0.0113139981403947,-0.0611135438084602,-0.5,-0.0650080069899559,-0.0932958349585533
906,-0.0410301350057125,-0.0368205532431602,-0.0989271402359009,-0.5,-0.0981550365686417,-0.152511313557625
907,-0.0610961802303791,-0.0636885762214661,-0.132690116763115,-0.5,-0.112875036895275,-0.194250106811523
908,-0.0802464336156845,-0.0738577321171761,-0.153498157858849,-0.5,-0.101921796798706,-0.204131081700325
909,-0.0906597673892975,-0.0575084388256073,-0.15617723762989,-0.5,-0.0851470902562141,-0.179528817534447
910,-0.0902101099491119,-0.0245070420205593,-0.142799779772758,-0.5,-0.0857977941632271,-0.141360178589821
911,-0.0819920599460602,-0.00238506053574383,-0.115693181753159,-0.5,-0.0973279997706413,-0.109209716320038
912,-0.0700940564274788,-0.00755198718979955,-0.0798176601529121,-0.5,-0.0993514060974121,-0.0760916322469711
913,-0.0656694620847702,-0.0244213100522757,-0.0475475750863552,-0.5,-0.0888293907046318,-0.0375638864934444
914,-0.0680655092000961,-0.0279523767530918,-0.0234161727130413,-0.5,-0.0749300718307495,-0.00481486460193992
915,-0.0627921596169472,-0.0142128532752395,-0.00437485985457897,-0.5,-0.0647826641798019,0.0168681815266609
916,-0.0527072511613369,-0.00198331009596586,0.00465003261342645,-0.5,-0.0639953017234802,0.0267723426222801
917,-0.0531398914754391,-0.0121171521022916,-0.00581243634223938,-0.5,-0.0798738747835159,0.0143203800544143
918,-0.0641816183924675,-0.0444321855902672,-0.0333869308233261,-0.5,-0.108572222292423,-0.0259278621524572
919,-0.073887899518013,-0.0784060284495354,-0.0635162815451622,-0.5,-0.132043898105621,-0.0670906379818916
920,-0.0797991082072258,-0.091854602098465,-0.0863483622670174,-0.5,-0.140972197055817,-0.0817549377679825
921,-0.0900413617491722,-0.0752871185541153,-0.100956745445728,-0.5,-0.139317780733109,-0.0825363919138908
922,-0.104933425784111,-0.0320963300764561,-0.10948146879673,-0.5,-0.125203892588615,-0.0872087404131889
923,-0.115390822291374,0.00982250459492207,-0.119700700044632,-0.5,-0.102717906236649,-0.100412301719189
924,-0.117628060281277,0.00846329983323812,-0.136709421873093,-0.5,-0.0963496789336205,-0.127313569188118
925,-0.107397750020027,-0.0353018045425415,-0.147618040442467,-0.5,-0.111508391797543,-0.154503673315048
926,-0.0803116261959076,-0.0763042345643044,-0.13609653711319,0.0822655335068703,-0.120914414525032,-0.159664273262024
927,-0.0479794256389141,-0.0829128623008728,-0.105692222714424,0.5,-0.108631961047649,-0.143883407115936
928,-0.0237647332251072,-0.0584634803235531,-0.0728198140859604,0.5,-0.0819147899746895,-0.117999494075775
929,-0.008130744099617,-0.0297150406986475,-0.0520981289446354,0.489701509475708,-0.0507017560303211,-0.0875149816274643
930,-0.001756775774993,-0.0240767374634743,-0.0499700754880905,-0.0328815877437592,-0.0277895871549845,-0.0616737976670265
931,-0.0143467839807272,-0.0445218943059444,-0.0623566843569279,-0.491436928510666,-0.0326526314020157,-0.0542422235012054
932,-0.0471044890582561,-0.0648248121142387,-0.0802266448736191,-0.481423854827881,-0.0681472271680832,-0.0632265731692314
933,-0.0798922702670097,-0.051205687224865,-0.092150941491127,0.159959003329277,-0.10826800018549,-0.0556383430957794
934,-0.0971535369753838,-0.0100085157901049,-0.091656468808651,0.5,-0.131215468049049,-0.0190563537180424
935,-0.103740721940994,0.0191860813647509,-0.0844118446111679,0.5,-0.13911484181881,0.00546614546328783
936,-0.108986370265484,0.0228203106671572,-0.0794070661067963,0.5,-0.140097692608833,-0.0114635713398457
937,-0.116555906832218,0.0162743609398603,-0.0781428813934326,0.5,-0.13649408519268,-0.0462008751928806
938,-0.121830388903618,0.0128802340477705,-0.0731932446360588,0.5,-0.124066166579723,-0.0612090080976486
939,-0.114797815680504,0.0115469666197896,-0.0592260397970676,0.5,-0.0960783436894417,-0.0547730401158333
940,-0.0948195159435272,-0.000676687457598746,-0.0454887710511684,0.5,-0.0570956878364086,-0.0560684390366077
941,-0.0712303668260574,-0.028600187972188,-0.0452427677810192,0.5,-0.0219720602035522,-0.0796306505799294
942,-0.0474652871489525,-0.0578425228595734,-0.0560741759836674,0.5,0.000872119679115713,-0.112191647291183
943,-0.0250937640666962,-0.0760341286659241,-0.0701781511306763,0.5,0.00596815114840865,-0.136837497353554
944,-0.0147495958954096,-0.0805033892393112,-0.0872277989983559,0.5,-0.0119978310540318,-0.146140307188034
945,-0.0255248881876469,-0.0639680176973343,-0.103450141847134,0.5,-0.0442565493285656,-0.136815249919891
946,-0.055232722312212,-0.0282521769404411,-0.116300143301487,0.5,-0.0750220268964767,-0.116888873279095
947,-0.0924251228570938,-0.00112210819497705,-0.135526865720749,0.5,-0.100951373577118,-0.110298871994019
948,-0.121826939284801,-0.0103010702878237,-0.167188122868538,0.5,-0.126802489161491,-0.128977537155151
949,-0.132141172885895,-0.0508034005761147,-0.200616717338562,0.5,-0.149381816387177,-0.156542927026749
950,-0.119115084409714,-0.0864575356245041,-0.213889166712761,0.5,-0.157191663980484,-0.168003290891647
951,-0.0924776569008827,-0.0915646106004715,-0.19387586414814,0.5,-0.145062476396561,-0.157934948801994
952,-0.0721883624792099,-0.0762759372591972,-0.148790955543518,0.5,-0.121510289609432,-0.134028553962708
953,-0.0666730180382729,-0.0509100146591663,-0.0934902429580688,0.5,-0.0975120291113853,-0.0942775085568428
954,-0.0680821985006332,-0.0155807109549642,-0.0407615415751934,0.5,-0.073685310781002,-0.0433638989925385
955,-0.0619183368980885,0.0162448454648256,0.00405580177903175,0.5,-0.0414933487772942,0.00713060609996319
956,-0.0397689267992973,0.0342228077352047,0.0417695306241512,0.5,-0.000722158118151128,0.0497611835598946
957,-0.012660538777709,0.0437320247292519,0.0643428191542625,0.5,0.0331251583993435,0.0651886090636253
958,0.00210113101638854,0.0493233278393745,0.0608015954494476,0.5,0.0474736019968987,0.04055031016469
959,0.00129225163254887,0.0469328872859478,0.0279436148703098,0.5,0.0403970368206501,-0.0107730999588966
960,-0.011994119733572,0.0273380763828754,-0.0294584594666958,0.5,0.0122636090964079,-0.0713805854320526
961,-0.0367614589631557,-0.00747730676084757,-0.0926540717482567,0.5,-0.0322229899466038,-0.127806231379509
962,-0.0707008838653564,-0.037603635340929,-0.141943171620369,0.5,-0.0838143453001976,-0.164468005299568
963,-0.104872599244118,-0.0439216010272503,-0.17089056968689,0.5,-0.130609482526779,-0.168020635843277
964,-0.124068304896355,-0.0214675646275282,-0.176807299256325,0.5,-0.155647292733192,-0.138260573148727
965,-0.119137115776539,0.0102587016299367,-0.162981241941452,0.5,-0.147172451019287,-0.100216202437878
966,-0.0975323095917702,0.0150357689708471,-0.140340685844421,0.5,-0.114940568804741,-0.0827281549572945
967,-0.0760199874639511,-0.0191670879721642,-0.119646213948727,0.5,-0.0844424292445183,-0.0866245329380035
968,-0.0605452507734299,-0.0692122057080269,-0.105486363172531,0.5,-0.0694058984518051,-0.096804603934288
969,-0.0473693497478962,-0.108667246997356,-0.0916943326592445,0.5,-0.0667260438203812,-0.10656163841486
970,-0.03752651065588,-0.131370797753334,-0.0728384777903557,0.5,-0.0726671367883682,-0.112726107239723
971,-0.0340297073125839,-0.143603965640068,-0.0523850172758102,0.5,-0.0801047831773758,-0.105137072503567
972,-0.0359126217663288,-0.138763681054115,-0.035231277346611,0.5,-0.0782379880547524,-0.0760311409831047
973,-0.0440259426832199,-0.102792352437973,-0.0341593995690346,0.5,-0.0737551748752594,-0.0355763174593449
974,-0.064567394554615,-0.0421664789319038,-0.0660381466150284,0.5,-0.0868817120790482,-0.0192885398864746
975,-0.0931130349636078,0.0129044353961945,-0.122813828289509,0.5,-0.119344614446163,-0.0537149123847485
976,-0.107530921697617,0.0308819934725761,-0.173733606934547,0.5,-0.148150116205215,-0.115957833826542
977,-0.0975879654288292,0.00786684360355139,-0.196585208177567,0.5,-0.154064208269119,-0.165831863880157
978,-0.0800431147217751,-0.0314813777804375,-0.186615109443665,0.5,-0.137554422020912,-0.185103714466095
979,-0.067158043384552,-0.0583705864846706,-0.147496283054352,0.5,-0.103862516582012,-0.170672506093979
980,-0.0532575324177742,-0.0537051260471344,-0.0935465544462204,0.5,-0.0628543943166733,-0.129726156592369
981,-0.0413047596812248,-0.0196877419948578,-0.0492620803415775,0.5,-0.0385654270648956,-0.0837897211313248
982,-0.0469764992594719,0.0123278433457017,-0.0350495986640453,0.5,-0.0509726032614708,-0.059587124735117
983,-0.0680401101708412,0.0173664540052414,-0.0508815310895443,0.5,-0.0892699360847473,-0.061685748398304
984,-0.0819479525089264,0.00790096819400787,-0.074480727314949,0.5,-0.115808516740799,-0.0645311698317528
985,-0.0802708342671394,-0.00226264563389122,-0.0889884456992149,0.5,-0.109268888831139,-0.0560324676334858
986,-0.0704187303781509,-0.023310424759984,-0.0935559198260307,0.5,-0.0833153203129768,-0.0512219443917274
987,-0.057082362473011,-0.0588362738490105,-0.0889100134372711,0.5,-0.0604712963104248,-0.0555009804666042
988,-0.0494498386979103,-0.0924325808882713,-0.0841548889875412,0.5,-0.0581840947270393,-0.0669934749603271
989,-0.0568475537002087,-0.108655363321304,-0.0892857238650322,0.5,-0.077332966029644,-0.0890634432435036
990,-0.0726620480418205,-0.103830359876156,-0.0979595333337784,0.5,-0.0952414348721504,-0.11134135723114
991,-0.0818264558911324,-0.0817502662539482,-0.100509598851204,0.5,-0.0948408395051956,-0.114934623241425
992,-0.078641265630722,-0.0524106100201607,-0.0937709808349609,0.5,-0.083537369966507,-0.0943019241094589
993,-0.0702622756361961,-0.0296173393726349,-0.0823806822299957,0.5,-0.0754941701889038,-0.0560173653066158
994,-0.0649915784597397,-0.0207315664738417,-0.078894704580307,0.5,-0.0769066140055656,-0.0269332677125931
995,-0.0682563111186028,-0.026113273575902,-0.0888096690177917,0.5,-0.0851129293441772,-0.0419937632977962
996,-0.081619456410408,-0.0405260771512985,-0.103148184716702,0.5,-0.0924258530139923,-0.0945294946432114
997,-0.09701818972826,-0.0518038161098957,-0.111210577189922,0.5,-0.0948918238282204,-0.141129940748215
998,-0.105490975081921,-0.0499588325619698,-0.111445106565952,0.5,-0.0930463671684265,-0.151842758059502
999,-0.107001103460789,-0.0340319164097309,-0.115566574037075,0.5,-0.0947703421115875,-0.141547456383705
1000,-0.105684116482735,-0.0214634165167809,-0.133844196796417,0.5,-0.113015100359917,-0.147549599409103
1001,-0.104025535285473,-0.0354988947510719,-0.154349520802498,0.5,-0.140725120902061,-0.171992957592011
1002,-0.100415892899036,-0.0663397014141083,-0.156537130475044,0.5,-0.153263762593269,-0.182450145483017
1003,-0.0930278971791267,-0.0807585269212723,-0.137998819351196,0.5,-0.143593028187752,-0.157464697957039
1004,-0.0873716995120049,-0.074140340089798,-0.118392236530781,0.5,-0.12987294793129,-0.106543533504009
1005,-0.0888713672757149,-0.0732666626572609,-0.113545842468739,0.5,-0.12359781563282,-0.0562929064035416
1006,-0.0890367329120636,-0.0821589156985283,-0.108433522284031,0.5,-0.110377833247185,-0.0207065027207136
1007,-0.0729313120245934,-0.0758431628346443,-0.0761531963944435,0.5,-0.0760446861386299,0.00133186054881662
1008,-0.0410136803984642,-0.0510348379611969,-0.0196405276656151,0.5,-0.0318326652050018,0.012525268830359
1009,-0.0138927418738604,-0.0309161432087421,0.0236375723034143,0.5,-0.005949592217803,0.0162267442792654
1010,-0.00974477548152208,-0.0253045372664928,0.0187689624726772,0.5,-0.0187156032770872,0.00700918538495898
1011,-0.0239423234015703,-0.0236173439770937,-0.0296910889446735,0.5,-0.0588967464864254,-0.022536214441061
1012,-0.0393280796706676,-0.0275154691189528,-0.0862736850976944,0.5,-0.0902443528175354,-0.065268263220787
1013,-0.0479694828391075,-0.0495743453502655,-0.123218066990376,0.5,-0.0931722596287727,-0.110977813601494
1014,-0.0556004010140896,-0.0796322599053383,-0.138406932353973,0.5,-0.0856583639979362,-0.152283817529678
1015,-0.071420818567276,-0.0947775840759277,-0.140987038612366,0.5,-0.0900058150291443,-0.182578161358833
1016,-0.0972516313195229,-0.085588738322258,-0.137079536914825,0.5,-0.105689883232117,-0.203508347272873
1017,-0.125150710344315,-0.0635588392615318,-0.13688100874424,0.5,-0.127548053860664,-0.216595932841301
1018,-0.142854973673821,-0.0531890168786049,-0.146843194961548,0.5,-0.151851236820221,-0.210326626896858
1019,-0.137332782149315,-0.0598426163196564,-0.152578786015511,0.5,-0.165046587586403,-0.172831535339355
1020,-0.110729746520519,-0.066155344247818,-0.138358309864998,0.5,-0.159996181726456,-0.112627886235714
1021,-0.0873132199048996,-0.062247209250927,-0.109773427248001,0.5,-0.145563423633575,-0.053999301046133
1022,-0.0761723145842552,-0.0536227487027645,-0.080763503909111,0.5,-0.127103805541992,-0.0179878007620573
1023,-0.0639944896101952,-0.0510034970939159,-0.0601299069821835,0.5,-0.10425977408886,-0.0130129996687174
1024,-0.0506199523806572,-0.0596061423420906,-0.0521774254739285,0.5,-0.0794418007135391,-0.0298712607473135
1025,-0.0457016676664352,-0.0756444483995438,-0.0579660534858704,0.5,-0.055386409163475,-0.0472486019134521
1026,-0.0448560640215874,-0.0854844078421593,-0.0770214721560478,0.5,-0.0370398126542568,-0.0537043735384941
1027,-0.0337985418736935,-0.0787155628204346,-0.10841778665781,0.5,-0.0324118100106716,-0.0670664981007576
1028,-0.0180542021989822,-0.0673365741968155,-0.143802523612976,0.5,-0.0489059947431087,-0.107189550995827
1029,-0.0262803547084332,-0.0709232166409492,-0.164828360080719,0.5,-0.0881994217634201,-0.158794403076172
1030,-0.0601127631962299,-0.0897723138332367,-0.161844909191132,0.5,-0.137260153889656,-0.192037984728813
1031,-0.0843505859375,-0.0943986102938652,-0.136604681611061,0.5,-0.164742678403854,-0.188479065895081
1032,-0.0818341001868248,-0.0600125826895237,-0.0957292541861534,0.5,-0.148417040705681,-0.148422107100487
1033,-0.0678750798106194,-0.00846636854112148,-0.0572690814733505,0.5,-0.104602962732315,-0.0941070914268494
1034,-0.0600728169083595,0.0218454953283072,-0.0406745932996273,0.5,-0.0663031861186028,-0.0583735890686512
1035,-0.0667260140180588,0.0200700145214796,-0.0481188707053661,0.5,-0.0434218160808086,-0.063349686563015
1036,-0.0894616693258286,-0.00401801941916347,-0.0695511177182198,0.5,-0.0344809554517269,-0.100804202258587
1037,-0.117387160658836,-0.042170338332653,-0.0973581150174141,0.5,-0.0498857945203781,-0.143089517951012
1038,-0.127294465899467,-0.0873370990157127,-0.120522059500217,0.5,-0.0827509537339211,-0.167700126767159
1039,-0.108046233654022,-0.126303151249886,-0.125121340155602,0.5,-0.104727201163769,-0.163228005170822
1040,-0.0737549215555191,-0.146681576967239,-0.112899407744408,0.5,-0.104667074978352,-0.133865877985954
1041,-0.0444691814482212,-0.143501922488213,-0.0990634113550186,0.5,-0.0930521786212921,-0.0980843380093575
1042,-0.0310120768845081,-0.115958891808987,-0.089819423854351,0.5,-0.0826491191983223,-0.068991407752037
1043,-0.035095352679491,-0.0681851431727409,-0.0817932337522507,0.5,-0.0815995037555695,-0.0487972721457481
1044,-0.0495442599058151,-0.0148709574714303,-0.0769151672720909,0.5,-0.0920869186520576,-0.0360202081501484
1045,-0.0637932568788528,0.0221065729856491,-0.0824883133172989,0.5,-0.10838308185339,-0.0303971599787474
1046,-0.0721572935581207,0.0264874845743179,-0.103495500981808,0.5,-0.123912706971169,-0.0441853888332844
1047,-0.0760515853762627,-0.000185710086952895,-0.13228340446949,0.5,-0.136128261685371,-0.0846897289156914
1048,-0.079322561621666,-0.0396595671772957,-0.147964403033257,0.5,-0.139609649777412,-0.128008753061295
1049,-0.0791836380958557,-0.0682113468647003,-0.137709990143776,0.5,-0.126789957284927,-0.141718164086342
1050,-0.0716627165675163,-0.0722270458936691,-0.114053063094616,0.5,-0.100592337548733,-0.127500236034393
1051,-0.0636580437421799,-0.061146080493927,-0.095956988632679,0.5,-0.0767321363091469,-0.114641353487968
1052,-0.0659114643931389,-0.0492937564849854,-0.0910143777728081,0.5,-0.0712177976965904,-0.115096442401409
1053,-0.0759242027997971,-0.0432171821594238,-0.104685515165329,0.5,-0.0796903148293495,-0.117166854441166
1054,-0.0804277583956718,-0.0522705428302288,-0.132366806268692,0.5,-0.0759556069970131,-0.119487702846527
1055,-0.0750836655497551,-0.08364637196064,-0.159247353672981,0.5,-0.0589407868683338,-0.142127200961113
1056,-0.0708277896046638,-0.130878165364265,-0.177754148840904,0.5,-0.0672904327511787,-0.189073458313942
1057,-0.0801343619823456,-0.167031601071358,-0.18060365319252,0.5,-0.113948680460453,-0.226266711950302
1058,-0.0955450907349586,-0.165997222065926,-0.157584592700005,0.5,-0.158769145607948,-0.214783653616905
1059,-0.0969351753592491,-0.126925483345985,-0.10802561044693,0.5,-0.16490726172924,-0.148359686136246
1060,-0.0816402733325958,-0.065829798579216,-0.0486066266894341,0.5,-0.138713121414185,-0.0559989437460899
1061,-0.0613022781908512,-0.00263358885422349,-0.00387085392139852,0.5,-0.10533594340086,0.0227842908352613
1062,-0.0419267304241657,0.0433784201741219,0.0161121506243944,0.5,-0.0763633772730827,0.0674157068133354
1063,-0.0255838222801685,0.0594388544559479,0.0127392616122961,0.5,-0.0520545691251755,0.080618754029274
1064,-0.0178007856011391,0.0463367216289043,-0.0136909978464246,0.5,-0.0354618579149246,0.061925083398819
1065,-0.0220125447958708,0.0162995494902134,-0.0524453371763229,0.5,-0.0317866839468479,0.00821159221231937
1066,-0.0331988744437695,-0.0150570832192898,-0.0836732089519501,0.5,-0.0423433221876621,-0.0641012191772461
1067,-0.0516369752585888,-0.0440896414220333,-0.103221915662289,0.5,-0.0681338757276535,-0.130614250898361
1068,-0.0836206153035164,-0.0755575522780418,-0.122949451208115,0.5,-0.107078544795513,-0.177886426448822
1069,-0.115433715283871,-0.0979517623782158,-0.141476273536682,0.5,-0.139925241470337,-0.19823794066906
1070,-0.122880667448044,-0.0951525792479515,-0.139969557523727,0.5,-0.143199145793915,-0.183908924460411
1071,-0.104458011686802,-0.0737512931227684,-0.121967129409313,0.5,-0.125650838017464,-0.142563939094543
1072,-0.0794651806354523,-0.0522257052361965,-0.115532532334328,0.5,-0.115955822169781,-0.10377511382103
1073,-0.0679888501763344,-0.0418099537491798,-0.125450313091278,0.5,-0.119587980210781,-0.0917892009019852
1074,-0.078826479613781,-0.0485187582671642,-0.138862431049347,0.5,-0.130461171269417,-0.105484336614609
1075,-0.101847648620605,-0.0687642395496368,-0.152453169226646,0.5,-0.150857254862785,-0.127614930272102
1076,-0.11764207482338,-0.0881233587861061,-0.160152763128281,0.5,-0.172887697815895,-0.140495240688324
1077,-0.119847320020199,-0.0977924019098282,-0.155998483300209,0.5,-0.181723356246948,-0.13825948536396
1078,-0.115135423839092,-0.0966495722532272,-0.143123507499695,0.5,-0.174869522452354,-0.121629469096661
1079,-0.108499608933926,-0.0858654081821442,-0.123036794364452,0.5,-0.157148227095604,-0.0850399807095528
1080,-0.0976536571979523,-0.0674910992383957,-0.0961080491542816,0.5,-0.131935134530067,-0.0321369543671608
1081,-0.0779498741030693,-0.0468462593853474,-0.0690475702285767,0.5,-0.103718735277653,0.0133685758337379
1082,-0.0540025047957897,-0.0343675203621387,-0.0489648208022118,0.5,-0.0753228142857552,0.0275759883224964
1083,-0.0364750027656555,-0.0341232866048813,-0.0337973870337009,0.5,-0.0427721627056599,0.00596508663147688
1084,-0.030171986669302,-0.0457982867956162,-0.024232154712081,0.5,-0.0100005939602852,-0.0339687690138817
1085,-0.0346004404127598,-0.0686343461275101,-0.030302980914712,0.5,0.00990438926964998,-0.0736664831638336
1086,-0.043211679905653,-0.0888347029685974,-0.0509553216397762,0.5,0.0131700998172164,-0.107719853520393
1087,-0.0498973801732063,-0.0889085829257965,-0.074761837720871,0.5,-0.00292306439951062,-0.128966748714447
1088,-0.0577632114291191,-0.0732683837413788,-0.0950358882546425,0.5,-0.0419948510825634,-0.129774764180183
1089,-0.0685755461454391,-0.0579900629818439,-0.10516668856144,0.5,-0.0884998142719269,-0.117990091443062
1090,-0.0769963636994362,-0.0457737222313881,-0.100645549595356,0.5,-0.115737818181515,-0.104372888803482
1091,-0.0754095017910004,-0.0393489263951778,-0.0958361402153969,0.5,-0.110829539597034,-0.0985186770558357
1092,-0.0672184079885483,-0.0543716810643673,-0.117342904210091,0.5,-0.0909381061792374,-0.117396175861359
1093,-0.0689955428242683,-0.0881161838769913,-0.165987208485603,0.5,-0.0913552865386009,-0.154478326439857
1094,-0.0855377167463303,-0.111014351248741,-0.210543975234032,0.5,-0.126577511429787,-0.174439325928688
1095,-0.105998650193214,-0.10939172655344,-0.22637876868248,0.5,-0.17777381837368,-0.161064267158508
1096,-0.120119534432888,-0.0916079357266426,-0.207955032587051,0.5,-0.210732489824295,-0.123598709702492
1097,-0.124012045562267,-0.066358782351017,-0.159808605909348,0.5,-0.20644836127758,-0.0810606926679611
1098,-0.117350623011589,-0.0407116636633873,-0.0967548936605453,0.5,-0.172771766781807,-0.0474234633147717
1099,-0.0959119275212288,-0.018952677026391,-0.0359412059187889,0.5,-0.121795520186424,-0.0142075633630157
1100,-0.0581132993102074,-0.00288172368891537,0.013099517673254,0.5,-0.0608386695384979,0.0265314057469368
1101,-0.0186867788434029,0.00602310057729483,0.0455575734376907,0.5,-0.00362553098239005,0.0611165687441826
1102,0.00214078789576888,0.00736656412482262,0.0562388263642788,0.5,0.02964480035007,0.0655491799116135
1103,-0.00214547594077885,0.00157360848970711,0.0408438481390476,0.5,0.0257130432873964,0.0273670796304941
1104,-0.0215456709265709,-0.0102456547319889,0.00351516669616103,0.5,-0.00808695051819086,-0.0334313698112965
1105,-0.0380362942814827,-0.0226394757628441,-0.0353552773594856,0.5,-0.0436280556023121,-0.0740614533424377
1106,-0.0405075661838055,-0.0314016789197922,-0.0573621690273285,0.5,-0.0575869753956795,-0.0790116712450981
1107,-0.0344079174101353,-0.0392094738781452,-0.0723097622394562,0.5,-0.0564501881599426,-0.0758934766054153
1108,-0.0313427560031414,-0.0482464171946049,-0.102296017110348,0.5,-0.0633990243077278,-0.090401791036129
1109,-0.0393576174974442,-0.0592956356704235,-0.149377882480621,0.5,-0.0929057821631432,-0.116188049316406
1110,-0.0656106024980545,-0.0672329664230347,-0.196575954556465,0.5,-0.142052844166756,-0.135339856147766
1111,-0.100242167711258,-0.0608606748282909,-0.221612095832825,0.5,-0.183080181479454,-0.139087006449699
1112,-0.119348548352718,-0.0452461317181587,-0.212471604347229,0.5,-0.189258098602295,-0.126270949840546
1113,-0.113835498690605,-0.0441803485155106,-0.183637589216232,0.5,-0.172768115997314,-0.108434990048409
1114,-0.0886746868491173,-0.0654792636632919,-0.148643255233765,0.5,-0.149711430072784,-0.0957181379199028
1115,-0.0559731423854828,-0.0826445892453194,-0.0978787243366241,0.5,-0.107646189630032,-0.0776601433753967
1116,-0.0307068414986134,-0.0638661459088326,-0.030285432934761,0.5,-0.0458012036979198,-0.0412858761847019
1117,-0.0217236820608377,-0.00867175031453371,0.0321527309715748,0.5,0.00584472436457872,0.0124722560867667
1118,-0.0283692292869091,0.046957828104496,0.0676295831799507,0.5,0.0236090216785669,0.0641930773854256
1119,-0.0423745810985565,0.0665562972426414,0.0684434100985527,0.5,0.011158443056047,0.0775884687900543
1120,-0.0577546395361423,0.0427488125860691,0.0349780656397343,0.5,-0.0173447113484144,0.0313562080264091
1121,-0.0711433812975883,-0.00623562792316079,-0.0192076731473207,0.5,-0.0482327081263065,-0.0497978702187538
1122,-0.0734124705195427,-0.0434498749673367,-0.0653209388256073,0.5,-0.0669396296143532,-0.116093158721924
1123,-0.0585558116436005,-0.0455713123083115,-0.0849407538771629,0.5,-0.0679989457130432,-0.139139592647552
1124,-0.0363154672086239,-0.0303750336170197,-0.0834051072597504,0.5,-0.0607057586312294,-0.122817270457745
1125,-0.0229729097336531,-0.0261740442365408,-0.0742519423365593,0.5,-0.0568986088037491,-0.0854042693972588
1126,-0.0234712287783623,-0.0366576611995697,-0.0627885162830353,0.5,-0.0559758730232716,-0.0461045764386654
1127,-0.0302346758544445,-0.0459196195006371,-0.0534757301211357,0.5,-0.0508511140942574,-0.0139615433290601
1128,-0.032798171043396,-0.0417784601449966,-0.0561021603643894,0.5,-0.0406931340694427,0.00655457051470876
1129,-0.024276265874505,-0.0314558111131191,-0.0720353052020073,0.5,-0.0242254715412855,0.00185452739242464
1130,-0.0114654367789626,-0.0361180976033211,-0.0916237011551857,0.5,-0.00167101563420147,-0.0332787893712521
1131,-0.0122919399291277,-0.0565900728106499,-0.102692976593971,0.5,0.0136862238869071,-0.0771300345659256
1132,-0.0326605029404163,-0.0684074908494949,-0.102596901357174,0.5,0.00249033141881227,-0.0999583378434181
1133,-0.0595433935523033,-0.0662505477666855,-0.100993417203426,0.302132695913315,-0.036410603672266,-0.0988379865884781
1134,-0.0763469636440277,-0.0628143399953842,-0.103658139705658,-0.5,-0.0767951831221581,-0.0896844640374184
1135,-0.0792656168341637,-0.058395866304636,-0.105010412633419,-0.5,-0.0952220559120178,-0.0771864354610443
1136,-0.0763860940933228,-0.0484813190996647,-0.0934609398245811,-0.5,-0.0904297530651093,-0.0653667524456978
1137,-0.0722404941916466,-0.0355917289853096,-0.0638128891587257,-0.5,-0.0696046352386475,-0.0641608685255051
1138,-0.0649138912558556,-0.0255267508327961,-0.0281910393387079,-0.5,-0.0425973758101463,-0.0700264573097229
1139,-0.0542195066809654,-0.0208075493574142,-0.00586471799761057,-0.5,-0.0221648775041103,-0.0692268460988998
1140,-0.0446498282253742,-0.0178330130875111,-0.00438713096082211,-0.5,-0.0146812107414007,-0.0549943633377552
1141,-0.0388936586678028,-0.0114973001182079,-0.0149517823010683,-0.5,-0.0149381291121244,-0.0301489438861609
1142,-0.0353914014995098,-0.00488358223810792,-0.026101291179657,-0.5,-0.0153490472584963,-0.00658790767192841
1143,-0.0356255657970905,-0.00887707434594631,-0.0373341925442219,-0.5,-0.0162725783884525,-0.00118185125757009
1144,-0.0424316339194775,-0.0258804839104414,-0.0534235648810863,-0.5,-0.023465609177947,-0.0211433302611113
1145,-0.0537497140467167,-0.0405709184706211,-0.0740843862295151,-0.5,-0.0402899868786335,-0.0537103526294231
