,AF3,AF4,Fp1,Fp2,AF7,AF8
0,0.0260801874101162,0.239287242293358,0.269874811172485,0.339055895805359,0.209161818027496,0.439028352499008
1,0.0201411545276642,0.236923322081566,0.261430233716965,0.332589566707611,0.202548786997795,0.443868070840836
2,0.0149468956515193,0.237632632255554,0.256762683391571,0.331418544054031,0.194590523838997,0.46626004576683
3,0.0129838036373258,0.240856841206551,0.253164917230606,0.33018571138382,0.184981197118759,0.486691296100616
4,0.01406354829669,0.240600049495697,0.251874566078186,0.326092451810837,0.179169073700905,0.486666202545166
5,0.0152238458395004,0.233967676758766,0.255088686943054,0.320381909608841,0.183196514844894,0.466795057058334
6,0.0148229794576764,0.220826134085655,0.259287178516388,0.314669489860535,0.195397764444351,0.436330527067184
7,0.0126887690275908,0.205042406916618,0.260053902864456,0.311023622751236,0.207661271095276,0.407052427530289
8,0.00735116470605135,0.194535329937935,0.256527721881866,0.309897869825363,0.211811810731888,0.389794379472733
9,-0.00227268761955202,0.194448903203011,0.250580072402954,0.309664219617844,0.205776900053024,0.390056639909744
10,-0.0135352732613683,0.199077054858208,0.246408820152283,0.310527086257935,0.195544481277466,0.401776224374771
11,-0.0219097137451172,0.197553992271423,0.247120931744576,0.310916990041733,0.189048036932945,0.406470477581024
12,-0.0240305047482252,0.190244421362877,0.253191262483597,0.307055324316025,0.189599707722664,0.394268780946732
13,-0.0184081979095936,0.183524504303932,0.257975101470947,0.297107100486755,0.194712147116661,0.373909920454025
14,-0.00722094159573317,0.177012786269188,0.247616127133369,0.279861658811569,0.197793662548065,0.355264157056808
15,0.00222580274567008,0.171346232295036,0.223513901233673,0.259507983922958,0.194341406226158,0.342195749282837
16,0.00172550801653415,0.170814767479897,0.206190496683121,0.247747242450714,0.187516823410988,0.33709853887558
17,-0.00962396711111069,0.176543086767197,0.207127243280411,0.252967476844788,0.182385325431824,0.341278165578842
18,-0.0242899730801582,0.185606509447098,0.220343515276909,0.273055255413055,0.179357841610909,0.355375915765762
19,-0.0351830273866653,0.193414658308029,0.235583245754242,0.297837436199188,0.177172258496284,0.376553237438202
20,-0.0397597141563892,0.200229838490486,0.246433928608894,0.317497819662094,0.177222236990929,0.400382816791534
21,-0.0380417257547379,0.209970518946648,0.251670926809311,0.327535212039948,0.182722330093384,0.424204170703888
22,-0.0332807190716267,0.221875712275505,0.252470821142197,0.325760453939438,0.193233892321587,0.441944688558578
23,-0.0282581113278866,0.232344090938568,0.250435769557953,0.313350081443787,0.202824413776398,0.447417795658112
24,-0.0231117438524961,0.237647950649261,0.247634992003441,0.296210110187531,0.206408739089966,0.44014048576355
25,-0.0196167770773172,0.233824655413628,0.24473249912262,0.279994130134583,0.203639730811119,0.42205411195755
26,-0.0195456705987453,0.221529975533485,0.242019236087799,0.268351793289185,0.198339283466339,0.398897141218185
27,-0.0224817059934139,0.204916656017303,0.239202842116356,0.26180824637413,0.193668186664581,0.379203885793686
28,-0.0271804165095091,0.188271805644035,0.234526127576828,0.257399410009384,0.186254501342773,0.367884695529938
29,-0.0301226954907179,0.177588626742363,0.229570671916008,0.253674328327179,0.175358191132545,0.36620882153511
30,-0.0306803286075592,0.17707072198391,0.225945666432381,0.251226723194122,0.165882527828217,0.37254410982132
31,-0.0344695746898651,0.186088383197784,0.222299873828888,0.250486761331558,0.158538863062859,0.381842643022537
32,-0.04296600446105,0.200714036822319,0.220653548836708,0.251725494861603,0.152621820569038,0.387588262557983
33,-0.0527321211993694,0.216515824198723,0.221508860588074,0.252826064825058,0.147521644830704,0.384631425142288
34,-0.0611664727330208,0.229168400168419,0.221058711409569,0.252832800149918,0.141646862030029,0.377242684364319
35,-0.0655193254351616,0.234033510088921,0.22011324763298,0.254452854394913,0.138120889663696,0.376409947872162
36,-0.0652976334095001,0.231183439493179,0.220072150230408,0.254910796880722,0.141535565257072,0.38235405087471
37,-0.0624461323022842,0.224315568804741,0.218141213059425,0.249348789453506,0.149007111787796,0.387152343988419
38,-0.0613269321620464,0.214857652783394,0.212207555770874,0.239973872900009,0.151798397302628,0.385318845510483
39,-0.0682042837142944,0.204268470406532,0.202895075082779,0.230618327856064,0.1456528455019,0.375069826841354
40,-0.08374884724617,0.196317955851555,0.193507194519043,0.223396256566048,0.135408729314804,0.36124587059021
41,-0.103443264961243,0.191089630126953,0.186144843697548,0.217886477708817,0.128753304481506,0.350155681371689
42,-0.122201092541218,0.185625344514847,0.181584984064102,0.212009489536285,0.127880409359932,0.345076531171799
43,-0.134763583540916,0.182161509990692,0.182452157139778,0.208788767457008,0.128697842359543,0.348153531551361
44,-0.141782015562058,0.183751687407494,0.187147229909897,0.212672725319862,0.124734945595264,0.355211138725281
45,-0.148338153958321,0.188681021332741,0.189650774002075,0.220891445875168,0.113774314522743,0.358803778886795
46,-0.155369400978088,0.195081472396851,0.188338667154312,0.227611526846886,0.101481691002846,0.360027521848679
47,-0.163448676466942,0.201077207922935,0.185218304395676,0.230422511696815,0.0933741629123688,0.363176107406616
48,-0.174287050962448,0.20235501229763,0.182005405426025,0.22923232614994,0.0900392979383469,0.365363299846649
49,-0.185972020030022,0.195286929607391,0.180243000388145,0.224441528320313,0.0909565165638924,0.360083758831024
50,-0.196647763252258,0.180282637476921,0.179119080305099,0.216966196894646,0.0930839627981186,0.344905525445938
51,-0.207231402397156,0.162178292870522,0.175945296883583,0.208765625953674,0.0901011154055595,0.325542449951172
52,-0.218697443604469,0.147348806262016,0.169930025935173,0.202373623847961,0.0790648013353348,0.312215715646744
53,-0.231841161847115,0.13970074057579,0.161597326397896,0.198609128594399,0.0616344660520554,0.310638666152954
54,-0.246294036507607,0.140533521771431,0.153864681720734,0.197209596633911,0.0419181175529957,0.320301026105881
55,-0.261278569698334,0.148800790309906,0.150460228323936,0.197347208857536,0.0253849439322948,0.335764527320862
56,-0.277533084154129,0.161104574799538,0.148991823196411,0.196051761507988,0.0142089743167162,0.347596883773804
57,-0.293908029794693,0.17285019159317,0.144614994525909,0.191025972366333,0.00755138602107763,0.350174188613892
58,-0.305210590362549,0.177344858646393,0.136490300297737,0.182033762335777,0.00513058947399259,0.343613833189011
59,-0.306919902563095,0.170600831508636,0.126611515879631,0.169498950242996,0.00420128367841244,0.32749405503273
60,-0.305767506361008,0.156655937433243,0.11617087572813,0.155992031097412,-0.00481554958969355,0.303645342588425
61,-0.317633658647537,0.141856044530869,0.104668878018856,0.146801099181175,-0.0301726851612329,0.282316923141479
62,-0.345878422260284,0.130215242505074,0.0953980311751366,0.147281557321548,-0.0647422894835472,0.276350021362305
63,-0.378965437412262,0.124048799276352,0.0925378724932671,0.156049460172653,-0.0941919833421707,0.286601722240448
64,-0.406731873750687,0.12309717386961,0.0933394357562065,0.164367020130157,-0.113160043954849,0.300441086292267
65,-0.420610636472702,0.124356999993324,0.0938289240002632,0.166104137897491,-0.118942327797413,0.306471556425095
66,-0.420621246099472,0.12242491543293,0.093078151345253,0.160356774926186,-0.111002802848816,0.300116926431656
67,-0.423173189163208,0.112839058041573,0.089908666908741,0.14835062623024,-0.105943374335766,0.281309872865677
68,-0.439148336648941,0.0988262072205544,0.0857584103941917,0.135215863585472,-0.122489482164383,0.257982164621353
69,-0.464954495429993,0.0888508930802345,0.0845637321472168,0.12768267095089,-0.155950009822845,0.242976605892181
70,-0.493370980024338,0.0875999256968498,0.0854723006486893,0.127023980021477,-0.189156472682953,0.241448476910591
71,-0.5,0.094160184264183,0.0847703665494919,0.129358634352684,-0.211555749177933,0.248006790876389
72,-0.5,0.104081526398659,0.0815949663519859,0.130453914403915,-0.221278578042984,0.254301816225052
73,-0.5,0.110827825963497,0.0765899643301964,0.125703230500221,-0.222824975848198,0.252641141414642
74,-0.5,0.10998223721981,0.0691022351384163,0.112199023365974,-0.225046694278717,0.239446073770523
75,-0.5,0.102034881711006,0.0593178533017635,0.0959011018276215,-0.23647366464138,0.220191642642021
76,-0.5,0.0912031680345535,0.0528175495564938,0.0874955728650093,-0.256701350212097,0.203613698482513
77,-0.5,0.0849897488951683,0.0541136786341667,0.0904503017663956,-0.274078994989395,0.195056527853012
78,-0.5,0.089567743241787,0.0587389059364796,0.100427865982056,-0.278895705938339,0.196665391325951
79,-0.5,0.105513125658035,0.0615666024386883,0.111388228833675,-0.273301690816879,0.206952542066574
80,-0.5,0.131438374519348,0.0624276287853718,0.117598429322243,-0.266414403915405,0.222512096166611
81,-0.5,0.161439061164856,0.0605685748159885,0.114733226597309,-0.264719009399414,0.2371856123209
82,-0.5,0.180947676301003,0.0544515363872051,0.104684203863144,-0.267104685306549,0.242807224392891
83,-0.5,0.17778716981411,0.0446682684123516,0.0935623794794083,-0.270456045866013,0.236329481005669
84,-0.5,0.156151995062828,0.0370803251862526,0.0863959193229675,-0.273694008588791,0.225197672843933
85,-0.5,0.131178066134453,0.0388727858662605,0.086738146841526,-0.277387142181396,0.221503615379334
86,-0.5,0.110509783029556,0.0459735915064812,0.0922897309064865,-0.286252319812775,0.223619028925896
87,-0.5,0.0924215018749237,0.0513907931745052,0.097596675157547,-0.299540907144547,0.218957811594009
88,-0.5,0.0762155801057816,0.0565773732960224,0.101091533899307,-0.307911843061447,0.204805135726929
89,-0.5,0.0637909919023514,0.0619868226349354,0.102176740765572,-0.311444252729416,0.187947154045105
90,-0.5,0.0564470291137695,0.0640834122896194,0.0991753935813904,-0.317175447940826,0.17187462747097
91,-0.5,0.0532419271767139,0.062063954770565,0.0917250439524651,-0.324652582406998,0.154029190540314
92,-0.5,0.0570079497992992,0.0616300143301487,0.085620604455471,-0.329393237829208,0.137532338500023
93,-0.5,0.0731221213936806,0.064854733645916,0.0892104580998421,-0.334000289440155,0.136575892567635
94,-0.5,0.0938441157341003,0.061920341104269,0.0989217460155487,-0.347545146942139,0.157847732305527
95,-0.5,0.105019450187683,0.0471719242632389,0.10422095656395,-0.369327396154404,0.186780914664268
96,-0.5,0.107134826481342,0.0282668974250555,0.104684799909592,-0.386603593826294,0.206278115510941
97,-0.5,0.108878277242184,0.0144003042951226,0.10658422857523,-0.39076840877533,0.215348586440086
98,-0.5,0.111753910779953,0.00876201409846544,0.112094983458519,-0.386921584606171,0.217889368534088
99,-0.5,0.115162961184978,0.0105708669871092,0.116661727428436,-0.385127425193787,0.212356001138687
100,-0.5,0.122972495853901,0.0152169484645128,0.111853256821632,-0.387164145708084,0.198660224676132
101,-0.5,0.133995518088341,0.0171594377607107,0.0966766700148582,-0.388514190912247,0.182571277022362
102,-0.5,0.135418429970741,0.0174389351159334,0.0809811279177666,-0.386495590209961,0.167207315564156
103,-0.5,0.119909532368183,0.0195428356528282,0.0721890926361084,-0.381771624088287,0.152077063918114
104,-0.5,0.0979734659194946,0.0233931634575129,0.0701254829764366,-0.374062389135361,0.142964214086533
105,-0.5,0.0808203220367432,0.0271952897310257,0.0723086595535278,-0.363265156745911,0.145397454500198
106,-0.477310627698898,0.0707463249564171,0.0296931732445955,0.077737033367157,-0.353627175092697,0.155824974179268
107,-0.458893477916718,0.0692718252539635,0.0323731750249863,0.0866399258375168,-0.348083138465881,0.166129112243652
108,-0.457490384578705,0.0725729465484619,0.0356787331402302,0.0946682393550873,-0.345694035291672,0.166503220796585
109,-0.466047465801239,0.0724705755710602,0.0371794849634171,0.0965419039130211,-0.344685137271881,0.154376789927483
110,-0.473727375268936,0.0703662931919098,0.0371021255850792,0.0942894443869591,-0.341449648141861,0.141275301575661
111,-0.476392269134521,0.0723354071378708,0.0372066684067249,0.091208703815937,-0.333391040563583,0.137847989797592
112,-0.475690335035324,0.0838231965899467,0.0382174365222454,0.0858281850814819,-0.321526199579239,0.145815923810005
113,-0.475145250558853,0.110081367194653,0.0387993045151234,0.0756951719522476,-0.310753673315048,0.162115693092346
114,-0.480761021375656,0.143095299601555,0.0363916493952274,0.0643290877342224,-0.306455016136169,0.179134547710419
115,-0.492071032524109,0.164675354957581,0.0341532230377197,0.0619236677885056,-0.305151045322418,0.191435858607292
116,-0.5,0.164569288492203,0.0371780209243298,0.0744829252362251,-0.300440698862076,0.198042809963226
117,-0.5,0.14511439204216,0.0448945090174675,0.0959750711917877,-0.292859643697739,0.195707872509956
118,-0.5,0.118890918791294,0.0545409508049488,0.11439498513937,-0.285115480422974,0.181944280862808
119,-0.5,0.0984581038355827,0.0638753548264503,0.122456893324852,-0.277024328708649,0.159501507878304
120,-0.5,0.0884343162178993,0.0728494673967361,0.122566729784012,-0.265394359827042,0.134616434574127
121,-0.5,0.0876450687646866,0.084059402346611,0.121107183396816,-0.248751431703568,0.115021415054798
122,-0.5,0.0918961390852928,0.0967991799116135,0.119361281394959,-0.231839209794998,0.106012791395187
123,-0.5,0.0980487018823624,0.106943652033806,0.116005904972553,-0.221758499741554,0.108244732022285
124,-0.5,0.104709699749947,0.112589284777641,0.113245829939842,-0.221334114670753,0.120258592069149
125,-0.5,0.114471644163132,0.11396799236536,0.113248355686665,-0.227522552013397,0.140782162547112
126,-0.5,0.134828418493271,0.112843185663223,0.113312236964703,-0.23435877263546,0.166184514760971
127,-0.5,0.16282069683075,0.111634664237499,0.108647055923939,-0.237356558442116,0.183743536472321
128,-0.5,0.181900784373283,0.110789433121681,0.0985990390181541,-0.23551869392395,0.180062234401703
129,-0.5,0.183897644281387,0.111226782202721,0.0903353318572044,-0.230178847908974,0.163362041115761
130,-0.5,0.17143926024437,0.114280715584755,0.0917111858725548,-0.223508313298225,0.149830967187881
131,-0.5,0.148892119526863,0.118750214576721,0.100213341414928,-0.216916561126709,0.138432517647743
132,-0.5,0.127761781215668,0.12444132566452,0.107771880924702,-0.211196541786194,0.125113755464554
133,-0.5,0.118376016616821,0.131870836019516,0.111195407807827,-0.208160907030106,0.113596580922604
134,-0.5,0.117345601320267,0.139895021915436,0.112305924296379,-0.208245545625687,0.106748014688492
135,-0.5,0.118812136352062,0.148270517587662,0.113595440983772,-0.208804696798325,0.103883534669876
136,-0.5,0.12226140499115,0.154799252748489,0.114972196519375,-0.207462728023529,0.100240938365459
137,-0.5,0.12771163880825,0.156600400805473,0.115327753126621,-0.20362663269043,0.0921560227870941
138,-0.5,0.134629115462303,0.155578583478928,0.114540189504623,-0.199873328208923,0.0838689282536507
139,-0.5,0.143574014306068,0.15527631342411,0.112333029508591,-0.200544252991676,0.0815276503562927
140,-0.5,0.156716614961624,0.157205879688263,0.108991138637066,-0.203376993536949,0.086161196231842
141,-0.5,0.171878769993782,0.157946735620499,0.104725740849972,-0.202337294816971,0.095222681760788
142,-0.5,0.185879424214363,0.152370646595955,0.100074842572212,-0.200011983513832,0.105574294924736
143,-0.5,0.198178023099899,0.14232474565506,0.0987182781100273,-0.202658668160439,0.113297134637833
144,-0.5,0.204070374369621,0.134329929947853,0.103483431041241,-0.208803832530975,0.119141474366188
145,-0.5,0.207695573568344,0.132835656404495,0.11153294891119,-0.211916476488113,0.131311774253845
146,-0.5,0.219754919409752,0.138977587223053,0.117092087864876,-0.208325207233429,0.148339211940765
147,-0.5,0.232428193092346,0.153126731514931,0.118062265217304,-0.201159328222275,0.153676956892014
148,-0.5,0.231150507926941,0.174093186855316,0.119769982993603,-0.194362655282021,0.138598710298538
149,-0.5,0.216020286083221,0.1922906935215,0.126881256699562,-0.188720107078552,0.112859629094601
150,-0.5,0.195835322141647,0.197403267025948,0.135515749454498,-0.183759123086929,0.0894205942749977
151,-0.5,0.176900148391724,0.194358378648758,0.141042575240135,-0.174722790718079,0.077130138874054
152,-0.5,0.162458151578903,0.195893406867981,0.14605650305748,-0.158174797892571,0.0815935209393501
153,-0.5,0.158337578177452,0.205177277326584,0.155433654785156,-0.139131292700768,0.0987272933125496
154,-0.5,0.17130334675312,0.217618271708488,0.169648438692093,-0.122273214161396,0.12102947384119
155,-0.5,0.201390862464905,0.23086579144001,0.187057614326477,-0.104907721281052,0.146414995193481
156,-0.5,0.240787848830223,0.245990619063377,0.208865642547607,-0.0840844437479973,0.177591249346733
157,-0.5,0.280263721942902,0.26446920633316,0.23561617732048,-0.0623058900237083,0.216754376888275
158,-0.5,0.312363982200623,0.283177971839905,0.260042488574982,-0.0436668060719967,0.253779977560043
159,-0.5,0.333408504724503,0.296684920787811,0.272940844297409,-0.0287626814097166,0.271883994340897
160,-0.5,0.345348179340363,0.307655543088913,0.276810258626938,-0.0131362304091454,0.267631351947784
161,-0.5,0.350733041763306,0.322265625,0.281944185495377,0.00748042203485966,0.252768307924271
162,-0.5,0.352455765008926,0.339839160442352,0.29337814450264,0.0322609730064869,0.243002489209175
163,-0.5,0.355753988027573,0.355863451957703,0.309446811676025,0.0568816550076008,0.249833971261978
164,-0.5,0.365262866020203,0.367005705833435,0.323776125907898,0.0765254497528076,0.271463930606842
165,-0.5,0.381291419267654,0.373684704303741,0.331350743770599,0.0898041054606438,0.293270498514175
166,-0.5,0.396921545267105,0.378910720348358,0.334700286388397,0.0996801629662514,0.303527861833572
167,-0.5,0.405825436115265,0.385212987661362,0.339299470186234,0.111518025398254,0.30292820930481
168,-0.5,0.409308522939682,0.394658386707306,0.347389727830887,0.130523517727852,0.298676878213882
169,-0.5,0.410044878721237,0.406337112188339,0.356579214334488,0.157277539372444,0.294145673513412
170,-0.5,0.41045081615448,0.417262405157089,0.36491122841835,0.186748415231705,0.291556864976883
171,-0.5,0.416779786348343,0.426952838897705,0.372017055749893,0.213077157735825,0.298122376203537
172,-0.5,0.436712622642517,0.435206949710846,0.374578326940537,0.234144270420074,0.31652694940567
173,-0.5,0.46668940782547,0.44050344824791,0.373230785131454,0.25173619389534,0.337590217590332
174,-0.5,0.489790499210358,0.442910820245743,0.375447005033493,0.269263446331024,0.34896644949913
175,-0.5,0.497124671936035,0.443376660346985,0.382963955402374,0.287832289934158,0.348763674497604
176,-0.491487354040146,0.494734913110733,0.443453758955002,0.39081484079361,0.304986566305161,0.349719613790512
177,-0.474227756261826,0.490513145923615,0.445393085479736,0.397810876369476,0.318510293960571,0.360430061817169
178,-0.45524874329567,0.487750262022018,0.449162036180496,0.405661731958389,0.33028519153595,0.368302077054977
179,-0.432663261890411,0.483132094144821,0.455258965492249,0.415594488382339,0.347399204969406,0.360362231731415
180,-0.407887607812881,0.469557702541351,0.466760188341141,0.43054673075676,0.37458747625351,0.344022870063782
181,-0.389284402132034,0.448308140039444,0.483899652957916,0.450736165046692,0.406097531318665,0.332460403442383
182,-0.380210369825363,0.43116620182991,0.5,0.470369249582291,0.432507485151291,0.330265998840332
183,-0.375889420509338,0.426662415266037,0.5,0.483558177947998,0.448981702327728,0.335536926984787
184,-0.370584338903427,0.435046255588531,0.5,0.488555997610092,0.455112248659134,0.342200934886932
185,-0.360952824354172,0.452523052692413,0.5,0.486874729394913,0.456020385026932,0.344932734966278
186,-0.347597777843475,0.469761490821838,0.5,0.480327099561691,0.45878204703331,0.342605501413345
187,-0.329625904560089,0.476806581020355,0.5,0.47062224149704,0.466124773025513,0.336192518472672
188,-0.306378811597824,0.47413381934166,0.5,0.459958791732788,0.476247906684875,0.328271061182022
189,-0.285602241754532,0.467474043369293,0.5,0.449517071247101,0.482860624790192,0.321483761072159
190,-0.274414956569672,0.45851594209671,0.5,0.439357101917267,0.480150133371353,0.317212522029877
191,-0.272476702928543,0.448108285665512,0.495395839214325,0.430694878101349,0.470620363950729,0.316231250762939
192,-0.276868671178818,0.442117542028427,0.482296735048294,0.426560074090958,0.463217854499817,0.316042512655258
193,-0.282709300518036,0.447336763143539,0.476874172687531,0.429669409990311,0.465809792280197,0.31071549654007
194,-0.285814136266708,0.457245826721191,0.48096489906311,0.43898406624794,0.479196965694427,0.297539353370667
195,-0.285092115402222,0.457272619009018,0.490855544805527,0.449643045663834,0.497927129268646,0.281406611204147
196,-0.279260903596878,0.444636762142181,0.5,0.458695828914642,0.5,0.269150376319885
197,-0.267450034618378,0.424279987812042,0.5,0.464477896690369,0.5,0.262173652648926
198,-0.249434441328049,0.403151482343674,0.5,0.463636308908463,0.5,0.26196750998497
199,-0.226875513792038,0.396584421396255,0.5,0.452834635972977,0.5,0.269162684679031
200,-0.204895302653313,0.412076205015183,0.5,0.432526111602783,0.5,0.2701495885849
201,-0.186541259288788,0.429786324501038,0.5,0.411152839660645,0.5,0.247314468026161
202,-0.172327369451523,0.424898773431778,0.5,0.397510021924973,0.5,0.203259766101837
203,-0.161569952964783,0.399996101856232,0.5,0.392514228820801,0.5,0.157916083931923
204,-0.151398912072182,0.374080628156662,0.5,0.39387845993042,0.5,0.129396542906761
205,-0.142358839511871,0.352710336446762,0.5,0.398096203804016,0.5,0.123362064361572
206,-0.136381670832634,0.333395510911942,0.5,0.399318635463715,0.5,0.132297337055206
207,-0.128792300820351,0.32677099108696,0.5,0.393647581338882,0.5,0.143180102109909
208,-0.115810759365559,0.339087426662445,0.497085213661194,0.383171856403351,0.5,0.145651042461395
209,-0.100677154958248,0.352552622556686,0.494817018508911,0.373396366834641,0.5,0.135616645216942
210,-0.0869259461760521,0.349616944789886,0.493183881044388,0.365086376667023,0.5,0.1136254966259
211,-0.0764505863189697,0.331522285938263,0.488832741975784,0.353317499160767,0.5,0.0799882039427757
212,-0.0683077722787857,0.30941104888916,0.480928659439087,0.336403131484985,0.5,0.0377065725624561
213,-0.059090755879879,0.292494148015976,0.473077595233917,0.31860688328743,0.497798532247543,-0.00345975370146334
214,-0.0476504229009151,0.282272726297379,0.467707484960556,0.304792314767838,0.488723397254944,-0.034444160759449
215,-0.0326268151402473,0.277194976806641,0.466072648763657,0.298424750566483,0.482793092727661,-0.0525581389665604
216,-0.0130397602915764,0.27574959397316,0.467781573534012,0.299417912960052,0.481701552867889,-0.0595493093132973
217,0.00982021819800138,0.277039498090744,0.470770478248596,0.304086446762085,0.48572850227356,-0.0573842339217663
218,0.0351715572178364,0.283043056726456,0.474499523639679,0.309409201145172,0.495391666889191,-0.0463994070887566
219,0.0596473030745983,0.294540464878082,0.477030903100967,0.311713755130768,0.5,-0.0310531836003065
220,0.0794025361537933,0.308974802494049,0.476770520210266,0.309216886758804,0.5,-0.0193254910409451
221,0.095063678920269,0.322539180517197,0.475719064474106,0.305089831352234,0.5,-0.0163545254617929
222,0.108493596315384,0.33114168047905,0.473665595054626,0.301163047552109,0.5,-0.0223070532083511
223,0.122612483799458,0.333506107330322,0.469109565019608,0.297551512718201,0.5,-0.0290867891162634
224,0.141085639595985,0.331970781087875,0.463952243328094,0.295107841491699,0.5,-0.0274845715612173
225,0.164612904191017,0.329260736703873,0.460247129201889,0.292924791574478,0.5,-0.0196236241608858
226,0.191059708595276,0.32896488904953,0.457916498184204,0.28996542096138,0.5,-0.0109795797616243
227,0.215916380286217,0.33488467335701,0.453757375478745,0.286743521690369,0.5,0.000814089027699083
228,0.234933599829674,0.343371987342834,0.444174498319626,0.283597499132156,0.5,0.017322426661849
229,0.250966995954514,0.343198120594025,0.431668668985367,0.280496120452881,0.5,0.0315734818577766
230,0.272047758102417,0.328092277050018,0.419435858726501,0.27599760890007,0.5,0.0343970730900764
231,0.300992786884308,0.304347455501556,0.406523048877716,0.268048822879791,0.5,0.024940786883235
232,0.332267940044403,0.284294307231903,0.396381586790085,0.258863180875778,0.5,0.0133291445672512
233,0.356095016002655,0.274615556001663,0.395394772291183,0.252456545829773,0.5,0.00734068313613534
234,0.367824047803879,0.27367177605629,0.401891112327576,0.248217478394508,0.5,0.00779142836108804
235,0.372106820344925,0.279049038887024,0.406374126672745,0.243104130029678,0.5,0.0178922340273857
236,0.371827811002731,0.287680089473724,0.399239897727966,0.235949605703354,0.5,0.0365805178880692
237,0.36856397986412,0.292614549398422,0.379360347986221,0.22485563158989,0.48652458190918,0.0504454523324966
238,0.36730745434761,0.291119009256363,0.353794008493423,0.205604910850525,0.468262255191803,0.0488470271229744
239,0.369931042194366,0.287585765123367,0.33058762550354,0.182567283511162,0.452573269605637,0.0386425592005253
240,0.378859668970108,0.28431499004364,0.316613554954529,0.170122668147087,0.443039417266846,0.0344864875078201
241,0.396789282560349,0.280271619558334,0.312256902456284,0.173423141241074,0.445028096437454,0.0402587130665779
242,0.421997845172882,0.279263854026794,0.312447994947433,0.185320287942886,0.457081079483032,0.0492693819105625
243,0.45166403055191,0.283917486667633,0.313928723335266,0.197966724634171,0.472273319959641,0.0574693642556667
244,0.478337019681931,0.28744900226593,0.311539262533188,0.204625800251961,0.481601268053055,0.0651171505451202
245,0.494104474782944,0.280217468738556,0.301263749599457,0.20251253247261,0.482045710086823,0.0684544518589973
246,0.5,0.257228076457977,0.288790613412857,0.193008273839951,0.481001526117325,0.0575288124382496
247,0.5,0.22364205121994,0.281204462051392,0.176740050315857,0.486243188381195,0.0292885061353445
248,0.5,0.189653903245926,0.275416523218155,0.155303090810776,0.493238806724548,-0.0040619233623147
249,0.5,0.161270067095757,0.263942003250122,0.132369846105576,0.488259553909302,-0.0246477574110031
250,0.5,0.143647581338882,0.246013760566711,0.110204339027405,0.46839651465416,-0.0248159058392048
251,0.5,0.141289249062538,0.22804182767868,0.0908449813723564,0.446770310401917,-0.0144105385988951
252,0.5,0.14945775270462,0.218425810337067,0.0792379453778267,0.435802102088928,-0.00566955609247088
253,0.5,0.159015581011772,0.220735087990761,0.0786772221326828,0.436096042394638,0.00101752055343241
254,0.5,0.168043956160545,0.230452850461006,0.0857243910431862,0.441387057304382,0.0107178101316094
255,0.5,0.17674033343792,0.237371250987053,0.0918729677796364,0.447161883115768,0.0220308732241392
256,0.5,0.179456114768982,0.231647908687592,0.089906670153141,0.448650300502777,0.0270044282078743
257,0.5,0.169286042451859,0.212908804416656,0.0794635713100433,0.442579656839371,0.0218256711959839
258,0.5,0.146008610725403,0.189776971936226,0.0656863301992416,0.434549897909164,0.0114782555028796
259,0.5,0.118305675685406,0.171897739171982,0.0547509826719761,0.431507706642151,0.00467034103348851
260,0.5,0.09759571403265,0.165205478668213,0.0502163358032703,0.433361291885376,0.00784777756780386
261,0.5,0.0887168422341347,0.16690582036972,0.0498347654938698,0.43555748462677,0.0200118310749531
262,0.5,0.0916442945599556,0.168997943401337,0.0481318794190884,0.435106933116913,0.034650806337595
263,0.5,0.104855306446552,0.166833519935608,0.0419439040124416,0.431869775056839,0.0468661338090897
264,0.5,0.117329210042953,0.159440189599991,0.032644297927618,0.425604790449142,0.0534547381103039
265,0.5,0.113969154655933,0.14920312166214,0.0256663095206022,0.418012022972107,0.0537670999765396
266,0.5,0.0918085500597954,0.138599991798401,0.023688267916441,0.412904858589172,0.0495040155947208
267,0.5,0.0603693276643753,0.127979218959808,0.0224767364561558,0.413879483938217,0.0406215973198414
268,0.5,0.0295996014028788,0.117859877645969,0.0169319193810225,0.421074718236923,0.0289252232760191
269,0.5,0.00447130110114813,0.10636592656374,0.0048158741556108,0.425680130720139,0.020933885127306
270,0.5,-0.00924324244260788,0.0918812304735184,-0.0133513752371073,0.419240087270737,0.0190293416380882
271,0.5,-0.0100155277177691,0.0763996988534927,-0.0359618067741394,0.404372692108154,0.0128679843619466
272,0.5,-0.00681968405842781,0.0614003092050552,-0.0602425560355186,0.388585180044174,-0.0073066558688879
273,0.5,-0.0065742889419198,0.0511006340384483,-0.0773969292640686,0.382577449083328,-0.0294728465378284
274,0.5,-0.00968992430716753,0.0508738495409489,-0.0810047462582588,0.392972826957703,-0.0358011424541473
275,0.5,-0.0196681544184685,0.0545273907482624,-0.0807817876338959,0.407087326049805,-0.0319091267883778
276,0.5,-0.0383906774222851,0.055405717343092,-0.0886514857411385,0.411257654428482,-0.0324116982519627
277,0.5,-0.0589959919452667,0.061912227421999,-0.10301798582077,0.412993669509888,-0.0396764017641544
278,0.5,-0.0823990106582642,0.0707494989037514,-0.125930204987526,0.416119933128357,-0.058948740363121
279,0.5,-0.116948924958706,0.0549454241991043,-0.165297850966454,0.400577783584595,-0.0976992249488831
280,0.5,-0.152444154024124,0.00359645183198154,-0.21049202978611,0.350192576646805,-0.140971332788467
281,0.5,-0.167071893811226,-0.0596402958035469,-0.236617907881737,0.280409038066864,-0.160842701792717
282,0.5,-0.155376791954041,-0.10264129191637,-0.229802876710892,0.22576342523098,-0.14672027528286
283,0.5,-0.13099604845047,-0.111532710492611,-0.19504702091217,0.209209352731705,-0.110168680548668
284,0.5,-0.105316556990147,-0.0925599560141563,-0.145821928977966,0.232679411768913,-0.063060849905014
285,0.5,-0.0805933326482773,-0.0607203468680382,-0.095324419438839,0.286217242479324,-0.0104369129985571
286,0.5,-0.0596125572919846,-0.0333702825009823,-0.0556905567646027,0.346594780683517,0.036263145506382
287,0.5,-0.0408293046057224,-0.0212956238538027,-0.03581153601408,0.381811618804932,0.0640049651265144
288,0.5,-0.0253852028399706,-0.0241359937936068,-0.0390902534127235,0.377526611089706,0.0687549412250519
289,0.5,-0.028513727709651,-0.0360108874738216,-0.0617624558508396,0.347023695707321,0.0506178177893162
290,0.5,-0.0555899627506733,-0.0483025833964348,-0.0925703719258308,0.312436878681183,0.015210933983326
291,0.5,-0.092630609869957,-0.0571434609591961,-0.121875129640102,0.284518927335739,-0.0242685787379742
292,0.5,-0.127938106656075,-0.0654653608798981,-0.146006867289543,0.262462973594666,-0.0549783371388912
293,0.5,-0.157435148954391,-0.0727375745773315,-0.162050485610962,0.245599895715714,-0.0692949816584587
294,0.5,-0.180176302790642,-0.0790510475635529,-0.171780899167061,0.23204705119133,-0.0710029900074005
295,0.5,-0.197279334068298,-0.0883726552128792,-0.18173386156559,0.216579899191856,-0.072008803486824
296,0.5,-0.207704156637192,-0.0984868854284287,-0.193852573633194,0.199378356337547,-0.0772202163934708
297,0.5,-0.207644671201706,-0.104717195034027,-0.207074776291847,0.18345433473587,-0.0818550884723663
298,0.5,-0.197396382689476,-0.106920480728149,-0.219866633415222,0.168342232704163,-0.0822072923183441
299,0.5,-0.186975747346878,-0.108255237340927,-0.229093939065933,0.153897747397423,-0.0838826224207878
300,0.5,-0.189647898077965,-0.114203967154026,-0.234975755214691,0.138590648770332,-0.096598707139492
301,0.5,-0.208596512675285,-0.124769799411297,-0.240452155470848,0.12014877051115,-0.119373604655266
302,0.5,-0.231625437736511,-0.13281024992466,-0.245833680033684,0.100838974118233,-0.133667156100273
303,0.5,-0.238396897912025,-0.137827187776566,-0.253918707370758,0.081775888800621,-0.125466167926788
304,0.5,-0.218486338853836,-0.145836189389229,-0.269031912088394,0.0614175125956535,-0.10727272182703
305,0.5,-0.189059466123581,-0.153519466519356,-0.284069418907166,0.0437797829508781,-0.108024761080742
306,0.5,-0.184886530041695,-0.151064708828926,-0.288533568382263,0.0365278944373131,-0.149488270282745
307,0.5,-0.219432190060616,-0.13693793118,-0.283375680446625,0.0408363007009029,-0.220630824565887
308,0.5,-0.271203219890594,-0.119614362716675,-0.275611639022827,0.0491417273879051,-0.285923063755035
309,0.5,-0.312058210372925,-0.107400350272655,-0.269450426101685,0.054991826415062,-0.32259938120842
310,0.5,-0.330734431743622,-0.101192697882652,-0.266631096601486,0.0581965520977974,-0.335127234458923
311,0.5,-0.332689344882965,-0.0985424369573593,-0.267926692962646,0.0585449859499931,-0.340790271759033
312,0.5,-0.327692776918411,-0.0955305770039558,-0.26893937587738,0.0567905232310295,-0.344840824604034
313,0.5,-0.322181552648544,-0.0901405364274979,-0.265247911214828,0.0562862306833267,-0.3409643471241
314,0.5,-0.318369656801224,-0.0865833386778831,-0.262099117040634,0.055061861872673,-0.331176817417145
315,0.5,-0.312822222709656,-0.085934117436409,-0.267461329698563,0.047212190926075,-0.324378430843353
316,0.5,-0.300936579704285,-0.0849640071392059,-0.282253712415695,0.0308257564902306,-0.322624415159225
317,0.5,-0.281471908092499,-0.0826712399721146,-0.300185412168503,0.00999153591692448,-0.321087718009949
318,0.5,-0.260164618492126,-0.0799783617258072,-0.311133801937103,-0.00725352670997381,-0.316350996494293
319,0.5,-0.248040571808815,-0.0794442072510719,-0.308297753334045,-0.0129759674891829,-0.309037417173386
320,0.5,-0.245805636048317,-0.0737030655145645,-0.29217454791069,-0.000459426868474111,-0.299373030662537
321,0.5,-0.246504694223404,-0.0525460466742516,-0.273454815149307,0.0237304959446192,-0.291514605283737
322,0.5,-0.245714828372002,-0.0260602366179228,-0.266098260879517,0.039159569889307,-0.291358470916748
323,0.5,-0.240313470363617,-0.0103975962847471,-0.263940244913101,0.0399499051272869,-0.286559671163559
324,0.5,-0.237060755491257,-0.0133011639118195,-0.252587765455246,0.0387313291430473,-0.262280613183975
325,0.5,-0.241210520267487,-0.0384769104421139,-0.240439206361771,0.0424969345331192,-0.224670186638832
326,0.5,-0.242542013525963,-0.0757807418704033,-0.237839445471764,0.0571386851370335,-0.179581567645073
327,0.5,-0.229303658008575,-0.100870192050934,-0.23207114636898,0.0927813053131104,-0.128034263849258
328,0.5,-0.204025834798813,-0.0988043993711472,-0.211068406701088,0.135039046406746,-0.087022140622139
329,0.5,-0.18594865500927,-0.0717379525303841,-0.182664066553116,0.159695014357567,-0.0760508477687836
330,0.5,-0.186870217323303,-0.0321740582585335,-0.163884162902832,0.164200246334076,-0.0963996425271034
331,0.5,-0.202606976032257,-0.00477265380322933,-0.166208684444427,0.19161331653595,-0.140235230326653
332,0.5,-0.225625291466713,-0.00681134965270758,-0.18700860440731,0.349055379629135,-0.194951325654984
333,0.5,-0.244441896677017,-0.0229837335646153,-0.213833153247833,0.5,-0.246492967009544
334,0.5,-0.249145925045013,-0.0256977993994951,-0.230056196451187,0.5,-0.284635305404663
335,0.5,-0.238368675112724,-0.0101874768733978,-0.221410676836967,0.5,-0.298228681087494
336,0.5,-0.222590997815132,0.00310390442609787,-0.19351027905941,0.5,-0.289105921983719
337,0.5,-0.214207053184509,-0.000998816685751081,-0.165671736001968,0.5,-0.270115315914154
338,0.5,-0.207707926630974,-0.00658448599278927,-0.144024446606636,0.5,-0.242394089698792
339,0.5,-0.190028801560402,0.00845993496477604,-0.121657870709896,0.5,-0.204814016819
340,0.5,-0.16146332025528,0.0380210317671299,-0.0979702919721603,0.5,-0.167725533246994
341,0.5,-0.133395478129387,0.0591684617102146,-0.0843520984053612,0.5,-0.145746737718582
342,0.5,-0.117299757897854,0.0575254708528519,-0.0906509831547737,0.5,-0.147113919258118
343,0.5,-0.115121424198151,0.0373920910060406,-0.11209387332201,0.460597902536392,-0.166253060102463
344,0.5,-0.12161161005497,0.0126950647681952,-0.136016502976418,0.335345655679703,-0.188857227563858
345,0.5,-0.136321142315865,-0.00550853926688433,-0.151441365480423,0.268705904483795,-0.204680934548378
346,0.5,-0.160173356533051,-0.0109359389171004,-0.152914226055145,0.262718737125397,-0.21329228579998
347,0.5,-0.187035650014877,-0.00445389607921243,-0.145860731601715,0.299877494573593,-0.221102803945541
348,0.5,-0.20787350833416,0.00697606476023793,-0.142371967434883,0.331878036260605,-0.235210448503494
349,0.5,-0.223098143935204,0.00995168369263411,-0.154973566532135,0.306021720170975,-0.263079077005386
350,0.5,-0.242425292730331,-0.0106395538896322,-0.188994750380516,0.2071802765131,-0.306828588247299
351,0.5,-0.264023631811142,-0.0488675199449062,-0.229268074035645,0.0695741176605225,-0.35071924328804
352,0.5,-0.271262764930725,-0.0767294093966484,-0.251320540904999,-0.0434528514742851,-0.368962526321411
353,0.5,-0.256366729736328,-0.0758652463555336,-0.247500345110893,-0.0824562981724739,-0.352461576461792
354,0.5,-0.231430813670158,-0.053674228489399,-0.226683646440506,-0.0541033372282982,-0.319850832223892
355,0.5,-0.211447343230248,-0.0281603299081326,-0.197358503937721,-0.0101372338831425,-0.29184091091156
356,0.5,-0.195948824286461,-0.00856116600334644,-0.162247329950333,0.00818915013223886,-0.26771941781044
357,0.5,-0.176753714680672,0.00467696227133274,-0.125009462237358,-0.00747393257915974,-0.239066988229752
358,0.5,-0.154262661933899,0.00936936587095261,-0.0947735235095024,-0.0507274717092514,-0.205211892724037
359,0.5,-0.131693810224533,0.0050166673026979,-0.0811419859528542,-0.108087621629238,-0.169059425592422
360,0.5,-0.105700023472309,0.000197159242816269,-0.089369498193264,-0.156879857182503,-0.134141594171524
361,0.5,-0.0828707069158554,-0.00301418104209006,-0.12306147813797,-0.183924615383148,-0.120364665985107
362,0.5,-0.0847483202815056,-0.0150600429624319,-0.178561821579933,-0.19226861000061,-0.159152910113335
363,0.5,-0.121297560632229,-0.0351099595427513,-0.237481251358986,-0.185784637928009,-0.250321596860886
364,0.5,-0.179977372288704,-0.0514240227639675,-0.274759292602539,-0.178394675254822,-0.354415684938431
365,0.5,-0.235706686973572,-0.0624057687819004,-0.274415701627731,-0.189966663718224,-0.428754359483719
366,0.5,-0.267106086015701,-0.0731715187430382,-0.243724748492241,-0.224143534898758,-0.455118596553802
367,0.5,-0.267866253852844,-0.0832771509885788,-0.204525336623192,-0.269447833299637,-0.44267338514328
368,0.5,-0.25311878323555,-0.0925532132387161,-0.176314532756805,-0.304741203784943,-0.420225232839584
369,0.5,-0.25477197766304,-0.107790805399418,-0.173834711313248,-0.326658934354782,-0.417592585086823
370,0.5,-0.279458492994308,-0.130190372467041,-0.194480270147324,-0.355165868997574,-0.431156665086746
371,0.5,-0.296297639608383,-0.147972673177719,-0.214604020118713,-0.387497782707214,-0.430177211761475
372,0.5,-0.281392812728882,-0.148913249373436,-0.213744774460793,-0.400363981723785,-0.399068534374237
373,0.5,-0.237796485424042,-0.130343854427338,-0.18998347222805,-0.388349294662476,-0.347389161586761
374,0.5,-0.185442134737968,-0.100738048553467,-0.15626360476017,-0.368269324302673,-0.296302139759064
375,0.5,-0.150605216622353,-0.0742406398057938,-0.129664808511734,-0.361768007278442,-0.266017645597458
376,0.5,-0.149424344301224,-0.0600648112595081,-0.121702879667282,-0.378547310829163,-0.26717084646225
377,0.5,-0.174582168459892,-0.0626014396548271,-0.134033501148224,-0.410930812358856,-0.296205461025238
378,0.5,-0.200912371277809,-0.0820056647062302,-0.154832318425179,-0.437963038682938,-0.329997271299362
379,0.5,-0.206889525055885,-0.110431909561157,-0.167469874024391,-0.442139029502869,-0.339681506156921
380,0.5,-0.190310284495354,-0.138478428125381,-0.168496623635292,-0.427880078554153,-0.31552067399025
381,0.5,-0.164518877863884,-0.158382713794708,-0.167766228318214,-0.411587119102478,-0.273408114910126
382,0.489522129297256,-0.145883411169052,-0.164190009236336,-0.173543900251389,-0.404047906398773,-0.246035277843475
383,0.476388841867447,-0.143281355500221,-0.157418459653854,-0.184316858649254,-0.410016447305679,-0.258015722036362
384,0.46655660867691,-0.15748043358326,-0.144446566700935,-0.195573955774307,-0.427459359169006,-0.306829690933228
385,0.459747225046158,-0.185576036572456,-0.132796719670296,-0.206700503826141,-0.448034018278122,-0.370769858360291
386,0.452275365591049,-0.219138398766518,-0.132459580898285,-0.216964825987816,-0.464718997478485,-0.41827392578125
387,0.443553984165192,-0.240486368536949,-0.144094988703728,-0.221081957221031,-0.469907492399216,-0.422397375106812
388,0.439505338668823,-0.234642758965492,-0.154694482684135,-0.21489143371582,-0.455887824296951,-0.393145531415939
389,0.433563381433487,-0.212700009346008,-0.161369025707245,-0.213525399565697,-0.430047482252121,-0.373197287321091
390,0.411884009838104,-0.206266567111015,-0.179609403014183,-0.245909452438354,-0.41184875369072,-0.391703963279724
391,0.382946312427521,-0.234767213463783,-0.212550774216652,-0.306416124105453,-0.411754220724106,-0.443458318710327
392,0.361709296703339,-0.284472465515137,-0.233713760972023,-0.352751016616821,-0.426709622144699,-0.5
393,0.34684881567955,-0.322806090116501,-0.220926642417908,-0.362878710031509,-0.449009448289871,-0.5
394,0.33536022901535,-0.335547894239426,-0.191955894231796,-0.345999836921692,-0.474083691835403,-0.5
395,0.330488234758377,-0.333570271730423,-0.182250067591667,-0.312189251184464,-0.498269647359848,-0.5
396,0.335955083370209,-0.320562303066254,-0.201407015323639,-0.269022732973099,-0.5,-0.5
397,0.347482204437256,-0.280911952257156,-0.23344649374485,-0.231473416090012,-0.5,-0.44590437412262
398,0.356121420860291,-0.21932652592659,-0.257667392492294,-0.204812034964561,-0.5,-0.376571446657181
399,0.362915098667145,-0.177718341350555,-0.258341372013092,-0.179503828287125,-0.5,-0.325501829385757
400,0.371241748332977,-0.18226358294487,-0.236126288771629,-0.157384291291237,-0.498075097799301,-0.313327431678772
401,0.372915953397751,-0.218421071767807,-0.213770598173141,-0.154340818524361,-0.493409961462021,-0.338805168867111
402,0.365170210599899,-0.264838844537735,-0.216269046068192,-0.178671449422836,-0.49994021654129,-0.385373651981354
403,0.354699373245239,-0.307489544153214,-0.240886121988297,-0.218596145510674,-0.5,-0.43186816573143
404,0.342877507209778,-0.333951085805893,-0.258842498064041,-0.251560121774673,-0.48298567533493,-0.462408393621445
405,0.331479251384735,-0.340310841798782,-0.253055542707443,-0.266607493162155,-0.445787906646729,-0.474781841039658
406,0.320203363895416,-0.329718917608261,-0.236710593104362,-0.270055174827576,-0.415871828794479,-0.47022333741188
407,0.303225874900818,-0.305271238088608,-0.232145383954048,-0.273346245288849,-0.4146668612957,-0.450819849967957
408,0.280280232429504,-0.271034628152847,-0.246470674872398,-0.280416667461395,-0.442975968122482,-0.424487859010696
409,0.255923569202423,-0.231203079223633,-0.270980149507523,-0.283837735652924,-0.487422913312912,-0.393208920955658
410,0.231580168008804,-0.196661740541458,-0.297631978988647,-0.277614206075668,-0.5,-0.362373471260071
411,0.211130946874619,-0.189661905169487,-0.324195623397827,-0.271204322576523,-0.5,-0.355711609125137
412,0.20369254052639,-0.224033161997795,-0.346626490354538,-0.278881579637527,-0.5,-0.389337182044983
413,0.212914675474167,-0.283841103315353,-0.356007844209671,-0.298258423805237,-0.5,-0.448801577091217
414,0.232239231467247,-0.33385705947876,-0.347097814083099,-0.313480913639069,-0.470442146062851,-0.5
415,0.250407427549362,-0.350365608930588,-0.325763940811157,-0.315250933170319,-0.429667443037033,-0.5
416,0.258717894554138,-0.335339426994324,-0.303893685340881,-0.30864092707634,-0.407040536403656,-0.5
417,0.25724321603775,-0.298742800951004,-0.292747378349304,-0.306060433387756,-0.40349006652832,-0.489704608917236
418,0.251966744661331,-0.249836683273315,-0.29822564125061,-0.314759522676468,-0.411902904510498,-0.469791114330292
419,0.238600566983223,-0.216362059116364,-0.317953079938889,-0.331358879804611,-0.429610759019852,-0.45573678612709
420,0.210666865110397,-0.225443676114082,-0.342763096094131,-0.346513748168945,-0.455856323242188,-0.464325398206711
421,0.180674061179161,-0.263861775398254,-0.363986849784851,-0.35456782579422,-0.477483093738556,-0.495374172925949
422,0.163762733340263,-0.299171537160873,-0.377197980880737,-0.355039179325104,-0.482977628707886,-0.5
423,0.158882662653923,-0.32019180059433,-0.378252476453781,-0.345569521188736,-0.479376167058945,-0.5
424,0.155022248625755,-0.33452844619751,-0.371973633766174,-0.331486433744431,-0.479495882987976,-0.5
425,0.145656600594521,-0.346347957849503,-0.373377114534378,-0.32828426361084,-0.489075928926468,-0.494862735271454
426,0.135399624705315,-0.344931960105896,-0.389712661504745,-0.341273933649063,-0.5,-0.471684724092484
427,0.124586880207062,-0.316923677921295,-0.414160311222076,-0.355987995862961,-0.5,-0.435414403676987
428,0.107826448976994,-0.274871110916138,-0.432276338338852,-0.35244408249855,-0.5,-0.413213491439819
429,0.0918706357479095,-0.259163349866867,-0.439959526062012,-0.335441797971725,-0.5,-0.43810772895813
430,0.0897666960954666,-0.297800421714783,-0.449814766645432,-0.331289321184158,-0.5,-0.5
431,0.102179937064648,-0.369242787361145,-0.46432176232338,-0.347767800092697,-0.5,-0.5
432,0.117399141192436,-0.425176113843918,-0.468270748853683,-0.368859797716141,-0.480015605688095,-0.5
433,0.12751704454422,-0.444290429353714,-0.4575015604496,-0.382385581731796,-0.465266615152359,-0.5
434,0.134929433465004,-0.429531037807465,-0.443312793970108,-0.385770738124847,-0.467691570520401,-0.5
435,0.140677481889725,-0.376411736011505,-0.432970970869064,-0.380234271287918,-0.475309580564499,-0.5
436,0.139398127794266,-0.297288656234741,-0.429434657096863,-0.374131172895432,-0.475939035415649,-0.44796285033226
437,0.131121054291725,-0.234747797250748,-0.432890981435776,-0.370527029037476,-0.472026526927948,-0.396346509456635
438,0.12102235108614,-0.210497379302979,-0.437112092971802,-0.360650956630707,-0.463703244924545,-0.374308705329895
439,0.11084072291851,-0.213267132639885,-0.439855456352234,-0.345433592796326,-0.448172777891159,-0.37813538312912
440,0.0998179763555527,-0.233585327863693,-0.44771021604538,-0.34040379524231,-0.433301329612732,-0.406343251466751
441,0.084702305495739,-0.270764321088791,-0.464109152555466,-0.353229075670242,-0.435550600290298,-0.45453616976738
442,0.0660314187407494,-0.315980702638626,-0.480781078338623,-0.374155282974243,-0.460878819227219,-0.5
443,0.0535664185881615,-0.3511942923069,-0.48597639799118,-0.390716582536697,-0.49569034576416,-0.5
444,0.056808166205883,-0.368852943181992,-0.479096084833145,-0.400561600923538,-0.5,-0.5
445,0.0720736458897591,-0.375872224569321,-0.471274584531784,-0.408755034208298,-0.5,-0.5
446,0.0835318267345428,-0.379649043083191,-0.475551396608353,-0.424170076847076,-0.497325539588928,-0.5
447,0.0867779850959778,-0.378891468048096,-0.490238308906555,-0.449018359184265,-0.488296419382095,-0.5
448,0.0931472405791283,-0.365664124488831,-0.496520280838013,-0.468640804290771,-0.485036700963974,-0.5
449,0.0973709747195244,-0.341069728136063,-0.485682904720306,-0.472381353378296,-0.491931319236755,-0.5
450,0.0811996608972549,-0.327859044075012,-0.47221252322197,-0.475394368171692,-0.5,-0.5
451,0.0478933081030846,-0.352421194314957,-0.476199865341187,-0.498821973800659,-0.5,-0.5
452,0.0124346250668168,-0.411139845848084,-0.5,-0.5,-0.5,-0.5
453,-0.0170749872922897,-0.468970775604248,-0.5,-0.5,-0.5,-0.5
454,-0.0315407663583755,-0.496225953102112,-0.5,-0.5,-0.5,-0.5
455,-0.021329689770937,-0.489331603050232,-0.5,-0.449081689119339,-0.5,-0.5
456,0.0164149180054665,-0.456416964530945,-0.5,-0.38507279753685,-0.5,-0.460713624954224
457,0.072824589908123,-0.407791882753372,-0.49206554889679,-0.333716303110123,-0.459613829851151,-0.343424737453461
458,0.128437742590904,-0.362312823534012,-0.450061053037643,-0.303189009428024,-0.38547819852829,-0.255914330482483
459,0.167077451944351,-0.342508882284164,-0.426554918289185,-0.290548324584961,-0.345002174377441,-0.215528771281242
460,0.184648871421814,-0.353537142276764,-0.418672919273376,-0.287996351718903,-0.334398090839386,-0.216489464044571
461,0.185531124472618,-0.369771480560303,-0.421890407800674,-0.299217462539673,-0.342300683259964,-0.243908241391182
462,0.177071586251259,-0.358055621385574,-0.43364217877388,-0.328707486391068,-0.358127266168594,-0.274107456207275
463,0.162784367799759,-0.336274892091751,-0.450632303953171,-0.364830672740936,-0.374707281589508,-0.295646727085114
464,0.149215579032898,-0.362055629491806,-0.471469014883041,-0.396443992853165,-0.381865531206131,-0.328180879354477
465,0.14175195991993,-0.450638443231583,-0.497616678476334,-0.427929162979126,-0.374527037143707,-0.392270714044571
466,0.129225328564644,-0.5,-0.5,-0.457552701234818,-0.370096504688263,-0.476249247789383
467,0.114314928650856,-0.5,-0.5,-0.465946406126022,-0.378515154123306,-0.5
468,0.113977342844009,-0.5,-0.5,-0.456226199865341,-0.391846567392349,-0.5
469,0.123041719198227,-0.5,-0.486739486455917,-0.454807341098785,-0.412413537502289,-0.5
470,0.133657902479172,-0.5,-0.477397263050079,-0.458966016769409,-0.43694481253624,-0.5
471,0.148739248514175,-0.5,-0.469843298196793,-0.44693648815155,-0.44576495885849,-0.5
472,0.163897037506104,-0.5,-0.453272879123688,-0.415676862001419,-0.427747547626495,-0.487895727157593
473,0.173671320080757,-0.5,-0.428712755441666,-0.373458623886108,-0.389268726110458,-0.399644255638123
474,0.181005030870438,-0.5,-0.403606772422791,-0.32662558555603,-0.341815173625946,-0.298176139593124
475,0.190191358327866,-0.5,-0.382994115352631,-0.282679796218872,-0.294122397899628,-0.204816564917564
476,0.201984912157059,-0.5,-0.366474688053131,-0.25051748752594,-0.252496659755707,-0.143451914191246
477,0.214628577232361,-0.5,-0.349771201610565,-0.235709071159363,-0.219205528497696,-0.131949409842491
478,0.222784340381622,-0.5,-0.333724677562714,-0.238828390836716,-0.198511585593224,-0.166257351636887
479,0.219782784581184,-0.5,-0.325763463973999,-0.252959400415421,-0.197312414646149,-0.21901248395443
480,0.206817463040352,-0.5,-0.328819423913956,-0.265623241662979,-0.211478590965271,-0.259425193071365
481,0.192484334111214,-0.5,-0.336019515991211,-0.267831325531006,-0.22602516412735,-0.271903574466705
482,0.185617029666901,-0.5,-0.339314848184586,-0.2589151263237,-0.22358213365078,-0.256758242845535
483,0.193253040313721,-0.5,-0.339792102575302,-0.243709579110146,-0.198424965143204,-0.22622711956501
484,0.220383375883102,-0.5,-0.335821598768234,-0.223397821187973,-0.159826070070267,-0.194061517715454
485,0.259131729602814,-0.5,-0.311023712158203,-0.199435129761696,-0.112257912755013,-0.165823414921761
486,0.290318965911865,-0.5,-0.262508362531662,-0.187766864895821,-0.0686760172247887,-0.150005474686623
487,0.298965871334076,-0.5,-0.227862685918808,-0.205249831080437,-0.0636103898286819,-0.156984910368919
488,0.284272164106369,-0.5,-0.232458889484406,-0.233197182416916,-0.100937537848949,-0.168022096157074
489,0.276596695184708,-0.5,-0.238059282302856,-0.218513518571854,-0.132104381918907,-0.141917809844017
490,0.312585532665253,-0.5,-0.198949038982391,-0.127903521060944,-0.113385044038296,-0.0611763522028923
491,0.391660869121552,-0.5,-0.11425668746233,0.0213237274438143,-0.0386162512004375,0.0650956109166145
492,0.493743181228638,-0.5,-0.0033657755702734,0.190156027674675,0.0785143747925758,0.226276025176048
493,0.5,-0.5,0.120071351528168,0.349286913871765,0.21942013502121,0.404181838035584
494,0.5,-0.5,0.241628497838974,0.476882576942444,0.35704043507576,0.5
495,0.5,-0.5,0.344410836696625,0.5,0.463517099618912,0.5
496,0.5,-0.5,0.422972559928894,0.5,0.5,0.5
497,0.5,-0.5,0.47844323515892,0.5,0.5,0.5
498,0.5,-0.5,0.5,0.5,0.5,0.5
499,0.5,-0.5,0.5,0.5,0.5,0.5
500,0.5,-0.5,0.5,0.5,0.5,0.5
501,0.5,-0.5,0.5,0.5,0.5,0.5
502,0.5,-0.5,0.5,0.5,0.5,0.5
503,0.5,-0.5,0.5,0.5,0.5,0.5
504,0.5,-0.5,0.5,0.5,0.5,0.5
505,0.5,-0.5,0.5,0.5,0.5,0.5
506,0.5,-0.5,0.5,0.5,0.5,0.5
507,0.5,-0.5,0.5,0.5,0.5,0.5
508,0.5,-0.5,0.5,0.5,0.5,0.5
509,0.5,-0.5,0.5,0.5,0.5,0.5
510,0.5,-0.5,0.5,0.5,0.5,0.5
511,0.5,-0.5,0.5,0.5,0.5,0.5
512,0.5,-0.5,0.5,0.5,0.5,0.5
513,0.5,-0.5,0.5,0.5,0.5,0.5
514,0.5,-0.5,0.5,0.5,0.5,0.5
515,0.5,-0.5,0.5,0.5,0.5,0.5
516,0.5,-0.5,0.5,0.5,0.5,0.5
517,0.5,-0.5,0.5,0.5,0.5,0.5
518,0.5,-0.5,0.5,0.5,0.5,0.5
519,0.5,-0.5,0.5,0.5,0.5,0.5
520,0.5,-0.5,0.5,0.5,0.5,0.5
521,0.5,-0.5,0.5,0.5,0.5,0.5
522,0.5,-0.5,0.5,0.5,0.5,0.5
523,0.5,-0.5,0.5,0.5,0.5,0.5
524,0.5,-0.5,0.5,0.5,0.5,0.5
525,0.5,-0.5,0.5,0.5,0.5,0.5
526,0.5,-0.5,0.5,0.5,0.5,0.5
527,0.5,-0.5,0.5,0.5,0.5,0.5
528,0.5,-0.5,0.5,0.5,0.5,0.5
529,0.5,-0.5,0.5,0.5,0.5,0.5
530,0.5,-0.5,0.5,0.5,0.5,0.5
531,0.494322925806046,-0.5,0.5,0.5,0.5,0.5
532,0.476223468780518,-0.5,0.5,0.5,0.5,0.5
533,0.468753576278687,-0.5,0.5,0.5,0.5,0.5
534,0.46260392665863,-0.5,0.5,0.5,0.5,0.5
535,0.446778416633606,-0.5,0.5,0.5,0.5,0.5
536,0.417657405138016,-0.5,0.5,0.5,0.5,0.5
537,0.388377666473389,-0.5,0.5,0.5,0.5,0.5
538,0.37724307179451,-0.5,0.5,0.5,0.5,0.5
539,0.381217896938324,-0.5,0.5,0.5,0.5,0.5
540,0.380389302968979,-0.5,0.5,0.5,0.5,0.5
541,0.358829230070114,-0.5,0.5,0.5,0.5,0.5
542,0.314906299114227,-0.5,0.5,0.5,0.5,0.5
543,0.262087881565094,-0.5,0.5,0.5,0.5,0.5
544,0.220023736357689,-0.5,0.5,0.5,0.5,0.5
545,0.192037850618362,-0.5,0.5,0.5,0.5,0.5
546,0.156920686364174,-0.5,0.5,0.5,0.5,0.5
547,0.109940946102142,-0.5,0.5,0.5,0.5,0.5
548,0.0770414099097252,-0.5,0.5,0.5,0.5,0.5
549,0.0707757174968719,-0.5,0.5,0.5,0.5,0.5
550,0.0738405585289001,-0.5,0.5,0.5,0.5,0.5
551,0.0605889111757278,-0.5,0.5,0.5,0.5,0.5
552,0.0222961734980345,-0.5,0.5,0.5,0.5,0.5
553,-0.0210715867578983,-0.5,0.5,0.5,0.5,0.5
554,-0.045051246881485,-0.5,0.5,0.5,0.5,0.5
555,-0.0528505146503448,-0.5,0.5,0.5,0.5,0.5
556,-0.0666382759809494,-0.5,0.5,0.5,0.5,0.5
557,-0.0941391065716743,-0.5,0.5,0.5,0.5,0.5
558,-0.126112297177315,-0.5,0.5,0.5,0.5,0.5
559,-0.16279274225235,-0.5,0.5,0.5,0.5,0.5
560,-0.20448699593544,-0.5,0.5,0.5,0.5,0.5
561,-0.232336223125458,-0.5,0.449451178312302,0.5,0.5,0.5
562,-0.239479705691338,-0.5,0.386048287153244,0.490050673484802,0.5,0.5
563,-0.243562072515488,-0.5,0.34333947300911,0.476944625377655,0.5,0.495494812726974
564,-0.255200982093811,-0.5,0.33155420422554,0.4645114839077,0.5,0.484926909208298
565,-0.270852118730545,-0.5,0.344308912754059,0.443501830101013,0.5,0.484500616788864
566,-0.285036772489548,-0.5,0.365819871425629,0.422932654619217,0.5,0.485364556312561
567,-0.290411949157715,-0.5,0.375105082988739,0.410293787717819,0.5,0.474132120609283
568,-0.280034631490707,-0.5,0.363551259040833,0.401707053184509,0.5,0.449074745178223
569,-0.260871678590775,-0.5,0.339761823415756,0.386566013097763,0.5,0.421465009450912
570,-0.250939697027206,-0.5,0.311333239078522,0.353976637125015,0.5,0.387841612100601
571,-0.264445304870605,-0.5,0.279854506254196,0.305060625076294,0.5,0.338779598474503
572,-0.299839913845062,-0.5,0.242800533771515,0.250999927520752,0.5,0.292986392974854
573,-0.338202297687531,-0.5,0.197639867663383,0.200937762856483,0.5,0.277911931276321
574,-0.374922722578049,-0.5,0.146016836166382,0.156626656651497,0.459544509649277,0.273033887147903
575,-0.422701358795166,-0.5,0.0901937633752823,0.11577333509922,0.384597033262253,0.227224975824356
576,-0.47584080696106,-0.5,0.0387208536267281,0.0858699008822441,0.321799993515015,0.143896132707596
577,-0.5,-0.5,0.00273093348369002,0.0743438899517059,0.287504971027374,0.081737719476223
578,-0.5,-0.5,-0.016007699072361,0.0729457661509514,0.282855033874512,0.0731020867824554
579,-0.5,-0.5,-0.0224097892642021,0.0675140544772148,0.298255681991577,0.0860103219747543
580,-0.5,-0.387209326028824,-0.0253218617290258,0.0432506874203682,0.316659063100815,0.065780833363533
581,-0.5,-0.313045263290405,-0.0346775650978088,-0.00669401371851563,0.311775416135788,-0.00175428588408977
582,-0.5,-0.27401003241539,-0.0568984486162663,-0.0711019709706306,0.264779895544052,-0.0880778133869171
583,-0.5,-0.235281765460968,-0.0964909270405769,-0.132600516080856,0.18473893404007,-0.161794081330299
584,-0.5,-0.157104521989822,-0.148277744650841,-0.179958939552307,0.10284510999918,-0.20512954890728
585,-0.5,-0.030536750331521,-0.195021450519562,-0.21079583466053,0.0453701093792915,-0.213501915335655
586,-0.5,0.122444100677967,-0.229093536734581,-0.2327069491148,0.0151966130360961,-0.198657855391502
587,-0.5,0.266031175851822,-0.258746743202209,-0.255752474069595,-0.00395272672176361,-0.180472373962402
588,-0.5,0.368029832839966,-0.287758827209473,-0.282706558704376,-0.03211410343647,-0.170884504914284
589,-0.5,0.426338523626328,-0.314751625061035,-0.308624804019928,-0.0776244252920151,-0.176066666841507
590,-0.5,0.466093510389328,-0.343587577342987,-0.326475441455841,-0.130416333675385,-0.203957930207253
591,-0.5,0.5,-0.37163645029068,-0.331926971673965,-0.170783445239067,-0.250510990619659
592,-0.5,0.5,-0.390419065952301,-0.328162997961044,-0.192592978477478,-0.289832234382629
593,-0.5,0.5,-0.403553545475006,-0.329277485609055,-0.212105929851532,-0.304504185914993
594,-0.5,0.5,-0.423598021268845,-0.351676166057587,-0.243461221456528,-0.314768582582474
595,-0.5,0.5,-0.448513686656952,-0.39593493938446,-0.280049324035645,-0.346993774175644
596,-0.5,0.5,-0.460003882646561,-0.44169607758522,-0.298667103052139,-0.395705312490463
597,-0.5,0.5,-0.449391305446625,-0.470068395137787,-0.278549909591675,-0.438286870718002
598,-0.5,0.5,-0.429359793663025,-0.4892937541008,-0.235389232635498,-0.470750778913498
599,-0.5,0.5,-0.42364639043808,-0.5,-0.212334305047989,-0.5
600,-0.5,0.5,-0.439392119646072,-0.5,-0.226478770375252,-0.5
601,-0.5,0.5,-0.458245515823364,-0.5,-0.265810430049896,-0.5
602,-0.5,0.5,-0.470662087202072,-0.5,-0.319369673728943,-0.5
603,-0.5,0.5,-0.482364296913147,-0.5,-0.373669803142548,-0.5
604,-0.5,0.5,-0.48959693312645,-0.5,-0.409055680036545,-0.463563442230225
605,-0.5,0.5,-0.490309864282608,-0.5,-0.422386676073074,-0.408185631036758
606,-0.5,0.5,-0.497898370027542,-0.5,-0.431621223688126,-0.370057344436646
607,-0.5,0.5,-0.5,-0.5,-0.447176396846771,-0.364433586597443
608,-0.5,0.5,-0.5,-0.5,-0.465073317289352,-0.395521104335785
609,-0.5,0.5,-0.5,-0.5,-0.485177427530289,-0.440682679414749
610,-0.5,0.5,-0.5,-0.5,-0.5,-0.471419394016266
611,-0.5,0.5,-0.5,-0.5,-0.5,-0.498688369989395
612,-0.5,0.5,-0.5,-0.5,-0.5,-0.5
613,-0.5,0.5,-0.5,-0.5,-0.5,-0.5
614,-0.5,0.5,-0.5,-0.5,-0.5,-0.5
615,-0.5,0.5,-0.5,-0.5,-0.5,-0.5
616,-0.5,0.5,-0.5,-0.5,-0.5,-0.5
617,-0.5,0.5,-0.5,-0.5,-0.5,-0.5
618,-0.5,0.5,-0.5,-0.5,-0.5,-0.5
619,-0.5,0.5,-0.5,-0.5,-0.5,-0.5
620,-0.5,0.5,-0.5,-0.5,-0.5,-0.5
621,-0.5,0.5,-0.5,-0.5,-0.5,-0.5
622,-0.5,0.5,-0.5,-0.5,-0.5,-0.5
623,-0.5,0.5,-0.5,-0.5,-0.475431948900223,-0.5
624,-0.5,0.5,-0.5,-0.5,-0.45703712105751,-0.5
625,-0.5,0.5,-0.5,-0.5,-0.484803438186646,-0.5
626,-0.5,0.5,-0.5,-0.5,-0.5,-0.5
627,-0.5,0.5,-0.5,-0.5,-0.5,-0.5
628,-0.5,0.5,-0.5,-0.5,-0.5,-0.5
629,-0.5,0.5,-0.5,-0.5,-0.5,-0.5
630,-0.5,0.5,-0.5,-0.5,-0.5,-0.5
631,-0.5,0.5,-0.5,-0.5,-0.5,-0.5
632,-0.5,0.5,-0.5,-0.5,-0.5,-0.5
633,-0.5,0.5,-0.5,-0.5,-0.5,-0.5
634,-0.5,0.5,-0.5,-0.5,-0.5,-0.5
635,-0.5,0.5,-0.5,-0.5,-0.5,-0.5
636,-0.5,0.5,-0.5,-0.5,-0.5,-0.5
637,-0.5,0.5,-0.5,-0.5,-0.5,-0.5
638,-0.5,0.5,-0.5,-0.5,-0.5,-0.5
639,-0.5,0.5,-0.5,-0.5,-0.5,-0.5
640,-0.5,0.5,-0.5,-0.5,-0.5,-0.5
641,-0.5,0.5,-0.5,-0.5,-0.5,-0.5
642,-0.5,0.5,-0.5,-0.5,-0.5,-0.5
643,-0.5,0.5,-0.5,-0.5,-0.5,-0.5
644,-0.5,0.5,-0.5,-0.5,-0.5,-0.5
645,-0.5,0.5,-0.5,-0.5,-0.5,-0.5
646,-0.5,0.5,-0.5,-0.5,-0.5,-0.5
647,-0.5,0.5,-0.5,-0.5,-0.5,-0.5
648,-0.5,0.5,-0.5,-0.5,-0.5,-0.5
649,-0.5,0.5,-0.5,-0.5,-0.5,-0.5
650,-0.5,0.5,-0.5,-0.5,-0.5,-0.5
651,-0.5,0.5,-0.5,-0.5,-0.5,-0.5
652,-0.5,0.5,-0.5,-0.5,-0.5,-0.5
653,-0.5,0.5,-0.5,-0.5,-0.5,-0.5
654,-0.5,0.5,-0.5,-0.5,-0.5,-0.5
655,-0.5,0.5,-0.5,-0.5,-0.5,-0.5
656,-0.5,0.5,-0.5,-0.5,-0.5,-0.5
657,-0.5,0.5,-0.5,-0.5,-0.5,-0.5
658,-0.5,0.5,-0.5,-0.5,-0.5,-0.5
659,-0.5,0.5,-0.5,-0.5,-0.5,-0.5
660,-0.5,0.5,-0.5,-0.5,-0.5,-0.5
661,-0.5,0.5,-0.5,-0.5,-0.5,-0.5
662,-0.5,0.5,-0.5,-0.5,-0.5,-0.5
663,-0.5,0.5,-0.5,-0.5,-0.5,-0.5
664,-0.5,0.5,-0.5,-0.5,-0.5,-0.5
665,-0.5,0.5,-0.5,-0.5,-0.5,-0.5
666,-0.5,0.5,-0.5,-0.5,-0.5,-0.5
667,-0.5,0.5,-0.5,-0.5,-0.5,-0.5
668,-0.5,0.5,-0.5,-0.5,-0.5,-0.5
669,-0.5,0.5,-0.5,-0.5,-0.5,-0.5
670,-0.5,0.5,-0.5,-0.5,-0.5,-0.5
671,-0.5,0.5,-0.5,-0.5,-0.5,-0.5
672,-0.5,0.5,-0.5,-0.5,-0.5,-0.5
673,-0.5,0.5,-0.5,-0.5,-0.5,-0.5
674,-0.5,0.5,-0.5,-0.5,-0.5,-0.5
675,-0.5,0.5,-0.5,-0.5,-0.5,-0.5
676,-0.5,0.5,-0.5,-0.5,-0.5,-0.5
677,-0.5,0.5,-0.5,-0.5,-0.5,-0.5
678,-0.5,0.5,-0.5,-0.5,-0.5,-0.5
679,-0.5,0.5,-0.5,-0.5,-0.5,-0.5
680,-0.5,0.5,-0.5,-0.5,-0.5,-0.5
681,-0.5,0.5,-0.5,-0.5,-0.5,-0.5
682,-0.5,0.5,-0.5,-0.5,-0.5,-0.5
683,-0.5,0.5,-0.5,-0.5,-0.5,-0.5
684,-0.5,0.5,-0.5,-0.5,-0.5,-0.5
685,-0.5,0.5,-0.5,-0.5,-0.5,-0.5
686,-0.5,0.5,-0.5,-0.5,-0.5,-0.5
687,-0.5,0.5,-0.5,-0.5,-0.5,-0.5
688,-0.5,0.5,-0.5,-0.5,-0.5,-0.5
689,-0.5,0.5,-0.5,-0.5,-0.5,-0.5
690,-0.5,0.5,-0.5,-0.5,-0.5,-0.5
691,-0.5,0.5,-0.5,-0.5,-0.5,-0.5
692,-0.5,0.5,-0.5,-0.5,-0.5,-0.5
693,-0.5,0.5,-0.5,-0.5,-0.5,-0.5
694,-0.5,0.5,-0.5,-0.5,-0.5,-0.5
695,-0.5,0.5,-0.5,-0.5,-0.5,-0.5
696,-0.5,0.5,-0.5,-0.5,-0.5,-0.5
697,-0.5,0.5,-0.5,-0.5,-0.5,-0.5
698,-0.5,0.5,-0.5,-0.5,-0.5,-0.5
699,-0.5,0.5,-0.5,-0.5,-0.5,-0.5
700,-0.5,0.5,-0.5,-0.5,-0.5,-0.5
701,-0.5,0.5,-0.5,-0.5,-0.5,-0.5
702,-0.5,0.5,-0.5,-0.5,-0.5,-0.5
703,-0.5,0.5,-0.5,-0.5,-0.5,-0.5
704,-0.5,0.5,-0.5,-0.5,-0.5,-0.5
705,-0.5,0.5,-0.5,-0.5,-0.5,-0.5
706,-0.5,0.5,-0.5,-0.5,-0.5,-0.5
707,-0.5,0.5,-0.5,-0.5,-0.5,-0.5
708,-0.5,0.5,-0.5,-0.5,-0.5,-0.5
709,-0.5,0.5,-0.5,-0.5,-0.5,-0.5
710,-0.5,0.5,-0.5,-0.5,-0.5,-0.5
711,-0.5,0.5,-0.5,-0.5,-0.5,-0.5
712,-0.492613136768341,0.5,-0.5,-0.5,-0.5,-0.5
713,-0.452342867851257,0.5,-0.5,-0.5,-0.5,-0.5
714,-0.437206536531448,0.5,-0.5,-0.5,-0.5,-0.5
715,-0.440329641103745,0.5,-0.5,-0.5,-0.5,-0.5
716,-0.455205708742142,0.5,-0.5,-0.5,-0.5,-0.5
717,-0.465128093957901,0.5,-0.5,-0.5,-0.5,-0.5
718,-0.451029568910599,0.5,-0.5,-0.5,-0.5,-0.5
719,-0.405017495155334,0.5,-0.5,-0.5,-0.5,-0.5
720,-0.342078506946564,0.5,-0.5,-0.5,-0.5,-0.5
721,-0.291389793157578,0.5,-0.5,-0.5,-0.5,-0.5
722,-0.266287237405777,0.5,-0.5,-0.5,-0.5,-0.5
723,-0.25552174448967,0.5,-0.5,-0.5,-0.5,-0.471372425556183
724,-0.243053704500198,0.5,-0.5,-0.5,-0.5,-0.46696600317955
725,-0.228911891579628,0.5,-0.5,-0.5,-0.5,-0.493099600076675
726,-0.229297414422035,0.5,-0.5,-0.5,-0.5,-0.5
727,-0.244909599423409,0.5,-0.5,-0.5,-0.5,-0.5
728,-0.253883928060532,0.5,-0.5,-0.5,-0.5,-0.5
729,-0.253266960382462,0.5,-0.5,-0.5,-0.5,-0.5
730,-0.260500222444534,0.5,-0.5,-0.5,-0.5,-0.5
731,-0.271501064300537,0.5,-0.5,-0.5,-0.5,-0.5
732,-0.26191434264183,0.5,-0.5,-0.5,-0.5,-0.5
733,-0.219843462109566,0.5,-0.5,-0.5,-0.5,-0.5
734,-0.155562281608582,0.5,-0.5,-0.5,-0.5,-0.431785941123962
735,-0.0903897434473038,0.5,-0.5,-0.461515516042709,-0.5,-0.375511676073074
736,-0.0433422438800335,0.5,-0.5,-0.419466614723206,-0.441318482160568,-0.358410090208054
737,-0.0156244384124875,0.5,-0.5,-0.42654213309288,-0.39727583527565,-0.366794526576996
738,0.0141018806025386,0.5,-0.5,-0.460498601198196,-0.375619858503342,-0.392694920301437
739,0.0514077134430408,0.5,-0.5,-0.496548980474472,-0.375410437583923,-0.435910612344742
740,0.0636044591665268,0.5,-0.5,-0.5,-0.412751376628876,-0.48798531293869
741,0.0319359600543976,0.5,-0.5,-0.5,-0.483400493860245,-0.5
742,-0.0141790295019746,0.5,-0.5,-0.5,-0.5,-0.5
743,-0.0368223898112774,0.5,-0.5,-0.5,-0.5,-0.5
744,-0.0317102558910847,0.5,-0.5,-0.5,-0.5,-0.464133471250534
745,-0.016660176217556,0.5,-0.5,-0.489095896482468,-0.5,-0.409529715776443
746,-0.00245231413282454,0.5,-0.5,-0.469318568706512,-0.5,-0.36932584643364
747,0.0120744574815035,0.5,-0.5,-0.456641972064972,-0.475769191980362,-0.358129113912582
748,0.0303021520376205,0.5,-0.5,-0.455113559961319,-0.458212792873383,-0.375712007284164
749,0.0494515225291252,0.5,-0.5,-0.459780365228653,-0.449771463871002,-0.407620012760162
750,0.0685411840677261,0.5,-0.5,-0.464944452047348,-0.451157659292221,-0.438441902399063
751,0.0873797833919525,0.5,-0.5,-0.472053736448288,-0.470293164253235,-0.459290474653244
752,0.0933075770735741,0.5,-0.5,-0.487814247608185,-0.5,-0.477066278457642
753,0.0816430673003197,0.5,-0.5,-0.5,-0.5,-0.492531567811966
754,0.0726654082536697,0.5,-0.5,-0.496766030788422,-0.5,-0.482403814792633
755,0.0871189758181572,0.5,-0.5,-0.458185106515884,-0.5,-0.439087122678757
756,0.128416627645493,0.5,-0.5,-0.411474347114563,-0.432748943567276,-0.394955068826675
757,0.17730687558651,0.5,-0.5,-0.385292112827301,-0.388119995594025,-0.384929597377777
758,0.201504305005074,0.5,-0.5,-0.393472969532013,-0.393900066614151,-0.410063505172729
759,0.195727810263634,0.5,-0.5,-0.419928640127182,-0.42557281255722,-0.435855060815811
760,0.180806413292885,0.5,-0.5,-0.438479751348495,-0.450745224952698,-0.428973197937012
761,0.169052481651306,0.5,-0.5,-0.444322139024735,-0.466827720403671,-0.401908129453659
762,0.16825932264328,0.5,-0.5,-0.442283391952515,-0.474085688591003,-0.389260947704315
763,0.183865994215012,0.5,-0.5,-0.431152254343033,-0.462109595537186,-0.395817935466766
764,0.206505134701729,0.5,-0.5,-0.415960967540741,-0.43600532412529,-0.399600058794022
765,0.228819742798805,0.5,-0.5,-0.404804289340973,-0.410462498664856,-0.386263579130173
766,0.252284437417984,0.5,-0.5,-0.395336896181107,-0.391606599092484,-0.363989442586899
767,0.272058129310608,0.5,-0.5,-0.381517082452774,-0.376924514770508,-0.344076097011566
768,0.281824916601181,0.5,-0.5,-0.368490636348724,-0.365050733089447,-0.338216334581375
769,0.276218444108963,0.5,-0.5,-0.371868044137955,-0.364313274621964,-0.364493936300278
770,0.253860086202621,0.5,-0.5,-0.395420908927917,-0.378494709730148,-0.417984157800674
771,0.228568032383919,0.5,-0.5,-0.425373464822769,-0.401016712188721,-0.477423548698425
772,0.217827022075653,0.5,-0.5,-0.444496691226959,-0.423780679702759,-0.5
773,0.223888009786606,0.5,-0.5,-0.439731329679489,-0.437562584877014,-0.5
774,0.235356286168098,0.5,-0.5,-0.416731238365173,-0.4417944252491,-0.486219972372055
775,0.244195103645325,0.5,-0.5,-0.394382864236832,-0.447346389293671,-0.423124998807907
776,0.251304477453232,0.5,-0.5,-0.377424985170364,-0.458663046360016,-0.384131550788879
777,0.256337493658066,0.5,-0.5,-0.360584229230881,-0.468301266431808,-0.365768253803253
778,0.259942620992661,0.5,-0.5,-0.343145191669464,-0.468663424253464,-0.347788155078888
779,0.271080315113068,0.5,-0.5,-0.323768973350525,-0.457801848649979,-0.317179411649704
780,0.294138222932816,0.5,-0.5,-0.302004247903824,-0.438204139471054,-0.285940140485764
781,0.321874916553497,0.5,-0.5,-0.285973131656647,-0.412470191717148,-0.282895177602768
782,0.349285513162613,0.5,-0.5,-0.28046327829361,-0.375993728637695,-0.308605939149857
783,0.381035774946213,0.5,-0.5,-0.280340731143951,-0.326451867818832,-0.337498426437378
784,0.411290526390076,0.5,-0.5,-0.288941353559494,-0.287239879369736,-0.363992065191269
785,0.418428719043732,0.5,-0.5,-0.312606781721115,-0.288599967956543,-0.393781036138535
786,0.40343388915062,0.5,-0.5,-0.336656987667084,-0.318975806236267,-0.410859793424606
787,0.389016211032867,0.5,-0.5,-0.341440320014954,-0.34747302532196,-0.399869561195374
788,0.379992514848709,0.5,-0.5,-0.331170976161957,-0.371577113866806,-0.374965816736221
789,0.370287626981735,0.5,-0.5,-0.321528404951096,-0.395823270082474,-0.35579240322113
790,0.361207842826843,0.5,-0.5,-0.31199648976326,-0.404849201440811,-0.335015475749969
791,0.35772231221199,0.5,-0.5,-0.298800319433212,-0.381095588207245,-0.305272132158279
792,0.36711722612381,0.5,-0.5,-0.303285449743271,-0.34152165055275,-0.29733669757843
793,0.382011085748672,0.5,-0.5,-0.341895073652267,-0.333561360836029,-0.339072853326797
794,0.384246200323105,0.5,-0.5,-0.382289588451386,-0.368563622236252,-0.401236653327942
795,0.37895679473877,0.5,-0.5,-0.376430600881577,-0.40059494972229,-0.426075041294098
796,0.383334100246429,0.5,-0.5,-0.318087637424469,-0.390011221170425,-0.388196140527725
797,0.399073898792267,0.5,-0.5,-0.241375863552094,-0.344909936189651,-0.310982555150986
798,0.416065752506256,0.5,-0.5,-0.181397885084152,-0.297195255756378,-0.238623604178429
799,0.426743656396866,0.5,-0.5,-0.154116272926331,-0.262164384126663,-0.204617395997047
800,0.438822478055954,0.5,-0.5,-0.158709719777107,-0.230661734938622,-0.214569419622421
801,0.461584061384201,0.5,-0.5,-0.183176442980766,-0.200556069612503,-0.249229148030281
802,0.483316332101822,0.5,-0.5,-0.217506617307663,-0.19353374838829,-0.288129091262817
803,0.485655695199966,0.5,-0.5,-0.2535719871521,-0.223687395453453,-0.321868449449539
804,0.462640255689621,0.5,-0.5,-0.27636706829071,-0.275964051485062,-0.341553449630737
805,0.424518287181854,0.5,-0.5,-0.279710799455643,-0.324073106050491,-0.340293824672699
806,0.396809726953506,0.5,-0.5,-0.274379730224609,-0.349276602268219,-0.330371409654617
807,0.389887899160385,0.5,-0.5,-0.272828996181488,-0.35274413228035,-0.334135144948959
808,0.384166449308395,0.464057803153992,-0.5,-0.278740257024765,-0.350527942180634,-0.354290634393692
809,0.371415615081787,0.420554995536804,-0.5,-0.284915536642075,-0.350724101066589,-0.366201728582382
810,0.369024097919464,0.39856693148613,-0.5,-0.283299565315247,-0.343807518482208,-0.34700545668602
811,0.39228555560112,0.409176051616669,-0.5,-0.279050976037979,-0.311376959085464,-0.302791982889175
812,0.437125593423843,0.445065826177597,-0.5,-0.285652607679367,-0.255399614572525,-0.258000016212463
813,0.473714113235474,0.485146969556808,-0.5,-0.305168330669403,-0.216792613267899,-0.237161457538605
814,0.472487151622772,0.499231308698654,-0.5,-0.323947578668594,-0.233220025897026,-0.251361787319183
815,0.444826304912567,0.475592434406281,-0.5,-0.325899749994278,-0.283038109540939,-0.27912312746048
816,0.43584331870079,0.441553324460983,-0.5,-0.303008854389191,-0.300508320331573,-0.282310396432877
817,0.471199929714203,0.428502947092056,-0.5,-0.268805056810379,-0.256262093782425,-0.256897628307343
818,0.5,0.421448677778244,-0.5,-0.251072257757187,-0.197232633829117,-0.234401419758797
819,0.5,0.383854001760483,-0.5,-0.269543945789337,-0.185047671198845,-0.248092517256737
820,0.5,0.308096379041672,-0.5,-0.32746496796608,-0.230436146259308,-0.315005093812943
821,0.485870331525803,0.227120131254196,-0.5,-0.395496666431427,-0.299826413393021,-0.400294929742813
822,0.433266907930374,0.19955675303936,-0.5,-0.421764254570007,-0.348610788583755,-0.425038605928421
823,0.403774082660675,0.2551129758358,-0.5,-0.3835329413414,-0.352459043264389,-0.35795384645462
824,0.410010039806366,0.355157643556595,-0.5,-0.305661261081696,-0.324098646640778,-0.250052779912949
825,0.434636801481247,0.440077841281891,-0.5,-0.225269436836243,-0.290299355983734,-0.158347740769386
826,0.456871747970581,0.484869688749313,-0.5,-0.161469429731369,-0.259702146053314,-0.0966372191905975
827,0.468613982200623,0.493151426315308,-0.474807500839233,-0.120142966508865,-0.225174322724342,-0.0625100508332253
828,0.470158696174622,0.478208184242249,-0.438511371612549,-0.104931578040123,-0.190643906593323,-0.0554638989269733
829,0.46519535779953,0.454837083816528,-0.432129591703415,-0.113822236657143,-0.175038620829582,-0.0707804188132286
830,0.456717491149902,0.429602891206741,-0.455229461193085,-0.136337116360664,-0.183570116758347,-0.100377038121223
831,0.452406525611877,0.402194857597351,-0.489240795373917,-0.163938462734222,-0.194674834609032,-0.13640221953392
832,0.455999404191971,0.37256070971489,-0.5,-0.197872772812843,-0.196451783180237,-0.172373443841934
833,0.454576253890991,0.34270840883255,-0.5,-0.2377028465271,-0.213545992970467,-0.201224520802498
834,0.438980013132095,0.319880157709122,-0.5,-0.272798001766205,-0.261971920728683,-0.215435922145844
835,0.419249832630157,0.312462419271469,-0.5,-0.293654352426529,-0.315329641103745,-0.21277841925621
836,0.410939604043961,0.324347227811813,-0.5,-0.297186881303787,-0.335193634033203,-0.193525671958923
837,0.421611309051514,0.352531939744949,-0.5,-0.284829288721085,-0.304839104413986,-0.161058738827705
838,0.440214872360229,0.377844750881195,-0.5,-0.271457672119141,-0.250343024730682,-0.135942295193672
839,0.440809458494186,0.375847995281219,-0.5,-0.279183179140091,-0.225558489561081,-0.147463262081146
840,0.413855820894241,0.348146080970764,-0.5,-0.302743434906006,-0.250285804271698,-0.193308293819427
841,0.383593887090683,0.318906188011169,-0.5,-0.30622535943985,-0.288366198539734,-0.231064945459366
842,0.383287757635117,0.305355399847031,-0.5,-0.270388871431351,-0.295963853597641,-0.221760615706444
843,0.413737267255783,0.310102581977844,-0.5,-0.213505357503891,-0.26914381980896,-0.164693921804428
844,0.442613899707794,0.328871548175812,-0.5,-0.168556541204453,-0.236855536699295,-0.0936871841549873
845,0.453900754451752,0.359793990850449,-0.499769032001495,-0.152654081583023,-0.216252118349075,-0.0356550738215446
846,0.467103183269501,0.392645180225372,-0.5,-0.157115295529366,-0.194746658205986,-0.000768140831496567
847,0.492162764072418,0.39085841178894,-0.5,-0.180262267589569,-0.175475373864174,-0.021108066663146
848,0.5,0.332311064004898,-0.5,-0.230314895510674,-0.195732668042183,-0.112666316330433
849,0.464829564094543,0.251646459102631,-0.5,-0.283541411161423,-0.26308137178421,-0.220687791705132
850,0.401919424533844,0.201444029808044,-0.5,-0.297761470079422,-0.329619556665421,-0.272118121385574
851,0.356833636760712,0.206352487206459,-0.5,-0.256000697612762,-0.342837929725647,-0.237664505839348
852,0.353797495365143,0.262566238641739,-0.5,-0.169799163937569,-0.288690268993378,-0.134863972663879
853,0.37731745839119,0.344212770462036,-0.483578860759735,-0.0714782327413559,-0.197289064526558,-0.0162375178188086
854,0.402418792247772,0.405013114213943,-0.418203771114349,-0.00672052660956979,-0.119695357978344,0.0520280785858631
855,0.416890799999237,0.402152210474014,-0.384663552045822,-0.00445694336667657,-0.0846053063869476,0.0358882136642933
856,0.423345953226089,0.340057224035263,-0.38942414522171,-0.0479002594947815,-0.0761858150362968,-0.0318686850368977
857,0.431828022003174,0.262808680534363,-0.412475407123566,-0.0978699624538422,-0.0701305866241455,-0.0915517807006836
858,0.445811212062836,0.201802328228951,-0.433881729841232,-0.135412350296974,-0.0699422731995583,-0.122983649373055
859,0.459110409021378,0.165369600057602,-0.454637408256531,-0.157213807106018,-0.0798651352524757,-0.13786469399929
860,0.462315559387207,0.15502355992794,-0.47934901714325,-0.160227224230766,-0.0815486013889313,-0.14051716029644
861,0.456362694501877,0.169651001691818,-0.5,-0.149399101734161,-0.0670319795608521,-0.128685876727104
862,0.45542049407959,0.200628116726875,-0.5,-0.139675289392471,-0.058383084833622,-0.108219161629677
863,0.466803669929504,0.224652469158173,-0.5,-0.142887532711029,-0.0779451951384544,-0.0850983336567879
864,0.476942539215088,0.219000637531281,-0.5,-0.157067507505417,-0.122790023684502,-0.0637986958026886
865,0.464506924152374,0.184817954897881,-0.5,-0.174587905406952,-0.167537719011307,-0.0656470432877541
866,0.419334560632706,0.138076841831207,-0.5,-0.195647045969963,-0.193353146314621,-0.111355051398277
867,0.36051020026207,0.098750576376915,-0.5,-0.213845461606979,-0.204225286841393,-0.178700193762779
868,0.322667121887207,0.0865834355354309,-0.5,-0.207228630781174,-0.204879522323608,-0.218108579516411
869,0.317714869976044,0.100204721093178,-0.483467400074005,-0.167315483093262,-0.19575147330761,-0.203989803791046
870,0.335842311382294,0.133688166737556,-0.453510105609894,-0.106026291847229,-0.178151980042458,-0.139086484909058
871,0.364945352077484,0.195972949266434,-0.443757086992264,-0.0360153801739216,-0.149889245629311,-0.0362209863960743
872,0.398200422525406,0.282186895608902,-0.435311496257782,0.0325454026460648,-0.108943499624729,0.0814806818962097
873,0.432609796524048,0.365034312009811,-0.417370110750198,0.0889877825975418,-0.0586228482425213,0.182019680738449
874,0.460799843072891,0.41680434346199,-0.397425621747971,0.121736325323582,-0.0107884658500552,0.238692626357079
875,0.47533455491066,0.424372792243958,-0.394837558269501,0.123205088078976,0.0209618918597698,0.245792284607887
876,0.477676182985306,0.390731751918793,-0.417204171419144,0.0940491110086441,0.0312989205121994,0.212641343474388
877,0.467498689889908,0.336739182472229,-0.457399040460587,0.0398457311093807,0.0191657580435276,0.151174977421761
878,0.441961884498596,0.291619658470154,-0.5,-0.02321439050138,-0.0151092410087585,0.0816726237535477
879,0.407813459634781,0.260174185037613,-0.5,-0.0657337829470634,-0.061738021671772,0.0313345529139042
880,0.376985162496567,0.224262595176697,-0.5,-0.0710724070668221,-0.102224551141262,0.0135820526629686
881,0.359133809804916,0.182087153196335,-0.5,-0.054245475679636,-0.12425708770752,0.0193109214305878
882,0.354470461606979,0.152223452925682,-0.5,-0.040802963078022,-0.127820611000061,0.027861762791872
883,0.356815546751022,0.142910093069077,-0.5,-0.0425526015460491,-0.118375048041344,0.0198746435344219
884,0.366802573204041,0.143663674592972,-0.5,-0.0561247393488884,-0.107586853206158,-0.00637865532189608
885,0.385153144598007,0.141208037734032,-0.5,-0.0739113464951515,-0.107382953166962,-0.0386683419346809
886,0.407176941633224,0.131512716412544,-0.5,-0.0890168100595474,-0.107743121683598,-0.0667078271508217
887,0.427366971969604,0.122916169464588,-0.5,-0.0933304578065872,-0.0850874111056328,-0.0749146714806557
888,0.434548586606979,0.123653218150139,-0.5,-0.0868246406316757,-0.043136864900589,-0.0491659007966518
889,0.415440589189529,0.132371976971626,-0.5,-0.0802411809563637,-0.013943038880825,-0.00814289692789316
890,0.375958561897278,0.144881322979927,-0.5,-0.0724440515041351,-0.0123217226937413,0.0203988198190928
891,0.341729789972305,0.155896559357643,-0.5,-0.0512012504041195,-0.0250011924654245,0.0419360473752022
892,0.32782718539238,0.160975784063339,-0.5,-0.0174268539994955,-0.0398500077426434,0.064643420279026
893,0.3299720287323,0.161046728491783,-0.5,0.018008328974247,-0.0504524223506451,0.0783937871456146
894,0.337628275156021,0.159293636679649,-0.5,0.0428585559129715,-0.0521237142384052,0.0755224525928497
895,0.342229843139648,0.154604911804199,-0.5,0.0512933842837811,-0.0498816855251789,0.0552009344100952
896,0.340951353311539,0.142811566591263,-0.5,0.0496171787381172,-0.0497915856540203,0.0266555789858103
897,0.337015122175217,0.13222748041153,-0.5,0.0468555092811584,-0.0468652173876762,0.0141686862334609
898,0.337871819734573,0.136099368333817,-0.5,0.0448095537722111,-0.0321006737649441,0.0290841609239578
899,0.346311718225479,0.141364365816116,-0.5,0.0309602804481983,-0.00304687744937837,0.0438196733593941
900,0.365208506584167,0.124266222119331,-0.5,-0.00684580439701676,0.0332896560430527,0.0283010955899954
901,0.390857011079788,0.0865796357393265,-0.5,-0.0595951788127422,0.0558016300201416,-0.0109758162871003
902,0.400870800018311,0.0435460731387138,-0.5,-0.106455139815807,0.0442406460642815,-0.0538980253040791
903,0.389127194881439,0.0104465531185269,-0.5,-0.125033184885979,0.00782743096351624,-0.0868604630231857
904,0.372666776180267,0.00726189371198416,-0.5,-0.0950944721698761,-0.0197057388722897,-0.088057704269886
905,0.35953152179718,0.0407213605940342,-0.5,-0.0221636425703764,-0.0136251607909799,-0.039775375276804
906,0.346238493919373,0.0988131985068321,-0.5,0.0573160611093044,0.0170823838561773,0.0439914353191853
907,0.329670786857605,0.169075459241867,-0.5,0.112366497516632,0.0464718863368034,0.131720036268234
908,0.312498211860657,0.234769999980927,-0.5,0.13556370139122,0.0619363449513912,0.201645895838737
909,0.30049255490303,0.267015427350998,-0.5,0.13086012005806,0.0633693039417267,0.243522554636002
910,0.294003754854202,0.248815223574638,-0.5,0.10775450617075,0.0561141818761826,0.250336825847626
911,0.288034737110138,0.199625432491302,-0.5,0.0748448818922043,0.0543946139514446,0.220055565237999
912,0.284471124410629,0.147922828793526,-0.5,0.0269494652748108,0.0683106109499931,0.155334755778313
913,0.279998868703842,0.0898192375898361,-0.5,-0.0408478304743767,0.0762264356017113,0.0559080243110657
914,0.257524460554123,0.0159846879541874,-0.5,-0.0991281569004059,0.0481551140546799,-0.0581956394016743
915,0.229673072695732,-0.0433361753821373,-0.5,-0.107695214450359,0.00424230564385653,-0.132274374365807
916,0.229317724704742,-0.04477434232831,-0.5,-0.0675877332687378,-0.00652443198487163,-0.12764798104763
917,0.258211374282837,0.0155158014968038,-0.5,-0.0031674129422754,0.0376272350549698,-0.0540567748248577
918,0.3034588098526,0.103388629853725,-0.5,0.0684032961726189,0.126369506120682,0.0519801937043667
919,0.349785029888153,0.171855241060257,-0.5,0.117897443473339,0.21363477408886,0.133432745933533
920,0.371466815471649,0.176283001899719,-0.5,0.117776937782764,0.239345580339432,0.13790300488472
921,0.353517055511475,0.116796307265759,-0.5,0.0863610059022903,0.195526659488678,0.082119807600975
922,0.31273353099823,0.0514706410467625,-0.5,0.0664750337600708,0.133620828390121,0.0394750945270061
923,0.285218447446823,0.0323672816157341,-0.5,0.0749859735369682,0.104763090610504,0.0519211031496525
924,0.283494412899017,0.056264016777277,-0.5,0.0987909734249115,0.117332860827446,0.0998523905873299
925,0.290104418992996,0.090577632188797,-0.490900188684464,0.122205659747124,0.145824953913689,0.148999974131584
926,0.295167237520218,0.119260370731354,-0.462686955928802,0.141818836331367,0.170433983206749,0.185540154576302
927,0.300895273685455,0.141686245799065,-0.433708846569061,0.157468646764755,0.191949844360352,0.206015005707741
928,0.307347655296326,0.153931736946106,-0.404919475317001,0.16436380147934,0.214854076504707,0.209547936916351
929,0.312573790550232,0.153231933712959,-0.378845155239105,0.155976742506027,0.236583679914474,0.203876957297325
930,0.30884575843811,0.149489760398865,-0.372810184955597,0.129134401679039,0.246002092957497,0.191732481122017
931,0.288898259401321,0.159315809607506,-0.39523446559906,0.0903644412755966,0.236144810914993,0.166538074612617
932,0.259019047021866,0.179580435156822,-0.424680113792419,0.0554613545536995,0.217536628246307,0.132644668221474
933,0.23128005862236,0.184487164020538,-0.439271807670593,0.0348044224083424,0.2014479637146,0.0969988778233528
934,0.215409889817238,0.154510945081711,-0.439252644777298,0.0222709588706493,0.185751631855965,0.0519133806228638
935,0.216083198785782,0.0896422788500786,-0.438014447689056,0.00866862293332815,0.166629880666733,-0.00862661190330982
936,0.219952553510666,0.0116411065682769,-0.436863929033279,0.000794457970187068,0.146155536174774,-0.0678046941757202
937,0.211851060390472,-0.0394461303949356,-0.423534542322159,0.0127841914072633,0.131257101893425,-0.0929391756653786
938,0.202293619513512,-0.0372232422232628,-0.397713094949722,0.0439234972000122,0.134499683976173,-0.0686254501342773
939,0.210491120815277,0.00816300138831139,-0.367163807153702,0.080756701529026,0.16752989590168,-0.00986307114362717
940,0.23859715461731,0.0663105472922325,-0.335292369127274,0.110493630170822,0.226797327399254,0.0584115050733089
941,0.271851420402527,0.11527481675148,-0.303853213787079,0.124518647789955,0.292273133993149,0.119887538254261
942,0.291764616966248,0.144982144236565,-0.274148792028427,0.115343146026134,0.332675725221634,0.155379176139832
943,0.27983683347702,0.141129776835442,-0.263164937496185,0.0768186300992966,0.309754997491837,0.132229745388031
944,0.225470647215843,0.103336155414581,-0.295347213745117,0.0190710928291082,0.215926602482796,0.0484699308872223
945,0.152942091226578,0.0653625205159187,-0.353822767734528,-0.0251061674207449,0.107041731476784,-0.0398047640919685
946,0.105158507823944,0.0540339909493923,-0.388479471206665,-0.0280922371894121,0.0563218891620636,-0.0766655057668686
947,0.101803362369537,0.0615944974124432,-0.374880969524384,0.00720596639439464,0.087464414536953,-0.0560880675911903
948,0.138676255941391,0.0803825855255127,-0.327898144721985,0.0609353519976139,0.168761998414993,0.00735593819990754
949,0.193203002214432,0.119211256504059,-0.278994292020798,0.113615393638611,0.247504979372025,0.096648097038269
950,0.233006581664085,0.171307414770126,-0.251987814903259,0.149270638823509,0.289510816335678,0.169081181287766
951,0.243607997894287,0.195394963026047,-0.253884941339493,0.15484082698822,0.294350743293762,0.17607606947422
952,0.23592646420002,0.155054166913033,-0.280971109867096,0.127123787999153,0.282699167728424,0.115896001458168
953,0.233645617961884,0.0661037787795067,-0.314306974411011,0.0840184316039085,0.276359617710114,0.0362821184098721
954,0.255420684814453,-0.0215451251715422,-0.324031621217728,0.0498073734343052,0.277183890342712,-0.0225020945072174
955,0.283098310232162,-0.0798914358019829,-0.301299691200256,0.0319025442004204,0.270221948623657,-0.0581303611397743
956,0.272534370422363,-0.11890409886837,-0.284704089164734,0.0144752599298954,0.236845418810844,-0.0847175046801567
957,0.219569995999336,-0.141877233982086,-0.312727153301239,-0.0147832576185465,0.175991579890251,-0.104675240814686
958,0.168278589844704,-0.126647010445595,-0.349484443664551,-0.0366933681070805,0.130139604210854,-0.101109020411968
959,0.153756931424141,-0.0743533298373222,-0.331376254558563,-0.0304377228021622,0.145058557391167,-0.0675006657838821
960,0.161013796925545,-0.0169529374688864,-0.260230422019959,-0.000599320919718593,0.206262663006783,-0.0216971207410097
961,0.153871104121208,0.0204030405730009,-0.190937250852585,0.0374471098184586,0.252820670604706,0.0146802999079227
962,0.139919713139534,0.0316074378788471,-0.159982025623322,0.0726675912737846,0.252267479896545,0.0331378094851971
963,0.150466859340668,0.0342181101441383,-0.152809545397758,0.103427745401859,0.232059121131897,0.0446284599602222
964,0.185757845640183,0.0499985478818417,-0.133693367242813,0.132358074188232,0.228547409176826,0.0627560243010521
965,0.225226819515228,0.0705874413251877,-0.0917189568281174,0.158629715442657,0.245982125401497,0.0853709504008293
966,0.253195196390152,0.0738132745027542,-0.0466559082269669,0.176128372550011,0.272452414035797,0.0998450890183449
967,0.265940815210342,0.0626984611153603,-0.0181609094142914,0.183385848999023,0.302972316741943,0.106659404933453
968,0.266649127006531,0.0570321120321751,-0.00804075784981251,0.184171944856644,0.32982611656189,0.120506472885609
969,0.254378706216812,0.0561070777475834,-0.0106692295521498,0.170508921146393,0.332793742418289,0.132376298308373
970,0.228796049952507,0.0425230152904987,-0.0214729476720095,0.132968947291374,0.3043392598629,0.114080399274826
971,0.199417144060135,0.0118145598098636,-0.03179632127285,0.0812187045812607,0.26269918680191,0.0599517934024334
972,0.1762835085392,-0.0302274562418461,-0.0296856090426445,0.0356356091797352,0.232272028923035,-0.0118328621610999
973,0.160594582557678,-0.07493045181036,-0.0199436470866203,0.0098271332681179,0.222528263926506,-0.0761147886514664
974,0.146369725465775,-0.111123025417328,-0.0235421974211931,0.000632585783023387,0.219470024108887,-0.112243875861168
975,0.129579782485962,-0.12908872961998,-0.0418179668486118,0.00543373497202992,0.206508129835129,-0.106548242270947
976,0.117406904697418,-0.113899499177933,-0.0506344735622406,0.0364321693778038,0.191154450178146,-0.0543567836284637
977,0.117642350494862,-0.0605329722166061,-0.0398252308368683,0.0873365625739098,0.190340414643288,0.0204566419124603
978,0.129294276237488,0.00140258588362485,-0.0248792059719563,0.127349555492401,0.206998720765114,0.0762506350874901
979,0.151568695902824,0.0320532694458961,-0.0173462927341461,0.1412732899189,0.234538272023201,0.0918774008750916
980,0.180706068873405,0.0215503759682179,-0.0160301793366671,0.133336737751961,0.262443363666534,0.0734453126788139
981,0.20327091217041,-0.0115462709218264,-0.0163611620664597,0.111402943730354,0.281863570213318,0.0373686589300632
982,0.210010647773743,-0.0401921384036541,-0.00985972583293915,0.0894844755530357,0.295678377151489,0.00514173833653331
983,0.204157307744026,-0.0396123304963112,0.00794646516442299,0.078887514770031,0.308118343353271,-0.000684797414578497
984,0.191192492842674,-0.00533210393041372,0.0241581629961729,0.0744547545909882,0.310096025466919,0.0161603987216949
985,0.174133643507957,0.0372384190559387,0.0212831906974316,0.0688092708587646,0.297078460454941,0.0265554040670395
986,0.159622684121132,0.0570876263082027,0.00168442819267511,0.0664312839508057,0.283893585205078,0.0181811805814505
987,0.157363951206207,0.0397822372615337,-0.020166240632534,0.067206546664238,0.277385115623474,-0.00256039295345545
988,0.164935305714607,-0.0113561525940895,-0.0404262542724609,0.0588125064969063,0.264326006174088,-0.0326649695634842
989,0.168062046170235,-0.0725542530417442,-0.0597968995571136,0.0371809974312782,0.239112421870232,-0.0675371959805489
990,0.160120368003845,-0.109716482460499,-0.0687394812703133,0.015072432346642,0.21481616795063,-0.0958263203501701
991,0.145252987742424,-0.109906002879143,-0.0577333457767963,0.00739183835685253,0.207783073186874,-0.103448480367661
992,0.135114714503288,-0.0871131271123886,-0.0294303260743618,0.0192177426069975,0.225575655698776,-0.0834844559431076
993,0.13988895714283,-0.0559579096734524,0.0043492172844708,0.0436215475201607,0.260390639305115,-0.0453990735113621
994,0.151014029979706,-0.0204489585012197,0.0325063653290272,0.0671345889568329,0.294397920370102,-0.005118562374264
995,0.154085800051689,0.0140152145177126,0.053255021572113,0.0812714323401451,0.315040588378906,0.0231229662895203
996,0.147435680031776,0.03309565782547,0.0624158978462219,0.0851297825574875,0.313904821872711,0.0267861317843199
997,0.13722337782383,0.0314396061003208,0.0544353723526001,0.0828754231333733,0.29105269908905,0.0089558158069849
998,0.133007764816284,0.0220242794603109,0.0461085774004459,0.0821896195411682,0.266296982765198,-0.0128242578357458
999,0.138050869107246,0.0141011402010918,0.0598232485353947,0.0854149609804153,0.257482558488846,-0.030820844694972
1000,0.148082166910172,0.0101923299953341,0.0944097638130188,0.0893568694591522,0.262840241193771,-0.045377142727375
1001,0.157454133033752,0.0133213521912694,0.132909059524536,0.0937729328870773,0.273567020893097,-0.0529873631894588
1002,0.159378051757813,0.0186486914753914,0.156908884644508,0.0963785275816917,0.287330001592636,-0.0547297336161137
1003,0.159684717655182,0.0299353338778019,0.161840975284576,0.0927733480930328,0.315520048141479,-0.0481397397816181
1004,0.169927954673767,0.0666527524590492,0.158461004495621,0.0827523767948151,0.359968364238739,-0.0223401989787817
1005,0.179321348667145,0.11634449660778,0.151363790035248,0.0663134753704071,0.385321527719498,0.00466647557914257
1006,0.166493192315102,0.125383302569389,0.139643505215645,0.0473751537501812,0.357285469770432,-0.00599748641252518
1007,0.133664488792419,0.0686373859643936,0.123760342597961,0.032395139336586,0.289163559675217,-0.0542084909975529
1008,0.104512318968773,-0.0157882515341043,0.102879770100117,0.0239042527973652,0.221709206700325,-0.104437880218029
1009,0.0981062054634094,-0.0719784498214722,0.086719773709774,0.0286547783762217,0.18623311817646,-0.127755224704742
1010,0.116328626871109,-0.0778441652655602,0.090407632291317,0.0530197136104107,0.19470003247261,-0.11546116322279
1011,0.145796492695808,-0.0487365275621414,0.112036637961864,0.0881043523550034,0.236384451389313,-0.0777315124869347
1012,0.169265925884247,-0.0114582646638155,0.141003325581551,0.117898605763912,0.287297755479813,-0.0357391089200974
1013,0.180454105138779,0.0140236895531416,0.170407339930534,0.134044408798218,0.32844603061676,-0.00879328045994043
1014,0.184017181396484,0.0195733867585659,0.183475226163864,0.131997227668762,0.343927174806595,-0.00621590623632073
1015,0.181425780057907,0.00935768056660891,0.164090648293495,0.110400445759296,0.323913246393204,-0.0263263434171677
1016,0.169963493943214,-0.00150156486779451,0.124697998166084,0.0796875283122063,0.279471725225449,-0.0599483922123909
1017,0.15022037923336,0.00566846877336502,0.0956913530826569,0.0573393255472183,0.238101571798325,-0.0901903882622719
1018,0.123763702809811,0.0355230718851089,0.091935507953167,0.0505431890487671,0.216534376144409,-0.0978526771068573
1019,0.0950540751218796,0.0642871484160423,0.0990117937326431,0.0504469871520996,0.205187901854515,-0.08108139783144
1020,0.0756974518299103,0.0610893741250038,0.0964133739471436,0.0477667413651943,0.194997772574425,-0.0589502304792404
1021,0.0756754651665688,0.0283158589154482,0.0856357514858246,0.044363159686327,0.197789907455444,-0.0461280681192875
1022,0.0962439402937889,0.00365558988414705,0.0860715061426163,0.0500372424721718,0.222062632441521,-0.0350253507494926
1023,0.129735469818115,0.0131436437368393,0.109658367931843,0.067850187420845,0.252892017364502,-0.012312495149672
1024,0.158885017037392,0.0410216599702835,0.142163038253784,0.0825903788208961,0.26635804772377,0.0170819796621799
1025,0.169081389904022,0.0624888427555561,0.163203507661819,0.0780496075749397,0.254341036081314,0.0268464460968971
1026,0.162275433540344,0.0697334632277489,0.175209268927574,0.0589448474347591,0.228221267461777,-0.000182120784302242
1027,0.146235182881355,0.0557178072631359,0.183589264750481,0.0406688787043095,0.199867770075798,-0.0454610027372837
1028,0.126193284988403,0.0147829912602901,0.179543226957321,0.031382467597723,0.174617365002632,-0.07820925116539
1029,0.109833583235741,-0.030965942889452,0.163711190223694,0.0380709432065487,0.163151472806931,-0.0793831497430801
1030,0.104025803506374,-0.0388684943318367,0.15506649017334,0.068914107978344,0.180485621094704,-0.0492701455950737
1031,0.112913236021996,0.00439316825941205,0.173820242285728,0.116988971829414,0.225977897644043,-0.00966430455446243
1032,0.132549107074738,0.0610580965876579,0.21607118844986,0.152777329087257,0.271127134561539,0.0112586533650756
1033,0.146489307284355,0.0794566199183464,0.243778914213181,0.147392734885216,0.278630137443542,-0.00581737002357841
1034,0.142551332712173,0.0448190681636333,0.230750650167465,0.109813332557678,0.24162258207798,-0.0517482534050941
1035,0.124621510505676,-0.013018055818975,0.198150157928467,0.0753467455506325,0.189830482006073,-0.0878971368074417
1036,0.100839257240295,-0.0518691688776016,0.176025867462158,0.0609717592597008,0.151474699378014,-0.0821398943662643
1037,0.0792905166745186,-0.0484664365649223,0.172345027327538,0.0637473687529564,0.133576259016991,-0.0373799204826355
1038,0.0720099806785584,-0.00988213624805212,0.187052875757217,0.0817744210362434,0.13621361553669,0.0169041194021702
1039,0.084188811480999,0.0411844924092293,0.215975716710091,0.110144928097725,0.157380431890488,0.0526277832686901
1040,0.108828477561474,0.0866930782794952,0.246442824602127,0.137741819024086,0.188665315508842,0.0623207539319992
1041,0.132551580667496,0.12123966217041,0.270615071058273,0.158868178725243,0.220224738121033,0.0618003979325294
1042,0.141797229647636,0.139555171132088,0.290916919708252,0.174372091889381,0.246380046010017,0.0664445459842682
1043,0.131264820694923,0.12824322283268,0.305594265460968,0.185013622045517,0.259413987398148,0.0704034492373466
1044,0.107194520533085,0.089988075196743,0.301397979259491,0.185192048549652,0.245848804712296,0.0616528876125813
1045,0.0833630934357643,0.0496577695012093,0.277606666088104,0.167930155992508,0.210778877139091,0.0374640226364136
1046,0.0702847540378571,0.0251627992838621,0.25947904586792,0.139515399932861,0.188117876648903,0.00561319664120674
1047,0.0735640749335289,0.0163511727005243,0.265952080488205,0.115107543766499,0.203047677874565,-0.0157929174602032
1048,0.101432479918003,0.0201462283730507,0.292367100715637,0.0993213504552841,0.245024517178535,-0.0167274512350559
1049,0.142639204859734,0.029690632596612,0.317266285419464,0.0801582857966423,0.275880962610245,-0.0153842438012362
1050,0.158994346857071,0.0312335900962353,0.314891219139099,0.0466988645493984,0.257496118545532,-0.0367476791143417
1051,0.134887680411339,0.0248309187591076,0.288282185792923,0.0125545142218471,0.191012531518936,-0.0744689553976059
1052,0.0929639637470245,0.0239942315965891,0.268304169178009,0.00766894919797778,0.117090977728367,-0.0960569307208061
1053,0.0607423260807991,0.0334388874471188,0.278544723987579,0.043094664812088,0.078094094991684,-0.0797021985054016
1054,0.0521823316812515,0.044708427041769,0.320994973182678,0.0982655063271523,0.0920368358492851,-0.035493977367878
1055,0.0662026032805443,0.0437310859560966,0.373277425765991,0.138636499643326,0.142938360571861,0.00154009915422648
1056,0.0931806266307831,0.029843932017684,0.407706886529922,0.142578125,0.189523056149483,0.00832779426127672
1057,0.116623796522617,0.0296279676258564,0.418311327695847,0.120357371866703,0.199762627482414,0.00184427248314023
1058,0.120174318552017,0.0666510984301567,0.414040148258209,0.105016820132732,0.178208291530609,0.0181543603539467
1059,0.10847769677639,0.13227142393589,0.40841156244278,0.120831958949566,0.154282107949257,0.0682788416743279
1060,0.099829874932766,0.20207816362381,0.412954151630402,0.159241482615471,0.150335013866425,0.122106805443764
1061,0.101332031190395,0.257104605436325,0.425891190767288,0.193408638238907,0.164886385202408,0.146804705262184
1062,0.110062681138515,0.287232011556625,0.439638912677765,0.210068419575691,0.183490231633186,0.143433839082718
1063,0.122769072651863,0.290009588003159,0.450255036354065,0.210102662444115,0.199072197079659,0.128742814064026
1064,0.137317880988121,0.274795234203339,0.455761611461639,0.195521488785744,0.216578155755997,0.109962992370129
1065,0.147271111607552,0.256500959396362,0.458449393510818,0.169622957706451,0.234501585364342,0.085155576467514
1066,0.143106907606125,0.245407894253731,0.469324141740799,0.140004754066467,0.242942005395889,0.0541690737009048
1067,0.124603293836117,0.251258283853531,0.493368268013,0.115285277366638,0.237341165542603,0.0267820432782173
1068,0.0976128280162811,0.271839708089828,0.5,0.0955868661403656,0.210493177175522,0.00854319520294666
1069,0.0687297061085701,0.288279086351395,0.496504604816437,0.0763456225395203,0.159565329551697,-0.00349245150573552
1070,0.0495068281888962,0.29013791680336,0.467733442783356,0.0659837201237679,0.106342032551765,-0.00225870730355382
1071,0.0459967665374279,0.284926652908325,0.453738421201706,0.0791609287261963,0.0764071419835091,0.0148192644119263
1072,0.0492420829832554,0.283360183238983,0.45861828327179,0.112848222255707,0.0686608403921127,0.0307918787002563
1073,0.0495953448116779,0.285521149635315,0.467411279678345,0.14662866294384,0.0668741092085838,0.0299257840961218
1074,0.0476313009858131,0.286103099584579,0.471452832221985,0.163842141628265,0.0650854706764221,0.0102146062999964
1075,0.0491784438490868,0.287935137748718,0.474288642406464,0.166527986526489,0.0773179307579994,-0.0164706669747829
1076,0.057694960385561,0.291227847337723,0.486778378486633,0.167116194963455,0.11853551864624,-0.0349021181464195
1077,0.0659620761871338,0.278289198875427,0.5,0.166867896914482,0.167991727590561,-0.0432088933885098
1078,0.066379725933075,0.242868959903717,0.5,0.159824833273888,0.190777316689491,-0.0420963689684868
1079,0.0643402338027954,0.211729273200035,0.5,0.148648992180824,0.181816145777702,-0.0278640706092119
1080,0.0646260380744934,0.210010230541229,0.5,0.139710798859596,0.155422523617744,-0.00884379260241985
1081,0.0645564869046211,0.240475177764893,0.5,0.140340238809586,0.131609633564949,0.00597562734037638
1082,0.0624333024024963,0.28412726521492,0.5,0.157063275575638,0.126367092132568,0.019251374527812
1083,0.0597905144095421,0.307696759700775,0.5,0.183348938822746,0.131632193922997,0.0310452189296484
1084,0.0625026077032089,0.300474643707275,0.5,0.202231779694557,0.129295259714127,0.045810904353857
1085,0.0719876065850258,0.285073339939117,0.5,0.204790219664574,0.117215774953365,0.071420706808567
1086,0.0817776396870613,0.284388601779938,0.5,0.194673508405685,0.104116640985012,0.0951628237962723
1087,0.0918283611536026,0.297263562679291,0.5,0.179449006915092,0.098933719098568,0.0965701341629028
1088,0.104705274105072,0.303268253803253,0.5,0.16340534389019,0.106142349541187,0.0742010399699211
1089,0.10926765948534,0.284820318222046,0.5,0.145949199795723,0.115861102938652,0.0439192056655884
1090,0.0930328592658043,0.243169218301773,0.5,0.128903448581696,0.112632364034653,0.0224958527833223
1091,0.0621540620923042,0.197569504380226,0.5,0.120076261460781,0.0965941324830055,0.0156277939677238
1092,0.0323217026889324,0.170827582478523,0.5,0.126739025115967,0.0808451324701309,0.0186532977968454
1093,0.0180276744067669,0.168336853384972,0.5,0.145936876535416,0.0785630270838737,0.0213247016072273
1094,0.0246345307677984,0.175277099013329,0.5,0.162429720163345,0.0927084684371948,0.014146120287478
1095,0.0442489571869373,0.183774054050446,0.5,0.167424559593201,0.116703368723392,0.00139972660690546
1096,0.068915918469429,0.20210300385952,0.5,0.170767456293106,0.147254601120949,0.00449664052575827
1097,0.0912736058235168,0.231090188026428,0.5,0.179308921098709,0.179339230060577,0.0314738750457764
1098,0.100366175174713,0.25570622086525,0.5,0.182757198810577,0.196177616715431,0.0542684495449066
1099,0.0901982337236404,0.258229076862335,0.5,0.171804502606392,0.18230502307415,0.0473164133727551
1100,0.0693987086415291,0.234545469284058,0.5,0.150098353624344,0.146592333912849,0.021902235224843
1101,0.0557197034358978,0.198767438530922,0.5,0.125660121440887,0.111635506153107,0.000568074407055974
1102,0.0521320886909962,0.170209020376205,0.5,0.105836138129234,0.0829233303666115,-0.00911968294531107
1103,0.0480589084327221,0.164135172963142,0.5,0.0970071256160736,0.0559788681566715,-0.00769289489835501
1104,0.0422307588160038,0.187776073813438,0.5,0.100074872374535,0.0390656180679798,0.00997213274240494
1105,0.0397626683115959,0.232749417424202,0.5,0.111787639558315,0.0462315827608109,0.0501890406012535
1106,0.0367442779242992,0.278271973133087,0.5,0.127997800707817,0.0676033198833466,0.0956709012389183
1107,0.0262772738933563,0.295821905136108,0.5,0.140785574913025,0.0780052840709686,0.113315276801586
1108,0.0115955267101526,0.26237690448761,0.5,0.141917809844017,0.0757695585489273,0.0951830074191093
1109,-9.00465311133303E-05,0.193689897656441,0.5,0.130180463194847,0.0695516169071198,0.0562264285981655
1110,-0.00333273992873728,0.136441513895988,0.5,0.112909153103828,0.0608381852507591,0.0148594686761498
1111,0.00906245224177837,0.122000671923161,0.5,0.103260084986687,0.0604701936244965,-0.00692609278485179
1112,0.039294671267271,0.146452054381371,0.5,0.111079595983028,0.0808943212032318,0.000239540138863958
1113,0.0766196846961975,0.183471947908401,0.5,0.134249895811081,0.116424046456814,0.0251523591578007
1114,0.103805489838123,0.210803106427193,0.5,0.161939978599548,0.147989064455032,0.0554101765155792
1115,0.106501720845699,0.221986338496208,0.5,0.182265505194664,0.156397119164467,0.0826112776994705
1116,0.0850642397999763,0.219355493783951,0.5,0.186301827430725,0.136210396885872,0.0946874693036079
1117,0.0629900991916656,0.212728127837181,0.5,0.175175160169601,0.107792466878891,0.0916219353675842
1118,0.0636386126279831,0.212601184844971,0.5,0.161785006523132,0.101732276380062,0.089003287255764
1119,0.0837349370121956,0.217011451721191,0.5,0.154488816857338,0.124723628163338,0.0891288891434669
1120,0.102097824215889,0.219971641898155,0.5,0.149370685219765,0.150927245616913,0.0856320112943649
1121,0.100617103278637,0.222942396998405,0.5,0.140631169080734,0.150988057255745,0.0828910991549492
1122,0.0772274136543274,0.225308924913406,0.5,0.125189736485481,0.124368421733379,0.0830131843686104
1123,0.0488288700580597,0.219685390591621,0.5,0.104856178164482,0.097606897354126,0.0811262801289558
1124,0.0327501408755779,0.201039224863052,0.5,0.0859324857592583,0.0881292223930359,0.0727230086922646
1125,0.0273580756038427,0.174352690577507,0.5,0.0714997947216034,0.0844312533736229,0.05534403398633
1126,0.0218393784016371,0.152040004730225,0.5,0.0595883280038834,0.0749120637774467,0.0330905318260193
1127,0.0107480827718973,0.138837113976479,0.5,0.0474291704595089,0.0659881681203842,0.0125173944979906
1128,-0.00299046747386456,0.129611611366272,0.5,0.0365743599832058,0.0596596114337444,-0.00308381184004247
1129,-0.0119695393368602,0.1162239164114,0.5,0.0346718057990074,0.052246268838644,-0.010684959590435
1130,-0.0126829072833061,0.0947772637009621,0.5,0.0480240397155285,0.0521714799106121,-0.00365328369662166
1131,-0.00491177244111896,0.0731398388743401,0.5,0.0725675150752068,0.0683887600898743,0.0217931866645813
1132,0.00635399064049125,0.0563304610550404,0.5,0.092756912112236,0.092474065721035,0.0521059408783913
1133,0.0130810914561152,0.0405343733727932,0.5,0.09450364112854,0.109267979860306,0.0657962113618851
1134,0.0224206112325192,0.0307228416204453,0.5,0.0823721587657928,0.122108198702335,0.0564871951937675
1135,0.0499102883040905,0.0340175628662109,0.5,0.0696901828050613,0.145259246230125,0.0314185284078121
1136,0.0891856551170349,0.0472543500363827,0.5,0.0618214644491673,0.173265784978867,0.00447701197117567
1137,0.111320935189724,0.0701946541666985,0.5,0.0608977749943733,0.184736177325249,-0.00605916045606136
1138,0.0989573299884796,0.0996252000331879,0.5,0.0609022863209248,0.166664376854897,0.000215323700103909
1139,0.0638822987675667,0.113129004836082,0.5,0.0453377962112427,0.122165583074093,0.000596633530221879
1140,0.0276668164879084,0.096252903342247,0.5,0.0143347270786762,0.0696751922369003,-0.0137350494042039
1141,0.0057164691388607,0.071369931101799,0.5,-0.00479802535846829,0.035155788064003,-0.0182380564510822
1142,0.00367606547661126,0.071952261030674,0.5,0.0113753462210298,0.0298296455293894,0.0215158071368933
1143,0.0110744265839458,0.106911711394787,0.5,0.0537511594593525,0.0367371253669262,0.104554757475853
1144,0.0104248626157641,0.153880968689919,0.5,0.0902116447687149,0.0317647457122803,0.174073338508606
1145,0.000655965355690569,0.176668107509613,0.5,0.0981292724609375,0.0159636605530977,0.171322092413902
1146,-0.00780587363988161,0.158872485160828,0.5,0.0796267986297607,0.00910662673413754,0.0996900722384453
1147,-0.00907961186021566,0.115280456840992,0.5,0.0485798865556717,0.0204489268362522,0.0110745998099446
1148,0.00091403751866892,0.0728708133101463,0.5,0.0145794712007046,0.0414318703114986,-0.0526605509221554
1149,0.0217206031084061,0.0475284531712532,0.5,-0.00968683604151011,0.0669554099440575,-0.0798902288079262
1150,0.0536661371588707,0.0383478589355946,0.5,-0.00210902187973261,0.112235799431801,-0.0659698247909546
1151,0.0963990688323975,0.0383855067193508,0.5,0.0371051318943501,0.180751100182533,-0.0169435404241085
1152,0.133805721998215,0.0355369970202446,0.5,0.0722875744104385,0.238661840558052,0.0314656645059586
1153,0.150353774428368,0.0191491059958935,0.5,0.0748785734176636,0.248953938484192,0.0446897819638252
1154,0.142819449305534,-0.00220306706614792,0.5,0.0517237931489944,0.208086490631104,0.0250105857849121
1155,0.109985612332821,-0.00592347932979465,0.5,0.0288320928812027,0.142828673124313,0.0031648448202759
1156,0.0612777583301067,0.0248354058712721,0.5,0.0247980635613203,0.0839843973517418,0.00916974153369665
1157,0.0182537361979485,0.0861770734190941,0.5,0.0380674228072166,0.048317976295948,0.0440804176032543
1158,-0.00567617965862155,0.149037808179855,0.5,0.057197280228138,0.036591898649931,0.0788033306598663
1159,-0.0120652597397566,0.182732284069061,0.5,0.074597604572773,0.0410427711904049,0.0897109508514404
1160,-0.00966968853026628,0.186765745282173,0.5,0.0847220197319984,0.0528989434242249,0.0880351811647415
1161,-0.00248456210829318,0.17739325761795,0.5,0.0862843170762062,0.063496433198452,0.092544324696064
1162,0.00671918177977204,0.152775675058365,0.5,0.0832834020256996,0.0626621469855309,0.089761458337307
1163,0.00581453461199999,0.10388059169054,0.5,0.070350281894207,0.0447928160429001,0.0529729388654232
1164,-0.00482605025172234,0.0436790212988853,0.5,0.0426905006170273,0.0215435922145844,-0.0147259701043367
1165,-0.00643841410055757,-0.00165469921194017,0.5,0.0164474789053202,0.0111258998513222,-0.0725459456443787
1166,0.00442712288349867,-0.0194940380752087,0.5,0.00781319942325354,0.01442860532552,-0.0811448097229004
1167,0.0135977435857058,-0.0136317703872919,0.5,0.0152688883244991,0.0194775480777025,-0.0471208766102791
1168,0.0152004025876522,0.00923963077366352,0.5,0.0324894115328789,0.0231739077717066,-0.00993126817047596
1169,0.0134851587936282,0.0424063839018345,0.5,0.0501933135092258,0.0318660400807858,0.0084083080291748
1170,0.0142835211008787,0.0796341150999069,0.5,0.0604072362184525,0.0505490116775036,0.0223573185503483
1171,0.0203642211854458,0.120079271495342,0.5,0.0670594573020935,0.0780376866459847,0.0605219565331936
1172,0.0300891567021608,0.160667896270752,0.5,0.0734909400343895,0.104768924415112,0.126555949449539
1173,0.041706744581461,0.18924555182457,0.5,0.0746046379208565,0.1232805326581,0.182306230068207
1174,0.0516298338770866,0.188370183110237,0.5,0.0663065314292908,0.134602561593056,0.181677967309952
1175,0.0597433485090733,0.149025127291679,0.5,0.0509104579687119,0.141373604536057,0.120628178119659
1176,0.0661552175879478,0.0892753899097443,0.5,0.030481169000268,0.139963045716286,0.0373888202011585
1177,0.0577092543244362,0.0410929471254349,0.5,0.00523871649056673,0.11803887039423,-0.0278843063861132
1178,0.0284150447696447,0.0191250815987587,0.5,-0.0143843116238713,0.0702188387513161,-0.0505638755857944
1179,-0.00569390226155519,0.0169647447764874,0.5,-0.00960250850766897,0.0126209929585457,-0.0290818698704243
1180,-0.0287325400859118,0.0251705255359411,0.5,0.0245096869766712,-0.0284765567630529,0.012788045220077
1181,-0.036029290407896,0.0396588072180748,0.5,0.0675015151500702,-0.0392590686678886,0.0488603487610817
1182,-0.0278987884521484,0.0549628734588623,0.5,0.0946721285581589,-0.0237025078386068,0.0672480836510658
1183,-0.00702756317332387,0.0647862032055855,0.5,0.100643835961819,0.00861207023262978,0.0741472616791725
1184,0.0204900410026312,0.0697726309299469,0.5,0.0927137285470963,0.0499230027198792,0.081290103495121
1185,0.0437371358275414,0.0712976828217506,0.5,0.0750564336776733,0.0920002833008766,0.084284245967865
1186,0.0558319687843323,0.0664771124720573,0.5,0.0496641099452972,0.123126700520515,0.0744732245802879
1187,0.0579397827386856,0.0588378235697746,0.5,0.0203816294670105,0.127886444330215,0.0551887527108192
1188,0.049356572329998,0.0566140152513981,0.5,-0.00866462104022503,0.102066941559315,0.0299022141844034
1189,0.0349521897733212,0.0587276704609394,0.5,-0.0287313610315323,0.0667407885193825,0.0044457265175879
1190,0.0277162846177816,0.0553995482623577,0.5,-0.0299146417528391,0.0395474135875702,-0.00847765617072582
1191,0.027560006827116,0.0437872819602489,0.5,-0.013400717638433,0.0153618156909943,-0.00221233861520886
1192,0.0283596515655518,0.0398185066878796,0.5,0.0123964417725801,-0.00109292904380709,0.0259587280452251
1193,0.0347628779709339,0.0610928870737553,0.5,0.0414098389446735,0.00900252442806959,0.0745116025209427
1194,0.0440823845565319,0.102087765932083,0.5,0.0669528171420097,0.0403976291418076,0.126759588718414
1195,0.0413147062063217,0.144796535372734,0.5,0.0807256996631622,0.0671491399407387,0.161396071314812
1196,0.0220664571970701,0.176197081804276,0.5,0.0808802545070648,0.079280786216259,0.170647487044334
1197,0.000124063764815219,0.184104666113853,0.5,0.0742562487721443,0.0824118629097939,0.154887989163399
1198,-0.00757460435852408,0.159375131130219,0.5,0.0684105828404427,0.0795733332633972,0.116590909659863
1199,0.000442676653619856,0.113133110105991,0.5,0.0647699534893036,0.0743525102734566,0.0712424963712692
1200,0.0143819851800799,0.0728883817791939,0.5,0.0615996643900871,0.0709008798003197,0.0413408949971199
1201,0.0309501513838768,0.0537857748568058,0.5,0.0596029311418533,0.0696807131171227,0.0386701375246048
1202,0.0483929552137852,0.0505335852503777,0.5,0.0599502064287663,0.0710733160376549,0.0615291334688663
1203,0.0573706515133381,0.0508517734706402,0.5,0.0605378523468971,0.0722536221146584,0.0949622839689255
1204,0.0471638068556786,0.0414818488061428,0.5,0.0529687292873859,0.0622268356382847,0.109483763575554
1205,0.0175113193690777,0.0260480269789696,0.5,0.0301323868334293,0.033938005566597,0.0881813243031502
1206,-0.0129337618127465,0.037234578281641,0.5,0.00580792268738151,0.00454736547544599,0.0572511404752731
1207,-0.0251037962734699,0.0923823937773705,0.5,0.000516446598339826,0.00152577681001276,0.0496212355792522
1208,-0.0188682302832603,0.154812157154083,0.5,0.00602586288005114,0.0232628174126148,0.0541375540196896
1209,-0.0018328899750486,0.17319555580616,0.5,0.0020986630115658,0.0449233874678612,0.0430320017039776
1210,0.02090167067945,0.140092104673386,0.5,-0.00745545653626323,0.0644599050283432,0.0182114206254482
1211,0.0465518981218338,0.0877524614334106,0.5,-0.00703887129202485,0.0969146862626076,-0.00170910463202745
1212,0.0683941543102264,0.0452037639915943,0.5,0.00807507149875164,0.12892284989357,-0.00217763055115938
1213,0.072326123714447,0.0291671324521303,0.5,0.0334396660327911,0.130728647112846,0.0278086327016354
1214,0.0559267774224281,0.0457895249128342,0.5,0.0592042058706284,0.0980304554104805,0.0790823772549629
1215,0.0339029431343079,0.071816124022007,0.5,0.0730783864855766,0.0516560338437557,0.115844428539276
1216,0.0158047173172235,0.0796852186322212,0.5,0.07166738063097,0.0155888628214598,0.115721620619297
1217,0.00418272893875837,0.0737730115652084,0.5,0.0625822022557259,0.00293307355605066,0.0920770689845085
1218,0.00254177628085017,0.0663673505187035,0.5,0.0518427565693855,0.00913578644394875,0.0646851286292076
1219,0.00501656718552113,0.0597800314426422,0.5,0.040563341230154,0.0191243942826986,0.0426359362900257
1220,-8.85459812707268E-05,0.0590032078325748,0.5,0.0288258362561464,0.0267012733966112,0.035028088837862
1221,-0.00948063936084509,0.0712699666619301,0.5,0.0161124300211668,0.0392168872058392,0.0479251407086849
1222,-0.00662941299378872,0.0947785899043083,0.5,0.00467186979949474,0.0614886954426765,0.0672801434993744
1223,0.0105097200721502,0.116074189543724,0.5,-0.000235392668400891,0.0826872438192368,0.0763408839702606
1224,0.0223232470452785,0.121630348265171,0.5,0.000767831632401794,0.0830798968672752,0.0808211863040924
1225,0.0156159913167357,0.114972472190857,0.5,0.000488049525301903,0.0528148040175438,0.0884222537279129
1226,-0.000586519134230912,0.115912586450577,0.5,-0.00354196690022945,0.00626925937831402,0.0934022590517998
1227,-0.0129206590354443,0.132632210850716,0.5,-0.00584339862689376,-0.0246314574033022,0.0882426798343658
1228,-0.0140390461310744,0.152515783905983,0.5,0.00572668295353651,-0.0145985567942262,0.077728658914566
1229,0.00105954520404339,0.162429705262184,0.5,0.0359476283192635,0.0334626659750938,0.0748440697789192
1230,0.0282459706068039,0.154229402542114,0.5,0.0686231181025505,0.0895512700080872,0.0788123160600662
1231,0.0583821944892406,0.123584918677807,0.5,0.0880742445588112,0.124163307249546,0.0786580517888069
1232,0.0818556919693947,0.0794183984398842,0.5,0.089410275220871,0.124817319214344,0.0698079392313957
1233,0.0853090733289719,0.0415256805717945,0.5,0.0692086294293404,0.0978975743055344,0.0559130869805813
1234,0.0660139694809914,0.0229585543274879,0.5,0.0337718911468983,0.0690939724445343,0.0447732284665108
1235,0.0364967882633209,0.0208597797900438,0.5,-0.00180135201662779,0.0575715638697147,0.0392113476991653
1236,0.00999962445348501,0.0298510398715734,0.5,-0.0251774881035089,0.0482725463807583,0.0404034219682217
1237,-0.00787767395377159,0.0565698333084583,0.5,-0.0304881948977709,0.0195134859532118,0.0561214685440063
1238,-0.0177429784089327,0.103413820266724,0.5,-0.0184463746845722,-0.0196783356368542,0.0864414796233177
1239,-0.0205545499920845,0.151275053620338,0.5,0.00657767476513982,-0.0439152754843235,0.116668462753296
1240,-0.0176078975200653,0.17609703540802,0.5,0.0359851010143757,-0.0412877425551414,0.132317334413528
1241,-0.0126277152448893,0.169278219342232,0.5,0.0563594810664654,-0.0180269200354815,0.126918137073517
1242,-0.00462321564555168,0.13803942501545,0.5,0.0575119405984879,0.0172945950180292,0.104846447706223
1243,0.011395831592381,0.0927428156137466,0.5,0.041237223893404,0.0557955279946327,0.076786644756794
1244,0.0276760384440422,0.0452835373580456,0.5,0.0202422142028809,0.0790341645479202,0.050263337790966
1245,0.0294780842959881,0.0157942213118076,0.5,0.00567371398210526,0.0728460252285004,0.03437190502882
1246,0.0149251017719507,0.0227468051016331,0.5,-0.00174128648359329,0.0410910397768021,0.0363236330449581
1247,-0.00823754630982876,0.0721209347248077,0.5,-0.00604982627555728,0.00144581077620387,0.0519461818039417
1248,-0.0234392806887627,0.139954537153244,0.5,-0.00512592261657119,-0.0213953796774149,0.0712488740682602
1249,-0.0103431548923254,0.17545485496521,0.5,0.0098335100337863,-0.0065907184034586,0.0865447223186493
1250,0.0272069275379181,0.162647813558578,0.5,0.0411921851336956,0.0425352081656456,0.0973365679383278
1251,0.0618023425340652,0.133870989084244,0.5,0.076688788831234,0.093964584171772,0.10472496598959
1252,0.073337584733963,0.114611901342869,0.5,0.097139336168766,0.114924088120461,0.107528835535049
1253,0.0664405897259712,0.107038587331772,0.5,0.0952434837818146,0.101457841694355,0.110030166804791
1254,0.0568906255066395,0.104954309761524,0.5,0.0780407190322876,0.0732235908508301,0.110088780522347
1255,0.0437571406364441,0.100071914494038,0.5,0.0515343435108662,0.0408199392259121,0.0950123146176338
1256,0.0182105861604214,0.0868421941995621,0.5,0.020053943619132,0.00413248268887401,0.063356339931488
1257,-0.0138099370524287,0.0710913240909576,0.459734380245209,-0.00533960619941354,-0.023170530796051,0.0293968487530947
1258,-0.032286673784256,0.063160665333271,0.442279905080795,-0.0148469209671021,-0.0260407943278551,0.00825266167521477
1259,-0.0225107800215483,0.06199886277318,0.45053043961525,-0.0149851059541106,-0.0130320433527231,0.0019666044972837
1260,0.000952811096794903,0.0617860704660416,0.464711159467697,-0.0159711297601461,0.00030365603743121,0.00290637300349772
1261,0.0150775052607059,0.061314832419157,0.475771874189377,-0.0163156539201736,0.00964300148189068,0.00591299962252378
1262,0.0213929768651724,0.0601323544979095,0.487310916185379,-0.0137265073135495,0.0175292156636715,0.0102806417271495
1263,0.0315097644925117,0.0589468963444233,0.5,-0.0056509948335588,0.0347547084093094,0.0187811367213726
1264,0.0442976914346218,0.0658703222870827,0.5,0.0109389685094357,0.0624022632837296,0.0350752100348473
1265,0.0470319464802742,0.0874433293938637,0.5,0.0273527875542641,0.0750836879014969,0.0568773187696934
1266,0.0338632203638554,0.113578841090202,0.5,0.0358605571091175,0.0541884303092957,0.0750970244407654
1267,0.0163034033030272,0.130124747753143,0.5,0.0419953316450119,0.0126980217173696,0.0825740769505501
1268,0.0075306398794055,0.136941730976105,0.49214094877243,0.0500973500311375,-0.0242332592606544,0.0806838348507881
1269,0.0104791894555092,0.142000839114189,0.486437529325485,0.0566973574459553,-0.0386324785649776,0.0749026536941528
1270,0.0224974900484085,0.147672817111015,0.484720945358276,0.0580361597239971,-0.0239062961190939,0.0682069361209869
1271,0.0415592305362225,0.151608571410179,0.486784756183624,0.0534322522580624,0.012341096997261,0.0669116154313087
1272,0.0642961636185646,0.153989225625992,0.495137721300125,0.0447237528860569,0.0503106825053692,0.0775262266397476
1273,0.0783969759941101,0.152965724468231,0.5,0.0352655462920666,0.0708553418517113,0.0912367776036263
1274,0.0706008970737457,0.144620597362518,0.5,0.0271538589149714,0.0687573403120041,0.0931997746229172
1275,0.0445464923977852,0.131458014249802,0.5,0.0213336814194918,0.0527816414833069,0.0805570185184479
1276,0.0176755990833044,0.113540776073933,0.492593616247177,0.0147979557514191,0.0334822535514832,0.0577676482498646
1277,-0.000664700346533209,0.0826669260859489,0.475500911474228,-0.00209854426793754,0.0178550146520138,0.0258951988071203
1278,-0.0103047005832195,0.0462081357836723,0.448689490556717,-0.0303894467651844,0.0121754184365273,-0.00920484680682421
1279,-0.00849489588290453,0.0239664781838655,0.424449592828751,-0.0560511760413647,0.0201455485075712,-0.0337356626987457
1280,0.0029133150819689,0.0174568146467209,0.4158935546875,-0.0672214850783348,0.034980658441782,-0.0418228507041931
1281,0.0145826246589422,0.0182079020887613,0.428718775510788,-0.0582098700106144,0.0402025431394577,-0.034013956785202
