,AF3,AF4,Fp1,Fp2,AF7,AF8
0,0.056257288902998,0.0351750068366528,0.074866995215416,0.0698520243167877,0.0727870464324951,0.0357618667185307
1,0.0564855523407459,0.0372574403882027,0.0751297250390053,0.0711657702922821,0.0733475983142853,0.0388618223369122
2,0.0565221980214119,0.0388230867683887,0.0759467929601669,0.071917898952961,0.0741960480809212,0.0416361428797245
3,0.0562920868396759,0.0393536910414696,0.0754849463701248,0.0707433298230171,0.0736584737896919,0.0419115200638771
4,0.055582620203495,0.0386375412344933,0.0729510113596916,0.0671550706028938,0.0714395269751549,0.0394439250230789
5,0.0543578751385212,0.0372239798307419,0.0695806592702866,0.0627072378993034,0.0692362487316132,0.0361255407333374
6,0.0529169999063015,0.0358506180346012,0.0673280879855156,0.0595685690641403,0.0691002905368805,0.0339441560208797
7,0.0517874211072922,0.035259336233139,0.0672573447227478,0.0592308230698109,0.0714172348380089,0.0338426120579243
8,0.05119638890028,0.0361088886857033,0.0680285692214966,0.0611927211284637,0.0737981796264648,0.0357596278190613
9,0.0505748689174652,0.0380063019692898,0.0673665925860405,0.0631686076521873,0.0737103819847107,0.0385530702769756
10,0.0492973811924458,0.0397057086229324,0.0656471848487854,0.0642521530389786,0.0719514489173889,0.0411667451262474
11,0.0474906228482723,0.0407785028219223,0.0651101544499397,0.0658405274152756,0.0706770643591881,0.044014748185873
12,0.0461267381906509,0.0415466949343681,0.0664359033107758,0.0687355250120163,0.0703311562538147,0.047437883913517
13,0.0462763942778111,0.0418166257441044,0.0684371739625931,0.0716222003102303,0.0705797523260117,0.0500749349594116
14,0.047559317201376,0.0410188473761082,0.0699502751231194,0.0725724101066589,0.0717149376869202,0.049938015639782
15,0.0484379716217518,0.0393027737736702,0.0711288675665855,0.0714670717716217,0.0742538869380951,0.0467969924211502
16,0.0482040010392666,0.0377212092280388,0.0731508955359459,0.0705755800008774,0.0782769620418549,0.0428279303014278
17,0.0472383089363575,0.03678372874856,0.0762235820293427,0.0716357454657555,0.0828573927283287,0.0404223911464214
18,0.0459383614361286,0.0362850576639175,0.078800693154335,0.0742212310433388,0.0860871523618698,0.0412316061556339
19,0.0445490889251232,0.0366998910903931,0.079888217151165,0.0777181759476662,0.0868727266788483,0.0462984479963779
20,0.0436369404196739,0.0384938232600689,0.0805496573448181,0.0819615721702576,0.0867666676640511,0.0545476190745831
21,0.0435005873441696,0.0408512353897095,0.0820508003234863,0.0860788598656654,0.0881591066718102,0.0625758543610573
22,0.0439404360949993,0.0423304215073586,0.0841620862483978,0.0886985510587692,0.091576524078846,0.0669620260596275
23,0.0452980510890484,0.0421738810837269,0.086064524948597,0.0889830887317657,0.0965263396501541,0.0664362162351608
24,0.0473872236907482,0.0406725630164146,0.0871765986084938,0.0871651396155357,0.102002367377281,0.0625359863042831
25,0.048426166176796,0.0382269844412804,0.0872089564800262,0.0844195187091827,0.106327429413795,0.0583962798118591
26,0.0473132580518723,0.0354219749569893,0.0872057750821114,0.0829885751008987,0.109221957623959,0.0575053468346596
27,0.0448683835566044,0.0332939252257347,0.0889186561107636,0.0849532335996628,0.111982949078083,0.061525110155344
28,0.0421111136674881,0.0319474935531616,0.09201829880476,0.0890959054231644,0.114907957613468,0.0675704777240753
29,0.0398091897368431,0.0310820229351521,0.0948282405734062,0.0923758819699287,0.117553621530533,0.0716427713632584
30,0.0386764742434025,0.030895097181201,0.0967469066381454,0.0938916951417923,0.119973197579384,0.0730888620018959
31,0.0386036038398743,0.0314070470631123,0.0978603437542915,0.0947303473949432,0.121858529746532,0.0737881064414978
32,0.0388185158371925,0.0323483422398567,0.0986024886369705,0.0961949005723,0.123059682548046,0.0756419375538826
33,0.0387634448707104,0.0331499055027962,0.0997436940670013,0.0984367430210114,0.124572739005089,0.0781251639127731
34,0.0387028008699417,0.0333441831171513,0.101469494402409,0.10013372451067,0.127405941486359,0.0790091007947922
35,0.0389365144073963,0.0331743955612183,0.103655010461807,0.100857920944691,0.131941437721252,0.0781832113862038
36,0.0392354875802994,0.0333302058279514,0.106851823627949,0.102461449801922,0.138569355010986,0.0782042071223259
37,0.0397216603159904,0.0342451222240925,0.111864902079105,0.106555238366127,0.147282153367996,0.0811998546123505
38,0.0400971807539463,0.035335585474968,0.118189044296741,0.11243062466383,0.156327173113823,0.0871260389685631
39,0.0395980514585972,0.0359030030667782,0.124151937663555,0.11848683655262,0.163193136453629,0.0947257876396179
40,0.0388033054769039,0.0366608873009682,0.128762647509575,0.123900048434734,0.167312473058701,0.102760821580887
41,0.0387179590761662,0.037916973233223,0.131692036986351,0.127504676580429,0.169580146670341,0.109205707907677
42,0.0395464040338993,0.0385564081370831,0.132563501596451,0.127491652965546,0.170834988355637,0.111341841518879
43,0.0409987047314644,0.0382209345698357,0.131416440010071,0.123774968087673,0.171484962105751,0.108668468892574
44,0.042746540158987,0.0378103516995907,0.129631012678146,0.119305975735188,0.172011360526085,0.104521833360195
45,0.0448091141879559,0.0379644483327866,0.129798293113709,0.117777742445469,0.174068257212639,0.102965652942657
46,0.0468599237501621,0.0380930230021477,0.133364453911781,0.12009035795927,0.178873986005783,0.104478850960732
47,0.0480021759867668,0.0369853898882866,0.139089956879616,0.124223247170448,0.185260534286499,0.106813907623291
48,0.0475765503942966,0.0342201925814152,0.144639357924461,0.127998068928719,0.191068902611732,0.108625322580338
49,0.0459247380495071,0.0306779891252518,0.1488888412714,0.130729228258133,0.195230782032013,0.109899654984474
50,0.0444258786737919,0.0278567913919687,0.15197017788887,0.132630690932274,0.19780720770359,0.110619589686394
51,0.0440675728023052,0.0266083627939224,0.153646886348724,0.13344594836235,0.198889017105103,0.110594786703587
52,0.0442427694797516,0.0261497497558594,0.153077512979507,0.132257089018822,0.198368236422539,0.109409682452679
53,0.0436738468706608,0.0254150461405516,0.150687545537949,0.129429340362549,0.197009488940239,0.10720456391573
54,0.0420405566692352,0.0246018059551716,0.148698806762695,0.127117276191711,0.196785792708397,0.10557122528553
55,0.0399645827710629,0.0243954975157976,0.148733600974083,0.127101331949234,0.198848009109497,0.106201939284801
56,0.0383681803941727,0.0252764504402876,0.150770828127861,0.129605740308762,0.202351674437523,0.109336018562317
57,0.0384486168622971,0.0272833593189716,0.154396772384644,0.133655220270157,0.206199198961258,0.113826721906662
58,0.040526706725359,0.029943173751235,0.158803343772888,0.137736856937408,0.209822401404381,0.11840233206749
59,0.0436963811516762,0.0332394875586033,0.163124039769173,0.14103701710701,0.212872833013535,0.122938610613346
60,0.0468843318521976,0.0372677557170391,0.166842639446259,0.143455147743225,0.215014919638634,0.127376839518547
61,0.0490671843290329,0.0410349108278751,0.168888300657272,0.144226491451263,0.215463936328888,0.130409091711044
62,0.0498989559710026,0.0435709841549397,0.168495088815689,0.142800271511078,0.213966742157936,0.13103112578392
63,0.0495603084564209,0.0443776994943619,0.165775671601295,0.139648213982582,0.210979297757149,0.129318222403526
64,0.0486080348491669,0.0434063635766506,0.161959022283554,0.136124089360237,0.207657307386398,0.126527979969978
65,0.0480178743600845,0.0416390523314476,0.159668684005737,0.134351015090942,0.206140607595444,0.125098988413811
66,0.0479396656155586,0.0397041626274586,0.160200953483582,0.135118409991264,0.207200109958649,0.1261106133461
67,-0.103105269372463,0.0046753971837461,0.0604927875101566,-0.0658565983176231,0.0379911251366138,0.14293447136879
68,-0.5,-0.100004322826862,-0.255866885185242,-0.5,-0.495878726243973,0.190509304404259
69,-0.5,-0.236792296171188,-0.5,-0.5,-0.5,0.251036703586578
70,-0.5,-0.349558115005493,-0.5,-0.5,-0.5,0.298600524663925
71,-0.5,-0.423335820436478,-0.5,-0.5,-0.5,0.326713979244232
72,-0.5,-0.463348597288132,-0.5,-0.5,-0.5,0.338134288787842
73,-0.5,-0.479788094758987,-0.5,-0.5,-0.5,0.338030248880386
74,-0.5,-0.480348080396652,-0.5,-0.5,-0.5,0.33132067322731
75,-0.5,-0.469723671674728,-0.5,-0.5,-0.5,0.320864766836166
76,-0.5,-0.451844394207001,-0.5,-0.5,-0.5,0.307419925928116
77,-0.5,-0.430760830640793,-0.5,-0.5,-0.5,0.292187124490738
78,-0.5,-0.4107705950737,-0.5,-0.5,-0.5,0.277775555849075
79,-0.5,-0.396286994218826,-0.5,-0.5,-0.5,0.266437023878098
80,-0.5,-0.389590173959732,-0.5,-0.5,-0.5,0.258937150239944
81,-0.5,-0.389628291130066,-0.5,-0.5,-0.5,0.253938347101212
82,-0.5,-0.392838031053543,-0.5,-0.5,-0.5,0.248541846871376
83,-0.5,-0.394005328416824,-0.5,-0.5,-0.5,0.240845456719399
84,-0.5,-0.388989478349686,-0.5,-0.5,-0.5,0.230941668152809
85,-0.5,-0.377386510372162,-0.5,-0.5,-0.5,0.22018900513649
86,-0.5,-0.362095385789871,-0.5,-0.5,-0.5,0.210417062044144
87,-0.5,-0.34733322262764,-0.5,-0.5,-0.5,0.203096389770508
88,-0.5,-0.336695790290833,-0.5,-0.5,-0.5,0.19883331656456
89,-0.5,-0.331360548734665,-0.5,-0.5,-0.5,0.197018474340439
90,-0.5,-0.3295718729496,-0.5,-0.5,-0.5,0.19615963101387
91,-0.5,-0.327759563922882,-0.5,-0.5,-0.5,0.194353923201561
92,-0.5,-0.322204768657684,-0.5,-0.5,-0.5,0.189982190728188
93,-0.5,-0.3111532330513,-0.5,-0.5,-0.5,0.183227717876434
94,-0.5,-0.296324282884598,-0.5,-0.5,-0.5,0.175830200314522
95,-0.5,-0.282127141952515,-0.5,-0.5,-0.5,0.168667167425156
96,-0.5,-0.272755771875381,-0.5,-0.5,-0.5,0.161382958292961
97,-0.5,-0.269712656736374,-0.5,-0.5,-0.5,0.15442219376564
98,-0.5,-0.271534889936447,-0.5,-0.5,-0.5,0.14853298664093
99,-0.5,-0.274525344371796,-0.5,-0.5,-0.5,0.143048703670502
100,-0.5,-0.274382889270782,-0.5,-0.5,-0.5,0.136729806661606
101,-0.5,-0.268637746572495,-0.5,-0.5,-0.5,0.129208043217659
102,-0.5,-0.25779065489769,-0.5,-0.5,-0.5,0.121289134025574
103,-0.5,-0.245040446519852,-0.5,-0.5,-0.5,0.113991744816303
104,-0.5,-0.234670057892799,-0.5,-0.5,-0.5,0.107735708355904
105,-0.5,-0.229487523436546,-0.5,-0.5,-0.5,0.102541975677013
106,-0.5,-0.229077234864235,-0.5,-0.5,-0.5,0.0984067395329475
107,-0.5,-0.229931175708771,-0.5,-0.5,-0.5,0.0952688381075859
108,-0.5,-0.227854982018471,-0.5,-0.5,-0.5,0.0925657227635384
109,-0.5,-0.220885589718819,-0.5,-0.5,-0.5,0.0890339761972427
110,-0.5,-0.209884896874428,-0.5,-0.5,-0.5,0.0836716666817665
111,-0.5,-0.197016790509224,-0.5,-0.5,-0.5,0.0767908990383148
112,-0.5,-0.185263961553574,-0.5,-0.5,-0.5,0.0693944022059441
113,-0.5,-0.177639305591583,-0.5,-0.5,-0.5,0.0632745325565338
114,-0.5,-0.175175607204437,-0.5,-0.5,-0.5,0.0601041913032532
115,-0.5,-0.175807967782021,-0.5,-0.5,-0.5,0.0598324537277222
116,-0.5,-0.175559490919113,-0.5,-0.5,-0.5,0.0609333999454975
117,-0.5,-0.171970382332802,-0.5,-0.5,-0.5,0.0601243488490582
118,-0.5,-0.164932668209076,-0.5,-0.5,-0.5,0.0550335086882114
119,-0.5,-0.155414998531342,-0.5,-0.5,-0.5,0.0467600971460342
120,-0.5,-0.145658895373344,-0.5,-0.5,-0.5,0.037731297314167
121,-0.5,-0.138426393270493,-0.5,-0.5,-0.5,0.0301885679364204
122,-0.5,-0.1351508051157,-0.5,-0.5,-0.5,0.0256077814847231
123,-0.5,-0.135072246193886,-0.5,-0.5,-0.5,0.0236168149858713
124,-0.5,-0.135876387357712,-0.5,-0.5,-0.5,0.0212771147489548
125,-0.5,-0.135038390755653,-0.5,-0.5,-0.5,0.0156972836703062
126,-0.5,-0.130552396178246,-0.491438001394272,-0.5,-0.5,0.0081022959202528
127,-0.5,-0.12183590978384,-0.463122576475143,-0.5,-0.5,0.00197854870930314
128,-0.5,-0.111021235585213,-0.43273338675499,-0.5,-0.5,-0.00154918408952653
129,-0.49696096777916,-0.102326579391956,-0.411348164081573,-0.5,-0.5,-0.00409754877910018
130,-0.47918888926506,-0.0985442474484444,-0.403467357158661,-0.5,-0.5,-0.00652359938248992
131,-0.477205276489258,-0.0989495813846588,-0.405453741550446,-0.5,-0.5,-0.00774506060406566
132,-0.481240957975388,-0.100283987820148,-0.40965610742569,-0.5,-0.5,-0.00699733337387443
133,-0.479137867689133,-0.0991846024990082,-0.408650487661362,-0.5,-0.5,-0.00536939641460776
134,-0.462312400341034,-0.0945324748754501,-0.39772441983223,-0.5,-0.5,-0.00555203389376402
135,-0.429950147867203,-0.0875328853726387,-0.376392036676407,-0.5,-0.5,-0.00975255761295557
136,-0.389648407697678,-0.0800972878932953,-0.349768042564392,-0.5,-0.457091182470322,-0.0169677399098873
137,-0.353322625160217,-0.0735959783196449,-0.326519697904587,-0.5,-0.416327387094498,-0.0234623402357101
138,-0.330145865678787,-0.0689527690410614,-0.313169568777084,-0.49070617556572,-0.39247277379036,-0.0268614999949932
139,-0.322064787149429,-0.0669484063982964,-0.31109082698822,-0.482558220624924,-0.387477725744247,-0.0284961145371199
140,-0.323272407054901,-0.0672914907336235,-0.316016644239426,-0.487991333007813,-0.393457740545273,-0.0311482306569815
141,-0.322810083627701,-0.0679807439446449,-0.318668633699417,-0.491184920072556,-0.395982563495636,-0.0357499569654465
142,-0.31116509437561,-0.0665068924427032,-0.310967713594437,-0.477474957704544,-0.382986485958099,-0.0410070084035397
143,-0.285656660795212,-0.0609722472727299,-0.292119175195694,-0.44267138838768,-0.352901935577393,-0.0446196272969246
144,-0.251266598701477,-0.0517301708459854,-0.267991840839386,-0.394948750734329,-0.314226269721985,-0.0456058084964752
145,-0.217669799923897,-0.0418066345155239,-0.246115833520889,-0.349191159009933,-0.278444856405258,-0.0449802614748478
146,-0.193795219063759,-0.0344770550727844,-0.230872929096222,-0.317267626523972,-0.253486424684525,-0.0434433296322823
147,-0.183538258075714,-0.0314375907182693,-0.223219200968742,-0.30260244011879,-0.241816267371178,-0.0411762446165085
148,-0.183731526136398,-0.0320222973823547,-0.221500545740128,-0.300024509429932,-0.240241006016731,-0.0390687733888626
149,-0.185586526989937,-0.0336253121495247,-0.221367701888084,-0.298890858888626,-0.24080465734005,-0.038553312420845
150,-0.179809883236885,-0.0335917882621288,-0.217817202210426,-0.289198279380798,-0.234396427869797,-0.0407314673066139
151,-0.161550596356392,-0.030578488484025,-0.207760915160179,-0.266262114048004,-0.215426325798035,-0.0454424694180489
152,-0.132922694087029,-0.0249886512756348,-0.191247627139091,-0.231977835297585,-0.184996381402016,-0.0513156279921532
153,-0.101724423468113,-0.0186706986278296,-0.172078996896744,-0.194113552570343,-0.150890216231346,-0.0565639808773994
154,-0.0764582455158234,-0.0136820357292891,-0.155804589390755,-0.16271398961544,-0.122781030833721,-0.0594882294535637
155,-0.0623419694602489,-0.0114332651719451,-0.146177649497986,-0.144942715764046,-0.106801606714725,-0.0599141679704189
156,-0.0592330954968929,-0.0118544939905405,-0.143678709864616,-0.141021028161049,-0.103143490850925,-0.059414204210043
157,-0.0610413067042828,-0.0128790708258748,-0.145087733864784,-0.143164068460464,-0.105423733592033,-0.0592112392187119
158,-0.059258870780468,-0.0123644396662712,-0.144940346479416,-0.140259847044945,-0.103999637067318,-0.0600016638636589
159,-0.0478100292384624,-0.00958120357245207,-0.138555735349655,-0.124280720949173,-0.0915580987930298,-0.0619855485856533
160,-0.0255930162966251,-0.00451673660427332,-0.123966544866562,-0.0937041416764259,-0.0663901269435883,-0.0639942362904549
161,0.00263496581465006,0.00161248818039894,-0.103251583874226,-0.0548984743654728,-0.0333649963140488,-0.0654386207461357
162,0.0285341963171959,0.00636900961399078,-0.0826002210378647,-0.0197482127696276,-0.00195090100169182,-0.0677298679947853
163,0.0455521233379841,0.00850501470267773,-0.0686756074428558,0.00164281798060983,0.0194143615663052,-0.0717325955629349
164,0.0524670630693436,0.00860282592475414,-0.0640103816986084,0.00717947632074356,0.028057798743248,-0.0762615501880646
165,0.0531174913048744,0.00774291530251503,-0.0660935118794441,0.00288643827661872,0.0275417380034924,-0.0801836848258972
166,0.0540307201445103,0.00699309958145022,-0.0697219297289848,-0.000962541031185538,0.0252655148506165,-0.083494171500206
167,0.0612782053649426,0.00773680536076427,-0.0695058703422546,0.00551146594807506,0.0288867987692356,-0.0857647806406021
168,0.0774613842368126,0.0113606182858348,-0.0621154680848122,0.0267082136124372,0.0426883213222027,-0.0862885788083076
169,0.0999149233102798,0.017760569229722,-0.0487888567149639,0.0584353469312191,0.0647626146674156,-0.0856154412031174
170,0.121860094368458,0.0245374068617821,-0.0346792303025723,0.0906094610691071,0.08768430352211,-0.0856920704245567
171,0.137166082859039,0.029072605073452,-0.0244093760848045,0.114036850631237,0.104177355766296,-0.0880820974707603
172,0.144062995910645,0.0311461668461561,-0.0191159099340439,0.125318273901939,0.111852690577507,-0.0909796357154846
173,0.144829466938972,0.0321174710988998,-0.0171781443059444,0.127488762140274,0.112802900373936,-0.0906846672296524
174,0.144505441188812,0.0329933166503906,-0.0155741339549422,0.127778366208076,0.112348690629005,-0.0868230983614922
175,0.149032056331635,0.0346234887838364,-0.010938229970634,0.133630588650703,0.1173140630126,-0.0824671015143394
176,0.162079721689224,0.038031417876482,-0.0010794730624184,0.149404153227806,0.132162570953369,-0.0796363279223442
177,0.182274729013443,0.0428002700209618,0.0132929040119052,0.173781991004944,0.155795469880104,-0.0788550674915314
178,0.204321309924126,0.0470411032438278,0.0288048628717661,0.200178161263466,0.182492569088936,-0.080621749162674
179,0.222302183508873,0.0492956154048443,0.041286077350378,0.221160903573036,0.20483535528183,-0.0844331830739975
180,0.232150301337242,0.0497012287378311,0.0473310090601444,0.232344806194305,0.216406792402267,-0.0883348435163498
181,0.233801603317261,0.049393679946661,0.0461673028767109,0.233805164694786,0.215941429138184,-0.0909514427185059
182,0.231910333037376,0.0493160858750343,0.0412991233170033,0.230375587940216,0.2095095962286,-0.0928006172180176
183,0.232818603515625,0.0503694452345371,0.0385570786893368,0.230310946702957,0.205991953611374,-0.0941592827439308
184,0.239437997341156,0.0527593083679676,0.0414717756211758,0.239805102348328,0.210402145981789,-0.094619557261467
185,0.251045763492584,0.0558093041181564,0.0503385737538338,0.258813112974167,0.223335608839989,-0.0946245566010475
186,0.265610903501511,0.0590346269309521,0.0631337612867355,0.282301783561707,0.242257073521614,-0.0950014516711235
187,0.27939710021019,0.0619567520916462,0.075698085129261,0.303480893373489,0.261047959327698,-0.095693476498127
188,0.288463413715363,0.0639196187257767,0.0841716676950455,0.317393273115158,0.273641347885132,-0.095939077436924
189,0.292091220617294,0.0645102113485336,0.0878027006983757,0.323395580053329,0.278896272182465,-0.0956818759441376
190,0.292761206626892,0.0636229068040848,0.0887487456202507,0.324581265449524,0.280091255903244,-0.0959725975990295
191,0.294097453355789,0.0621353052556515,0.0895401015877724,0.325493305921555,0.281288683414459,-0.0975553542375565
192,0.298994809389114,0.0617607720196247,0.0910423174500465,0.329850047826767,0.284794420003891,-0.100070238113403
193,0.308345198631287,0.0632951855659485,0.0933924615383148,0.339160084724426,0.291380435228348,-0.102778248488903
194,0.321053504943848,0.0662425979971886,0.0976350083947182,0.352836579084396,0.301292985677719,-0.104832321405411
195,0.334438383579254,0.0701283067464828,0.104843847453594,0.369049310684204,0.313504844903946,-0.104405611753464
196,0.345112293958664,0.0746476277709007,0.114202685654163,0.384803593158722,0.325351029634476,-0.0999589860439301
197,0.350638180971146,0.0785658955574036,0.122906215488911,0.396313637495041,0.333769798278809,-0.0931147113442421
198,0.351308524608612,0.0805127546191216,0.128600925207138,0.401843070983887,0.33779364824295,-0.087600514292717
199,0.350180625915527,0.0808020383119583,0.13126727938652,0.403625935316086,0.339472979307175,-0.0857803896069527
200,0.351109564304352,0.0809585750102997,0.132893279194832,0.406077593564987,0.342265456914902,-0.0875759571790695
201,0.356695085763931,0.0820648148655891,0.13627202808857,0.412935703992844,0.349421322345734,-0.0912762731313705
202,0.36684113740921,0.0841449275612831,0.142768710851669,0.424880534410477,0.361376464366913,-0.0946110561490059
203,0.378804355859756,0.086572602391243,0.150764390826225,0.439014464616776,0.374663531780243,-0.0965892150998116
204,0.389074087142944,0.0885849669575691,0.156894981861115,0.45084023475647,0.384433388710022,-0.0980061516165733
205,0.395249843597412,0.0896790996193886,0.158567950129509,0.456856220960617,0.387466877698898,-0.0992316156625748
206,0.396621704101563,0.0896317958831787,0.15595006942749,0.456780612468719,0.384307354688644,-0.0997972562909126
207,0.394847959280014,0.0886896848678589,0.152239680290222,0.454197108745575,0.379481345415115,-0.0994153171777725
208,0.393591463565826,0.0878642052412033,0.151757895946503,0.454580783843994,0.37866947054863,-0.0976417884230614
209,0.395830541849136,0.0876736342906952,0.156959310173988,0.461573839187622,0.384999215602875,-0.0948641002178192
210,0.402202576398849,0.0874956175684929,0.16669462621212,0.474040418863297,0.397349715232849,-0.0933024063706398
211,0.41100412607193,0.0865626633167267,0.176854982972145,0.486789613962173,0.410934567451477,-0.0954688638448715
212,0.419326722621918,0.0848054736852646,0.183358803391457,0.495172768831253,0.420809388160706,-0.101629264652729
213,0.425223261117935,0.082837775349617,0.185472920536995,0.498432576656342,0.425714552402496,-0.109338842332363
214,0.428593009710312,0.0811616703867912,0.185412913560867,0.498407602310181,0.427532643079758,-0.11569157987833
215,0.430411219596863,0.0802091434597969,0.185642316937447,0.497622102499008,0.42855304479599,-0.118689469993114
216,0.431860476732254,0.0807087495923042,0.187192261219025,0.498617827892303,0.429927229881287,-0.117470994591713
217,0.433606147766113,0.0826851353049278,0.189451828598976,0.5,0.431655257940292,-0.113402731716633
218,0.435918688774109,0.0850012227892876,0.19159871339798,0.5,0.43378546833992,-0.109490871429443
219,0.439241111278534,0.0863049849867821,0.193833664059639,0.5,0.437031388282776,-0.107948787510395
220,0.443448901176453,0.086037740111351,0.197063013911247,0.5,0.441920429468155,-0.108843751251698
221,0.447465121746063,0.0849400162696838,0.201350703835487,0.5,0.447581857442856,-0.110554546117783
222,0.450064718723297,0.0842567309737206,0.205281987786293,0.5,0.451976478099823,-0.111413568258286
223,0.450752049684525,0.0844778716564178,0.207901358604431,0.5,0.453772813081741,-0.110569313168526
224,0.450470328330994,0.0852936580777168,0.209859028458595,0.5,0.45385816693306,-0.108456984162331
225,0.451248198747635,0.0864421799778938,0.212377592921257,0.5,0.45478144288063,-0.106772311031818
226,0.454081922769547,0.0879499539732933,0.21556444466114,0.5,0.457741975784302,-0.106553338468075
227,0.457712262868881,0.0896637439727783,0.218032121658325,0.5,0.461214065551758,-0.107423469424248
228,0.460426867008209,0.0911327078938484,0.218667238950729,0.5,0.463413268327713,-0.108795464038849
229,0.461789071559906,0.0920685157179832,0.217840701341629,0.5,0.463813126087189,-0.110357917845249
230,0.462416231632233,0.092669777572155,0.216839998960495,0.5,0.462918609380722,-0.111851528286934
231,0.463023036718369,0.0930210202932358,0.216853588819504,0.5,0.462119370698929,-0.112852476537228
232,0.464013367891312,0.0929953381419182,0.218965694308281,0.5,0.463135957717896,-0.112559445202351
233,0.465421199798584,0.0927263870835304,0.22349987924099,0.5,0.466657251119614,-0.110182344913483
234,0.467046201229095,0.0925521701574326,0.228984996676445,0.5,0.471436768770218,-0.106008119881153
235,0.468733876943588,0.0925792902708054,0.233037486672401,0.5,0.475347429513931,-0.101861178874969
236,0.470193952322006,0.0922924503684044,0.233895644545555,0.5,0.47674360871315,-0.09989845007658
237,0.471474945545197,0.0917042344808578,0.231928065419197,0.5,0.475735276937485,-0.100347153842449
238,0.47287854552269,0.0913477763533592,0.229229807853699,0.5,0.474203765392303,-0.102146051824093
239,0.474218904972076,0.0910502448678017,0.227695792913437,0.5,0.473879545927048,-0.104427091777325
240,0.475033313035965,0.0905416756868362,0.228213116526604,0.5,0.475243419408798,-0.105934306979179
241,0.474851667881012,0.0897547751665115,0.230191305279732,0.5,0.477175652980804,-0.106182545423508
242,0.473955273628235,0.0888828262686729,0.232499122619629,0.5,0.478304117918015,-0.106108069419861
243,0.473603695631027,0.0885347649455071,0.234925150871277,0.5,0.478958249092102,-0.106489613652229
244,0.47457018494606,0.0889286622405052,0.237713128328323,0.5,0.480260848999023,-0.107166312634945
245,0.476351946592331,0.0899100676178932,0.24054054915905,0.5,0.48231452703476,-0.107321038842201
246,0.477879285812378,0.0917034149169922,0.242355108261108,0.5,0.483863472938538,-0.105927616357803
247,0.47839367389679,0.094592772424221,0.24226975440979,0.5,0.483207672834396,-0.102382950484753
248,0.477710783481598,0.0980179607868195,0.240198791027069,0.5,0.479664623737335,-0.0978119298815727
249,0.47637277841568,0.100909009575844,0.237121820449829,0.5,0.474846452474594,-0.0948082953691483
250,0.474975138902664,0.102615378797054,0.234683945775032,0.5,0.471249341964722,-0.0943609699606895
251,0.47344034910202,0.103231906890869,0.234113246202469,0.5,0.469949901103973,-0.094531424343586
252,0.471816211938858,0.103471830487251,0.235920608043671,0.5,0.470768511295319,-0.092863105237484
253,0.470745861530304,0.10401850938797,0.240098550915718,0.5,0.473262101411819,-0.0883935838937759
254,0.470521599054337,0.104802682995796,0.245833203196526,0.5,0.477010041475296,-0.0820416063070297
255,0.470758378505707,0.105118535459042,0.251472264528275,0.5,0.481191873550415,-0.0763765722513199
256,0.471604377031326,0.104907743632793,0.255848705768585,0.5,0.484797805547714,-0.0733660086989403
257,0.473134547472,0.104799695312977,0.258333474397659,0.5,0.486501961946487,-0.0729974135756493
258,0.473973333835602,0.104457959532738,0.257953613996506,0.5,0.484869420528412,-0.0749214217066765
259,0.472853600978851,0.103093668818474,0.254597663879395,0.5,0.480311185121536,-0.0786891803145409
260,0.470206826925278,0.101037561893463,0.249691471457481,0.5,0.474830269813538,-0.0830328315496445
261,0.467121005058289,0.0992647781968117,0.24499686062336,0.5,0.4699746966362,-0.0858464315533638
262,0.46418833732605,0.0983021557331085,0.241847097873688,0.5,0.466429233551025,-0.0855742692947388
263,0.461897850036621,0.097981758415699,0.240935549139977,0.5,0.464654684066772,-0.0833134055137634
264,0.461225092411041,0.0979468375444412,0.242401003837585,0.5,0.465540796518326,-0.0813829228281975
265,0.462560027837753,0.0980236977338791,0.245687544345856,0.5,0.469215452671051,-0.0805615335702896
266,0.464474856853485,0.0981911271810532,0.249206870794296,0.5,0.473477423191071,-0.0798241719603539
267,0.464969247579575,0.0981966555118561,0.251133024692535,0.5,0.475544363260269,-0.0788144171237946
268,0.463347107172012,0.0977599546313286,0.250687897205353,0.5,0.47426962852478,-0.0782930180430412
269,0.460612148046494,0.0971078798174858,0.248675137758255,0.5,0.470593839883804,-0.0780744850635529
270,0.458255738019943,0.0965040028095245,0.246803969144821,0.5,0.466908156871796,-0.0778179466724396
271,0.456837058067322,0.0956448018550873,0.246119499206543,0.5,0.464940816164017,-0.0781655386090279
272,0.456447184085846,0.0942890644073486,0.246842607855797,0.5,0.465160071849823,-0.0796630531549454
273,0.457301467657089,0.0931162536144257,0.249227896332741,0.5,0.467662334442139,-0.0813904106616974
274,0.458554595708847,0.0926095545291901,0.252524644136429,0.5,0.471062332391739,-0.0818571448326111
275,0.458610028028488,0.0925156101584435,0.25476461648941,0.5,0.472793906927109,-0.0808330848813057
276,0.456822872161865,0.0928813591599464,0.254684150218964,0.5,0.471263647079468,-0.0788332894444466
277,0.453530967235565,0.0936679095029831,0.252546101808548,0.5,0.466608732938766,-0.0765439718961716
278,0.44956037402153,0.0941639021039009,0.249551475048065,0.5,0.460621297359467,-0.0750188529491425
279,0.4462631046772,0.0939557775855064,0.247067034244537,0.5,0.455910086631775,-0.0750932767987251
280,0.445182263851166,0.0933186188340187,0.246411919593811,0.5,0.454897969961166,-0.07659662514925
281,0.446375042200089,0.0925800949335098,0.247927218675613,0.5,0.457841843366623,-0.078367568552494
282,0.447812616825104,0.0919802486896515,0.249960228800774,0.5,0.461586028337479,-0.0796451568603516
283,0.447508662939072,0.0913451984524727,0.250489145517349,0.5,0.462657630443573,-0.08094172924757
284,0.44529801607132,0.0906389579176903,0.249358937144279,0.5,0.460451275110245,-0.0822867825627327
285,0.441887497901917,0.0901532620191574,0.247523248195648,0.5,0.456013917922974,-0.0828563198447227
286,0.4375921189785,0.089699774980545,0.245348438620567,0.5,0.450177848339081,-0.0824078172445297
287,0.432761281728745,0.0891677141189575,0.24258328974247,0.5,0.443511992692947,-0.0808291807770729
288,0.428605526685715,0.0889744013547897,0.239275231957436,0.5,0.437060505151749,-0.0784898027777672
289,0.426966577768326,0.0898713022470474,0.236543148756027,0.5,0.432803481817245,-0.0764485970139503
290,0.428147941827774,0.0917471349239349,0.235685884952545,0.5,0.431981772184372,-0.0756471455097198
291,0.429878115653992,0.0935772284865379,0.236616104841232,0.5,0.433036208152771,-0.0757301524281502
292,0.429125547409058,0.0948207378387451,0.237755313515663,0.5,0.432751774787903,-0.074413999915123
293,0.425099581480026,0.0954175367951393,0.238095998764038,0.5,0.430200457572937,-0.0704251602292061
294,0.419721156358719,0.0954162329435349,0.23780432343483,0.5,0.426878482103348,-0.0653402134776115
295,0.415026813745499,0.094842292368412,0.237024381756783,0.5,0.423982828855515,-0.0616460479795933
296,0.411973237991333,0.0940081104636192,0.236119568347931,0.5,0.422059714794159,-0.0606773421168327
297,0.410833179950714,0.0936253294348717,0.235398158431053,0.5,0.420902818441391,-0.0620866119861603
298,0.411538124084473,0.094065897166729,0.234451815485954,0.5,0.419842064380646,-0.0649983435869217
299,0.413038909435272,0.0946789085865021,0.232428684830666,0.5,0.418107718229294,-0.0688753873109818
300,0.413331687450409,0.0939736291766167,0.228901922702789,0.5,0.414989203214645,-0.0732458606362343
301,0.411116987466812,0.0910703092813492,0.224291652441025,0.499623030424118,0.410391181707382,-0.0775747895240784
302,0.40671107172966,0.0869981721043587,0.21955694258213,0.491786420345306,0.404728263616562,-0.0807729959487915
303,0.401968061923981,0.0839174464344978,0.216376855969429,0.485735177993774,0.399349421262741,-0.0813245624303818
304,0.398764610290527,0.0830651000142097,0.216108769178391,0.483246296644211,0.396188914775848,-0.0786779522895813
305,0.396971762180328,0.0838153883814812,0.217757001519203,0.484312295913696,0.395360052585602,-0.0739016830921173
306,0.395667731761932,0.0849631056189537,0.219604343175888,0.487179666757584,0.395792841911316,-0.068913921713829
307,0.39461612701416,0.085853636264801,0.221197351813316,0.489453315734863,0.397180527448654,-0.0653926357626915
308,0.393155097961426,0.0861626192927361,0.22215248644352,0.489460825920105,0.398576736450195,-0.0640080124139786
309,0.390137702226639,0.0858144611120224,0.221875861287117,0.486653715372086,0.397970169782639,-0.0644101351499558
310,0.385068297386169,0.0847389250993729,0.220029011368752,0.480769217014313,0.394205510616302,-0.0658181384205818
311,0.378962874412537,0.0832192674279213,0.217330157756805,0.472656607627869,0.388555109500885,-0.0668729245662689
312,0.374090433120728,0.0821411460638046,0.215750947594643,0.465145170688629,0.384134382009506,-0.0662625879049301
313,0.372230798006058,0.0818740352988243,0.21638248860836,0.460718929767609,0.383265316486359,-0.0640953332185745
314,0.373115837574005,0.0818820670247078,0.218424111604691,0.459732085466385,0.385437518358231,-0.0613532364368439
315,0.374774962663651,0.0815707221627235,0.220421254634857,0.461056381464005,0.387983858585358,-0.0586574785411358
316,0.375300019979477,0.0807219296693802,0.221050888299942,0.462478935718536,0.388492852449417,-0.0561685338616371
317,0.37390473484993,0.0795106962323189,0.219129011034966,0.46090179681778,0.385903209447861,-0.0542962439358234
318,0.370585411787033,0.0783961713314056,0.214596033096313,0.4544498026371,0.380446553230286,-0.0534791834652424
319,0.365824043750763,0.0777573883533478,0.209341078996658,0.445115268230438,0.373764157295227,-0.0530254207551479
320,0.360412895679474,0.0775871947407722,0.205629885196686,0.437360167503357,0.367913037538528,-0.0516776815056801
321,0.355222791433334,0.0775202438235283,0.204825401306152,0.434262841939926,0.364627510309219,-0.0490436106920242
322,0.351382404565811,0.0776179581880569,0.207276210188866,0.436367928981781,0.3647700548172,-0.0451034195721149
323,0.349263340234756,0.0781102180480957,0.211422726511955,0.441464066505432,0.366705685853958,-0.0405634641647339
324,0.347978174686432,0.078478679060936,0.214560955762863,0.445171475410461,0.367376238107681,-0.0377973951399326
325,0.346230566501617,0.0779707059264183,0.214851230382919,0.443944454193115,0.364989817142487,-0.0384613797068596
326,0.343242347240448,0.0766585990786552,0.212444752454758,0.437597721815109,0.359963536262512,-0.0413782559335232
327,0.338969320058823,0.0751897692680359,0.208889499306679,0.428891658782959,0.353675276041031,-0.044232252985239
328,0.333825379610062,0.0737438872456551,0.20542499423027,0.421133190393448,0.347192645072937,-0.0457725189626217
329,0.328636765480042,0.0719598382711411,0.202623948454857,0.41636723279953,0.341419339179993,-0.0461726188659668
330,0.324404418468475,0.0697502270340919,0.200882732868195,0.414678364992142,0.337244689464569,-0.0462971292436123
331,0.322463899850845,0.0682393983006477,0.200894832611084,0.414967656135559,0.335935682058334,-0.0460328161716461
332,0.322897225618362,0.0682101473212242,0.20282718539238,0.415769338607788,0.337662875652313,-0.0445801094174385
333,0.323427617549896,0.0685186833143234,0.205238148570061,0.414969325065613,0.340027898550034,-0.042601078748703
334,0.321735143661499,0.0681554451584816,0.205875396728516,0.410780549049377,0.33981841802597,-0.0414594262838364
335,0.3174669444561,0.0674228444695473,0.203321054577827,0.403323024511337,0.335487574338913,-0.0415225252509117
336,0.311599433422089,0.0663180202245712,0.197871118783951,0.393976509571075,0.327770829200745,-0.0429279915988445
337,0.305439352989197,0.0646112337708473,0.191409930586815,0.385147988796234,0.318765819072723,-0.0452739149332047
338,0.30083492398262,0.0633161664009094,0.186549618840218,0.380494207143784,0.311236768960953,-0.0461061559617519
339,0.299160480499268,0.06333027780056,0.184984415769577,0.381353169679642,0.307560324668884,-0.0437153242528439
340,0.299476325511932,0.0639597102999687,0.185835987329483,0.384489417076111,0.307340770959854,-0.0399855859577656
341,0.299283564090729,0.0641085430979729,0.186489447951317,0.385628908872604,0.307302206754684,-0.0372962802648544
342,0.296843647956848,0.0631791204214096,0.185423225164413,0.383043885231018,0.304710775613785,-0.0360218100249767
343,0.291655659675598,0.06102429702878,0.182430759072304,0.377303063869476,0.298837035894394,-0.0359402522444725
344,0.284927666187286,0.0584984682500362,0.178292483091354,0.370042443275452,0.291101545095444,-0.0366348028182983
345,0.279231339693069,0.0570368058979511,0.174619749188423,0.362940698862076,0.284645855426788,-0.0371926464140415
346,0.275870263576508,0.056869238615036,0.172040656208992,0.356589168310165,0.281576722860336,-0.0375682227313519
347,0.274531424045563,0.0573958605527878,0.170422405004501,0.351432710886002,0.281639158725739,-0.038182444870472
348,0.274205654859543,0.0584715716540813,0.169567286968231,0.348213523626328,0.282680749893188,-0.0384873189032078
349,0.273360431194305,0.0598624832928181,0.168706968426704,0.346416920423508,0.282118797302246,-0.0378865413367748
350,0.270822882652283,0.0609767697751522,0.167117536067963,0.344414681196213,0.279083073139191,-0.0365906916558743
351,0.266399472951889,0.0614134669303894,0.164748772978783,0.340847879648209,0.27404123544693,-0.0353362001478672
352,0.260806858539581,0.0610243454575539,0.162018984556198,0.335697859525681,0.267749786376953,-0.0346146263182163
353,0.25517737865448,0.0598937273025513,0.159618213772774,0.33030903339386,0.261460185050964,-0.034396156668663
354,0.250549554824829,0.058625228703022,0.158436641097069,0.326352685689926,0.256703287363052,-0.0343172959983349
355,0.247786343097687,0.0578652545809746,0.15909318625927,0.324869066476822,0.254907816648483,-0.03419004753232
356,0.247632548213005,0.0578753240406513,0.161413192749023,0.325678765773773,0.256703674793243,-0.0345212817192078
357,0.249442204833031,0.0586626119911671,0.163965195417404,0.327361166477203,0.260242968797684,-0.0350768193602562
358,0.250196903944016,0.0595706440508366,0.164445444941521,0.327769339084625,0.261341035366058,-0.0348550081253052
359,0.247661858797073,0.0597418956458569,0.161899745464325,0.324952721595764,0.257596731185913,-0.0337285995483398
360,0.242689922451973,0.0590698011219502,0.157500922679901,0.31828436255455,0.250639766454697,-0.0317481569945812
361,0.237348854541779,0.0578149445354939,0.153166770935059,0.309413999319077,0.243735358119011,-0.0292837489396334
362,0.233619600534439,0.0564909912645817,0.151069447398186,0.301919341087341,0.239625722169876,-0.0271797124296427
363,0.232558533549309,0.0559684447944164,0.15237221121788,0.299074858427048,0.239165037870407,-0.0249127615243196
364,0.233280658721924,0.0562356412410736,0.155750140547752,0.301142483949661,0.240971639752388,-0.0220051016658545
365,0.233768910169601,0.0562435127794743,0.158501818776131,0.305114209651947,0.242708504199982,-0.0196434743702412
366,0.232138082385063,0.0550473816692829,0.158355832099915,0.307230949401855,0.242071017622948,-0.0184221491217613
367,0.228118300437927,0.0529145747423172,0.155400976538658,0.305541843175888,0.238460749387741,-0.0173977371305227
368,0.223230719566345,0.0514525547623634,0.151390001177788,0.300286531448364,0.232709258794785,-0.0159210748970509
369,0.218482732772827,0.0511860735714436,0.146633014082909,0.292255938053131,0.22526678442955,-0.0151962153613567
370,0.213682949542999,0.0507124438881874,0.140514001250267,0.282194793224335,0.217040166258812,-0.0170170329511166
371,0.209207698702812,0.0496998578310013,0.134576410055161,0.272732108831406,0.210381805896759,-0.0204387661069632
372,0.205781430006027,0.0490194298326969,0.131372973322868,0.267171323299408,0.207178026437759,-0.0229274742305279
373,0.203421697020531,0.0486613884568214,0.131175458431244,0.265729784965515,0.207025945186615,-0.0236993376165628
374,0.201803669333458,0.0487778559327126,0.132781356573105,0.266898274421692,0.208137631416321,-0.0223657228052616
375,0.199349746108055,0.0494051799178123,0.134468123316765,0.269087314605713,0.207865700125694,-0.0186239220201969
376,0.194490507245064,0.0500800050795078,0.134638920426369,0.270585983991623,0.20421801507473,-0.0131129948422313
377,0.18782502412796,0.0507689118385315,0.133054748177528,0.27002489566803,0.197678983211517,-0.00692023988813162
378,0.180985063314438,0.0509999431669712,0.130467712879181,0.266323328018188,0.190555989742279,-0.00229080161079764
379,0.175724223256111,0.0505157336592674,0.128360956907272,0.26057842373848,0.18576218187809,-0.000832238525617868
380,0.1731988042593,0.0501337274909019,0.12784968316555,0.256030261516571,0.184651792049408,-0.00112022610846907
381,0.17278665304184,0.0503459125757217,0.12840873003006,0.254310727119446,0.185801908373833,-0.000878316233865917
382,0.172904759645462,0.0507660806179047,0.12876158952713,0.25433224439621,0.186835721135139,0.000217363674892113
383,0.172382980585098,0.0507330968976021,0.128179982304573,0.253772258758545,0.186555534601212,0.000933121016714722
384,0.170634478330612,0.0496358759701252,0.126517742872238,0.250306010246277,0.185059890151024,-4.32487468060572E-06
385,0.16731384396553,0.0475842654705048,0.123520478606224,0.243645235896111,0.182104140520096,-0.00240021804347634
386,0.1623844653368,0.0454368926584721,0.118873059749603,0.235663279891014,0.177059695124626,-0.00500696757808328
387,0.156896188855171,0.043775599449873,0.11321846395731,0.228194087743759,0.170709505677223,-0.00738764135167003
388,0.152178660035133,0.0424236357212067,0.107763469219208,0.222149059176445,0.164579078555107,-0.00993651431053877
389,0.149153113365173,0.0411932431161404,0.103741325438023,0.21805140376091,0.160049930214882,-0.0126852970570326
390,0.148114621639252,0.0400145575404167,0.102444529533386,0.216301575303078,0.158460646867752,-0.0149342557415366
391,0.147874280810356,0.0383739583194256,0.103936903178692,0.216514006257057,0.159547179937363,-0.0159713383764029
392,0.147017046809196,0.0359749309718609,0.106677740812302,0.216735392808914,0.161325216293335,-0.0159997530281544
393,0.144799008965492,0.0330071561038494,0.107981942594051,0.214202851057053,0.161194205284119,-0.0166199840605259
394,0.140852570533752,0.0298440381884575,0.105240769684315,0.207908004522324,0.156851410865784,-0.0191733278334141
395,0.136345416307449,0.0271215550601482,0.0989255160093308,0.199726164340973,0.14922833442688,-0.0232105646282434
396,0.133608594536781,0.0251018572598696,0.0927735567092896,0.192395195364952,0.142658770084381,-0.0276705306023359
397,0.133389964699745,0.0234539248049259,0.0896552428603172,0.187352612614632,0.139889165759087,-0.0314509533345699
398,0.134497731924057,0.0222358144819736,0.0892375782132149,0.184476658701897,0.140023618936539,-0.0332071930170059
399,0.135333627462387,0.0218093730509281,0.0894524976611137,0.182479187846184,0.140570506453514,-0.032301302999258
400,0.134505555033684,0.0219701528549194,0.0882834196090698,0.179300725460052,0.139100447297096,-0.0297773629426956
401,0.131525322794914,0.0218860767781734,0.0852587223052979,0.173420608043671,0.135056734085083,-0.0277672540396452
402,0.126955509185791,0.020906575024128,0.0817381739616394,0.165554076433182,0.12984961271286,-0.0270878486335278
403,0.12215480953455,0.0196868367493153,0.0794539526104927,0.158731982111931,0.125132918357849,-0.0264142956584692
404,0.118881598114967,0.0195969417691231,0.0794279798865318,0.155989617109299,0.122156895697117,-0.0244364775717258
405,0.117086425423622,0.0205565728247166,0.0807965099811554,0.157738149166107,0.120535254478455,-0.0213791131973267
406,0.115179315209389,0.0215382762253284,0.0822963714599609,0.162271335721016,0.119154267013073,-0.0178092774003744
407,0.11296334862709,0.0222674794495106,0.0845029801130295,0.167306274175644,0.118351370096207,-0.0142841162160039
408,0.111066870391369,0.0226040035486221,0.0873975604772568,0.170260429382324,0.118275158107281,-0.0118958363309503
409,0.109252631664276,0.0225305277854204,0.0892221108078957,0.169588774442673,0.117790706455708,-0.0106174685060978
410,0.106848694384098,0.0225190967321396,0.0886057317256927,0.165805533528328,0.115674294531345,-0.00916493497788906
411,0.103808641433716,0.0227542351931334,0.0858990103006363,0.160820335149765,0.112176798284054,-0.0073008956387639
412,0.101383917033672,0.0230306293815374,0.0833184793591499,0.156917229294777,0.109814785420895,-0.00618428131565452
413,0.100550398230553,0.0228003263473511,0.0825657397508621,0.154947698116302,0.110444448888302,-0.00686949025839567
414,0.100561581552029,0.0216198451817036,0.08284592628479,0.154074311256409,0.112437449395657,-0.00885622203350067
415,0.10036513954401,0.0201220978051424,0.0826573148369789,0.153397411108017,0.112989813089371,-0.0103109925985336
416,0.0993852838873863,0.0192300025373697,0.0813691988587379,0.152146711945534,0.111347936093807,-0.010152512229979
417,0.0972629860043526,0.0189364664256573,0.0792175829410553,0.149411156773567,0.108788184821606,-0.0088275745511055
418,0.0937075242400169,0.0185483191162348,0.0765453428030014,0.144384026527405,0.106140449643135,-0.00755201186984777
419,0.0888191983103752,0.0175075307488441,0.0736703798174858,0.137585297226906,0.103241257369518,-0.00708116125315428
420,0.0839740186929703,0.0162109937518835,0.0713322907686234,0.131545022130013,0.100576892495155,-0.00680892914533615
421,0.0806985422968864,0.0154948849231005,0.0699082314968109,0.12858647108078,0.0987722277641296,-0.00571454223245382
422,0.079341895878315,0.0153275756165385,0.0696226730942726,0.129384502768517,0.0980607196688652,-0.00404679542407393
423,0.0792432799935341,0.0148419085890055,0.0704386010766029,0.132608249783516,0.0984039008617401,-0.00338575802743435
424,0.0789698958396912,0.0135000897571445,0.0714526623487473,0.135750040411949,0.0988884270191193,-0.0036359429359436
425,0.0772463455796242,0.0118511533364654,0.0721553787589073,0.137852370738983,0.0984841510653496,-0.00226926943287253
426,0.0740524604916573,0.0104350373148918,0.0728415697813034,0.138606935739517,0.0971747487783432,0.00154190056491643
427,0.0706443563103676,0.00909600593149662,0.0740335732698441,0.137026265263557,0.0961521863937378,0.00617815228179097
428,0.0683504715561867,0.00788968428969383,0.0760365650057793,0.133279219269753,0.0966806560754776,0.0103895226493478
429,0.0677783042192459,0.00754093611612916,0.0780591741204262,0.129262402653694,0.0982395261526108,0.0140966530889273
430,0.0687613785266876,0.00871944800019264,0.0783656165003777,0.126549035310745,0.098756842315197,0.0172994360327721
431,0.0702379494905472,0.0109693789854646,0.0755727142095566,0.124417699873447,0.0965588316321373,0.0185961425304413
432,0.0709566324949265,0.0133008537814021,0.0700093656778336,0.12139480561018,0.0917908176779747,0.0167239829897881
433,0.0703264847397804,0.0155216231942177,0.0644301921129227,0.118115715682507,0.086447648704052,0.0140487644821405
434,0.0684939101338387,0.0177050195634365,0.0620306469500065,0.116093717515469,0.0830598622560501,0.0140792755410075
435,0.065900094807148,0.0196244530379772,0.0633397996425629,0.115349590778351,0.0824271813035011,0.0170331057161093
436,0.0628471150994301,0.0208950042724609,0.0664350166916847,0.115006372332573,0.0830554962158203,0.0209224168211222
437,0.0598546490073204,0.0208708476275206,0.0697232857346535,0.114559523761272,0.0839800834655762,0.0236843302845955
438,0.057853065431118,0.0196716412901878,0.0725839138031006,0.114480674266815,0.0852364152669907,0.024422612041235
439,0.0569424256682396,0.0183397028595209,0.073125034570694,0.114326566457748,0.0847390443086624,0.0231758579611778
440,0.0563998557627201,0.0175603441894054,0.0691065341234207,0.111802361905575,0.0801055654883385,0.0195331014692783
441,0.055971197783947,0.0172791313380003,0.0616474263370037,0.106122396886349,0.0727248936891556,0.0138678653165698
442,0.0553001835942268,0.0170237366110086,0.0541449338197708,0.0992915108799934,0.06561179459095,0.00836150627583265
443,0.0536050200462341,0.0164201427251101,0.0486331135034561,0.0934038013219833,0.0598645247519016,0.00502150133252144
444,0.0504674501717091,0.0154312718659639,0.0449982173740864,0.0884828045964241,0.0548251904547215,0.00377877801656723
445,0.0466445684432983,0.0140901450067759,0.0426077805459499,0.0832345485687256,0.0505766198039055,0.00281125935725868
446,0.0442894995212555,0.0125240320339799,0.0419383458793163,0.0775990784168243,0.0491748116910458,0.000952564063481987
447,0.0443811416625977,0.0112152649089694,0.0432093776762486,0.0734971240162849,0.0512851737439632,-0.000597975216805935
448,0.0453998632729054,0.0108743738383055,0.0455052852630615,0.0729967653751373,0.0544950999319553,0.000539628905244172
449,0.0457372330129147,0.0113579193130136,0.0482360534369946,0.075847752392292,0.0567544363439083,0.00475769210606813
450,0.0454806573688984,0.0117435650900006,0.0513843633234501,0.0795374140143394,0.0583224967122078,0.00971537176519632
451,0.0453532598912716,0.0115741956979036,0.0546169131994247,0.0815968215465546,0.059918612241745,0.0129388319328427
452,0.0447380468249321,0.010328165255487,0.0563011579215527,0.0802912190556526,0.0605931393802166,0.0129223102703691
453,0.0427703931927681,0.00829298235476017,0.0549226813018322,0.0762968137860298,0.0585967525839806,0.0107630249112844
454,0.0401626192033291,0.00722916657105088,0.050739549100399,0.0723243355751038,0.0533992610871792,0.0093167070299387
455,0.0382135771214962,0.00748081924393773,0.0444945134222507,0.0684083253145218,0.0463107116520405,0.00782653316855431
456,0.0373984724283218,0.00749586289748549,0.0374415777623653,0.0629982277750969,0.0397785156965256,0.00373480026610196
457,0.0375415496528149,0.00691293133422732,0.0320895202457905,0.0572049170732498,0.0356675013899803,-0.00152593525126576
458,0.0375265181064606,0.006430609151721,0.0294199641793966,0.0529361665248871,0.0332386791706085,-0.00525469891726971
459,0.0354953296482563,0.00577989732846618,0.0278291311115026,0.0501998998224735,0.0299328863620758,-0.00725009525194764
460,0.0311572123318911,0.00490366714075208,0.0262403208762407,0.0485106892883778,0.0250279903411865,-0.00728587945923209
461,0.0259160660207272,0.0044259331189096,0.0252129826694727,0.0483712814748287,0.0202186778187752,-0.00451226718723774
462,0.0213206764310598,0.00439553242176771,0.025748036801815,0.0499761551618576,0.0174915678799152,0.000203645846340805
463,0.0184028688818216,0.00413659308105707,0.0281607490032911,0.0518965199589729,0.0178976450115442,0.00462203333154321
464,0.0174863077700138,0.00295329676009715,0.0318002961575985,0.0527822747826576,0.0213861241936684,0.00732718454673886
465,0.0181818529963493,0.00115505582652986,0.0357830375432968,0.0527302734553814,0.0268551893532276,0.00825664401054382
466,0.019114650785923,1.19069154607132E-05,0.0386729016900063,0.0521129928529263,0.0312797166407108,0.00820762850344181
467,0.0188278071582317,0.000430310436058789,0.0379002504050732,0.0500242039561272,0.0308079831302166,0.00782170612365007
468,0.0173994097858667,0.00201325607486069,0.0325050354003906,0.0453736335039139,0.0251981671899557,0.00662792101502419
469,0.0160109400749207,0.00364381959661841,0.0255552679300308,0.0396792888641357,0.0187109243124723,0.0047122766263783
470,0.0151683129370213,0.00450138375163078,0.0208251494914293,0.0356398969888687,0.0148862358182669,0.00328342639841139
471,0.0148170003667474,0.00435573514550924,0.0194275286048651,0.0341659672558308,0.0142534952610731,0.00234753848053515
472,0.0154306050390005,0.00370780285447836,0.0211102962493896,0.0352456159889698,0.0168015733361244,0.00100200797896832
473,0.0171932261437178,0.00346299633383751,0.0251964442431927,0.0390218161046505,0.0220226347446442,0.000298281636787578
474,0.0193054378032684,0.00419866340234876,0.0299430768936872,0.0446250438690186,0.0278487652540207,0.00233987905085087
475,0.0207322239875793,0.00598441483452916,0.0331361442804337,0.0496016554534435,0.0317562036216259,0.00688105029985309
476,0.0207142364233732,0.00837235525250435,0.0330814048647881,0.051200196146965,0.0321052260696888,0.0114194685593247
477,0.0192328467965126,0.0107131097465754,0.0297563299536705,0.0486047118902206,0.0290535353124142,0.014027439057827
478,0.0168055836111307,0.0123579297214746,0.0249148905277252,0.0435725525021553,0.0242955628782511,0.0146998902782798
479,0.0143320662900805,0.0126883471384645,0.0210703872144222,0.038686465471983,0.0203148536384106,0.014210139401257
480,0.0128552354872227,0.0119305485859513,0.0201560538262129,0.0357221178710461,0.0188962984830141,0.0131281958892941
481,0.0123762972652912,0.011078136973083,0.0217776391655207,0.0347818210721016,0.0193479973822832,0.0120934741571546
482,0.0120087591931224,0.010319896042347,0.0236514359712601,0.0340549536049366,0.0198460388928652,0.0106784552335739
483,0.011249378323555,0.0092123057693243,0.0243729744106531,0.0321269109845161,0.0196887012571096,0.00762089435011148
484,0.0103324325755239,0.0079540042206645,0.0244271904230118,0.0296135880053043,0.0189637839794159,0.00394546426832676
485,0.00928277708590031,0.00701156444847584,0.0243981461971998,0.0273901578038931,0.0172184072434902,0.00239005382172763
486,0.00752360001206398,0.00646502757444978,0.0236761793494225,0.0254247207194567,0.0138337966054678,0.00368426716886461
487,0.00521858735010028,0.0060698576271534,0.0214397851377726,0.0230007972568274,0.00965761300176382,0.00584376929327846
488,0.00413986016064882,0.0061504845507443,0.0187103282660246,0.0203964654356241,0.00720666395500302,0.00721984775736928
489,0.00488903233781457,0.00681717973202467,0.0169646684080362,0.0187963433563709,0.00737775582820177,0.00756465224549174
490,0.005704281385988,0.00679117534309626,0.0156112993136048,0.0178397502750158,0.00826744083315134,0.00651338463649154
491,0.00541649060323834,0.0050152400508523,0.0135498885065317,0.0162155199795961,0.00836607068777084,0.00398842338472605
492,0.00429356936365366,0.00228685815818608,0.0110840694978833,0.0138010261580348,0.00774361938238144,0.00140247470699251
493,0.00312260002829134,0.000787848723120987,0.00962240062654018,0.0121028497815132,0.00712090823799372,0.000772219500504434
494,0.00190952443517745,0.00107719271909446,0.00968767236918211,0.0119419451802969,0.00643098633736372,0.00156794011127204
495,0.000124882892123424,0.00170936458744109,0.0106213046237826,0.0125789167359471,0.00547237880527973,0.0019072312861681
496,-0.00144783407449722,0.00229533715173602,0.0128352893516421,0.0142290126532316,0.00611414015293121,0.00287368847057223
497,-0.00180095119867474,0.00344242271967232,0.0168985333293676,0.0176237337291241,0.00982640497386456,0.00634042918682098
498,-0.000979388831183314,0.00530030392110348,0.0212981980293989,0.0218636617064476,0.0148474927991629,0.0109494775533676
499,0.000555058475583792,0.00742711964994669,0.0236952193081379,0.0244791470468044,0.0184269174933434,0.013505769893527
500,0.0019512731814757,0.00901194289326668,0.0228081047534943,0.0229122973978519,0.0190472267568111,0.0125147923827171
501,0.00229896302334964,0.00961841642856598,0.0189579501748085,0.016932288184762,0.0166886448860168,0.00949661433696747
502,0.00183291488792747,0.00969516299664974,0.0144139314070344,0.00958670396357775,0.0131002385169268,0.00746060907840729
503,0.0013482392532751,0.00960003212094307,0.0113937016576529,0.00408321712166071,0.0100659187883139,0.00762313790619373
504,0.00065298069966957,0.00906782597303391,0.00986775103956461,0.00107549491804093,0.00777592323720455,0.00903251860290766
505,-0.000856073282193393,0.00816432852298021,0.00925461575388908,0.000501881120726466,0.00593877350911498,0.0113754151389003
506,-0.00284340232610703,0.00716956239193678,0.00974845513701439,0.00232954113744199,0.00441022124141455,0.0144769456237555
507,-0.0043363026343286,0.00607357732951641,0.0114732794463634,0.00530461734160781,0.00345199438743293,0.0170552954077721
508,-0.0047640036791563,0.00523384148254991,0.0142980208620429,0.00797404535114765,0.00387326395139098,0.0184114910662174
509,-0.00479555362835526,0.00455570034682751,0.0169860552996397,0.00891893543303013,0.00517892558127642,0.0177307967096567
510,-0.00564974825829268,0.00321999401785433,0.0174596142023802,0.0067389328032732,0.00545600801706314,0.0137782618403435
511,-0.00684526702389121,0.0021186824887991,0.0153408041223884,0.00233294162899256,0.00399995036423206,0.00808070693165064
512,-0.00692820781841874,0.00295442761853337,0.0118987578898668,-0.00191844429355115,0.00173385650850832,0.0036428899038583
513,-0.00612108269706368,0.00545274978503585,0.00795500911772251,-0.00513414945453405,-0.000833551632240415,0.00162298197392374
514,-0.00582006806507707,0.00814373232424259,0.00371169508434832,-0.00719966320320964,-0.00396107137203217,0.0014579416019842
515,-0.00630700821056962,0.010278083384037,0.000321196566801518,-0.00728663336485624,-0.00648349383845925,0.00220234435983002
516,-0.00660608429461718,0.011967683210969,-0.000337856356054544,-0.00519583187997341,-0.00622102152556181,0.00366085977293551
517,-0.00615189457312226,0.0131413452327251,0.00236078910529613,-0.00221466831862926,-0.00298618408851326,0.00617159344255924
518,-0.00563250901177526,0.0133495535701513,0.0068911793641746,4.79105219710618E-05,0.00106303743086755,0.00962520763278008
519,-0.00565878348425031,0.0126815279945731,0.0106115732342005,0.000433819164754823,0.00367657816968858,0.0127790933474898
520,-0.0060726273804903,0.011626317165792,0.0113111538812518,-0.00175462325569242,0.00378982699476182,0.013818284496665
521,-0.00693828053772449,0.0105104018002748,0.00860842689871788,-0.00562434364110231,0.00129261298570782,0.0125849656760693
522,-0.00829744152724743,0.00970412325114012,0.00431813439354301,-0.0089316638186574,-0.00294201890937984,0.0109452437609434
523,-0.00971735268831253,0.00947793014347553,0.000270757649559528,-0.0110613321885467,-0.00719021167606115,0.0102552408352494
524,-0.010608883574605,0.0100206658244133,-0.00268808891996741,-0.0128020066767931,-0.00969596672803164,0.0106727201491594
525,-0.0108460318297148,0.0112263802438974,-0.00397571502253413,-0.0139398714527488,-0.00995752215385437,0.0124602420255542
526,-0.010971250012517,0.0125219589099288,-0.00353421759791672,-0.0135148726403713,-0.00900140777230263,0.0159987341612577
527,-0.0112634766846895,0.01345244795084,-0.00156308885198087,-0.0110408291220665,-0.00747765181586146,0.0209512896835804
528,-0.0113381016999483,0.0135845243930817,0.0023671758826822,-0.00673874048516154,-0.00443552434444427,0.0259017813950777
529,-0.0104228360578418,0.012961508706212,0.00852320156991482,-0.00139245169702917,0.000953175534959883,0.029237849637866
530,-0.00857414770871401,0.0122071271762252,0.0148150902241468,0.00298510608263314,0.00699334498494864,0.029810817912221
531,-0.00703491223976016,0.0115644372999668,0.0178052857518196,0.00399594474583864,0.0104862097650766,0.0271168183535337
532,-0.00632617389783263,0.0116185462102294,0.0163983702659607,0.00191735045518726,0.00974144600331783,0.0228190049529076
533,-0.00631811004132032,0.013074086047709,0.0116509757936001,-0.00108418776653707,0.00508653605356812,0.0194525942206383
534,-0.00709238648414612,0.0153719885274768,0.00499367015436292,-0.00438916217535734,-0.00166250031907111,0.0174559410661459
535,-0.00864852964878082,0.0172952078282833,-0.00130672520026565,-0.00829550810158253,-0.00803699344396591,0.016505004838109
536,-0.0110300127416849,0.0181956775486469,-0.00476669892668724,-0.011570330709219,-0.0125026199966669,0.0173967853188515
537,-0.0141276633366942,0.0184262841939926,-0.0047106733545661,-0.0119354818016291,-0.0147475907579064,0.0212464183568954
538,-0.0172286760061979,0.0186503119766712,-0.00198590708896518,-0.00886780582368374,-0.0146109443157911,0.027424244210124
539,-0.0197329688817263,0.0185371655970812,0.00198966031894088,-0.00494398456066847,-0.0126111013814807,0.0326921008527279
540,-0.0214825309813023,0.0175953917205334,0.00552257057279348,-0.00284009566530585,-0.0103382878005505,0.0342782028019428
541,-0.0215373244136572,0.0167601425200701,0.00816904753446579,-0.00251750717870891,-0.00804850645363331,0.0323995053768158
542,-0.0195240583270788,0.0168192777782679,0.0100536588579416,-0.00318195810541511,-0.00536052417010069,0.0289223436266184
543,-0.0174164827913046,0.0171411596238613,0.0104832639917731,-0.00451452936977148,-0.00356300408020616,0.0259092412889004
544,-0.017047455534339,0.0174129642546177,0.00913024600595236,-0.00556896533817053,-0.00415781326591969,0.0248720794916153
545,-0.0182128194719553,0.0183932278305292,0.00609854003414512,-0.00567041058093309,-0.00744869839400053,0.0263556465506554
546,-0.0200354270637035,0.0202376637607813,0.0016786043997854,-0.00544171826913953,-0.0127521026879549,0.0294735133647919
547,-0.021817184984684,0.0220476500689983,-0.00235466519370675,-0.00496599497273564,-0.0179842077195644,0.0327358208596706
548,-0.0226293224841356,0.0233774017542601,-0.00347239105030894,-0.00302475737407804,-0.0199122074991465,0.0357737578451633
549,-0.0220137629657984,0.0240951906889677,-0.000791892991401255,0.000112007583084051,-0.0170731879770756,0.0380064696073532
550,-0.0202955976128578,0.0237090773880482,0.00471716746687889,0.00216869311407208,-0.0106705045327544,0.0379190854728222
551,-0.0175155401229858,0.0224275607615709,0.0110702635720372,0.00174452154897153,-0.00255709141492844,0.0353395268321037
552,-0.0142093002796173,0.0211883466690779,0.0157507434487343,-0.000454425549833104,0.00475528417155147,0.0320156030356884
553,-0.0119939940050244,0.0205794516950846,0.0169057473540306,-0.00287237041629851,0.00826064962893724,0.0296448916196823
554,-0.0116233918815851,0.0209538228809834,0.0138288596644998,-0.00495472457259893,0.00634042406454682,0.0284729972481728
555,-0.0120338397100568,0.0226261932402849,0.00717810541391373,-0.00715936860069633,0.000293985445750877,0.0279652625322342
556,-0.0119447680190206,0.0252369679510593,6.9618530687876E-05,-0.00860273558646441,-0.00614532781764865,0.0280082114040852
557,-0.0116757098585367,0.0273129660636187,-0.00382518023252487,-0.00769429141655564,-0.00997720938175917,0.0285374540835619
558,-0.0122027387842536,0.0272752065211535,-0.00358532834798098,-0.00512336380779743,-0.0105741238221526,0.0289790481328964
559,-0.0130177615210414,0.025389427319169,-0.000394931761547923,-0.00284953671507537,-0.00827873218804598,0.0288719739764929
560,-0.0126351388171315,0.0234343558549881,0.00421449029818177,-0.00219345185905695,-0.00359250977635384,0.0279111173003912
561,-0.0107688549906015,0.0224154740571976,0.00838795490562916,-0.00353303365409374,0.00203164550475776,0.0260665360838175
562,-0.00860343314707279,0.0218452345579863,0.010721636004746,-0.00625602761283517,0.00657163979485631,0.0236623995006084
563,-0.00689384108409286,0.0211700312793255,0.0113505674526095,-0.00946839060634375,0.00928842276334763,0.0207742527127266
564,-0.00553543819114566,0.02056566439569,0.0105652818456292,-0.0126759903505445,0.0102769108489156,0.0170770268887281
565,-0.00467617670074105,0.0203193575143814,0.00780700938776135,-0.0153895178809762,0.00904580391943455,0.0128391208127141
566,-0.00484362477436662,0.0205755773931742,0.00290830084122717,-0.0172852538526058,0.00504658743739128,0.00926704984158278
567,-0.00607313960790634,0.0213428195565939,-0.00304624577984214,-0.018914733082056,-0.000868789618834853,0.00668317498639226
568,-0.00729273678734899,0.0227942205965519,-0.0083026522770524,-0.020690631121397,-0.00653344858437777,0.00466546509414911
569,-0.00747243221849203,0.0249878782778978,-0.0117599600926042,-0.022375738248229,-0.0105020552873611,0.00349380634725094
570,-0.00691577978432179,0.0271954853087664,-0.0129708722233772,-0.0233273021876812,-0.0124924536794424,0.00369170913472772
571,-0.00637009227648377,0.0289981737732887,-0.0113590424880385,-0.0222124271094799,-0.0123785519972444,0.00621690042316914
572,-0.00604745745658875,0.0308140479028225,-0.00703499931842089,-0.0182925593107939,-0.0104130255058408,0.0123262405395508
573,-0.00604391889646649,0.0324032567441463,-0.00149827706627548,-0.0131376748904586,-0.00739913946017623,0.0207994785159826
574,-0.00616722600534558,0.0325713157653809,0.00365497986786067,-0.00960708782076836,-0.00362495286390185,0.0270512737333775
575,-0.00601188605651259,0.0304107591509819,0.00739459600299597,-0.00919822882860899,0.00052619498455897,0.0272324569523335
576,-0.00573315471410751,0.0263521671295166,0.00860500708222389,-0.0109981875866652,0.00335236359387636,0.0217884965240955
577,-0.00541447103023529,0.0217815395444632,0.00705460924655199,-0.0134596927091479,0.0040702442638576,0.0135717978700995
578,-0.00482310121878982,0.0174487270414829,0.00420810282230377,-0.0161407571285963,0.00431661773473024,0.00468237232416868
579,-0.00404426269233227,0.0138210570439696,0.00167604675516486,-0.0190320089459419,0.00558889424428344,-0.00332323578186333
580,-0.0032854164019227,0.0120864482596517,-0.000175720400875434,-0.0217212308198214,0.00705906422808766,-0.00836867652833462
581,-0.00284682144410908,0.0126885017380118,-0.00249472912400961,-0.0240546688437462,0.00636879075318575,-0.00925047416239977
582,-0.00280272611416876,0.0146028501912951,-0.00612813234329224,-0.0263604689389467,0.00268380786292255,-0.00734148686751723
583,-0.00272022979333997,0.0164959728717804,-0.00976303219795227,-0.028481075540185,-0.00189050810877234,-0.00562669383361936
584,-0.00316669070161879,0.016985509544611,-0.0121014257892966,-0.0299586150795221,-0.00561761436983943,-0.00614152755588293
585,-0.00509559782221913,0.015524772927165,-0.0128771914169192,-0.0301165785640478,-0.00825920980423689,-0.00778452726081014
586,-0.00772403925657272,0.0133930537849665,-0.0113451397046447,-0.0279509630054235,-0.00881102122366428,-0.00765021005645394
587,-0.00991160050034523,0.0118567617610097,-0.00765877962112427,-0.0238575916737318,-0.00705585675314069,-0.00495110871270299
588,-0.0113510470837355,0.0109905218705535,-0.00383411883376539,-0.0199022684246302,-0.004870914388448,-0.00120313325896859
589,-0.0116190714761615,0.0107304146513343,-0.00158915657084435,-0.0180933903902769,-0.00364453857764602,0.00169675843790174
590,-0.0103427367284894,0.0111937439069152,-0.00126636098138988,-0.019050071015954,-0.00335629726760089,0.00222268770448864
591,-0.00820253603160381,0.0119296805933118,-0.00256969057954848,-0.0217483956366777,-0.00371972750872374,-0.000122018456750084
592,-0.00647330842912197,0.0121910804882646,-0.00456929253414273,-0.0247401315718889,-0.00409828266128898,-0.0046170623973012
593,-0.00579961529001594,0.0120419366285205,-0.00574905145913363,-0.0268738344311714,-0.00380537821911275,-0.00904655829071999
594,-0.00630103517323732,0.0119334198534489,-0.00540908239781857,-0.0269351080060005,-0.00318971998058259,-0.0102217653766274
595,-0.00749909831210971,0.0122945792973042,-0.00381731428205967,-0.0239880643785,-0.00281797652132809,-0.006480956915766
596,-0.00830902252346277,0.0133196786046028,-0.00168326694983989,-0.0193285178393126,-0.00271007209084928,9.19820195122156E-06
597,-0.008383858948946,0.0142550235614181,-0.000781063281465322,-0.0168998595327139,-0.00304188625887036,0.00456907926127315
598,-0.00829101540148258,0.0144439525902271,-0.00239317561499774,-0.0191280376166105,-0.0037054184358567,0.00484990514814854
599,-0.00844467710703611,0.0144263580441475,-0.00533195864409208,-0.023893877863884,-0.00410511111840606,0.00334321730770171
600,-0.0088458089157939,0.0154186924919486,-0.00731803616508842,-0.0266057550907135,-0.00435591442510486,0.00415308866649866
601,-0.00972055830061436,0.0176584124565125,-0.00740815419703722,-0.0245828852057457,-0.00520839774981141,0.00823336839675903
602,-0.011365856975317,0.0195905528962612,-0.00635719345882535,-0.0191521774977446,-0.00677902065217495,0.0125518962740898
603,-0.0134706385433674,0.019512077793479,-0.00550847453996539,-0.0137709463015199,-0.00839213375002146,0.0127527471631765
604,-0.0149630233645439,0.0175359752029181,-0.00563362520188093,-0.0113246887922287,-0.00924717448651791,0.0075256391428411
605,-0.0149399405345321,0.0151977585628629,-0.00627364730462432,-0.0122314104810357,-0.00885144434869289,0.000150306892464869
606,-0.0140118487179279,0.0131935644894838,-0.00655570393428206,-0.0148300165310502,-0.00728771230205894,-0.00576401641592383
607,-0.0134461894631386,0.0114386547356844,-0.00627115834504366,-0.0177632961422205,-0.00531790731474757,-0.00857656542211771
608,-0.013567759655416,0.0106798261404037,-0.00592385279014707,-0.020326305180788,-0.0040721190162003,-0.00748875038698316
609,-0.0138342576101422,0.0116339083760977,-0.00588528858497739,-0.0217303931713104,-0.00375575921498239,-0.00351873692125082
610,-0.0137189049273729,0.0135893719270825,-0.00582893658429384,-0.0219993349164724,-0.0033278320915997,0.000218839893932454
611,-0.0132524976506829,0.0155622167512774,-0.0058809882029891,-0.022101229056716,-0.00282692187465727,0.00150748528540134
612,-0.0127442488446832,0.0174864418804646,-0.00682422798126936,-0.022536214441061,-0.00377199938520789,0.000306299014482647
613,-0.0121759586036205,0.0193080380558968,-0.00830027554184198,-0.0228149890899658,-0.00612792000174522,-0.00252583087421954
614,-0.011528454720974,0.0205346737056971,-0.00912340078502893,-0.0226338114589453,-0.00797347351908684,-0.00567673658952117
615,-0.0111137451604009,0.020545931532979,-0.00936059467494488,-0.023129116743803,-0.00837834551930428,-0.00844212714582682
616,-0.010848612524569,0.0189818367362022,-0.00983743090182543,-0.0254198890179396,-0.00779452081769705,-0.0115477601066232
617,-0.0101351849734783,0.0165011938661337,-0.0101014431566,-0.0282805021852255,-0.00612283917143941,-0.0149007849395275
618,-0.00926807336509228,0.0139528438448906,-0.00994261633604765,-0.0299893356859684,-0.00374815217219293,-0.0173271279782057
619,-0.0091012567281723,0.011742252856493,-0.0107043655589223,-0.0304621979594231,-0.00266185263171792,-0.0187665782868862
620,-0.00956217851489782,0.0101640885695815,-0.0127007877454162,-0.0306072533130646,-0.0040477910079062,-0.0198975503444672
621,-0.01020872220397,0.0090362299233675,-0.0143306311219931,-0.0311833769083023,-0.00642639212310314,-0.0205315873026848
622,-0.0104215135797858,0.00832348875701427,-0.0140222935006022,-0.0316946692764759,-0.00665893917903304,-0.0197137258946896
623,-0.00967308226972818,0.00831103976815939,-0.0119293155148625,-0.0310797281563282,-0.003563103498891,-0.0173724498599768
624,-0.00850846339017153,0.00875883549451828,-0.00891527161002159,-0.0287129338830709,0.0011283231433481,-0.0144239831715822
625,-0.00803476665169001,0.00882653892040253,-0.00615070201456547,-0.0257362518459558,0.00497416779398918,-0.0121199423447251
626,-0.00879000872373581,0.0080812918022275,-0.00636400748044252,-0.025340273976326,0.00538792926818132,-0.0118276169523597
627,-0.0100175952538848,0.0076234801672399,-0.0103794811293483,-0.0283481795340776,0.00186533108353615,-0.0130718694999814
628,-0.0102528864517808,0.00854618195444345,-0.0143409986048937,-0.0317462868988514,-0.00196336139924824,-0.0140100503340364
629,-0.00962841976433992,0.0101439272984862,-0.014594990760088,-0.0327914357185364,-0.00285813608206809,-0.0140986293554306
630,-0.00962340738624334,0.0114345941692591,-0.0114857871085405,-0.0308886505663395,-0.00156506162602454,-0.0133569817990065
631,-0.0106149362400174,0.0121944285929203,-0.00740521028637886,-0.0273805279284716,-0.000268849689746276,-0.0121828578412533
632,-0.0117543572559953,0.0127343460917473,-0.00427149329334497,-0.0239593628793955,-6.20562423137017E-05,-0.0112234521657228
633,-0.0126056326553226,0.0135468505322933,-0.00276828743517399,-0.0208594761788845,-0.000834383885376155,-0.0104935020208359
634,-0.0136530930176377,0.014272446744144,-0.00245118443854153,-0.0177878011018038,-0.00201997323893011,-0.0100400485098362
635,-0.0149174416437745,0.0141410185024142,-0.00199404335580766,-0.0150796277448535,-0.00264971260912716,-0.00956162344664335
636,-0.0160707216709852,0.0129226697608829,-0.000831704761367291,-0.0136789036914706,-0.00223961845040321,-0.00867395382374525
637,-0.0170079376548529,0.0110171101987362,0.000358152494300157,-0.0142987966537476,-0.00136857538018376,-0.00816020090132952
638,-0.0171105619519949,0.00947429146617651,0.0013150394661352,-0.0165196768939495,-0.000333573058014736,-0.00932861585170031
639,-0.0162917412817478,0.00884607806801796,0.00161031424067914,-0.0196856632828712,0.00055550312390551,-0.0126393958926201
640,-0.0156799573451281,0.00862568151205778,2.32665788644226E-05,-0.0236387476325035,-3.46207525581121E-05,-0.0173222366720438
641,-0.0158072393387556,0.00889474991708994,-0.00344742625020444,-0.0272780917584896,-0.00294185965321958,-0.0211144629865885
642,-0.0163572076708078,0.0102259749546647,-0.00723640946671367,-0.0289449281990528,-0.00746364519000053,-0.0217466522008181
643,-0.0168704111129045,0.0126271462067962,-0.00970222428441048,-0.0280291605740786,-0.0120068220421672,-0.0191708188503981
644,-0.0168795697391033,0.0156182004138827,-0.0105665689334273,-0.025689534842968,-0.0152101814746857,-0.0156214758753777
645,-0.0166043899953365,0.0182954352349043,-0.0114688146859407,-0.0241250786930323,-0.0176255069673061,-0.0136579675599933
646,-0.0164575558155775,0.0198385268449783,-0.0138107910752296,-0.0243377853184938,-0.0204584021121264,-0.014483630657196
647,-0.0160422790795565,0.0198852606117725,-0.0171049553900957,-0.0260343085974455,-0.0234224870800972,-0.0182444546371698
648,-0.0146606313064694,0.0184045303612947,-0.0200608819723129,-0.0287196040153503,-0.0254335589706898,-0.023854548111558
649,-0.0129509754478931,0.0157410688698292,-0.02210976742208,-0.0315175801515579,-0.0260429810732603,-0.0286851618438959
650,-0.0125578213483095,0.0128623563796282,-0.023389196023345,-0.0329549685120583,-0.0260139983147383,-0.0305274985730648
651,-0.0133699057623744,0.0109154125675559,-0.0234676115214825,-0.0318145342171192,-0.025840237736702,-0.0298433844000101
652,-0.0137616191059351,0.00994472485035658,-0.021631034091115,-0.0283752717077732,-0.0246028862893581,-0.0290705934166908
653,-0.0130484653636813,0.00904717948287725,-0.0181365869939327,-0.0249078869819641,-0.0213163457810879,-0.0299778860062361
654,-0.0119063407182693,0.00819980446249247,-0.014641921967268,-0.0236717332154512,-0.0171512737870216,-0.0315962284803391
655,-0.0115106338635087,0.00842991098761559,-0.0134061863645911,-0.0247620102018118,-0.0153540074825287,-0.0317557081580162
656,-0.0122970221564174,0.010210070759058,-0.0153053449466825,-0.0273793041706085,-0.0175060965120792,-0.0304416492581367
657,-0.0132789649069309,0.0129932053387165,-0.0188826378434896,-0.0309497397392988,-0.0213327445089817,-0.0287992116063833
658,-0.0130480779334903,0.0157081075012684,-0.0219501331448555,-0.035070076584816,-0.0235124174505472,-0.027482783421874
659,-0.0113686760887504,0.0175718106329441,-0.023691963404417,-0.0390967316925526,-0.0230741053819656,-0.0264403093606234
660,-0.00904448051005602,0.0188785903155804,-0.0238795541226864,-0.0411016121506691,-0.020904116332531,-0.0240198727697134
661,-0.00696510495617986,0.019826615229249,-0.0218005385249853,-0.0396448522806168,-0.0178260542452335,-0.019995491951704
662,-0.00561923906207085,0.0200206860899925,-0.0173222310841084,-0.0357709228992462,-0.014121949672699,-0.0170789081603289
663,-0.00504694879055023,0.0196123290807009,-0.0117149725556374,-0.0312544293701649,-0.0101768588647246,-0.0166852064430714
664,-0.00515187159180641,0.0191399995237589,-0.00691983848810196,-0.0269381571561098,-0.00696221133694053,-0.0177551694214344
665,-0.00549960089847445,0.0192259475588799,-0.004194853361696,-0.0234719831496477,-0.00528842071071267,-0.0191306285560131
666,-0.0057971621863544,0.0202646069228649,-0.00384694058448076,-0.0216283909976482,-0.00562965031713247,-0.020196083933115
667,-0.0064788400195539,0.0219556074589491,-0.00585754727944732,-0.0216916054487228,-0.00835259910672903,-0.0205304641276598
668,-0.00783597212284803,0.0234180986881256,-0.00995222106575966,-0.0240012817084789,-0.0128051862120628,-0.0209365673363209
669,-0.00954950228333473,0.0234308205544949,-0.0150331826880574,-0.0288272947072983,-0.0172740090638399,-0.0229443125426769
670,-0.0107639357447624,0.0218319930136204,-0.0186922028660774,-0.0338824465870857,-0.0196786597371101,-0.0254903063178062
671,-0.0105631221085787,0.0201383922249079,-0.018345395103097,-0.034780714660883,-0.0185368377715349,-0.0255140531808138
672,-0.00952168647199869,0.0194165110588074,-0.0142384367063642,-0.0303147193044424,-0.0150059452280402,-0.0226633083075285
673,-0.00895832292735577,0.0194285288453102,-0.00876410771161318,-0.0234344620257616,-0.0114683844149113,-0.0188852697610855
674,-0.00876277405768633,0.0199985634535551,-0.00333205587230623,-0.0170398019254208,-0.0082762548699975,-0.0148201249539852
675,-0.00817747786641121,0.0212569087743759,0.00127100350800902,-0.0126758022233844,-0.00498648500069976,-0.0106134004890919
676,-0.0069836494512856,0.0232455190271139,0.00407451065257192,-0.0111025385558605,-0.00204132753424346,-0.00726186716929078
677,-0.00552143016830087,0.0257709305733442,0.00417100265622139,-0.0123337861150503,-0.000303189153783023,-0.00559132685884833
678,-0.00456780381500721,0.0280179567635059,0.00141288957092911,-0.0157682057470083,-0.000385152787202969,-0.00599587988108397
679,-0.0044477810151875,0.0289591643959284,-0.00258473050780594,-0.019899295642972,-0.00188448408152908,-0.00834275223314762
680,-0.00477764429524541,0.028579218313098,-0.00562294339761138,-0.0226586274802685,-0.00383470929227769,-0.0111125847324729
681,-0.0050831213593483,0.0276519916951656,-0.00714416336268187,-0.0230021215975285,-0.00577610079199076,-0.0127457091584802
682,-0.00502176210284233,0.0266474466770887,-0.00769839994609356,-0.0216253958642483,-0.00727563165128231,-0.0134743405506015
683,-0.00475623365491629,0.0257131569087505,-0.00759007828310132,-0.0200972091406584,-0.0078685749322176,-0.0140914525836706
684,-0.00479523045942187,0.0248343795537949,-0.00758152920752764,-0.0199934896081686,-0.00809882208704948,-0.0151028456166387
685,-0.00512903789058328,0.0241071935743093,-0.00856863893568516,-0.0220031626522541,-0.00872069504112005,-0.016899012029171
686,-0.00556808710098267,0.0237980093806982,-0.0105412034317851,-0.0253051165491343,-0.00990345701575279,-0.0187186095863581
687,-0.00630941754207015,0.0239337179809809,-0.0129036502912641,-0.0282351765781641,-0.0114068388938904,-0.0189976412802935
688,-0.00756995985284448,0.0241424683481455,-0.0148958172649145,-0.0294757466763258,-0.0127409044653177,-0.0176096241921186
689,-0.00937656406313181,0.0237557701766491,-0.0162791889160872,-0.0291257761418819,-0.0140974391251802,-0.0162014830857515
690,-0.0113726202398539,0.0227060616016388,-0.0172225534915924,-0.0284242574125528,-0.0157648511230946,-0.015781668946147
691,-0.0128190526738763,0.0218050256371498,-0.0172702576965094,-0.0278318244963884,-0.0168299786746502,-0.0154254920780659
692,-0.0134265013039112,0.02161237411201,-0.0156077956780791,-0.0260432902723551,-0.0163483247160912,-0.0134445773437619
693,-0.0134976180270314,0.0223721992224455,-0.0119557837024331,-0.0214322786778212,-0.0145455868914723,-0.00834858510643244
694,-0.0135423094034195,0.0237507857382298,-0.0075219189748168,-0.0151942297816277,-0.0126949194818735,-0.000961083569563925
695,-0.0140625769272447,0.0245311707258224,-0.00495485123246908,-0.0113128907978535,-0.0124700972810388,0.00486480304971337
696,-0.014784918166697,0.024345688521862,-0.00602295901626349,-0.0126023991033435,-0.0141521645709872,0.00588296074420214
697,-0.0146906580775976,0.0241041891276836,-0.00978939794003963,-0.0184214301407337,-0.0161256548017263,0.00215231254696846
698,-0.0135232480242848,0.0245872363448143,-0.0133243016898632,-0.0249761361628771,-0.0169896651059389,-0.00252900249324739
699,-0.0121098067611456,0.0258965622633696,-0.0136454124003649,-0.0276673045009375,-0.0162116754800081,-0.0034711416810751
700,-0.0111310351639986,0.0273995343595743,-0.00985729787498713,-0.0247427448630333,-0.0132424784824252,0.000352867937181145
701,-0.010574315674603,0.0283774212002754,-0.00402479758486152,-0.0184923205524683,-0.00857296213507652,0.00617015035822988
702,-0.00993825681507587,0.0291349459439516,0.000241355446632952,-0.012852587737143,-0.00470511708408594,0.0106488969177008
703,-0.00902329757809639,0.0305601377040148,0.000466597324702889,-0.0101546095684171,-0.00408458337187767,0.012654329650104
704,-0.00792582612484694,0.0325800552964211,-0.00271159713156521,-0.0105428248643875,-0.00610547559335828,0.0120639614760876
705,-0.00652454514056444,0.0341912172734737,-0.00654684333130717,-0.0127291288226843,-0.00793571397662163,0.00869152322411537
706,-0.00528191216289997,0.035065159201622,-0.00944281835108995,-0.014603516086936,-0.00860315840691328,0.00471428036689758
707,-0.0048480024561286,0.0354348495602608,-0.0114122172817588,-0.0150905912742019,-0.00920854788273573,0.0027627230156213
708,-0.00515648070722818,0.0351371876895428,-0.0116633800789714,-0.014268422499299,-0.00974360946565866,0.00314678531140089
709,-0.00619156006723642,0.0338545441627502,-0.00933052320033312,-0.0125402500852942,-0.00935856532305479,0.00568062905222178
710,-0.00769452704116702,0.0318208001554012,-0.0053311581723392,-0.0106179742142558,-0.00807765405625105,0.0100082820281386
711,-0.00864544790238142,0.0300607550889254,-0.0015110942767933,-0.00891216564923525,-0.00640198541805148,0.0146282939240336
712,-0.00829513091593981,0.0298595577478409,0.00055198313202709,-0.00766405276954174,-0.00528263440355659,0.018216609954834
713,-0.00748700927942991,0.0310971308499575,-0.000917285622563213,-0.00854828115552664,-0.00684627704322338,0.0191549323499203
714,-0.00757162226364017,0.0317862257361412,-0.00658183172345161,-0.0134220123291016,-0.0116246305406094,0.0154009042307734
715,-0.00788637716323137,0.0311137977987528,-0.0131010552868247,-0.0198953486979008,-0.0161114651709795,0.00919364485889673
716,-0.00761733064427972,0.030043751001358,-0.0161637850105762,-0.0230554901063442,-0.0174358151853085,0.00579938990995288
717,-0.00767061486840248,0.0291800405830145,-0.0147607000544667,-0.0213653761893511,-0.0160521548241377,0.00650483276695013
718,-0.00863776914775372,0.0284836124628782,-0.0106403809040785,-0.0170417409390211,-0.0133389830589294,0.00826269760727882
719,-0.00994910299777985,0.0274950731545687,-0.00611371640115976,-0.0129198702052236,-0.0105092497542501,0.0080421157181263
720,-0.0110449809581041,0.0256300456821918,-0.00280546955764294,-0.0112004345282912,-0.00818211585283279,0.00487052695825696
721,-0.0119918584823608,0.0231416318565607,-0.0018313021864742,-0.0126377632841468,-0.00697577930986881,-1.40076681418577E-05
722,-0.0126796616241336,0.0218170285224915,-0.00364828342571855,-0.015717938542366,-0.00801623426377773,-0.00401902012526989
723,-0.0130459675565362,0.0229758489876986,-0.00839591957628727,-0.0185284223407507,-0.012172132730484,-0.00635405397042632
724,-0.0137759502977133,0.0251295696943998,-0.0152979418635368,-0.0207045506685972,-0.018617769703269,-0.00886829011142254
725,-0.0149878589436412,0.0261802412569523,-0.0211911536753178,-0.0225415322929621,-0.0240730736404657,-0.012026640586555
726,-0.0159463211894035,0.0259254518896341,-0.0232260245829821,-0.023384865373373,-0.0258917137980461,-0.0132061066105962
727,-0.0161816440522671,0.0251355525106192,-0.0213579442352057,-0.0220557954162359,-0.0241947695612907,-0.0103085236623883
728,-0.0153606720268726,0.0245020966976881,-0.0166495330631733,-0.018452862277627,-0.0196678433567286,-0.00422827713191509
729,-0.0136383231729269,0.023946600034833,-0.0105229569599032,-0.0140293277800083,-0.0130402520298958,0.00248865108005703
730,-0.0123091209679842,0.0224455427378416,-0.00483439397066832,-0.0106070833280683,-0.00615328224375844,0.0074132070876658
731,-0.0118280071765184,0.0201620627194643,-0.000393630791222677,-0.00850242841988802,-0.000539577624294907,0.0097234845161438
732,-0.0110506406053901,0.0188510380685329,0.00300996052101254,-0.00699769519269466,0.00357094430364668,0.0100858649238944
733,-0.0097860423848033,0.0192508846521378,0.00473674573004246,-0.00634723948314786,0.00544685963541269,0.00906579662114382
734,-0.00910018756985664,0.0209027230739594,0.00351117667742074,-0.00712463119998574,0.0035609130281955,0.00722951861098409
735,-0.00921380892395973,0.0233730636537075,-0.000620834296569228,-0.00905183609575033,-0.00172411720268428,0.0050557553768158
736,-0.00920804962515831,0.0259488727897406,-0.00628672167658806,-0.0118601629510522,-0.00788392312824726,0.00225065392442048
737,-0.00866903830319643,0.0275257863104343,-0.011882621794939,-0.0156029229983687,-0.0126406876370311,-0.00153740122914314
738,-0.00804321188479662,0.0277229677885771,-0.0153375314548612,-0.0188694950193167,-0.0147001259028912,-0.00482165813446045
739,-0.00788190867751837,0.0270909480750561,-0.0152273345738649,-0.019428726285696,-0.01391327008605,-0.00522909080609679
740,-0.00855699181556702,0.0261676479130983,-0.0123691614717245,-0.0173238404095173,-0.0113638248294592,-0.00283875782042742
741,-0.0100816348567605,0.0253803320229054,-0.00911979004740715,-0.0145478909835219,-0.00911891274154186,0.000447768543381244
742,-0.012197095900774,0.0249044857919216,-0.00768547970801592,-0.0126579245552421,-0.00919525232166052,0.00323084136471152
743,-0.0146389808505774,0.0242360942065716,-0.00870386324822903,-0.0121592842042446,-0.0118946461006999,0.0045864419080317
744,-0.0169323962181807,0.0230644885450602,-0.0110140899196267,-0.0125322351232171,-0.0155016239732504,0.00420349650084972
745,-0.0183180347084999,0.0220567565411329,-0.0127731822431087,-0.0120973689481616,-0.0177774429321289,0.00261149252764881
746,-0.0188069175928831,0.0215961933135986,-0.0135015621781349,-0.010510447435081,-0.0184736344963312,-0.000155425470438786
747,-0.0186802539974451,0.0215092040598392,-0.0138586442917585,-0.00988674536347389,-0.0184673853218555,-0.0036829796154052
748,-0.0178319793194532,0.0215477179735899,-0.013812854886055,-0.0115858316421509,-0.0173297002911568,-0.00641923118382692
749,-0.0167720932513475,0.0209847223013639,-0.0131397219374776,-0.0151505544781685,-0.0146809006109834,-0.00776516320183873
750,-0.0159909799695015,0.0197850167751312,-0.0125497616827488,-0.0197145435959101,-0.011839653365314,-0.00823596585541964
751,-0.0155652342364192,0.0194691009819508,-0.013368483632803,-0.0234911385923624,-0.0110144251957536,-0.00770442560315132
752,-0.0158578287810087,0.0211504902690649,-0.0161489453166723,-0.0243536308407784,-0.0135844256728888,-0.00576463481411338
753,-0.0167780835181475,0.0241343006491661,-0.019394414499402,-0.0222249459475279,-0.0180721543729305,-0.00298119871877134
754,-0.0176714211702347,0.0270531009882689,-0.0204679910093546,-0.0181160997599363,-0.0209692064672709,0.000675412185955793
755,-0.0182520691305399,0.0291003193706274,-0.0177531018853188,-0.0121224224567413,-0.0203171260654926,0.0062703937292099
756,-0.0185352321714163,0.029990566894412,-0.0116047067567706,-0.00495153199881315,-0.0163469575345516,0.0130039537325501
757,-0.018576841801405,0.0291562937200069,-0.00427455175668001,0.00074917427264154,-0.0100915757939219,0.0171854924410582
758,-0.0182725824415684,0.0265932660549879,0.00122333643957973,0.00291702011600137,-0.00339406612329185,0.0160315744578838
759,-0.0178229138255119,0.0238920859992504,0.00222149770706892,0.00172416248824447,0.000409192201914266,0.0108387935906649
760,-0.0177405588328838,0.0226832181215286,-0.00245245848782361,-0.001902558025904,-0.00151515181642026,0.00467048399150372
761,-0.0175381135195494,0.0230576246976852,-0.0102110002189875,-0.00650421576574445,-0.0075261639431119,-0.000772924802731723
762,-0.0165254902094603,0.0238918084651232,-0.0158528070896864,-0.00978808850049973,-0.0129976524040103,-0.00471773138269782
763,-0.0154042690992355,0.024023799225688,-0.0168939083814621,-0.0106313582509756,-0.0155951166525483,-0.00600065942853689
764,-0.0149123352020979,0.0230482500046492,-0.0147547209635377,-0.00999785680323839,-0.0156020596623421,-0.00425252038985491
765,-0.0146049745380878,0.0215548221021891,-0.0116916717961431,-0.00898205954581499,-0.0140500972047448,-0.000643941573798656
766,-0.0141757065430284,0.0201277639716864,-0.00918291788548231,-0.00792947039008141,-0.0122084552422166,0.00254682986997068
767,-0.0139073375612497,0.0187509953975677,-0.00781936291605234,-0.00730883935466409,-0.0107912644743919,0.00307016703300178
768,-0.0140506038442254,0.0176861602813005,-0.00793616194278002,-0.00779326073825359,-0.0102402092888951,0.000900004233699292
769,-0.0148083996027708,0.0172432828694582,-0.00943323597311974,-0.0095337275415659,-0.010627705603838,-0.00225532148033381
770,-0.0158885680139065,0.0175482016056776,-0.0113216666504741,-0.011285662651062,-0.0113903805613518,-0.00440707942470908
771,-0.0168995056301355,0.0189982317388058,-0.0125512359663844,-0.0107082817703485,-0.0121271042153239,-0.00316579197533429
772,-0.0183640327304602,0.0213416647166014,-0.012736763805151,-0.00677777919918299,-0.0130275702103972,0.00271766260266304
773,-0.0206170603632927,0.0231677554547787,-0.0115802241489291,-0.00107657816261053,-0.013808767311275,0.0112110720947385
774,-0.0227414667606354,0.0232607331126928,-0.0083021018654108,0.00443337392061949,-0.0129319820553064,0.018613938242197
775,-0.0233920980244875,0.0217009838670492,-0.00264427810907364,0.0089350501075387,-0.00934222619980574,0.0222775880247355
776,-0.0220011174678802,0.0190291460603476,0.00411952659487724,0.0111425500363112,-0.00340224802494049,0.0209874920547009
777,-0.0186059232801199,0.0160126145929098,0.0105458926409483,0.0100761903449893,0.00411684392020106,0.015801802277565
778,-0.0139943398535252,0.0137812942266464,0.0155509151518345,0.0071078147739172,0.0113854976370931,0.00981586799025536
779,-0.0102021899074316,0.012713860720396,0.0172090400010347,0.00390406581573188,0.0150494864210486,0.00511597050353885
780,-0.00864663161337376,0.0128559367731214,0.0135707119479775,0.000546571507584304,0.0125082219019532,0.00214325822889805
781,-0.00961924437433481,0.0137177649885416,0.00434081582352519,-0.00369124277494848,0.00364690367132425,6.66056657792069E-05
782,-0.012340341694653,0.0140835642814636,-0.00735023710876703,-0.00860564317554235,-0.00770681677386165,-0.00303502776660025
783,-0.0149243706837296,0.0133786564692855,-0.0167308803647757,-0.0132458182051778,-0.0161006804555655,-0.00819236505776644
784,-0.0167827047407627,0.0121328812092543,-0.0221305582672358,-0.0170407723635435,-0.0204568617045879,-0.0135406721383333
785,-0.0187765825539827,0.0114854481071234,-0.0246141869574785,-0.0188457239419222,-0.0230872835963964,-0.0152697470039129
786,-0.0211881343275309,0.0118734212592244,-0.0249073319137096,-0.0175764504820108,-0.0247815940529108,-0.0119927888736129
787,-0.0234763063490391,0.0126473316922784,-0.0229520183056593,-0.0136622851714492,-0.0245923791080713,-0.0058861467987299
788,-0.0253600515425205,0.0128811309114099,-0.0191132351756096,-0.0086171505972743,-0.0222637131810188,0.000161408097483218
789,-0.0268811620771885,0.0122242206707597,-0.014795714057982,-0.00413250923156738,-0.0189640652388334,0.00431949039921165
790,-0.0273405965417624,0.0112937912344933,-0.011139010079205,-0.00107456836849451,-0.0153534337878227,0.0061867069453001
791,-0.025912269949913,0.0108036603778601,-0.00815765280276537,0.000516033731400967,-0.0110550662502646,0.00612051645293832
792,-0.0234042536467314,0.0103398514911532,-0.00624162098392844,0.000407554907724261,-0.00691560143604875,0.0043705441057682
793,-0.0214497111737728,0.0096023790538311,-0.00624524522572756,-0.000936623138841242,-0.00488469004631042,0.00197379314340651
794,-0.0206515323370695,0.00934236496686935,-0.00834526028484106,-0.00248955981805921,-0.00598104950040579,0.000242661219090223
795,-0.0208108481019735,0.00968143623322248,-0.0120715834200382,-0.00419655255973339,-0.0098502142354846,-0.00112225965131074
796,-0.021207557991147,0.0101125845685601,-0.0158965736627579,-0.00565626099705696,-0.014479954726994,-0.00296794367022812
797,-0.0211221259087324,0.0106261735782027,-0.0176903624087572,-0.00542176887392998,-0.0171105042099953,-0.00444101262837648
798,-0.0209007039666176,0.0113024385645986,-0.0164927188307047,-0.00292101665399969,-0.0168840065598488,-0.00382255087606609
799,-0.0209415350109339,0.0118837291374803,-0.0128718018531799,0.000699571683071554,-0.0146766994148493,-0.00112417642958462
800,-0.0207420140504837,0.011970060877502,-0.00841067638248205,0.00335956946946681,-0.0114594316110015,0.00179645151365548
801,-0.0197796318680048,0.0111281964927912,-0.0049951346591115,0.0033693159930408,-0.00810720212757587,0.00292362435720861
802,-0.0183126367628574,0.00928397104144096,-0.00326294498518109,0.00117629172746092,-0.00509799737483263,0.0022169379517436
803,-0.0171019528061152,0.00717832800000906,-0.00271141296252608,-0.00101663614623249,-0.00288210995495319,0.00168021174613386
804,-0.0164609011262655,0.00611417507752776,-0.00338966445997357,-0.00173511204775423,-0.00249685742892325,0.00256525096483529
805,-0.0163776651024818,0.00682828575372696,-0.00629800325259566,-0.0019172664033249,-0.00510244257748127,0.00368560431525111
806,-0.0168188139796257,0.00893738400191069,-0.0115166306495667,-0.00339844822883606,-0.0101335141807795,0.00336168799549341
807,-0.0171359125524759,0.0116854645311832,-0.0164930839091539,-0.00540268421173096,-0.0144370626658201,0.00247784587554634
808,-0.0172186028212309,0.0144625660032034,-0.0189833734184504,-0.00500900531187654,-0.0165432505309582,0.00377559685148299
809,-0.0182398930191994,0.0168653763830662,-0.0194074604660273,-0.000759097456466407,-0.0184161439538002,0.00853200443089008
810,-0.0202332381159067,0.0184251330792904,-0.017975952476263,0.0057359067723155,-0.0199476089328527,0.0144949583336711
811,-0.0214118026196957,0.0186795257031918,-0.0136777833104134,0.0115140741690993,-0.0180164109915495,0.018231051042676
812,-0.0203476138412952,0.0178289134055376,-0.00644777761772275,0.0149485738947988,-0.0112200547009707,0.0190647654235363
813,-0.017347939312458,0.0162070523947477,0.00148509116843343,0.0156433004885912,-0.0015507236821577,0.0182976424694061
814,-0.0141662182286382,0.0142411468550563,0.00713340938091278,0.0146800996735692,0.00698149250820279,0.017713638022542
815,-0.01234813593328,0.0129829924553633,0.00925282388925552,0.0143834510818124,0.0108325369656086,0.018612889572978
816,-0.0122573832049966,0.0131058730185032,0.00780525198206306,0.0150947030633688,0.0088720778003335,0.0205701123923063
817,-0.0136919366195798,0.0141608035191894,0.00326421856880188,0.0150494929403067,0.00256979651749134,0.0227120947092772
818,-0.0157794859260321,0.0152366040274501,-0.00197594403289258,0.01378985773772,-0.00423945626243949,0.0247536730021238
819,-0.017344756051898,0.0154002495110035,-0.00442762905731797,0.0130072180181742,-0.00735686114057899,0.0268630161881447
820,-0.018316762521863,0.0138977989554405,-0.00283824093639851,0.0139586720615625,-0.00572094367817044,0.0293416194617748
821,-0.0189468301832676,0.0111461896449327,0.00195834436453879,0.01699841581285,-0.000793459126725793,0.032269723713398
822,-0.0190951712429523,0.00781766790896654,0.00871047284454107,0.0215804893523455,0.00606612069532275,0.0345757268369198
823,-0.0190034098923206,0.00384055078029633,0.0149403996765614,0.0251219496130943,0.0128947691991925,0.0340755917131901
824,-0.0188176557421684,-3.34865362674464E-05,0.0174273196607828,0.025111960247159,0.0170828215777874,0.029923789203167
825,-0.0179549362510443,-0.00194587383884937,0.0153640117496252,0.0221922900527716,0.0180278141051531,0.0244280733168125
826,-0.0160812400281429,-0.000891266798134893,0.0117022814229131,0.0199173428118229,0.0177994128316641,0.0217753071337938
827,-0.0138491783291101,0.00199457700364292,0.00977844279259443,0.0209700223058462,0.0188267696648836,0.0239095091819763
828,-0.0121114365756512,0.0048763076774776,0.0101177003234625,0.0245574247092009,0.0220942404121161,0.0287523418664932
829,-0.0112389894202352,0.00708028906956315,0.011761736124754,0.0287078060209751,0.0269219577312469,0.0335895642638206
830,-0.0112808058038354,0.00860235467553139,0.0143714556470513,0.032661534845829,0.0316681452095509,0.037516113370657
831,-0.0122393313795328,0.00898463279008865,0.0174225065857172,0.035895049571991,0.035090584307909,0.039927501231432
832,-0.0134115908294916,0.00815511774271727,0.0198354255408049,0.0379464440047741,0.037388700991869,0.0400608405470848
833,-0.013597953133285,0.00716680847108364,0.0215906146913767,0.0389761887490749,0.0396620556712151,0.0383415929973125
834,-0.0127853415906429,0.00686088670045137,0.023273503407836,0.0390947870910168,0.0422964915633202,0.0364618040621281
835,-0.0118116457015276,0.00738297402858734,0.0248813666403294,0.0388935878872871,0.0449793189764023,0.0365832857787609
836,-0.0111071784049273,0.00862397346645594,0.0264707840979099,0.0395044796168804,0.0475215055048466,0.0396518781781197
837,-0.0106783509254456,0.009891577064991,0.0287617053836584,0.0415577031672001,0.0502322278916836,0.044605627655983
838,-0.0100958542898297,0.0105401389300823,0.0326096601784229,0.0453760586678982,0.0541631728410721,0.0501950718462467
839,-0.00920870155096054,0.0105903847143054,0.037303265184164,0.0501490943133831,0.0594263635575771,0.0552866607904434
840,-0.00860310159623623,0.0101047707721591,0.040855135768652,0.0537892803549767,0.0642895698547363,0.0583989880979061
841,-0.00780597841367126,0.00951952114701271,0.0433642901480198,0.0556634776294231,0.068263828754425,0.0595315136015415
842,-0.00597791559994221,0.00912356097251177,0.0460411012172699,0.0565629415214062,0.0724009498953819,0.0596717298030853
843,-0.00421503186225891,0.00811298005282879,0.047849990427494,0.0566434785723686,0.0760152488946915,0.0589786022901535
844,-0.0035057554487139,0.00609625084325671,0.0479494035243988,0.0560547448694706,0.0783719941973686,0.0576547048985958
845,-0.00318542192690074,0.00351619580760598,0.0479844100773335,0.055645477026701,0.0810546800494194,0.056148886680603
846,-0.0029707255307585,0.000411127897677943,0.0493461266160011,0.055784173309803,0.0853101164102554,0.0544747114181519
847,-0.00299779651686549,-0.00296848942525685,0.0519932620227337,0.0563332699239254,0.090910442173481,0.0529698953032494
848,-0.00282164779491723,-0.00585410092025995,0.0550749450922012,0.05698012560606,0.0968597605824471,0.051924604922533
849,-0.00221062288619578,-0.00798998866230249,0.0570992007851601,0.0572711899876595,0.101396821439266,0.0508482381701469
850,-0.000755123444832861,-0.00918500497937202,0.0582975074648857,0.0581689551472664,0.104444913566113,0.0499397180974483
851,0.00176447362173349,-0.00951853580772877,0.0606887936592102,0.0609775967895985,0.108225636184216,0.0500042624771595
852,0.00433297827839851,-0.00985207688063383,0.0651074573397636,0.0652042478322983,0.113766558468342,0.0513006523251534
853,0.00589153030887246,-0.0108913304284215,0.0701291635632515,0.0689047947525978,0.119313418865204,0.0530619919300079
854,0.00647434825077653,-0.012692105025053,0.0737803727388382,0.0703481882810593,0.122922770678997,0.0538684614002705
855,0.00680588837713003,-0.014730878174305,0.0756294131278992,0.0697837471961975,0.125547587871552,0.0536153875291348
856,0.00700296740978956,-0.0164557415992022,0.0762941166758537,0.0688096359372139,0.129305243492126,0.0537749826908112
857,0.00651322165504098,-0.0177971590310335,0.0766436383128166,0.0683799535036087,0.133719339966774,0.0551327466964722
858,0.0053363093174994,-0.0190898720175028,0.0776048898696899,0.0682127475738525,0.136993408203125,0.0565216839313507
859,0.00444594491273165,-0.0205495376139879,0.0796655789017677,0.0682431310415268,0.139225289225578,0.0569156110286713
860,0.00460185529664159,-0.0218293145298958,0.0827267467975616,0.0691232979297638,0.141392841935158,0.0568148978054523
861,0.00574684934690595,-0.0219980627298355,0.0864166989922524,0.0714398771524429,0.143475919961929,0.0573560185730457
862,0.00733352033421397,-0.0207370594143867,0.0898310244083405,0.0747423768043518,0.144717633724213,0.0587897151708603
863,0.00833472236990929,-0.0192167535424232,0.091320626437664,0.0766295492649078,0.144085243344307,0.0593621544539928
864,0.00829574931412935,-0.0185928028076887,0.0899298936128616,0.0750051438808441,0.1412573158741,0.0576836764812469
865,0.00811943039298058,-0.0185074415057898,0.0867846980690956,0.071191743016243,0.137711763381958,0.0549095124006271
866,0.00870723463594913,-0.0182533096522093,0.0841987952589989,0.0681201294064522,0.135863691568375,0.0523245222866535
867,0.00957824569195509,-0.0183542985469103,0.0835788026452065,0.0667481422424316,0.137012973427773,0.049801554530859
868,0.010335466824472,-0.0190060790628195,0.0853832215070724,0.0673057064414024,0.141350015997887,0.0481951460242271
869,0.0114176021888852,-0.0195453017950058,0.0892152935266495,0.0701828002929688,0.148487374186516,0.0487335100769997
870,0.0123844835907221,-0.0200871080160141,0.0932441428303719,0.0739030241966248,0.156173199415207,0.05031967908144
871,0.0123780714347959,-0.0207437034696341,0.0958574339747429,0.0765515863895416,0.16091525554657,0.0518350340425968
872,0.0113964285701513,-0.0209485720843077,0.0968820229172707,0.0779651254415512,0.161055669188499,0.0539785474538803
873,0.009809834882617,-0.0208701211959124,0.0966475903987885,0.0784726813435555,0.157904908061028,0.0565895847976208
874,0.00832236371934414,-0.0210889410227537,0.0956012308597565,0.078027218580246,0.154156059026718,0.0579589568078518
875,0.00737069826573133,-0.0219109002500772,0.0939332917332649,0.0763377174735069,0.151279836893082,0.0563887879252434
876,0.00649307947605848,-0.0234651956707239,0.0913983955979347,0.0730685964226723,0.148757860064507,0.0517769455909729
877,0.00553124630823731,-0.0248322337865829,0.0882754549384117,0.0689074099063873,0.146053612232208,0.0464053563773632
878,0.00463345507159829,-0.0250918306410313,0.0850890278816223,0.0648708716034889,0.143316775560379,0.0424094125628471
879,0.00400103675201535,-0.0243081599473953,0.0827096551656723,0.0616683401167393,0.14125420153141,0.0404094085097313
880,0.0040328218601644,-0.0227920301258564,0.0822349265217781,0.0601158253848553,0.140752971172333,0.0405846945941448
881,0.00440175784751773,-0.0214711390435696,0.0831423252820969,0.0599335767328739,0.14134393632412,0.0419883467257023
882,0.00429743761196733,-0.0214462652802467,0.0838593244552612,0.0597715564072132,0.141738221049309,0.0429158471524715
883,0.00365251512266696,-0.0223691277205944,0.083944171667099,0.0592742301523685,0.141604050993919,0.0432493053376675
884,0.00307425670325756,-0.0229914467781782,0.0840862989425659,0.0592984072864056,0.141367480158806,0.0438083410263062
885,0.00258310372009873,-0.0233529526740313,0.0843634605407715,0.0597778484225273,0.141116842627525,0.0440126396715641
886,0.00163601629901677,-0.024374932050705,0.0839993208646774,0.0596286915242672,0.140565946698189,0.0428562015295029
887,0.000228103090194054,-0.026016054674983,0.082424059510231,0.058466948568821,0.139349475502968,0.040426567196846
888,-0.00140103662852198,-0.0276188123971224,0.0796113014221191,0.0564436167478561,0.136917784810066,0.0373144559562206
889,-0.00264943041838706,-0.0284013543277979,0.0767676457762718,0.0541898235678673,0.133860424160957,0.0345138423144817
890,-0.00278824171982706,-0.0280401632189751,0.0755085274577141,0.0526120699942112,0.132091671228409,0.0329345241189003
891,-0.00229482585564256,-0.0272244829684496,0.0756681933999062,0.0517226569354534,0.131953686475754,0.0325461402535439
892,-0.00195229961536825,-0.0266725346446037,0.0759096667170525,0.0510445274412632,0.132189556956291,0.0327820479869843
893,-0.00176641275174916,-0.0267458595335484,0.0756386294960976,0.0502977818250656,0.132268041372299,0.0329076535999775
894,-0.00154182780534029,-0.0274591650813818,0.0748789682984352,0.0492660962045193,0.131878048181534,0.0324622094631195
895,-0.00152375909965485,-0.028799269348383,0.0734333097934723,0.0474305227398872,0.130599856376648,0.0310999676585197
896,-0.00167980173137039,-0.0308062992990017,0.0717536583542824,0.0447673127055168,0.129481181502342,0.0284765865653753
897,-0.0014866174897179,-0.0326153300702572,0.0707999169826508,0.0424999669194222,0.129439160227776,0.0255465600639582
898,-0.000846177863422781,-0.0328080356121063,0.0706329718232155,0.041591290384531,0.129466041922569,0.0243349634110928
899,1.41793434522697E-05,-0.031081598252058,0.070841945707798,0.0419878847897053,0.128722682595253,0.0256728939712048
900,0.000595876888837665,-0.0284200143069029,0.0711656361818314,0.0435673780739307,0.127213180065155,0.0286366883665323
901,0.000974827737081796,-0.0256068706512451,0.0716122463345528,0.0462108962237835,0.125158071517944,0.0320537239313126
902,0.00204473757185042,-0.0231068339198828,0.0720275565981865,0.0486242212355137,0.122969850897789,0.0348149463534355
903,0.00380494841374457,-0.0212140083312988,0.0720024928450584,0.0493090264499187,0.120900064706802,0.0361127406358719
904,0.005026716273278,-0.0198767352849245,0.0713751167058945,0.0481499135494232,0.118970386683941,0.0361820161342621
905,0.00468172878026962,-0.0191974155604839,0.0702132508158684,0.0458336696028709,0.11702948063612,0.0359687767922878
906,0.00291253090836108,-0.0193299409002066,0.068987712264061,0.0434935837984085,0.115240193903446,0.0362493135035038
907,0.000931499002035707,-0.0198624227195978,0.0685787498950958,0.0424068011343479,0.114281333982944,0.0374225825071335
908,-0.00029254675609991,-0.0198424346745014,0.0691466704010963,0.0427884049713612,0.113959550857544,0.0396597981452942
909,-0.00102866929955781,-0.0190440006554127,0.0696876347064972,0.0433308966457844,0.113222658634186,0.041953556239605
910,-0.00157657312229276,-0.0182328429073095,0.0696521997451782,0.0428248420357704,0.1118995398283,0.0426533967256546
911,-0.00149330927524716,-0.017850598320365,0.0694558545947075,0.0415694750845432,0.110491678118706,0.0414914190769196
912,-0.000652530638035387,-0.0177782624959946,0.0690531060099602,0.0403075143694878,0.108822479844093,0.0393261611461639
913,-1.01724535852554E-05,-0.0181216038763523,0.0672691613435745,0.038793109357357,0.105669476091862,0.036824818700552
914,-1.81401355803246E-05,-0.0187648981809616,0.0638245120644569,0.0367132462561131,0.100875347852707,0.0346788093447685
915,0.000363879487849772,-0.0191278830170631,0.0604189001023769,0.0345221795141697,0.096623420715332,0.0335477627813816
916,0.00140261824708432,-0.0193223059177399,0.0581762790679932,0.0324660763144493,0.0945420563220978,0.0331538356840611
917,0.00212410371750593,-0.0196177996695042,0.0568638145923615,0.0307274702936411,0.0941314995288849,0.0332599580287933
918,0.00245370157063007,-0.0194334927946329,0.0562547594308853,0.0299106631428003,0.0943790376186371,0.0341669544577599
919,0.00276954099535942,-0.01869554258883,0.055648434907198,0.0296911783516407,0.0941172987222672,0.0348699577152729
920,0.00287479441612959,-0.0179904736578465,0.0540304221212864,0.0290100369602442,0.0923461019992828,0.0340528190135956
921,0.00298306089825928,-0.0171483028680086,0.0517543852329254,0.0279527027159929,0.089644268155098,0.0321000330150127
922,0.00371257145889103,-0.0155793083831668,0.0501079745590687,0.027342900633812,0.0872979611158371,0.0302057806402445
923,0.00486468011513352,-0.0135146677494049,0.0493788383901119,0.0272193569689989,0.0851829349994659,0.0292378850281239
924,0.00561876641586423,-0.0118319224566221,0.0489552095532417,0.0272765345871449,0.082590214908123,0.0290844384580851
925,0.00588616821914911,-0.0106310537084937,0.0486540272831917,0.0279230121523142,0.0798658654093742,0.0291935466229916
926,0.00612414069473743,-0.00931122526526451,0.0485389679670334,0.0292146317660809,0.0773469358682632,0.0295550003647804
927,0.00662991544231772,-0.0077781630679965,0.0483816564083099,0.0300600584596395,0.075002409517765,0.030228678137064
928,0.00714058941230178,-0.00694781029596925,0.0475154034793377,0.0291029047220945,0.0726344361901283,0.0304320361465216
929,0.00667469995096326,-0.00782254617661238,0.0452453196048737,0.0260649137198925,0.0695188418030739,0.0295088030397892
930,0.00508293602615595,-0.00983352214097977,0.0422441624104977,0.02277453802526,0.0659196600317955,0.0286117270588875
931,0.00338580226525664,-0.0114913247525692,0.0397445037961006,0.021201254799962,0.0628090277314186,0.0289873220026493
932,0.00207915110513568,-0.0122019723057747,0.0377934686839581,0.020966213196516,0.0600671656429768,0.0300931353121996
933,0.000899912789463997,-0.0123763838782907,0.0358136631548405,0.0203980468213558,0.0574252977967262,0.0307168159633875
934,-0.000613077194429934,-0.0125815235078335,0.0333357937633991,0.0185030549764633,0.0550808720290661,0.030002711340785
935,-0.00243182689882815,-0.0125886937603354,0.0306325759738684,0.0157797206193209,0.0532641299068928,0.0280791874974966
936,-0.00358876376412809,-0.0115354722365737,0.0288430191576481,0.0137348035350442,0.0523545108735561,0.0260599683970213
937,-0.00340198632329702,-0.00942843221127987,0.0286147072911263,0.0132213290780783,0.0523259378969669,0.0247508455067873
938,-0.00250029563903809,-0.00735465483739972,0.0290152747184038,0.0135504733771086,0.0521394014358521,0.0237728282809258
939,-0.00163557112682611,-0.00600369367748499,0.0288214776664972,0.0137939341366291,0.0508945062756538,0.0223444681614637
940,-0.000976039678789675,-0.00526901660487056,0.0279924552887678,0.0140051478520036,0.0489313863217831,0.0204702951014042
941,-0.00105374411214143,-0.00514979660511017,0.0266879629343748,0.0141548439860344,0.0467087365686893,0.0185222048312426
942,-0.00232654251158237,-0.00601647887378931,0.0246714167296886,0.0132902786135674,0.0440791696310043,0.0162930004298687
943,-0.00438303966075182,-0.00775464251637459,0.0219826903194189,0.0108407661318779,0.0410897992551327,0.0135452160611749
944,-0.00647127255797386,-0.0093599995598197,0.019021550193429,0.00744558777660131,0.0382073149085045,0.0108987605199218
945,-0.00813210476189852,-0.00999225676059723,0.0160842221230268,0.0042640445753932,0.0355946235358715,0.0094638355076313
946,-0.00907539576292038,-0.00979595724493265,0.0136133190244436,0.00228645349852741,0.0332815758883953,0.00954591389745474
947,-0.00932443980127573,-0.00956011936068535,0.0121150994673371,0.0015083400066942,0.0314900726079941,0.010097935795784
948,-0.00939889904111624,-0.00958210974931717,0.0115473847836256,0.00130750460084528,0.0302627570927143,0.0103670200332999
949,-0.00929048284888268,-0.00921345036476851,0.0117301261052489,0.00168157019652426,0.0298904553055763,0.0109526291489601
950,-0.00903702061623335,-0.00818636175245047,0.0118975806981325,0.00249944580718875,0.0301419571042061,0.0123169682919979
951,-0.00915895868092775,-0.00681007094681263,0.0109725398942828,0.00326691009104252,0.0298363883048296,0.0138683365657926
952,-0.00914992485195398,-0.00494979321956635,0.00966158136725426,0.00422211270779371,0.0288503915071487,0.0150961261242628
953,-0.00835084915161133,-0.00259375106543303,0.0093441866338253,0.00530487950891256,0.0278612822294235,0.016021678224206
954,-0.00721417320892215,-0.000118054631457198,0.00978145003318787,0.00548357283696532,0.0266846641898155,0.016818692907691
955,-0.00638642208650708,0.00209890166297555,0.0100315054878592,0.00416975468397141,0.0249050129204988,0.0173802431672812
956,-0.00622221315279603,0.00351775786839426,0.00956597365438938,0.00177895464003086,0.0226048827171326,0.017242269590497
957,-0.00667092530056834,0.00373828504234552,0.00845085084438324,-0.000831292534712702,0.0202548876404762,0.0164784509688616
958,-0.00712886638939381,0.00309940613806248,0.00722735421732068,-0.0029110424220562,0.0181769896298647,0.0154321854934096
959,-0.00715346168726683,0.00252616568468511,0.00611936766654253,-0.00407862104475498,0.015921987593174,0.014362876303494
960,-0.00699321366846561,0.00228455429896712,0.00496509997174144,-0.00466470746323466,0.0128847314044833,0.0133712301030755
961,-0.00693887984380126,0.00194778072182089,0.00350263901054859,-0.00542796310037375,0.00897399336099625,0.0121043203398585
962,-0.0069248815998435,0.00158859568182379,0.00163099367637187,-0.00667775375768542,0.00471909530460835,0.0101974736899138
963,-0.00669485377147794,0.00176250003278255,-0.000166669313330203,-0.00793805532157421,0.0010912719881162,0.00772676058113575
964,-0.00597811536863446,0.00275032059289515,-0.00140423222910613,-0.00844531320035458,-0.00138024846091866,0.00552439643070102
965,-0.00489313853904605,0.00437930133193731,-0.00227058003656566,-0.0082140015438199,-0.00298959901556373,0.00455993413925171
966,-0.00371027016080916,0.00627618050202727,-0.00313144037500024,-0.00788094382733107,-0.00402632588520646,0.00500752218067646
967,-0.00298411725088954,0.00751450378447771,-0.0042992802336812,-0.00809119548648596,-0.00470232637599111,0.00583185628056526
968,-0.0034097246825695,0.00731579028069973,-0.00613047135993838,-0.00928086042404175,-0.005475252866745,0.00568361114710569
969,-0.004584651440382,0.00655055092647672,-0.00844643916934729,-0.0110548110678792,-0.00641864724457264,0.00482970848679543
970,-0.00586172426119447,0.00636339234188199,-0.0107165025547147,-0.0126127284020185,-0.00768126174807549,0.0042448271997273
971,-0.00731287896633148,0.00633610878139734,-0.0127114122733474,-0.0139499697834253,-0.00963140465319157,0.00337653979659081
972,-0.00846777018159628,0.00600734865292907,-0.0138057824224234,-0.0150051712989807,-0.0115712964907289,0.00175788078922778
973,-0.00876570027321577,0.00583468982949853,-0.0134596973657608,-0.0152216842398047,-0.0126235662028193,0.000378638855181634
974,-0.00881202518939972,0.00568655040115118,-0.0128156440332532,-0.0151310078799725,-0.0133247124031186,-0.000427866791142151
975,-0.00950609147548676,0.0048044822178781,-0.0135482614859939,-0.0158651787787676,-0.0147622339427471,-0.00139265891630203
976,-0.010913155041635,0.00311430147849023,-0.0157410986721516,-0.0177645590156317,-0.0169981997460127,-0.00294312159530818
977,-0.0123840942978859,0.00115076918154955,-0.018213776871562,-0.0202541127800941,-0.0192252732813358,-0.004976661875844
978,-0.0132776806131005,-0.000282056484138593,-0.0201155450195074,-0.021907752379775,-0.0211792923510075,-0.0070065469481051
979,-0.0131223434582353,-0.000415793154388666,-0.0212060585618019,-0.0218370296061039,-0.0228052977472544,-0.00867640599608421
980,-0.0121352132409811,0.000258563872193918,-0.0221244674175978,-0.0215478800237179,-0.0239237640053034,-0.0104806832969189
981,-0.0110667953267694,0.000891446659807116,-0.0236849635839462,-0.0227827187627554,-0.0249640550464392,-0.0121752182021737
982,-0.0103227961808443,0.0015913211973384,-0.0253222212195396,-0.0250324830412865,-0.0261232554912567,-0.0121804187074304
983,-0.0103768818080425,0.00231417967006564,-0.0266888737678528,-0.0274814032018185,-0.0274139009416103,-0.0103183658793569
984,-0.0113250873982906,0.00259443698450923,-0.0283542610704899,-0.0299940276890993,-0.0291098766028881,-0.0080682011321187
985,-0.0122774923220277,0.00236958218738437,-0.0299627799540758,-0.0320617891848087,-0.0306707881391048,-0.00664931861683726
986,-0.0125962095335126,0.00180500955320895,-0.0309197138994932,-0.0334927551448345,-0.0315547734498978,-0.0067251268774271
987,-0.0125601533800364,0.00104173924773932,-0.031737495213747,-0.0347769968211651,-0.0322930403053761,-0.00842739548534155
988,-0.0125526888296008,0.0006278992514126,-0.0329429171979427,-0.0359025448560715,-0.0332627035677433,-0.0109012685716152
989,-0.0130120851099491,0.000787926255725324,-0.0347089767456055,-0.0367181450128555,-0.0346673168241978,-0.0129945147782564
990,-0.0141501976177096,0.0012234227033332,-0.0368631035089493,-0.0373955555260181,-0.0367565974593163,-0.0141304219141603
991,-0.0155643178150058,0.00162188033573329,-0.0386901907622814,-0.0379941277205944,-0.0391026139259338,-0.0147785199806094
992,-0.0169634353369474,0.00133503822144121,-0.0401457101106644,-0.0389893129467964,-0.0412497147917748,-0.0160853751003742
993,-0.0180546771734953,0.000323235086398199,-0.0416703149676323,-0.040774792432785,-0.0430804416537285,-0.0181982964277267
994,-0.0186130162328482,-0.000633887539152056,-0.0429936088621616,-0.0425903908908367,-0.044375266879797,-0.0202424898743629
995,-0.0188672170042992,-0.00124898552894592,-0.0435059294104576,-0.0436215288937092,-0.0448298342525959,-0.0217403527349234
996,-0.0189660396426916,-0.0018433581572026,-0.0433285683393478,-0.0440271645784378,-0.044418029487133,-0.0226930622011423
997,-0.0187538973987103,-0.00244301930069923,-0.0432676784694195,-0.0440372303128242,-0.0437616519629955,-0.0227787233889103
998,-0.0182541683316231,-0.00256716529838741,-0.043843150138855,-0.0439126640558243,-0.0434930212795734,-0.0220146179199219
999,-0.017421530559659,-0.00157847686205059,-0.0444170087575912,-0.0437942557036877,-0.0432361960411072,-0.0206888988614082
1000,-0.0158998761326075,0.00066861609229818,-0.0438505299389362,-0.0432706847786903,-0.0424019172787666,-0.0186758879572153
1001,-0.0141231371089816,0.00322914170101285,-0.0423757284879684,-0.0424963161349297,-0.0414863489568233,-0.0164047628641129
1002,-0.012931908480823,0.00529227871447802,-0.041052408516407,-0.0417532436549664,-0.0410924553871155,-0.0142802633345127
1003,-0.0126225361600518,0.00682368688285351,-0.0405168682336807,-0.0412062294781208,-0.0413652807474136,-0.0122583117336035
1004,-0.0132558401674032,0.00773112755268812,-0.0412818640470505,-0.0415949299931526,-0.0426082350313663,-0.0113296592608094
1005,-0.0141798835247755,0.00830346252769232,-0.043105598539114,-0.0425947494804859,-0.0444392338395119,-0.0123516991734505
1006,-0.014460408128798,0.00899462681263685,-0.0446822419762611,-0.0429374910891056,-0.0456461012363434,-0.0143763860687613
1007,-0.0139429606497288,0.00963339582085609,-0.0447876527905464,-0.0424894131720066,-0.0452877357602119,-0.0159077178686857
1008,-0.0130628561601043,0.0100213373079896,-0.0433110482990742,-0.0419773459434509,-0.0436203330755234,-0.0160647518932819
1009,-0.0124429194256663,0.0100986622273922,-0.0414224937558174,-0.0419795513153076,-0.0421546809375286,-0.0149382930248976
1010,-0.0125941475853324,0.00976808648556471,-0.0405871346592903,-0.0425660237669945,-0.0423063561320305,-0.0132621759548783
1011,-0.0134273264557123,0.00905438419431448,-0.0409124605357647,-0.0434143133461475,-0.043478112667799,-0.0117656290531158
1012,-0.0146389342844486,0.00776295689865947,-0.041680570691824,-0.044742364436388,-0.0439270175993443,-0.0114026563242078
1013,-0.0157244466245174,0.00631629955023527,-0.0427041910588741,-0.0466254279017448,-0.0433911792933941,-0.0122353984043002
1014,-0.0159096363931894,0.00590216834098101,-0.0439193733036518,-0.0483044497668743,-0.0428929515182972,-0.0132593289017677
1015,-0.0156806129962206,0.00646562268957496,-0.0456332303583622,-0.0496974103152752,-0.0435344688594341,-0.0145032145082951
1016,-0.0160613991320133,0.00710254535079002,-0.0480267331004143,-0.0510471537709236,-0.045552272349596,-0.0165242254734039
1017,-0.0168222412467003,0.0075095072388649,-0.0503007546067238,-0.0518888682126999,-0.0477803908288479,-0.0187915749847889
1018,-0.0172295924276114,0.00775669189170003,-0.0518433786928654,-0.0515471883118153,-0.0490744896233082,-0.0204700473695993
1019,-0.0175686608999968,0.00768948253244162,-0.0532737299799919,-0.0503440052270889,-0.0501432567834854,-0.0220526400953531
1020,-0.0184319298714399,0.0070850932970643,-0.0551246367394924,-0.0496174320578575,-0.0520771406590939,-0.0242964215576649
1021,-0.0194120388478041,0.00602919515222311,-0.0566439069807529,-0.0501386038959026,-0.0543802492320538,-0.0267655663192272
1022,-0.0200889110565186,0.00444500520825386,-0.0575335957109928,-0.0520147271454334,-0.0563872791826725,-0.0291768983006477
1023,-0.0204113349318504,0.00246559781953692,-0.0582817308604717,-0.0544961914420128,-0.0577776879072189,-0.0316851884126663
1024,-0.0202941279858351,0.000914209289476275,-0.058822475373745,-0.056052565574646,-0.0584907829761505,-0.0335629098117352
1025,-0.0202426593750715,5.25456489413045E-05,-0.0594490095973015,-0.0564711689949036,-0.0594690479338169,-0.0338893458247185
1026,-0.020691541954875,-0.000385493884095922,-0.0607190951704979,-0.0568458512425423,-0.0610184408724308,-0.0328406989574432
1027,-0.0215628147125244,-0.000728831219021231,-0.0625920072197914,-0.0585383474826813,-0.062600314617157,-0.0318114794790745
1028,-0.0225912928581238,-0.00143716903403401,-0.0646713674068451,-0.0621142908930779,-0.06389120221138,-0.0320302918553352
1029,-0.0232222024351358,-0.00227450742386281,-0.0663818269968033,-0.0659589022397995,-0.0644731521606445,-0.0327697657048702
1030,-0.0233016535639763,-0.00287573016248643,-0.0676317289471626,-0.0683949515223503,-0.0643736571073532,-0.0330376848578453
1031,-0.0229668337851763,-0.00331511511467397,-0.0685007870197296,-0.0693389028310776,-0.0637621283531189,-0.0332825556397438
1032,-0.0226265545934439,-0.00380346504971385,-0.0691763013601303,-0.0694791972637177,-0.0630777329206467,-0.0341382585465908
1033,-0.0227914974093437,-0.00449659256264567,-0.0702431425452232,-0.069916196167469,-0.0631310641765594,-0.0358527898788452
1034,-0.0231058951467276,-0.00499858986586332,-0.071693979203701,-0.0710622891783714,-0.0639687851071358,-0.0382130108773708
1035,-0.0230596773326397,-0.00450078025460243,-0.072979636490345,-0.0720488652586937,-0.0651172697544098,-0.0400269217789173
1036,-0.0228703692555428,-0.00286342110484838,-0.0740220472216606,-0.0724844411015511,-0.0662928000092506,-0.0403875224292278
1037,-0.0227470230311155,-0.000806783267762512,-0.0749741345643997,-0.0728559195995331,-0.0673323795199394,-0.0396865643560886
1038,-0.0227154362946749,0.000863268156535923,-0.0759303271770477,-0.0733889415860176,-0.0682055652141571,-0.0388193987309933
1039,-0.0226574540138245,0.00194965954869986,-0.0767902582883835,-0.0739295929670334,-0.0687845945358276,-0.0385177992284298
1040,-0.0222763121128082,0.00271658273413777,-0.0772474855184555,-0.0740351974964142,-0.0688979178667068,-0.0388878583908081
1041,-0.0218790993094444,0.00306875095702708,-0.0774872452020645,-0.0734683871269226,-0.0688539370894432,-0.0394330210983753
