,AF3,AF4,Fp1,Fp2,AF7,AF8
0,-0.274895697832108,-0.251445055007935,-0.236441910266876,0.5,-0.277413100004196,-0.300380825996399
1,-0.250651210546494,-0.270475268363953,-0.214162230491638,0.5,-0.26412233710289,-0.300484776496887
2,-0.229876190423965,-0.281489878892899,-0.202509611845016,0.5,-0.243911936879158,-0.305902451276779
3,-0.221805706620216,-0.277383685112,-0.208000674843788,0.5,-0.226557821035385,-0.310018509626389
4,-0.228538006544113,-0.267745018005371,-0.239348441362381,0.5,-0.230895593762398,-0.305031269788742
5,-0.24539490044117,-0.263535141944885,-0.283925563097,0.5,-0.252048939466476,-0.291433334350586
6,-0.261708557605743,-0.263139814138412,-0.320702701807022,0.5,-0.269086480140686,-0.285630434751511
7,-0.27464160323143,-0.265650659799576,-0.34959214925766,0.5,-0.279776930809021,-0.308023065328598
8,-0.294342517852783,-0.282661408185959,-0.381681203842163,0.5,-0.294212907552719,-0.362877577543259
9,-0.3199243247509,-0.316469490528107,-0.413855373859406,0.5,-0.307476818561554,-0.428649842739105
10,-0.331302434206009,-0.350974947214127,-0.435522347688675,0.5,-0.312104016542435,-0.48080974817276
11,-0.316570430994034,-0.370080530643463,-0.439965158700943,0.5,-0.310984760522842,-0.5
12,-0.283456563949585,-0.359009653329849,-0.415749669075012,0.5,-0.297151058912277,-0.5
13,-0.243390485644341,-0.309460997581482,-0.355223059654236,0.5,-0.258406162261963,-0.458991944789886
14,-0.204011857509613,-0.235696896910667,-0.268381655216217,0.5,-0.200338169932365,-0.38699135184288
15,-0.174211457371712,-0.161723390221596,-0.175048381090164,0.5,-0.14272528886795,-0.303679376840591
16,-0.159487321972847,-0.103808373212814,-0.0953641384840012,0.5,-0.102996334433556,-0.236022785305977
17,-0.157710433006287,-0.0779327750205994,-0.0512169152498245,-0.5,-0.0902875140309334,-0.203228890895844
18,-0.161617949604988,-0.0901130363345146,-0.0534134991466999,-0.5,-0.0974703058600426,-0.202863082289696
19,-0.161049336194992,-0.121019273996353,-0.0879350677132607,-0.5,-0.105013497173786,-0.215147748589516
20,-0.152725696563721,-0.148482620716095,-0.138552784919739,-0.5,-0.110817432403564,-0.228114098310471
21,-0.147889703512192,-0.161091282963753,-0.197583928704262,-0.5,-0.130382761359215,-0.245926931500435
22,-0.155169948935509,-0.153166949748993,-0.245021939277649,-0.5,-0.157730236649513,-0.269160807132721
23,-0.159941554069519,-0.138484239578247,-0.259601503610611,-0.5,-0.164980307221413,-0.287962168455124
24,-0.148772850632668,-0.135919809341431,-0.247707560658455,-0.5,-0.150750771164894,-0.297850072383881
25,-0.133074477314949,-0.13737328350544,-0.231917187571526,-0.5,-0.142195194959641,-0.301185190677643
26,-0.126238405704498,-0.128939539194107,-0.222300976514816,-0.5,-0.148364081978798,-0.291745245456696
27,-0.131846562027931,-0.11883732676506,-0.215712234377861,-0.5,-0.156233131885529,-0.264595240354538
28,-0.151552319526672,-0.123717233538628,-0.212463811039925,-0.5,-0.157954037189484,-0.233244821429253
29,-0.182440400123596,-0.147472947835922,-0.222062349319458,-0.5,-0.157886266708374,-0.222545549273491
30,-0.209484815597534,-0.183805078268051,-0.252801567316055,-0.5,-0.158413156867027,-0.255951136350632
31,-0.221329882740974,-0.228204116225243,-0.298419177532196,-0.5,-0.158674284815788,-0.32918193936348
32,-0.224681928753853,-0.27363121509552,-0.339309871196747,-0.5,-0.167337328195572,-0.402637630701065
33,-0.222080379724503,-0.30580872297287,-0.358690351247787,-0.5,-0.188962236046791,-0.440218180418015
34,-0.209977135062218,-0.312640160322189,-0.351203352212906,-0.5,-0.213580399751663,-0.434135466814041
35,-0.197024077177048,-0.296355962753296,-0.321710795164108,-0.5,-0.234538808465004,-0.401957720518112
36,-0.194585084915161,-0.276622384786606,-0.284616470336914,-0.5,-0.25138595700264,-0.374711662530899
37,-0.203359320759773,-0.271709233522415,-0.258716255426407,-0.5,-0.259381949901581,-0.369883626699448
38,-0.217459946870804,-0.276305466890335,-0.256734490394592,-0.5,-0.258201360702515,-0.381558865308762
39,-0.229994252324104,-0.274479269981384,-0.273769617080688,-0.5,-0.256302684545517,-0.397819459438324
40,-0.237720161676407,-0.263207346200943,-0.293329626321793,-0.5,-0.260375022888184,-0.410226851701736
41,-0.245384678244591,-0.253932505846024,-0.304430425167084,-0.5,-0.271467596292496,-0.412923395633698
42,-0.257113516330719,-0.254277586936951,-0.303942233324051,-0.5,-0.284310072660446,-0.401195198297501
43,-0.266085863113403,-0.249007254838943,-0.293249428272247,-0.5,-0.289664775133133,-0.374753326177597
44,-0.265407383441925,-0.228278785943985,-0.28190740942955,-0.5,-0.286255866289139,-0.346560120582581
45,-0.260002076625824,-0.21022455394268,-0.281259685754776,-0.5,-0.278557062149048,-0.332827031612396
46,-0.255937725305557,-0.206221118569374,-0.290429085493088,-0.5,-0.265939980745316,-0.331149101257324
47,-0.252079874277115,-0.207408010959625,-0.300967872142792,-0.5,-0.252161085605621,-0.332290142774582
48,-0.247614115476608,-0.207607507705688,-0.308814078569412,-0.5,-0.250269174575806,-0.337111711502075
49,-0.241931825876236,-0.209588453173637,-0.315767973661423,-0.5,-0.266614437103271,-0.343131750822067
50,-0.23223976790905,-0.21196012198925,-0.323960095643997,-0.5,-0.289320945739746,-0.34467077255249
51,-0.220709472894669,-0.208151742815971,-0.332878410816193,-0.5,-0.301197052001953,-0.33623343706131
52,-0.215539380908012,-0.19536754488945,-0.341654360294342,-0.5,-0.298474162817001,-0.313120633363724
53,-0.230379089713097,-0.191011637449265,-0.353079736232758,-0.5,-0.289028853178024,-0.297204285860062
54,-0.266028970479965,-0.21810781955719,-0.369642645120621,-0.5,-0.279436826705933,-0.320209830999374
55,-0.292541146278381,-0.264852285385132,-0.381373196840286,-0.5,-0.275057584047318,-0.367911636829376
56,-0.289256542921066,-0.305132687091827,-0.372060894966125,-0.5,-0.284589290618896,-0.390840590000153
57,-0.273937523365021,-0.324543476104736,-0.337931841611862,-0.5,-0.303599745035172,-0.365310430526733
58,-0.264168709516525,-0.315490573644638,-0.294472485780716,-0.5,-0.312990963459015,-0.312095999717712
59,-0.256533831357956,-0.283555150032043,-0.265731304883957,-0.5,-0.303918272256851,-0.262781381607056
60,-0.254919946193695,-0.245942682027817,-0.261944800615311,-0.5,-0.287321418523788,-0.234795778989792
61,-0.273615270853043,-0.219576254487038,-0.278600871562958,-0.5,-0.283189684152603,-0.242185637354851
62,-0.305015653371811,-0.212820172309875,-0.307194292545319,-0.5,-0.297107487916946,-0.28693562746048
63,-0.324391156435013,-0.223450854420662,-0.333357840776443,-0.5,-0.311990648508072,-0.34186589717865
64,-0.320178866386414,-0.245541736483574,-0.343385308980942,-0.5,-0.308389455080032,-0.376575946807861
65,-0.293712109327316,-0.279038101434708,-0.337217539548874,-0.5,-0.288126975297928,-0.384050458669662
66,-0.248625263571739,-0.319062560796738,-0.32642924785614,-0.5,-0.270047277212143,-0.373564779758453
67,-0.191813126206398,-0.342206686735153,-0.317137807607651,-0.5,-0.259681880474091,-0.352116227149963
68,-0.136484980583191,-0.327509224414825,-0.303464084863663,-0.5,-0.245617344975472,-0.322294533252716
69,-0.102810256183147,-0.27227583527565,-0.278492331504822,-0.5,-0.223210871219635,-0.278418034315109
70,-0.105871051549912,-0.189630717039108,-0.248529836535454,-0.5,-0.205311506986618,-0.215060383081436
71,-0.144035771489143,-0.116098918020725,-0.236416578292847,-0.5,-0.21528634428978,-0.157620579004288
72,-0.204428046941757,-0.0938241258263588,-0.25728178024292,-0.5,-0.260987907648087,-0.143398806452751
73,-0.26677531003952,-0.132260322570801,-0.292728632688522,-0.5,-0.315344005823135,-0.169597834348679
74,-0.315609753131866,-0.204922676086426,-0.312526941299438,-0.5,-0.343381106853485,-0.201695546507835
75,-0.348975479602814,-0.274090647697449,-0.312360763549805,-0.5,-0.33484822511673,-0.224836856126785
76,-0.367703855037689,-0.315651953220367,-0.308798521757126,-0.5,-0.308194637298584,-0.251948148012161
77,-0.377251803874969,-0.335470676422119,-0.31430196762085,-0.5,-0.294796854257584,-0.294609844684601
78,-0.386437833309174,-0.357038497924805,-0.326634049415588,-0.5,-0.303592652082443,-0.347154319286346
79,-0.389343768358231,-0.386245995759964,-0.333833903074265,-0.5,-0.312530040740967,-0.385592192411423
80,-0.372667580842972,-0.404150038957596,-0.330952018499374,-0.5,-0.307010054588318,-0.388601452112198
81,-0.339910596609116,-0.395975202322006,-0.331194877624512,-0.5,-0.299959063529968,-0.368339061737061
82,-0.304633110761642,-0.367261946201324,-0.34731924533844,-0.5,-0.303269177675247,-0.348164021968842
83,-0.278067380189896,-0.337003618478775,-0.372568905353546,-0.5,-0.313315510749817,-0.335592806339264
84,-0.265596866607666,-0.317432194948196,-0.390131860971451,-0.5,-0.322011053562164,-0.331187427043915
85,-0.261332631111145,-0.302201211452484,-0.387222468852997,-0.5,-0.316309779882431,-0.323941081762314
86,-0.259246826171875,-0.288864850997925,-0.365971177816391,-0.5,-0.295817583799362,-0.30791500210762
87,-0.257754474878311,-0.284611999988556,-0.340711295604706,-0.5,-0.277596324682236,-0.295838087797165
88,-0.255223751068115,-0.29197284579277,-0.324989259243011,-0.5,-0.267241090536118,-0.295611083507538
89,-0.254263073205948,-0.310526490211487,-0.32887476682663,-0.5,-0.26969963312149,-0.311546891927719
90,-0.263422548770905,-0.330033183097839,-0.352778613567352,-0.5,-0.301840543746948,-0.346002012491226
91,-0.295189172029495,-0.338916331529617,-0.380988329648972,-0.5,-0.361051738262177,-0.38143202662468
92,-0.349836528301239,-0.342819780111313,-0.396487891674042,-0.5,-0.420114696025848,-0.395985394716263
93,-0.403613775968552,-0.349079459905624,-0.398770064115524,-0.5,-0.458302676677704,-0.392368972301483
94,-0.429288417100906,-0.355665504932404,-0.395658731460571,-0.5,-0.471976101398468,-0.383189499378204
95,-0.418938785791397,-0.360710680484772,-0.388048142194748,-0.5,-0.460624665021896,-0.363638699054718
96,-0.388899087905884,-0.360588103532791,-0.376373738050461,-0.5,-0.424753576517105,-0.331011265516281
97,-0.358494639396667,-0.34712153673172,-0.362862169742584,-0.5,-0.369169235229492,-0.29935559630394
98,-0.332534462213516,-0.318892538547516,-0.348778188228607,-0.5,-0.306777566671371,-0.275752365589142
99,-0.318167477846146,-0.29404404759407,-0.346717685461044,-0.5,-0.265738427639008,-0.266545206308365
100,-0.318197637796402,-0.293541967868805,-0.369126409292221,-0.5,-0.260939419269562,-0.284022301435471
101,-0.324430614709854,-0.312619209289551,-0.403265416622162,-0.5,-0.280821293592453,-0.314717352390289
102,-0.333997666835785,-0.328796565532684,-0.419184565544128,-0.5,-0.312249720096588,-0.323111712932587
103,-0.336049944162369,-0.321164846420288,-0.394198477268219,-0.5,-0.332109987735748,-0.297973394393921
104,-0.317451357841492,-0.289715826511383,-0.339467376470566,-0.5,-0.319431006908417,-0.264734297990799
105,-0.292226165533066,-0.258538961410522,-0.299228519201279,-0.5,-0.293375492095947,-0.25281897187233
106,-0.28577184677124,-0.248501241207123,-0.29751244187355,-0.5,-0.281672865152359,-0.27226310968399
107,-0.300774157047272,-0.26497209072113,-0.315923899412155,-0.5,-0.282481163740158,-0.316072106361389
108,-0.314734190702438,-0.2949039041996,-0.331355273723602,-0.5,-0.287613123655319,-0.367298156023026
109,-0.308484196662903,-0.316628485918045,-0.337399929761887,-0.5,-0.298516839742661,-0.408794105052948
110,-0.290164738893509,-0.330299079418182,-0.336164206266403,-0.5,-0.313745677471161,-0.43151393532753
111,-0.273374170064926,-0.341901272535324,-0.325238972902298,-0.5,-0.320768654346466,-0.424098283052444
112,-0.257602423429489,-0.335092484951019,-0.301362216472626,-0.5,-0.306706219911575,-0.375781029462814
113,-0.242867439985275,-0.301617473363876,-0.271041095256805,-0.5,-0.277651280164719,-0.30167356133461
114,-0.228303119540215,-0.256088346242905,-0.243391171097755,-0.5,-0.248451232910156,-0.23127481341362
115,-0.21539343893528,-0.213950842618942,-0.224045321345329,-0.5,-0.222117900848389,-0.174759119749069
116,-0.217285260558128,-0.182284593582153,-0.215878188610077,-0.5,-0.202110484242439,-0.133086711168289
117,-0.235442325472832,-0.161811396479607,-0.217417627573013,-0.5,-0.198082938790321,-0.114503540098667
118,-0.252377361059189,-0.154380336403847,-0.224669381976128,-0.5,-0.208128437399864,-0.120104879140854
119,-0.258309006690979,-0.163941606879234,-0.234409019351006,-0.5,-0.22083081305027,-0.140217944979668
120,-0.259355396032333,-0.19141811132431,-0.245596289634705,-0.5,-0.231119722127914,-0.162765562534332
121,-0.259590804576874,-0.227760598063469,-0.258996784687042,-0.5,-0.23769274353981,-0.182844907045364
122,-0.257158488035202,-0.258144319057465,-0.27938836812973,-0.5,-0.242124333977699,-0.212727129459381
123,-0.261370480060577,-0.279135227203369,-0.314834803342819,-0.5,-0.255819380283356,-0.269556254148483
124,-0.285893350839615,-0.300748109817505,-0.359328806400299,-0.5,-0.28098338842392,-0.345230400562286
125,-0.322862029075623,-0.331359416246414,-0.39215224981308,-0.5,-0.3039470911026,-0.411628067493439
126,-0.343639761209488,-0.361273318529129,-0.395072102546692,-0.5,-0.3138347864151,-0.447735875844955
127,-0.333792150020599,-0.374563932418823,-0.369576096534729,-0.5,-0.310842633247375,-0.451983690261841
128,-0.306349217891693,-0.371822595596313,-0.342051237821579,-0.5,-0.307194083929062,-0.439215749502182
129,-0.27468204498291,-0.360810995101929,-0.327670186758041,-0.5,-0.313139975070953,-0.410512238740921
130,-0.251954704523087,-0.339899390935898,-0.315950095653534,-0.5,-0.323659062385559,-0.355173677206039
131,-0.252074599266052,-0.304473668336868,-0.297729909420013,-0.5,-0.328262090682983,-0.287682563066483
132,-0.26645091176033,-0.260607987642288,-0.272158682346344,-0.5,-0.320732057094574,-0.237784311175346
133,-0.273579686880112,-0.224126532673836,-0.243060737848282,-0.5,-0.297622203826904,-0.216374933719635
134,-0.26990607380867,-0.204952150583267,-0.221876889467239,-0.5,-0.263221919536591,-0.215849354863167
135,-0.264265328645706,-0.202881708741188,-0.21806663274765,-0.5,-0.228535413742065,-0.227279737591743
136,-0.249885976314545,-0.215582266449928,-0.229220673441887,-0.5,-0.200450614094734,-0.240858808159828
137,-0.221917152404785,-0.235751181840897,-0.25499638915062,-0.5,-0.190313294529915,-0.251482903957367
138,-0.201132088899612,-0.25632181763649,-0.295989453792572,-0.5,-0.20590353012085,-0.269021660089493
139,-0.204409033060074,-0.275771677494049,-0.330596536397934,-0.5,-0.228462263941765,-0.29628250002861
140,-0.223327249288559,-0.290407776832581,-0.333253562450409,-0.5,-0.24013839662075,-0.319288820028305
141,-0.245635583996773,-0.294361561536789,-0.310654699802399,-0.5,-0.249817565083504,-0.331658363342285
142,-0.271985858678818,-0.287668406963348,-0.291001111268997,-0.5,-0.271654337644577,-0.337805062532425
143,-0.300627410411835,-0.284345984458923,-0.287942886352539,-0.5,-0.3020840883255,-0.341471761465073
144,-0.318485409021378,-0.297331243753433,-0.295792251825333,-0.5,-0.324726313352585,-0.346748620271683
145,-0.324249416589737,-0.309573590755463,-0.312603086233139,-0.5,-0.33671048283577,-0.350952565670013
146,-0.335094213485718,-0.285500168800354,-0.339537233114243,-0.5,-0.348621040582657,-0.337005853652954
147,-0.359058022499084,-0.226825267076492,-0.365972518920898,-0.5,-0.360742568969727,-0.301383465528488
148,-0.37989953160286,-0.192475259304047,-0.382625639438629,-0.5,-0.362436652183533,-0.282825648784637
149,-0.378273636102676,-0.228384733200073,-0.393474012613297,-0.5,-0.352101743221283,-0.320462882518768
150,-0.355182826519012,-0.306057035923004,-0.397840887308121,-0.5,-0.341703653335571,-0.396557062864304
151,-0.321481466293335,-0.366935610771179,-0.38500115275383,-0.5,-0.337783753871918,-0.46012219786644
152,-0.285441994667053,-0.391148656606674,-0.355127364397049,-0.5,-0.337412178516388,-0.480481743812561
153,-0.255738079547882,-0.394769906997681,-0.323544025421143,-0.5,-0.338488429784775,-0.46391761302948
154,-0.237475782632828,-0.394355446100235,-0.304342955350876,-0.5,-0.342535942792892,-0.438744276762009
155,-0.235073193907738,-0.393452674150467,-0.302747189998627,0.256318628787994,-0.350561767816544,-0.422464102506638
156,-0.250004142522812,-0.380697280168533,-0.316640377044678,0.5,-0.35438796877861,-0.405243217945099
157,-0.269318461418152,-0.350943714380264,-0.340932607650757,0.5,-0.342890918254852,-0.378804266452789
158,-0.28464463353157,-0.326767712831497,-0.378539621829987,0.5,-0.330714523792267,-0.365443974733353
159,-0.299651235342026,-0.323936522006989,-0.424167811870575,0.5,-0.341507285833359,-0.379067748785019
160,-0.309536039829254,-0.325443238019943,-0.444116860628128,0.5,-0.36042520403862,-0.387535065412521
161,-0.311499744653702,-0.310966521501541,-0.420443385839462,0.5,-0.363487392663956,-0.369549840688705
162,-0.318292319774628,-0.285387724637985,-0.380574285984039,0.5,-0.36061230301857,-0.357092887163162
163,-0.337119877338409,-0.270813316106796,-0.346637308597565,0.5,-0.360452950000763,-0.375054478645325
164,-0.352954059839249,-0.277078360319138,-0.309019237756729,0.5,-0.345537126064301,-0.398612886667252
165,-0.346593528985977,-0.294639587402344,-0.262906819581985,0.5,-0.306373506784439,-0.39284747838974
166,-0.315337508916855,-0.30580797791481,-0.222041800618172,0.5,-0.25440526008606,-0.356961965560913
167,-0.27171802520752,-0.294997304677963,-0.200719624757767,0.5,-0.210499197244644,-0.317603379487991
168,-0.235862195491791,-0.264834642410278,-0.202851146459579,0.5,-0.192802652716637,-0.292121231555939
169,-0.219685465097427,-0.234324231743813,-0.220906510949135,0.5,-0.198691084980965,-0.279306024312973
170,-0.220317527651787,-0.219917342066765,-0.247960597276688,0.5,-0.216818258166313,-0.281944006681442
171,-0.233691975474358,-0.228283330798149,-0.284063249826431,0.5,-0.248244106769562,-0.310512274503708
172,-0.258768051862717,-0.252257972955704,-0.324167042970657,0.5,-0.291662752628326,-0.361114174127579
173,-0.289888322353363,-0.283134043216705,-0.35699862241745,0.5,-0.332328736782074,-0.409966319799423
174,-0.309908658266068,-0.315442800521851,-0.3728406727314,0.5,-0.352748453617096,-0.422576129436493
175,-0.303446173667908,-0.330652505159378,-0.367065936326981,0.5,-0.34595051407814,-0.385125130414963
176,-0.277183949947357,-0.316559821367264,-0.342034816741943,0.5,-0.319746792316437,-0.323513597249985
177,-0.245330169796944,-0.27653506398201,-0.302184790372849,0.5,-0.280823051929474,-0.258609175682068
178,-0.21216244995594,-0.211122289299965,-0.256483405828476,0.5,-0.232477948069572,-0.19355197250843
179,-0.185004785656929,-0.140460819005966,-0.223365873098373,0.5,-0.19055837392807,-0.150323271751404
180,-0.180703550577164,-0.111147232353687,-0.215894013643265,0.5,-0.176334172487259,-0.159108191728592
181,-0.202775821089745,-0.137106880545616,-0.223743453621864,0.5,-0.189082682132721,-0.211579129099846
182,-0.229309365153313,-0.184688165783882,-0.225602477788925,0.5,-0.204530447721481,-0.262939661741257
183,-0.23434217274189,-0.221881851553917,-0.209690660238266,0.5,-0.198092401027679,-0.280288815498352
184,-0.207933247089386,-0.235801756381989,-0.17792609333992,0.5,-0.160908952355385,-0.265421390533447
185,-0.164319694042206,-0.223790302872658,-0.144790560007095,0.5,-0.10503987967968,-0.240481957793236
186,-0.131798148155212,-0.196786805987358,-0.12596432864666,0.5,-0.0507770925760269,-0.225402966141701
187,-0.121558822691441,-0.16861255466938,-0.120606578886509,0.5,-0.00920209940522909,-0.221346125006676
188,-0.120982028543949,-0.139042347669601,-0.117462083697319,0.5,0.0127542391419411,-0.21666955947876
189,-0.118542104959488,-0.109654858708382,-0.119706273078918,0.5,0.0016235513612628,-0.20861454308033
190,-0.120964743196964,-0.094559833407402,-0.14295206964016,0.5,-0.0503895878791809,-0.202375918626785
191,-0.144441187381744,-0.0985483974218369,-0.185735568404198,-0.371741354465485,-0.125064209103584,-0.196676552295685
192,-0.191431075334549,-0.117620974779129,-0.223176077008247,-0.5,-0.190449416637421,-0.192445859313011
193,-0.238785713911057,-0.152400255203247,-0.241024628281593,-0.5,-0.229136392474175,-0.201150968670845
194,-0.25726518034935,-0.191099420189857,-0.247494384646416,-0.5,-0.241410329937935,-0.225908324122429
195,-0.247376635670662,-0.211140289902687,-0.252132833003998,-0.5,-0.241522699594498,-0.248228088021278
196,-0.237156927585602,-0.212841808795929,-0.264238297939301,-0.5,-0.251754641532898,-0.253347039222717
197,-0.24154144525528,-0.218055784702301,-0.287862181663513,-0.393092751502991,-0.277031183242798,-0.256964325904846
198,-0.238173931837082,-0.225031405687332,-0.296224445104599,-0.101728558540344,-0.277935922145844,-0.26738715171814
199,-0.199056416749954,-0.20931538939476,-0.256106734275818,-0.142611414194107,-0.210760876536369,-0.255466938018799
200,-0.139536663889885,-0.174936607480049,-0.18241836130619,-0.364156693220139,-0.104769416153431,-0.211542829871178
201,-0.0984866321086884,-0.14851687848568,-0.118277586996555,-0.5,-0.0319877155125141,-0.167373135685921
202,-0.0871979296207428,-0.13903982937336,-0.0815728381276131,-0.5,-0.0127251446247101,-0.138541579246521
203,-0.0959963798522949,-0.138568818569183,-0.0676081702113152,-0.5,-0.0196240991353989,-0.117027424275875
204,-0.115859411656857,-0.136123090982437,-0.0729876458644867,-0.5,-0.0368381999433041,-0.100588425993919
205,-0.133122682571411,-0.129081249237061,-0.0896541774272919,-0.351224005222321,-0.0581225119531155,-0.0930136516690254
206,-0.137835204601288,-0.122497662901878,-0.101338595151901,-0.499148696660995,-0.0711801797151566,-0.101288519799709
207,-0.1369469165802,-0.121386058628559,-0.105853348970413,-0.5,-0.0768536776304245,-0.127895921468735
208,-0.143441751599312,-0.129325538873672,-0.112906888127327,-0.5,-0.0882321819663048,-0.157977357506752
209,-0.159762620925903,-0.134772762656212,-0.123622894287109,-0.5,-0.110797382891178,-0.172506809234619
210,-0.179682210087776,-0.123814694583416,-0.141339853405952,-0.5,-0.14359113574028,-0.174764037132263
211,-0.190447151660919,-0.106975726783276,-0.166848316788673,-0.5,-0.173898279666901,-0.173142850399017
212,-0.179801926016808,-0.100824654102325,-0.180160269141197,-0.5,-0.181234508752823,-0.163176760077477
213,-0.154271766543388,-0.10656700283289,-0.167917713522911,-0.5,-0.164092659950256,-0.148303344845772
214,-0.132453456521034,-0.122153125703335,-0.148939624428749,-0.5,-0.14164312183857,-0.139028489589691
215,-0.128331169486046,-0.151926264166832,-0.153928488492966,-0.5,-0.136800602078438,-0.14372543990612
216,-0.14116108417511,-0.191025823354721,-0.189607307314873,-0.5,-0.157847926020622,-0.164458632469177
217,-0.159097835421562,-0.217124536633492,-0.228626653552055,-0.5,-0.187397122383118,-0.17908850312233
218,-0.174512222409248,-0.216061696410179,-0.242830023169518,-0.5,-0.198391661047935,-0.172262117266655
219,-0.187140449881554,-0.20295724272728,-0.241019487380981,-0.351420134305954,-0.189717963337898,-0.172081857919693
220,-0.203216135501862,-0.20406548678875,-0.254320919513702,0.5,-0.191847681999207,-0.203822568058968
221,-0.229127541184425,-0.228932902216911,-0.286541700363159,0.5,-0.220450550317764,-0.252730637788773
222,-0.255538523197174,-0.250522255897522,-0.299869954586029,0.5,-0.245184078812599,-0.284348249435425
223,-0.262047171592712,-0.226267457008362,-0.26584380865097,0.5,-0.23359540104866,-0.275943279266357
224,-0.24666553735733,-0.167236909270287,-0.211038172245026,0.5,-0.204541072249413,-0.239609658718109
225,-0.226454704999924,-0.129015147686005,-0.174584805965424,0.5,-0.193466231226921,-0.201558023691177
226,-0.208033338189125,-0.128971517086029,-0.156878247857094,0.5,-0.19582761824131,-0.161977529525757
227,-0.186015263199806,-0.141011148691177,-0.140583604574203,0.5,-0.185245648026466,-0.112101562321186
228,-0.164038568735123,-0.1469716578722,-0.12037143856287,0.5,-0.157202750444412,-0.0693787038326263
229,-0.153479412198067,-0.145410180091858,-0.10283549875021,0.5,-0.13169901072979,-0.0579219497740269
230,-0.15497612953186,-0.132933542132378,-0.0954057201743126,0.5,-0.12290383130312,-0.0753736272454262
231,-0.158446684479713,-0.108838222920895,-0.0990781262516975,0.5,-0.123328991234303,-0.0976396054029465
232,-0.158554747700691,-0.0820234790444374,-0.11176735162735,0.5,-0.123052917420864,-0.104831852018833
233,-0.153014242649078,-0.0572477132081985,-0.130826532840729,0.5,-0.121370427310467,-0.0950953364372253
234,-0.138845086097717,-0.0404125265777111,-0.151480883359909,0.5,-0.115142285823822,-0.083090715110302
235,-0.125428572297096,-0.0494959056377411,-0.171253561973572,0.5,-0.106661185622215,-0.0870026797056198
236,-0.130846589803696,-0.0939892679452896,-0.191263690590858,0.5,-0.113561518490314,-0.107557743787766
237,-0.154857993125916,-0.155538231134415,-0.204004928469658,0.5,-0.139859974384308,-0.125210762023926
238,-0.17401972413063,-0.198823228478432,-0.195011854171753,0.5,-0.163381293416023,-0.12277963757515
239,-0.17111137509346,-0.198425501585007,-0.164467513561249,0.5,-0.16416372358799,-0.101960346102715
240,-0.149557664990425,-0.155192226171494,-0.127797290682793,0.5,-0.138789758086205,-0.0761917904019356
241,-0.121013574302197,-0.0916881337761879,-0.094109520316124,0.5,-0.0936033353209496,-0.0526760444045067
242,-0.0927504301071167,-0.0354263857007027,-0.0621125772595406,0.5,-0.0411617383360863,-0.0291836280375719
243,-0.0687514245510101,-0.000674155366141349,-0.0375527068972588,0.5,-0.00147687166463584,-0.0124078439548612
244,-0.0588246658444405,0.010168394073844,-0.0288282223045826,0.250498920679092,0.011529746465385,-0.0149552002549171
245,-0.0700768232345581,-0.000675305491313338,-0.0273656565696001,-0.255691766738892,0.00569069618359208,-0.0291450116783381
246,-0.0934084579348564,-0.0210950691252947,-0.0230913404375315,-0.5,-0.00618124194443226,-0.0322502553462982
247,-0.114650443196297,-0.0383370965719223,-0.021017087623477,-0.5,-0.0234462320804596,-0.0151777807623148
248,-0.124630689620972,-0.0469052568078041,-0.0228108875453472,-0.5,-0.0425888746976852,0.015552569180727
249,-0.114689879119396,-0.0443425066769123,-0.0218007601797581,-0.5,-0.0500225052237511,0.0496309064328671
250,-0.0869156867265701,-0.0295110791921616,-0.0182541348040104,-0.5,-0.0437503606081009,0.0717818289995193
251,-0.0610047355294228,-0.00657667173072696,-0.0163244027644396,-0.5,-0.0353311896324158,0.0741934776306152
252,-0.0509621426463127,0.012382629327476,-0.012047091498971,-0.5,-0.0252989120781422,0.069952204823494
253,-0.051381204277277,0.0187161657959223,0.000272287987172604,-0.5,-0.00870624650269747,0.0744873657822609
254,-0.0511681437492371,0.0152648268267512,0.0195587780326605,-0.5,0.0109271174296737,0.0909287706017494
255,-0.0426975749433041,0.0142298424616456,0.0429773740470409,-0.5,0.0319027863442898,0.117784410715103
256,-0.0260172579437494,0.0252717435359955,0.063557967543602,-0.5,0.0531053394079208,0.150760278105736
257,-0.00848944112658501,0.0409302152693272,0.0665367245674133,-0.5,0.0690985694527626,0.17803367972374
258,-0.00484648672863841,0.0417049825191498,0.0403545647859573,-0.5,0.0717394128441811,0.182136788964272
259,-0.0305802673101425,0.0212799180299044,-0.00906809698790312,-0.5,0.0520119443535805,0.152636602520943
260,-0.0767233222723007,-0.00537970894947648,-0.0600005239248276,-0.5,0.0115833934396505,0.0995515882968903
261,-0.117334499955177,-0.0246577002108097,-0.0919880196452141,-0.5,-0.0327932015061378,0.0488033406436443
262,-0.137498870491982,-0.0317572839558125,-0.0968609675765038,-0.5,-0.0608650036156178,0.022988798096776
263,-0.136846125125885,-0.0250572524964809,-0.080909289419651,-0.5,-0.0642581880092621,0.0262229274958372
264,-0.125725343823433,-0.0136266900226474,-0.0619955845177174,-0.5,-0.0533590540289879,0.0436819903552532
265,-0.116055577993393,-0.0140775619074702,-0.0563545562326908,-0.5,-0.0466236211359501,0.0568773113191128
266,-0.114603392779827,-0.0352308340370655,-0.066551998257637,-0.5,-0.0541977547109127,0.0580821298062801
267,-0.126685619354248,-0.0765020474791527,-0.0874944925308228,-0.5,-0.0767130106687546,0.0477847345173359
268,-0.147275283932686,-0.128830909729004,-0.114658296108246,-0.5,-0.103000722825527,0.0282832365483046
269,-0.156558558344841,-0.173106670379639,-0.140170574188232,-0.5,-0.109456934034824,0.00495407031849027
270,-0.143112063407898,-0.195964276790619,-0.154446765780449,0.299545466899872,-0.0834746286273003,-0.00900203455239534
271,-0.116991922259331,-0.198685184121132,-0.15594594180584,0.5,-0.0406105071306229,-0.00171442469581962
272,-0.0947248041629791,-0.185704499483109,-0.149231776595116,0.5,-0.0126143405213952,0.0217969622462988
273,-0.0866594687104225,-0.156747549772263,-0.13348576426506,0.5,-0.0152102811262012,0.0529051013290882
274,-0.0964366793632507,-0.117234833538532,-0.105823032557964,0.5,-0.0299128200858831,0.0886864736676216
275,-0.126357197761536,-0.088465690612793,-0.0779457241296768,0.5,-0.0386885181069374,0.110443599522114
276,-0.173496633768082,-0.086561381816864,-0.075101912021637,0.5,-0.0590125098824501,0.0953369662165642
277,-0.217748656868935,-0.0964567959308624,-0.104475930333138,0.5,-0.10699325054884,0.0573858320713043
278,-0.232520967721939,-0.0896537154912949,-0.135296434164047,0.5,-0.15413111448288,0.0357352495193481
279,-0.209331333637238,-0.0609322711825371,-0.13080658018589,0.5,-0.160409480333328,0.0480500273406506
280,-0.160907864570618,-0.0250345207750797,-0.0866807401180267,0.5,-0.121583387255669,0.0848175510764122
281,-0.102709211409092,0.00868642888963223,-0.0261310674250126,0.5,-0.0599283203482628,0.132413923740387
282,-0.0475164577364922,0.0371596068143845,0.0262608528137207,0.311836898326874,0.00244868663139641,0.178741902112961
283,-0.00984141509979963,0.0561467558145523,0.0584664978086948,-0.288184374570847,0.0519638508558273,0.210009098052979
284,0.000459498289274052,0.0596153661608696,0.0654004141688347,-0.5,0.0759731903672218,0.214081138372421
285,-0.0169920027256012,0.0412271432578564,0.0439405515789986,-0.5,0.0617452524602413,0.18746542930603
286,-0.049617875367403,0.00714952079579234,0.00170382345095277,0.141314893960953,0.0197795741260052,0.143345043063164
287,-0.0728269144892693,-0.0267733279615641,-0.0417317189276218,0.5,-0.0162250269204378,0.106688536703587
288,-0.0713542252779007,-0.0499443560838699,-0.0678174644708633,0.5,-0.0215538498014212,0.0950943529605865
289,-0.0560552440583706,-0.0561608113348484,-0.0749244913458824,0.5,-0.00536799011752009,0.104792237281799
290,-0.0468434616923332,-0.0473586283624172,-0.076259471476078,0.5,0.0013035339070484,0.121069014072418
291,-0.0514303185045719,-0.0345673263072968,-0.0763307958841324,0.5,-0.0114110046997666,0.139931797981262
292,-0.0621314309537411,-0.0191597491502762,-0.0652559474110603,0.5,-0.023580264300108,0.17472842335701
293,-0.0624143779277802,0.00664235511794686,-0.0353634618222713,0.5,-0.0143014993518591,0.232047766447067
294,-0.0449063964188099,0.0336735658347607,0.00709219835698605,-0.5,0.0168519411236048,0.283324420452118
295,-0.0208043269813061,0.0429935827851295,0.0462132841348648,-0.5,0.050695925951004,0.298499554395676
296,-0.00695309555158019,0.0299954358488321,0.0636107325553894,-0.5,0.0674243718385696,0.280787914991379
297,-0.0145028987899423,-0.00452010054141283,0.0421573892235756,-0.5,0.0557733848690987,0.23654006421566
298,-0.0413535572588444,-0.0473169088363647,-0.0183017253875732,-0.5,0.0131177408620715,0.170728147029877
299,-0.0731068029999733,-0.0632206499576569,-0.093044713139534,-0.5,-0.045965239405632,0.108467482030392
300,-0.100959695875645,-0.0454783253371716,-0.148546129465103,0.5,-0.0948219448328018,0.0720841214060783
301,-0.121386185288429,-0.0281565766781569,-0.164544597268105,0.5,-0.115884982049465,0.0617200061678886
302,-0.124870955944061,-0.0268617514520884,-0.144145384430885,0.5,-0.103552676737309,0.0690754503011703
303,-0.113543100655079,-0.0315775610506535,-0.108977593481541,0.5,-0.0654838904738426,0.0862757191061974
304,-0.108086608350277,-0.0439136065542698,-0.0833664909005165,0.5,-0.029800059273839,0.109518073499203
305,-0.116525091230869,-0.0650863498449326,-0.0736798420548439,0.5,-0.0194039084017277,0.143792718648911
306,-0.125315919518471,-0.0742349028587341,-0.0714780688285828,0.5,-0.0300999861210585,0.18450553715229
307,-0.124792374670506,-0.0593873970210552,-0.0715026035904884,0.5,-0.0471263639628887,0.214997336268425
308,-0.117396906018257,-0.0384617708623409,-0.0707635879516602,0.5,-0.0595641992986202,0.233055859804153
309,-0.103445552289486,-0.0256040319800377,-0.062783494591713,0.5,-0.0545693039894104,0.245088770985603
310,-0.0781116858124733,-0.0114516532048583,-0.0463197305798531,0.5,-0.0180289559066296,0.252358943223953
311,-0.0491643585264683,0.00506155332550406,-0.0388194881379604,0.5,0.032442107796669,0.248939156532288
312,-0.0423959940671921,-0.00415651686489582,-0.0675208196043968,0.5,0.040021076798439,0.22097310423851
313,-0.0672618299722672,-0.04909797757864,-0.127105608582497,0.5,-0.0181726012378931,0.176107585430145
314,-0.0980470702052116,-0.0909315496683121,-0.169631510972977,0.5,-0.0946628078818321,0.143152385950089
315,-0.108997754752636,-0.098032720386982,-0.159779489040375,0.5,-0.134499967098236,0.13138484954834
316,-0.100609160959721,-0.080499678850174,-0.108107872307301,0.5,-0.126975625753403,0.134946882724762
317,-0.0873224064707756,-0.0560292787849903,-0.0474576912820339,0.5,-0.095265343785286,0.153301730751991
318,-0.0768268704414368,-0.0277187433093786,-0.00063602312002331,0.5,-0.0603799559175968,0.187806576490402
319,-0.0652845948934555,0.00372784561477602,0.0296029131859541,0.5,-0.0248953085392714,0.231873586773872
320,-0.0546363294124603,0.0310501661151648,0.0441143587231636,0.5,0.0100997276604176,0.271818995475769
321,-0.0579662583768368,0.046740684658289,0.0401024855673313,0.5,0.0340790823101997,0.299669146537781
322,-0.079688735306263,0.0531374737620354,0.0206400640308857,0.5,0.0346444584429264,0.317432165145874
323,-0.106917165219784,0.0631802752614021,-0.00531973876059055,0.5,0.0112487822771072,0.332166939973831
324,-0.121257618069649,0.0831595659255981,-0.0296850129961967,0.5,-0.0152968987822533,0.342569679021835
325,-0.114289723336697,0.0894221886992455,-0.0566416382789612,0.5,-0.0294091552495956,0.329008281230927
326,-0.0911441221833229,0.0574334412813187,-0.0883010178804398,0.5,-0.0355158522725105,0.284893453121185
327,-0.0686569958925247,0.011610358953476,-0.103108681738377,0.5,-0.0324815325438976,0.246181458234787
328,-0.0654275789856911,-0.00688131852075458,-0.0851455926895142,0.5,-0.0200139079242945,0.24568834900856
329,-0.0775725468993187,0.00418293941766024,-0.0514357462525368,0.5,-0.0147005058825016,0.266493022441864
330,-0.0817489922046661,0.02031559497118,-0.0287993121892214,0.5,-0.0260818358510733,0.280294805765152
331,-0.0699559971690178,0.0297594498842955,-0.0277070607990026,0.5,-0.0442388914525509,0.280733376741409
332,-0.0554508417844772,0.0341922678053379,-0.0396292768418789,0.5,-0.0527749583125114,0.277175158262253
333,-0.0453394167125225,0.036121916025877,-0.0452055521309376,0.5,-0.0383238419890404,0.287746697664261
334,-0.0330073013901711,0.0421972088515759,-0.0343802385032177,0.5,-0.00521212816238403,0.306149870157242
335,-0.0199885927140713,0.0520010925829411,-0.0158958714455366,0.5,0.0251905545592308,0.307401567697525
336,-0.0224786419421434,0.0520714819431305,-0.00378491496667266,0.5,0.0363929122686386,0.287419706583023
337,-0.0435946062207222,0.0408916249871254,-0.00266200909391046,0.5,0.028798833489418,0.262925982475281
338,-0.0614954568445683,0.0378947332501411,-0.0033532592933625,0.5,0.0207976251840591,0.257233619689941
339,-0.0594780892133713,0.0567472502589226,0.00116562296170741,0.5,0.0310624074190855,0.275228708982468
340,-0.0480399616062641,0.0891073420643806,-0.000350964342942461,0.5,0.0533444844186306,0.29448077082634
341,-0.0461310893297195,0.109505467116833,-0.0197039339691401,0.5,0.0675303190946579,0.294742196798325
342,-0.0588420033454895,0.0950219929218292,-0.0462714657187462,0.5,0.0671677216887474,0.280736327171326
343,-0.0807155296206474,0.0510942079126835,-0.0651540532708168,0.5,0.053228996694088,0.265807390213013
344,-0.100403562188149,0.00993629358708858,-0.0729092583060265,0.5,0.0293974597007036,0.256046324968338
345,-0.10311771184206,0.000552386743947864,-0.064765490591526,0.5,0.014569248072803,0.261430859565735
346,-0.0887117609381676,0.0236091371625662,-0.0435734428465366,0.5,0.0198215283453465,0.285625100135803
347,-0.0784383565187454,0.0566873140633106,-0.0280015245079994,0.5,0.0273496322333813,0.313485383987427
348,-0.0890885293483734,0.0775427669286728,-0.0284801088273525,0.5,0.0182339120656252,0.330222725868225
349,-0.113081589341164,0.0786008685827255,-0.0379255376756191,0.5,-0.00717159546911716,0.33364662528038
350,-0.133896306157112,0.062825620174408,-0.0506182126700878,0.5,-0.0426584109663963,0.325797587633133
351,-0.146910652518272,0.0348189882934093,-0.069646880030632,0.5,-0.0860578790307045,0.308403342962265
352,-0.156417399644852,-0.00052176380995661,-0.0930820107460022,0.5,-0.129386708140373,0.285621732473373
353,-0.156044706702232,-0.0321157798171043,-0.107111804187298,0.5,-0.148118823766708,0.265208899974823
354,-0.127244278788567,-0.037897601723671,-0.102125868201256,0.5,-0.120425455272198,0.260875403881073
355,-0.0744867622852325,-0.000750195293221623,-0.0811560302972794,0.5,-0.0556623376905918,0.284687042236328
356,-0.0309523660689592,0.0654808133840561,-0.0513883344829082,0.5,0.0130741782486439,0.324704080820084
357,-0.0169900860637426,0.121821701526642,-0.0250015333294868,0.222642719745636,0.0561244525015354,0.34970036149025
358,-0.0318777933716774,0.134519949555397,-0.0179573055356741,-0.381441086530685,0.0600229762494564,0.34018075466156
359,-0.0654510483145714,0.0956352725625038,-0.031726598739624,-0.5,0.0305848084390163,0.302030771970749
360,-0.0983961597084999,0.033518061041832,-0.0486934743821621,-0.0908689945936203,-0.00875459332019091,0.261574119329453
361,-0.116036675870419,-0.0113729042932391,-0.0567074120044708,0.5,-0.0360086597502232,0.242100417613983
362,-0.12234528362751,-0.0302553121000528,-0.0626204237341881,0.5,-0.0491415783762932,0.239802867174149
363,-0.130849272012711,-0.0342139229178429,-0.0772359222173691,0.5,-0.0565755479037762,0.236855015158653
364,-0.140705227851868,-0.0275278966873884,-0.100829534232616,0.5,-0.0579991042613983,0.226521670818329
365,-0.142429068684578,-0.025539718568325,-0.129387035965919,0.5,-0.0545868389308453,0.207431927323341
366,-0.143690973520279,-0.0424497723579407,-0.164711937308311,0.5,-0.0651402622461319,0.179197892546654
367,-0.159505292773247,-0.0601848550140858,-0.206462472677231,0.5,-0.105072200298309,0.156667098402977
368,-0.182415887713432,-0.0532312616705894,-0.236085876822472,0.5,-0.156731113791466,0.161826178431511
369,-0.186589881777763,-0.0181673504412174,-0.229239866137505,0.5,-0.184744626283646,0.198426693677902
370,-0.163534581661224,0.0308251865208149,-0.186289831995964,0.5,-0.175665736198425,0.24991337954998
371,-0.136683583259583,0.0745737850666046,-0.133239075541496,0.5,-0.144523173570633,0.292221128940582
372,-0.130362749099731,0.0891893580555916,-0.0966280028223991,0.5,-0.115024410188198,0.302917718887329
373,-0.131790950894356,0.0642949566245079,-0.0794726088643074,0.5,-0.0951147302985191,0.280853688716888
374,-0.111171327531338,0.0274339839816093,-0.0653345137834549,0.5,-0.0717173665761948,0.253673881292343
375,-0.0669403523206711,0.0120316445827484,-0.0437152236700058,0.5,-0.0354196801781654,0.249609589576721
376,-0.0210639722645283,0.0211183466017246,-0.02170186676085,0.5,0.00434345239773393,0.266479849815369
377,0.00608749268576503,0.0386566966772079,-0.0118500832468271,0.5,0.0310597494244576,0.285004913806915
378,0.0058826464228332,0.0536227934062481,-0.0186620838940144,0.5,0.0334098860621452,0.29799035191536
379,-0.0154990330338478,0.0662744492292404,-0.0408489890396595,0.5,0.00999788846820593,0.302012056112289
380,-0.0451301969587803,0.0763982087373734,-0.0728771388530731,0.5,-0.0268608964979649,0.297522008419037
381,-0.07590651512146,0.0798845067620277,-0.105262286961079,0.5,-0.0602642484009266,0.29024812579155
382,-0.103649899363518,0.075079545378685,-0.127147361636162,0.5,-0.0789037942886353,0.274619042873383
383,-0.11919778585434,0.0631550699472427,-0.130994230508804,0.5,-0.0771038457751274,0.251192092895508
384,-0.121773950755596,0.0555592626333237,-0.122619561851025,0.5,-0.0626420229673386,0.238110035657883
385,-0.126342907547951,0.0656280443072319,-0.119365572929382,0.5,-0.0555990375578403,0.24247545003891
386,-0.140334412455559,0.07916209846735,-0.132800653576851,0.5,-0.0644068941473961,0.246486946940422
387,-0.151451408863068,0.070121206343174,-0.155204117298126,0.5,-0.07829300314188,0.239907175302505
388,-0.148945614695549,0.0371043868362904,-0.172828584909439,0.5,-0.0884505063295364,0.232541412115097
389,-0.138782992959023,-0.003746731672436,-0.188674166798592,0.5,-0.100077010691166,0.222470343112946
390,-0.137843444943428,-0.0450011901557446,-0.214137569069862,0.5,-0.12231520563364,0.195145547389984
391,-0.153821721673012,-0.082657128572464,-0.241197019815445,0.5,-0.148266687989235,0.155993282794952
392,-0.17037408053875,-0.101248323917389,-0.244707927107811,0.5,-0.157105520367622,0.132402017712593
393,-0.171226263046265,-0.093882642686367,-0.217127710580826,0.5,-0.143570691347122,0.136477679014206
394,-0.159552752971649,-0.0717117711901665,-0.175093308091164,0.5,-0.123299986124039,0.156792968511581
395,-0.146281942725182,-0.0477405190467834,-0.136443376541138,0.5,-0.114020638167858,0.188698515295982
396,-0.141771361231804,-0.027122188359499,-0.113551512360573,0.5,-0.122039742767811,0.231241315603256
397,-0.147734016180038,-0.0012574044521898,-0.110125303268433,0.5,-0.133416548371315,0.267130136489868
398,-0.153210386633873,0.0328902341425419,-0.112503096461296,0.5,-0.123372659087181,0.277753174304962
399,-0.149857357144356,0.0478321574628353,-0.109184049069881,0.5,-0.0903541818261147,0.25921231508255
400,-0.135067790746689,0.0260095819830894,-0.106187343597412,0.5,-0.058257207274437,0.225314751267433
401,-0.111862935125828,-0.00566608924418688,-0.105550818145275,0.5,-0.0414805263280869,0.202285379171371
402,-0.0915874093770981,-0.0131361801177263,-0.0987878814339638,0.5,-0.035900741815567,0.208847522735596
403,-0.0751422122120857,0.0147204715758562,-0.0811104103922844,0.5,-0.0313643254339695,0.243053495883942
404,-0.0550526417791843,0.0734619647264481,-0.0576580353081226,0.5,-0.0194824896752834,0.289471298456192
405,-0.0359664857387543,0.155676335096359,-0.0417147092521191,0.5,-0.0023436218034476,0.336026221513748
406,-0.030140396207571,0.235442131757736,-0.0390599966049194,0.5,0.0105955135077238,0.372043550014496
407,-0.0402046218514442,0.265621721744537,-0.0380309112370014,0.5,0.0180625338107347,0.381595432758331
408,-0.0550880469381809,0.229572162032127,-0.0305295865982771,0.5,0.022108867764473,0.3608737885952
409,-0.0570895560085773,0.161703139543533,-0.0228441748768091,0.5,0.0239100847393274,0.329847991466522
410,-0.0411420166492462,0.100275695323944,-0.0217944588512182,0.5,0.0262899994850159,0.307745099067688
411,-0.0286461170762777,0.0550914891064167,-0.0298235900700092,0.5,0.0264963693916798,0.28973051905632
412,-0.0437429361045361,0.0205814726650715,-0.0472815744578838,0.5,0.0193370059132576,0.260300248861313
413,-0.0832751169800758,-0.00747731560841203,-0.0692796930670738,0.5,0.00535947037860751,0.220991045236588
414,-0.112681329250336,-0.0237277988344431,-0.0838849619030952,0.5,-0.00266952929086983,0.199777856469154
415,-0.106045804917812,-0.0231108702719212,-0.089752770960331,0.5,0.00207865238189697,0.21450175344944
416,-0.0837704911828041,-0.0132680125534534,-0.0985738486051559,0.5,0.00414718827232718,0.248821914196014
417,-0.074768029153347,-0.00191110896412283,-0.108478635549545,0.5,-0.00617734948173165,0.281419545412064
418,-0.0790012776851654,0.0104777403175831,-0.108444824814796,0.5,-0.0209512375295162,0.298229962587357
419,-0.0839393734931946,0.0240093395113945,-0.0956896468997002,0.5,-0.0272733345627785,0.295906573534012
420,-0.0819970443844795,0.040046613663435,-0.0687366276979446,0.5,-0.0136893121525645,0.292478740215302
421,-0.0712998062372208,0.0640607848763466,-0.0300002750009298,0.298150151968002,0.019059918820858,0.307290494441986
422,-0.0558071509003639,0.100843548774719,0.00606593769043684,-0.5,0.0566675886511803,0.343005925416946
423,-0.0447174534201622,0.142872497439384,0.0245179124176502,-0.5,0.0831911563873291,0.387963503599167
424,-0.0416061878204346,0.168851062655449,0.0218627844005823,-0.5,0.0904532372951508,0.414535164833069
425,-0.0415795333683491,0.165704309940338,0.00501023512333632,-0.5,0.0833734646439552,0.402322798967361
426,-0.0401684232056141,0.144174918532372,-0.015440315939486,-0.5,0.0754339247941971,0.369317829608917
427,-0.0369467511773109,0.130815774202347,-0.0321348011493683,-0.5,0.0726315230131149,0.345754653215408
428,-0.0413338653743267,0.138393506407738,-0.0516212396323681,-0.5,0.0594903230667114,0.328594863414764
429,-0.065937228500843,0.142180204391479,-0.0882029309868813,-0.5,0.0176642592996359,0.290806651115417
430,-0.0988365113735199,0.108231514692307,-0.128552064299583,-0.5,-0.0309346206486225,0.233373165130615
431,-0.111865103244781,0.0408450961112976,-0.140264287590981,-0.5,-0.0460324138402939,0.190866440534592
432,-0.102067068219185,-0.0158623680472374,-0.120981089770794,-0.5,-0.027788145467639,0.181474551558495
433,-0.0919091552495956,-0.0291219390928745,-0.0968385487794876,-0.5,-0.00578864244744182,0.19427889585495
434,-0.0944058001041412,-0.0115784825757146,-0.0866696313023567,-0.5,0.00294522405602038,0.219321519136429
435,-0.104586504399776,0.00593059882521629,-0.0898282006382942,-0.5,0.00214629154652357,0.256191372871399
436,-0.114883475005627,0.00849541835486889,-0.0957669243216515,-0.5,0.00203598174266517,0.291056931018829
437,-0.117135629057884,-0.000151318992720917,-0.0961967259645462,-0.5,0.00810668524354696,0.296114951372147
438,-0.107354201376438,-0.014055272564292,-0.0967566519975662,-0.5,0.0149060999974608,0.262568563222885
439,-0.0916949361562729,-0.0305278673768044,-0.108865410089493,-0.5,0.0156247299164534,0.208350881934166
440,-0.0778578743338585,-0.0370525233447552,-0.130398795008659,-0.5,0.0132123315706849,0.15892705321312
441,-0.082832857966423,-0.0269588772207499,-0.154206588864326,-0.5,0.00481903040781617,0.129003256559372
442,-0.122888721525669,-0.0156949833035469,-0.176020056009293,-0.5,-0.0152685958892107,0.118565700948238
443,-0.176479279994965,-0.00229107076302171,-0.190710440278053,-0.5,-0.0394029766321182,0.129851296544075
444,-0.198641031980515,0.03823396936059,-0.191827848553658,-0.5,-0.0502079389989376,0.172029092907906
445,-0.169715613126755,0.104418374598026,-0.166931331157684,-0.5,-0.0275829546153545,0.240500390529633
446,-0.11076545715332,0.162852108478546,-0.11615377664566,-0.5,0.0261663123965263,0.301351398229599
447,-0.0598482899367809,0.183540925383568,-0.0645602345466614,-0.5,0.0773089751601219,0.313944816589355
448,-0.03707005828619,0.154954269528389,-0.0340737998485565,-0.5,0.0982376635074615,0.272566825151443
449,-0.0308244749903679,0.097578689455986,-0.0251723155379295,-0.5,0.0922166109085083,0.213498681783676
450,-0.021442798897624,0.0585335269570351,-0.0255881156772375,-0.5,0.0805048570036888,0.186809003353119
451,-0.00873750355094671,0.0586181953549385,-0.0262525249272585,-0.5,0.0788182243704796,0.215377911925316
452,-0.00504061905667186,0.0714963898062706,-0.0294344965368509,-0.5,0.0866966173052788,0.266246914863586
453,-0.0147110633552074,0.0686962753534317,-0.0400056466460228,-0.5,0.094432108104229,0.28054291009903
454,-0.0330253392457962,0.0480238310992718,-0.0577582307159901,-0.5,0.0915394574403763,0.241317212581635
455,-0.0552264750003815,0.0248215738683939,-0.0783943682909012,-0.5,0.0752934291958809,0.189048916101456
456,-0.0755431428551674,0.0199652370065451,-0.0927401632070541,-0.5,0.0578746348619461,0.168262347579002
457,-0.0844477340579033,0.0443585440516472,-0.0921152979135513,-0.5,0.0542140267789364,0.184679195284843
458,-0.0766800865530968,0.093736007809639,-0.0818662643432617,-0.5,0.0624981187283993,0.218295559287071
459,-0.0620978586375713,0.154505044221878,-0.0797681286931038,-0.5,0.065443180501461,0.247654974460602
460,-0.0606562681496143,0.19032084941864,-0.0981634855270386,-0.5,0.0479313582181931,0.247595131397247
461,-0.0774978250265121,0.158113285899162,-0.132026612758636,-0.5,0.013818864710629,0.198864489793777
462,-0.0948857292532921,0.0662855207920074,-0.158651396632195,-0.5,-0.0128488065674901,0.118878357112408
463,-0.100082240998745,-0.0333667397499084,-0.158830881118774,-0.5,-0.0140229817479849,0.0503386817872524
464,-0.0976260751485825,-0.103883676230907,-0.137431144714355,-0.5,0.0025958102196455,0.0220906883478165
465,-0.0935094952583313,-0.13302306830883,-0.111758835613728,-0.5,0.0196991302073002,0.0382636673748493
466,-0.0890683457255363,-0.119093656539917,-0.0954879447817802,-0.5,0.0313484221696854,0.0821321159601212
467,-0.0828020423650742,-0.0769247934222221,-0.0947873368859291,-0.5,0.041091188788414,0.127033740282059
468,-0.0736988186836243,-0.026033591479063,-0.101282067596912,-0.5,0.0559625886380672,0.155888646841049
469,-0.068588599562645,0.0210182443261147,-0.103805780410767,-0.5,0.077673576772213,0.161883741617203
470,-0.0770717039704323,0.0442551076412201,-0.114931486546993,-0.5,0.0875688195228577,0.137332782149315
471,-0.097633384168148,0.0311800632625818,-0.146898701786995,-0.5,0.0701649487018585,0.085548460483551
472,-0.117152683436871,0.0013735614484176,-0.175353333353996,-0.5,0.0464175194501877,0.0376920960843563
473,-0.12233005464077,-0.0180211383849382,-0.166532799601555,-0.5,0.0496759451925755,0.0312641188502312
474,-0.106723956763744,-0.0177240651100874,-0.115086443722248,-0.5,0.0908893644809723,0.0707375407218933
475,-0.0761677026748657,0.0106183988973498,-0.0488120280206203,-0.5,0.153035551309586,0.12954281270504
476,-0.0491954311728477,0.0675370842218399,-0.00597977265715599,-0.5,0.205702349543571,0.181231319904327
477,-0.0411616005003452,0.120122820138931,-0.00904472544789314,-0.5,0.227045059204102,0.20624466240406
478,-0.0505038760602474,0.123921133577824,-0.0594840310513973,-0.5,0.21047268807888,0.191826000809669
479,-0.0665994882583618,0.0716132000088692,-0.126219600439072,-0.5,0.170442178845406,0.148799806833267
480,-0.0864203795790672,-0.000469834747491404,-0.163082614541054,-0.5,0.130666062235832,0.105634413659573
481,-0.116371527314186,-0.0498684234917164,-0.161999404430389,-0.5,0.0939250886440277,0.0791045948863029
482,-0.154070049524307,-0.054193526506424,-0.143904358148575,-0.5,0.0584893673658371,0.0686629116535187
483,-0.177984818816185,-0.0251080878078938,-0.118063665926456,-0.5,0.041529506444931,0.0687430575489998
484,-0.173506185412407,0.00376454065553844,-0.0858735293149948,-0.5,0.0532132238149643,0.0704801008105278
485,-0.149894058704376,0.0205815080553293,-0.0543699041008949,-0.5,0.0834939405322075,0.0688396617770195
486,-0.12326105684042,0.0323097929358482,-0.0362028479576111,-0.5,0.113253138959408,0.0716085731983185
487,-0.100790932774544,0.035574845969677,-0.0355465598404408,-0.5,0.129215687513351,0.0906340628862381
488,-0.077852301299572,0.03339758887887,-0.0392371155321598,-0.5,0.139238148927689,0.130008071660995
489,-0.0545975416898727,0.0352087765932083,-0.0382174886763096,-0.5,0.156336903572083,0.176452413201332
490,-0.0377153120934963,0.0371608883142471,-0.0347858630120754,-0.5,0.18558694422245,0.21038281917572
491,-0.0230832677334547,0.0349524803459644,-0.0299036931246519,-0.5,0.226203992962837,0.225577160716057
492,-0.00743596535176039,0.0331982783973217,-0.0280023254454136,-0.5,0.26184868812561,0.219663858413696
493,-0.000765832839533687,0.0305564049631357,-0.0372123941779137,-0.5,0.272713929414749,0.186250731348991
494,-0.0145016238093376,0.0135564347729087,-0.062640093266964,-0.5,0.258098304271698,0.130737975239754
495,-0.0423847548663616,-0.0139168258756399,-0.0984042286872864,-0.5,0.236257314682007,0.0771951228380203
496,-0.0658616945147514,-0.0243512075394392,-0.123909756541252,-0.5,0.225216925144196,0.0461487546563149
497,-0.0801316499710083,-0.0125830210745335,-0.13099767267704,-0.5,0.223115503787994,0.0312965549528599
498,-0.088864803314209,-0.00384545233100653,-0.135913893580437,-0.5,0.217396020889282,0.0130842784419656
499,-0.0900353938341141,-0.0102874282747507,-0.145630270242691,-0.5,0.209551498293877,-0.00656956527382135
500,-0.0840215235948563,-0.0230094958096743,-0.151160538196564,-0.5,0.207851946353912,-0.013076382689178
501,-0.0781941413879395,-0.0405166298151016,-0.152102753520012,-0.5,0.200485855340958,-0.00957632157951593
502,-0.080050602555275,-0.0616414584219456,-0.153162285685539,-0.5,0.16893807053566,-0.000870490912348032
503,-0.0918900445103645,-0.0724098533391953,-0.157488644123077,-0.5,0.115828186273575,0.018396332859993
504,-0.114273346960545,-0.0679847523570061,-0.170885846018791,-0.5,0.058196946978569,0.0434631407260895
505,-0.141819342970848,-0.0548921674489975,-0.192749828100204,-0.105120003223419,0.0130194015800953,0.0620408542454243
506,-0.157445013523102,-0.0403128787875175,-0.215175807476044,0.5,-0.0115780420601368,0.0657239332795143
507,-0.154039576649666,-0.0284107904881239,-0.234868302941322,0.5,-0.0199313536286354,0.0527656264603138
508,-0.144984811544418,-0.0175767932087183,-0.252304583787918,0.5,-0.0133834928274155,0.0293705593794584
509,-0.141873493790627,-0.0138245318084955,-0.27411937713623,0.5,0.00271419296041131,-0.00635329447686672
510,-0.14590585231781,-0.0274957660585642,-0.310903757810593,0.5,0.00283405464142561,-0.0508846677839756
511,-0.149434104561806,-0.0449301041662693,-0.351792812347412,0.5,-0.0149039532989264,-0.0773341581225395
512,-0.140731379389763,-0.0413334965705872,-0.371475368738174,0.5,-0.0156879648566246,-0.0794244259595871
513,-0.12098353356123,-0.0233686324208975,-0.364933639764786,0.5,0.00854060705751181,-0.076796643435955
514,-0.10306092351675,-0.0136077851057053,-0.341818511486053,0.5,0.0310530457645655,-0.0720937922596931
515,-0.0880792289972305,-0.0136649431660771,-0.303569167852402,0.5,0.0484324246644974,-0.0584361553192139
516,-0.0585449114441872,-0.0145428059622645,-0.254101514816284,0.5,0.0827711820602417,-0.0419518984854221
517,-0.0135974129661918,-0.0231710039079189,-0.219337776303291,0.5,0.125857427716255,-0.0393213294446468
518,0.0154978586360812,-0.0490636602044106,-0.216313973069191,0.5,0.145705744624138,-0.0532708503305912
519,0.0098083233460784,-0.0690348967909813,-0.218617931008339,0.5,0.144934549927711,-0.0551690384745598
520,-0.0115662207826972,-0.0508960112929344,-0.195730462670326,0.5,0.153025880455971,-0.0209580734372139
521,-0.0254230573773384,0.000714265159331262,-0.154496803879738,0.5,0.173968985676765,0.0392282456159592
522,-0.0386099740862846,0.0575230233371258,-0.130227506160736,0.5,0.173086225986481,0.093908928334713
523,-0.077843964099884,0.0917961969971657,-0.157288774847984,0.5,0.113127201795578,0.10258337110281
524,-0.14305368065834,0.0822248682379723,-0.231041803956032,0.5,0.010190524160862,0.0445561781525612
525,-0.188822314143181,0.0316383317112923,-0.302628666162491,0.5,-0.0658392012119293,-0.0471989437937737
526,-0.186767503619194,-0.0249143894761801,-0.332335203886032,0.5,-0.0732924565672874,-0.107158377766609
527,-0.164630934596062,-0.0517855919897556,-0.328789114952087,0.5,-0.0428193472325802,-0.109836809337139
528,-0.149897560477257,-0.0501238070428371,-0.311481684446335,0.5,-0.0102755930274725,-0.0922372490167618
529,-0.126874968409538,-0.038878545165062,-0.2788325548172,0.5,0.0354373827576637,-0.0870824158191681
530,-0.0757869258522987,-0.0304961949586868,-0.235292702913284,0.0817595347762108,0.104220703244209,-0.0948016718029976
531,-0.0150772491469979,-0.0378035865724087,-0.196576088666916,-0.5,0.169641435146332,-0.106075800955296
532,0.0272742174565792,-0.0561166703701019,-0.162324890494347,-0.5,0.210575714707375,-0.097599595785141
533,0.0438173972070217,-0.0609823688864708,-0.126409620046616,-0.5,0.227644354104996,-0.0473348312079906
534,0.0345256738364697,-0.0438786670565605,-0.0975619480013847,-0.5,0.216269731521606,0.0256817974150181
535,0.00442628562450409,-0.0159727912396193,-0.0836966708302498,-0.5,0.174080580472946,0.0722063258290291
536,-0.0351921580731869,0.0106250699609518,-0.0803613737225533,0.168476194143295,0.120986640453339,0.0675178915262222
537,-0.0719812586903572,0.0275875050574541,-0.0809110924601555,0.5,0.0839181616902351,0.0319775156676769
538,-0.102615490555763,0.0338826850056648,-0.0877837091684341,0.5,0.0669105648994446,-0.000178970643901266
539,-0.136064976453781,0.0358680486679077,-0.107415996491909,0.5,0.0527629442512989,-0.0106243658810854
540,-0.162362769246101,0.040613479912281,-0.128438338637352,0.5,0.039673700928688,0.000115449256554712
541,-0.156362891197205,0.0513601824641228,-0.128052785992622,0.5,0.0471800453960896,0.0173457525670528
542,-0.126376688480377,0.058602150529623,-0.109523616731167,0.5,0.0777999460697174,0.0237829554826021
543,-0.107252359390259,0.0310824532061815,-0.105810835957527,0.5,0.102945409715176,-0.00182092690374702
544,-0.112708635628223,-0.048908669501543,-0.13723349571228,-0.169617414474487,0.0939122140407562,-0.0712281242012978
545,-0.117974199354649,-0.135677546262741,-0.174527063965797,-0.5,0.0695781260728836,-0.139349803328514
546,-0.0926540791988373,-0.156317815184593,-0.165930658578873,-0.5,0.0849767923355103,-0.140305325388908
547,-0.0444445982575417,-0.100295424461365,-0.100926898419857,-0.5,0.153753951191902,-0.0706850290298462
548,-0.000582263339310884,-0.0184928383678198,-0.0142863551154733,-0.5,0.234442681074142,0.0200014598667622
549,0.0312651284039021,0.0467425137758255,0.0593275465071201,-0.5,0.295948207378387,0.0907224863767624
550,0.0543309226632118,0.0819399952888489,0.10347243398428,-0.5,0.337822884321213,0.131174072623253
551,0.0641107484698296,0.0922900065779686,0.112573757767677,-0.5,0.354680359363556,0.14438197016716
552,0.0495264045894146,0.0824596211314201,0.0900777131319046,-0.5,0.32773095369339,0.131037637591362
553,0.0044079520739615,0.0480313114821911,0.047535315155983,-0.172002732753754,0.250291049480438,0.0967562198638916
554,-0.0630399659276009,-0.00666999397799373,-0.00167821499053389,0.5,0.142272517085075,0.0540069453418255
555,-0.130792513489723,-0.0736084580421448,-0.0428497008979321,0.5,0.0413806326687336,0.00936794560402632
556,-0.17311255633831,-0.139440044760704,-0.0599661059677601,0.5,-0.0195388030260801,-0.0315608903765678
557,-0.176969662308693,-0.181176066398621,-0.0520083159208298,0.5,-0.0359314754605293,-0.0609708242118359
558,-0.145818218588829,-0.187075778841972,-0.0363645516335964,0.5,-0.0226554051041603,-0.0718876197934151
559,-0.0959703773260117,-0.160091057419777,-0.0298493690788746,0.5,0.00383318378590047,-0.0642085373401642
560,-0.0600637122988701,-0.113406792283058,-0.0342669226229191,0.5,0.0279789287596941,-0.0515767335891724
561,-0.0636847242712975,-0.0636337623000145,-0.040857270359993,0.5,0.0445826835930347,-0.0479967407882214
562,-0.0955256521701813,-0.0285843349993229,-0.0538324005901814,0.5,0.0516328364610672,-0.065427377820015
563,-0.136875107884407,-0.0324399024248123,-0.0887008458375931,0.5,0.0344573631882668,-0.110488370060921
564,-0.179413244128227,-0.0815668851137161,-0.131573081016541,0.5,-0.00335911312140524,-0.155215412378311
565,-0.199468672275543,-0.141016855835915,-0.135842144489288,0.5,-0.0226253047585487,-0.155428394675255
566,-0.175298616290092,-0.165616720914841,-0.078029066324234,0.5,0.00335587095469236,-0.105549708008766
567,-0.113139919936657,-0.137912943959236,0.0135133322328329,0.5,0.0623183399438858,-0.0326072908937931
568,-0.0444478467106819,-0.0756562873721123,0.0934821218252182,0.5,0.119110465049744,0.0302438084036112
569,-0.00904480926692486,-0.0261614173650742,0.141100451350212,0.5,0.144237607717514,0.056054450571537
570,-0.0120973829180002,-0.0193278137594461,0.162020355463028,0.5,0.140534624457359,0.0517706014215946
571,-0.0183195974677801,-0.0357121080160141,0.170059144496918,0.5,0.132412806153297,0.049370814114809
572,-0.00844800565391779,-0.0444181002676487,0.170479759573936,0.5,0.128759354352951,0.0606579147279263
573,4.61804229416884E-05,-0.0375347062945366,0.157246172428131,0.5,0.115689806640148,0.068368636071682
574,-0.0125380232930183,-0.0258806943893433,0.132445096969604,0.5,0.0869528204202652,0.0511068478226662
575,-0.0473651997745037,-0.0205448474735022,0.108445756137371,0.5,0.0537738651037216,0.0081182699650526
576,-0.085411936044693,-0.0242160428315401,0.0898803249001503,0.5,0.0314619392156601,-0.0381664223968983
577,-0.0998184829950333,-0.0296061579138041,0.0711288452148438,0.5,0.0248741284012794,-0.0684056580066681
578,-0.0883166342973709,-0.0228777639567852,0.0417814254760742,0.5,0.0161002222448587,-0.0828961506485939
579,-0.0738733857870102,-0.00609563570469618,-0.00500655733048916,0.5,-0.0155717041343451,-0.0951763689517975
580,-0.0714743956923485,-0.0115610621869564,-0.0574917905032635,0.5,-0.0622093342244625,-0.123261772096157
581,-0.0796544253826141,-0.0643044114112854,-0.0897642001509666,0.5,-0.0948020815849304,-0.169856324791908
582,-0.092110887169838,-0.13379043340683,-0.0833670198917389,0.5,-0.0992059633135796,-0.211199551820755
583,-0.106009997427464,-0.168865203857422,-0.0385470800101757,0.5,-0.0846867263317108,-0.220442101359367
584,-0.116611339151859,-0.164244815707207,0.0274347793310881,0.5,-0.0571048595011234,-0.189972221851349
585,-0.11014823615551,-0.144034028053284,0.0926782265305519,0.5,-0.0163286570459604,-0.128267794847488
586,-0.0825160145759583,-0.11559596657753,0.141278505325317,0.5,0.0255644973367453,-0.0547524802386761
587,-0.0473201349377632,-0.0772843137383461,0.168830707669258,0.5,0.05494749173522,-0.00152587727643549
588,-0.0183803532272577,-0.0401894226670265,0.18218158185482,0.5,0.070208877325058,0.00664282962679863
589,-0.00645212922245264,-0.0213200524449348,0.177939742803574,0.5,0.0623874552547932,-0.0269472412765026
590,-0.0162095185369253,-0.0244545303285122,0.141628250479698,0.5,0.0165616050362587,-0.0761784017086029
591,-0.0358135104179382,-0.0283296052366495,0.0853933542966843,0.5,-0.0487953871488571,-0.103790834546089
592,-0.048564650118351,-0.00762913469225168,0.045622780919075,0.5,-0.0938072055578232,-0.0949422642588615
593,-0.0466823130846024,0.0303167086094618,0.0402836352586746,-0.5,-0.102112956345081,-0.0766834542155266
594,-0.0294745564460754,0.0568744726479054,0.0600075870752335,-0.5,-0.0782429501414299,-0.0757986456155777
595,-0.00096054159803316,0.0609327033162117,0.0911657214164734,-0.5,-0.0274406168609858,-0.0886353030800819
596,0.0305776670575142,0.0457011461257935,0.117362000048161,-0.5,0.0333804711699486,-0.106349647045136
597,0.0485707186162472,0.00842597708106041,0.110333755612373,-0.5,0.0578466318547726,-0.134404450654984
598,0.0308002252131701,-0.0481077171862125,0.0570635125041008,-0.5,0.0108469193801284,-0.179732471704483
599,-0.0232432745397091,-0.0986996218562126,-0.0128645095974207,-0.5,-0.0751507207751274,-0.23078328371048
600,-0.080485925078392,-0.11962354183197,-0.0529473908245564,-0.5,-0.137009173631668,-0.261016547679901
601,-0.112140670418739,-0.119167014956474,-0.0489709489047527,-0.5,-0.157167047262192,-0.259557545185089
602,-0.118757873773575,-0.112260937690735,-0.0197879336774349,-0.5,-0.157144248485565,-0.23176597058773
603,-0.112778782844543,-0.0961721688508987,0.0117501812055707,-0.5,-0.155037760734558,-0.189294189214706
604,-0.1070786267519,-0.0781222954392433,0.0229798294603825,-0.5,-0.161247313022614,-0.16773284971714
605,-0.107283219695091,-0.0826407745480537,0.00612722942605615,-0.5,-0.172869756817818,-0.195513114333153
606,-0.107977882027626,-0.113168351352215,-0.0191168375313282,-0.5,-0.172654271125793,-0.250600963830948
607,-0.111791245639324,-0.148904353380203,-0.0319187715649605,-0.5,-0.155892908573151,-0.292961001396179
608,-0.123956598341465,-0.172295808792114,-0.0252968855202198,-0.5,-0.131477564573288,-0.305987924337387
609,-0.1327243745327,-0.173527896404266,-0.00319328578189015,-0.5,-0.107383392751217,-0.292793571949005
610,-0.121165625751019,-0.15574024617672,0.0246971789747477,-0.5,-0.0913928225636482,-0.25666069984436
611,-0.0807602927088737,-0.131865128874779,0.0495913252234459,-0.5,-0.0840352177619934,-0.213337168097496
612,-0.0226973611861467,-0.108739532530308,0.0626813247799873,-0.5,-0.082740843296051,-0.195317074656487
613,0.0205768961459398,-0.0885760188102722,0.0644508525729179,-0.5,-0.0892340689897537,-0.207059919834137
614,0.0265841353684664,-0.0728029683232307,0.0664747282862663,-0.5,-0.0995042026042938,-0.219377398490906
615,0.00493381498381495,-0.057735051959753,0.0736211314797401,-0.5,-0.103992454707623,-0.211931228637695
616,-0.0246693026274443,-0.0479767583310604,0.0724452957510948,-0.5,-0.106183238327503,-0.207012414932251
617,-0.0609686151146889,-0.0663877204060555,0.0427625514566898,-0.5,-0.123293988406658,-0.247685074806213
618,-0.103026315569878,-0.11296122521162,-0.0108623187988997,-0.5,-0.153771176934242,-0.331282764673233
619,-0.127638608217239,-0.150192618370056,-0.0545758157968521,-0.5,-0.172559127211571,-0.410539597272873
620,-0.122226268053055,-0.159112378954887,-0.0634015873074532,0.432447731494904,-0.167294844985008,-0.44798269867897
621,-0.101941876113415,-0.155253231525421,-0.0434249080717564,0.5,-0.146250128746033,-0.436645358800888
622,-0.0788317620754242,-0.155771151185036,-0.018101878464222,0.5,-0.12187759578228,-0.396281331777573
623,-0.0596430189907551,-0.165935128927231,-0.00800021458417177,0.5,-0.106461949646473,-0.361493051052094
624,-0.0565839372575283,-0.181016892194748,-0.0231962315738201,0.5,-0.109518833458424,-0.36010155081749
625,-0.0786382034420967,-0.199189573526382,-0.0710773766040802,0.5,-0.146237552165985,-0.397978574037552
626,-0.127126514911652,-0.227642253041267,-0.142628341913223,0.5,-0.223645910620689,-0.455646574497223
627,-0.185554027557373,-0.261082202196121,-0.197703063488007,0.5,-0.306470066308975,-0.495092183351517
628,-0.223581239581108,-0.273198813199997,-0.200798660516739,0.5,-0.345421403646469,-0.486243963241577
629,-0.223079010844231,-0.247593879699707,-0.151791870594025,0.5,-0.325551062822342,-0.430394262075424
630,-0.189849629998207,-0.197538629174232,-0.0753606110811234,0.5,-0.267371088266373,-0.357169538736343
631,-0.149208411574364,-0.152924567461014,-0.00909911748021841,0.5,-0.208422288298607,-0.308818876743317
632,-0.124324202537537,-0.136338114738464,0.0187829192727804,0.5,-0.175148099660873,-0.312002599239349
633,-0.113785177469254,-0.140273153781891,0.0145445363596082,0.5,-0.161721050739288,-0.351641803979874
634,-0.104070663452148,-0.141522690653801,-0.00205294555053115,0.5,-0.148392781615257,-0.392525374889374
635,-0.089549221098423,-0.134816199541092,-0.0266287196427584,0.5,-0.125794902443886,-0.420744031667709
636,-0.0721591114997864,-0.128531932830811,-0.06157536059618,0.5,-0.101179920136929,-0.442120879888535
637,-0.0550082810223103,-0.126508772373199,-0.0917862355709076,0.5,-0.0900451019406319,-0.457645773887634
638,-0.0343865677714348,-0.128463864326477,-0.0874589756131172,0.5,-0.0925390869379044,-0.457404255867004
639,-0.00982619449496269,-0.12811541557312,-0.0435074716806412,0.5,-0.0975196957588196,-0.433109015226364
640,0.00267748604528606,-0.113934569060802,0.00591784901916981,0.5,-0.107284553349018,-0.389325231313705
641,-0.00791229400783777,-0.0848622024059296,0.0273771770298481,0.5,-0.128467306494713,-0.345528125762939
642,-0.0281048994511366,-0.0538094118237495,0.0276627577841282,0.5,-0.144582509994507,-0.320542812347412
643,-0.0360609069466591,-0.0350521989166737,0.0334249958395958,0.5,-0.131595358252525,-0.319573402404785
644,-0.0297433380037546,-0.0350704453885555,0.048449445515871,0.5,-0.0997061133384705,-0.342313379049301
645,-0.0264700911939144,-0.0423633567988873,0.0579590946435928,0.5,-0.0780929923057556,-0.372544914484024
646,-0.0359871312975883,-0.0421063005924225,0.0474219545722008,0.5,-0.078021302819252,-0.381289958953857
647,-0.0500401072204113,-0.0442178808152676,0.0132835414260626,0.5,-0.0876460820436478,-0.369258522987366
648,-0.0539907887578011,-0.0651002153754234,-0.0309538096189499,0.5,-0.0896341279149055,-0.372391939163208
649,-0.0457641966640949,-0.104330390691757,-0.068314716219902,0.5,-0.0951201692223549,-0.407798498868942
650,-0.0397401824593544,-0.149988427758217,-0.082926906645298,0.5,-0.123919665813446,-0.447176605463028
651,-0.0405753143131733,-0.181323319673538,-0.0634996071457863,0.5,-0.159358501434326,-0.457853496074677
652,-0.0401934087276459,-0.176447093486786,-0.0232267733663321,0.5,-0.17428494989872,-0.436009168624878
653,-0.0420934967696667,-0.137384563684464,0.00680813007056713,0.5,-0.170779466629028,-0.40502467751503
654,-0.0510549210011959,-0.0978987291455269,0.0123715540394187,0.5,-0.163782984018326,-0.393563449382782
655,-0.0535548627376556,-0.0845740884542465,0.00983808096498251,0.5,-0.151065528392792,-0.40258976817131
656,-0.0376190431416035,-0.0916581749916077,0.0170695446431637,0.5,-0.125179335474968,-0.411142826080322
657,-0.0124088386073709,-0.1075743958354,0.0265345219522715,0.5,-0.0979004576802254,-0.414704442024231
658,0.0103774527087808,-0.124639078974724,0.0263665858656168,0.5,-0.0856131985783577,-0.419613987207413
659,0.0315618626773357,-0.132265821099281,0.0199940353631973,0.5,-0.0855009034276009,-0.42116904258728
660,0.0490242429077625,-0.123260095715523,0.0101364878937602,0.5,-0.0880627855658531,-0.422946125268936
661,0.0518914312124252,-0.0915518626570702,-0.00206473236903548,0.5,-0.0931359529495239,-0.432246416807175
662,0.044502254575491,-0.0375538058578968,-0.00190553476568311,0.5,-0.0931335538625717,-0.433674931526184
663,0.0445254109799862,0.017776669934392,0.0182567127048969,0.5,-0.079170323908329,-0.412326872348785
664,0.0493146516382694,0.0466976054012775,0.0382007211446762,0.5,-0.0659836232662201,-0.381027907133102
665,0.0431637354195118,0.0420317426323891,0.0401742272078991,0.5,-0.0662922710180283,-0.356052726507187
666,0.0316153541207314,0.0177976805716753,0.0337643027305603,0.5,-0.0669000595808029,-0.334633022546768
667,0.0306880753487349,-0.0129017038270831,0.0324649251997471,-0.0797779634594917,-0.0573543794453144,-0.325935959815979
668,0.0398433394730091,-0.0478509031236172,0.0333240441977978,-0.5,-0.0461444444954395,-0.355488836765289
669,0.0485766306519508,-0.0791186839342117,0.028894230723381,-0.5,-0.0392046831548214,-0.412932068109512
670,0.0476577430963516,-0.0958624631166458,0.0174728017300367,-0.5,-0.036100260913372,-0.461032092571259
671,0.0343205854296684,-0.104355424642563,0.00214772834442556,-0.5,-0.0387680344283581,-0.487439543008804
672,0.0155002502724528,-0.109464660286903,-0.0140143828466535,-0.5,-0.0498112738132477,-0.5
673,-0.000747413840144873,-0.108297862112522,-0.0320421047508717,-0.5,-0.0777410566806793,-0.5
674,-0.0142317023128271,-0.113663502037525,-0.0498839467763901,-0.5,-0.128879070281982,-0.5
675,-0.0275227222591639,-0.136327400803566,-0.0586955845355988,-0.5,-0.188039690256119,-0.5
676,-0.0365367718040943,-0.1595798432827,-0.0509755685925484,-0.5,-0.224405780434608,-0.5
677,-0.0371524728834629,-0.160510703921318,-0.0284574646502733,0.057854238897562,-0.219134718179703,-0.465679049491882
678,-0.0354889035224915,-0.137285068631172,-0.00921499915421009,0.5,-0.188943803310394,-0.426334470510483
679,-0.044548224657774,-0.114184819161892,-0.0203380640596151,0.5,-0.175104707479477,-0.444177955389023
680,-0.0735325291752815,-0.121245495975018,-0.0721955597400665,0.5,-0.204030051827431,-0.5
681,-0.111059956252575,-0.153506860136986,-0.142727136611938,0.5,-0.260887771844864,-0.5
682,-0.129708841443062,-0.179003581404686,-0.188861429691315,0.5,-0.304138481616974,-0.5
683,-0.11635484546423,-0.18262030184269,-0.180659428238869,0.5,-0.304679155349731,-0.5
684,-0.0797988921403885,-0.171476393938065,-0.125634387135506,0.5,-0.265058875083923,-0.5
685,-0.0351555719971657,-0.156254455447197,-0.0542209409177303,0.5,-0.205710366368294,-0.5
686,0.00829414371401072,-0.134293675422668,0.00924840103834867,0.5,-0.142531290650368,-0.5
687,0.0437781848013401,-0.101337313652039,0.0493894480168819,0.5,-0.0901905447244644,-0.457510441541672
688,0.0610516257584095,-0.0743477344512939,0.0553628169000149,0.5,-0.0679329186677933,-0.429485023021698
689,0.0609154030680656,-0.066886693239212,0.0346514172852039,0.5,-0.0749413967132568,-0.440675884485245
690,0.0600438788533211,-0.0680846720933914,0.0103215435519814,0.5,-0.0839214622974396,-0.477675437927246
691,0.0592637732625008,-0.0731016919016838,-0.0099559286609292,0.5,-0.0826020166277885,-0.5
692,0.0427981987595558,-0.0849819555878639,-0.0325478725135326,0.5,-0.0868158936500549,-0.5
693,0.0119896028190851,-0.0939585343003273,-0.0512243323028088,0.5,-0.106048494577408,-0.5
694,-0.0191107578575611,-0.0961776077747345,-0.0577535554766655,0.5,-0.132046654820442,-0.5
695,-0.0419523753225803,-0.0985219180583954,-0.0579943470656872,0.5,-0.152447640895844,-0.5
696,-0.0515313148498535,-0.0998905375599861,-0.0586191229522228,0.5,-0.162664636969566,-0.497244089841843
697,-0.0442974120378494,-0.0940175801515579,-0.0569477193057537,0.5,-0.16594061255455,-0.483895748853683
698,-0.0302467662841082,-0.0827547386288643,-0.055126741528511,0.5,-0.168356239795685,-0.4825259745121
699,-0.0302567016333342,-0.0722860917448998,-0.0663091689348221,0.5,-0.178987637162209,-0.48381832242012
700,-0.0495896227657795,-0.0654849782586098,-0.0946751534938812,0.5,-0.200452923774719,-0.5
701,-0.0659618377685547,-0.0710046961903572,-0.122724026441574,0.5,-0.217139914631844,-0.5
702,-0.054747823625803,-0.0973736792802811,-0.12960596382618,0.5,-0.209135919809341,-0.5
703,-0.0168264396488667,-0.135740324854851,-0.112139955163002,0.5,-0.175268694758415,-0.5
704,0.0284891948103905,-0.16108749806881,-0.0772857666015625,0.5,-0.129111558198929,-0.5
705,0.0597352795302868,-0.151360079646111,-0.039246704429388,0.5,-0.0879962742328644,-0.5
706,0.0669160112738609,-0.111433997750282,-0.0212629232555628,0.5,-0.066314585506916,-0.5
707,0.0499005205929279,-0.0759606957435608,-0.0375448279082775,0.5,-0.0712761506438255,-0.5
708,0.0136402677744627,-0.0801484137773514,-0.077038899064064,0.5,-0.102553240954876,-0.5
709,-0.0188598204404116,-0.119707703590393,-0.103969380259514,0.5,-0.139100059866905,-0.5
710,-0.027157062664628,-0.157831981778145,-0.0943946018815041,0.5,-0.153275966644287,-0.5
711,-0.020608926191926,-0.164804935455322,-0.0631895214319229,0.5,-0.142778471112251,-0.49211797118187
712,-0.0186310298740864,-0.143291935324669,-0.0391789190471172,0.5,-0.12757670879364,-0.451964497566223
713,-0.0241787973791361,-0.123709723353386,-0.0348533093929291,0.5,-0.122164756059647,-0.454408913850784
714,-0.0263436064124107,-0.12372675538063,-0.0398842506110668,0.5,-0.116413079202175,-0.499064147472382
715,-0.0197901148349047,-0.135006874799728,-0.0410354882478714,0.5,-0.0976127982139587,-0.5
716,-0.00917001441121101,-0.142995148897171,-0.0377722904086113,0.5,-0.0736596286296844,-0.5
717,-0.00113718025386333,-0.141124561429024,-0.0369724445044994,0.5,-0.0613316372036934,-0.5
718,0.000776980130467564,-0.135730937123299,-0.0411390140652657,0.5,-0.068776436150074,-0.5
719,0.00334376003593206,-0.129707917571068,-0.0425529703497887,0.5,-0.0884449407458305,-0.5
720,0.0186472982168198,-0.123001582920551,-0.0325826965272427,0.5,-0.101195864379406,-0.5
721,0.0484274514019489,-0.116976097226143,-0.0106090726330876,0.5,-0.0902804881334305,-0.5
722,0.0742282941937447,-0.103430904448032,0.0084553100168705,0.5,-0.0705980211496353,-0.485475391149521
723,0.0731034576892853,-0.0816541165113449,0.00685271713882685,0.5,-0.0767142772674561,-0.463780969381332
724,0.053147666156292,-0.0635791197419167,-0.00851260684430599,0.5,-0.105136044323444,-0.472447872161865
725,0.0463675148785114,-0.0514794215559959,-0.0168796572834253,0.5,-0.117286518216133,-0.485820680856705
726,0.0659170150756836,-0.0408830083906651,-0.0183060429990292,0.25584414601326,-0.0945558622479439,-0.487743616104126
727,0.0901710838079453,-0.0418775342404842,-0.0331937558948994,-0.0432492420077324,-0.0605414696037769,-0.496549010276794
728,0.0899235531687737,-0.0688975974917412,-0.0643905699253082,-0.301014870405197,-0.0503632202744484,-0.5
729,0.0607896819710732,-0.120512865483761,-0.0902883410453796,-0.5,-0.0750527381896973,-0.5
730,0.0215146988630295,-0.178270742297173,-0.0946902483701706,-0.5,-0.114249095320702,-0.5
731,-0.000451357249403372,-0.214888140559196,-0.0805199071764946,-0.5,-0.134921953082085,-0.5
732,0.0102444589138031,-0.215127483010292,-0.0611665584146976,-0.5,-0.125976294279099,-0.5
733,0.0348361358046532,-0.167800739407539,-0.0448992662131786,-0.5,-0.104450069367886,-0.5
734,0.0381326302886009,-0.0743392258882523,-0.0375753678381443,-0.5,-0.0961027443408966,-0.5
735,0.00321175972931087,0.00353990215808153,-0.0483856275677681,-0.5,-0.118493214249611,-0.5
736,-0.0497724935412407,-0.00137220183387399,-0.068191185593605,-0.5,-0.157892689108849,-0.5
737,-0.0762476697564125,-0.0629022121429443,-0.072597861289978,-0.5,-0.175366342067719,-0.5
738,-0.0566810332238674,-0.106738321483135,-0.0568607077002525,-0.190389648079872,-0.151418507099152,-0.5
739,-0.0125211076810956,-0.111789464950562,-0.0378805063664913,0.0880956202745438,-0.10583183914423,-0.47387358546257
740,0.0279939528554678,-0.108945563435555,-0.0316892117261887,0.105275370180607,-0.0731513351202011,-0.442428857088089
741,0.0516482219099998,-0.126114785671234,-0.0436429493129253,-0.161946430802345,-0.0714449435472488,-0.451006501913071
742,0.0641676262021065,-0.161401018500328,-0.0683591887354851,-0.5,-0.0965564399957657,-0.49387863278389
743,0.0781485065817833,-0.196064203977585,-0.0997950658202171,-0.5,-0.134611681103706,-0.5
744,0.090359628200531,-0.209134116768837,-0.136871665716171,-0.5,-0.172394528985024,-0.5
745,0.0886296853423119,-0.183776617050171,-0.173681885004044,-0.5,-0.200924515724182,-0.5
746,0.0760420486330986,-0.125299543142319,-0.196746975183487,-0.5,-0.213874846696854,-0.5
747,0.0696679949760437,-0.0595328100025654,-0.192386776208878,-0.5,-0.208488509058952,-0.5
748,0.0796601176261902,-0.0100481463596225,-0.168378427624702,-0.5,-0.195080325007439,-0.5
749,0.0971333757042885,0.017696401104331,-0.155554056167603,-0.5,-0.193827167153358,-0.5
750,0.103378020226955,0.0189354680478573,-0.172906681895256,-0.5,-0.216836243867874,-0.5
751,0.0894330367445946,-0.0227112360298634,-0.215929314494133,-0.5,-0.262007534503937,-0.5
752,0.0595844872295856,-0.088599681854248,-0.266685575246811,-0.5,-0.312097102403641,-0.5
753,0.0298834815621376,-0.134992673993111,-0.300411850214005,-0.5,-0.340691655874252,-0.5
754,0.0187777113169432,-0.157090038061142,-0.30317896604538,-0.5,-0.338188409805298,-0.5
755,0.0228306464850903,-0.166080608963966,-0.277007550001144,-0.5,-0.314744651317596,-0.5
756,0.0237801391631365,-0.15541984140873,-0.228289604187012,-0.5,-0.276874899864197,-0.5
757,0.0171458944678307,-0.12415174394846,-0.178500905632973,-0.5,-0.23922635614872,-0.5
758,0.0144997630268335,-0.0827053338289261,-0.156752303242683,-0.5,-0.226980477571487,-0.5
759,0.0198614709079266,-0.0368681289255619,-0.170835077762604,-0.5,-0.243760570883751,-0.478916466236115
760,0.0232191756367683,-0.00281281140632927,-0.214589819312096,-0.5,-0.28238120675087,-0.490319758653641
761,0.0259134080260992,-0.00428704405203462,-0.266382604837418,-0.5,-0.335145771503448,-0.5
762,0.0379616841673851,-0.0328862108290195,-0.288429230451584,-0.5,-0.375395178794861,-0.5
763,0.0539118759334087,-0.0594353638589382,-0.27099934220314,-0.5,-0.380522012710571,-0.5
764,0.0632049962878227,-0.0742440596222878,-0.238373219966888,-0.5,-0.355352014303207,-0.5
765,0.0640387982130051,-0.0842695683240891,-0.213293984532356,-0.5,-0.319067001342773,-0.5
766,0.0622920095920563,-0.0896000191569328,-0.200146377086639,-0.5,-0.287126153707504,-0.5
767,0.0663828402757645,-0.0838920027017593,-0.187731355428696,-0.5,-0.26373478770256,-0.5
768,0.0736544728279114,-0.0738871470093727,-0.174521639943123,-0.5,-0.254726648330688,-0.5
769,0.0757395476102829,-0.0760283470153809,-0.171564921736717,-0.5,-0.262193828821182,-0.5
770,0.0747356787323952,-0.0901069194078445,-0.175987809896469,-0.5,-0.2668077647686,-0.5
771,0.0734833106398582,-0.10014870017767,-0.176813572645187,-0.5,-0.253787219524384,-0.5
772,0.0686023756861687,-0.0898328274488449,-0.174623638391495,-0.5,-0.234928220510483,-0.498272210359573
773,0.0615239106118679,-0.0538931749761105,-0.178977429866791,-0.5,-0.22537562251091,-0.443399369716644
774,0.0563015639781952,-0.019645718857646,-0.193429917097092,-0.5,-0.21987085044384,-0.401832163333893
775,0.049454502761364,-0.0189473126083612,-0.208796039223671,-0.5,-0.208965584635735,-0.41996642947197
776,0.0311636719852686,-0.0401635579764843,-0.218659445643425,-0.5,-0.206733852624893,-0.48944953083992
777,0.00042683442006819,-0.0621327571570873,-0.226548850536346,-0.5,-0.225117012858391,-0.5
778,-0.0214717499911785,-0.0911081209778786,-0.223494589328766,-0.5,-0.23705068230629,-0.5
779,-0.00609215814620256,-0.125615283846855,-0.190131545066834,-0.5,-0.211517527699471,-0.5
780,0.0450775176286697,-0.152445867657661,-0.136774554848671,-0.5,-0.16765259206295,-0.5
781,0.0963741764426231,-0.172086343169212,-0.0928947627544403,-0.5,-0.141509130597115,-0.5
782,0.126820623874664,-0.175237163901329,-0.0618820115923882,-0.5,-0.125737681984901,-0.5
783,0.144122838973999,-0.155268833041191,-0.0356229245662689,-0.5,-0.103020049631596,-0.47412383556366
784,0.151117607951164,-0.136822178959847,-0.022706214338541,-0.5,-0.0908703207969666,-0.405344396829605
785,0.142845898866653,-0.131521537899971,-0.0248897615820169,-0.5,-0.0984783172607422,-0.366615176200867
786,0.121793933212757,-0.124688260257244,-0.022980660200119,-0.5,-0.100851215422153,-0.354195982217789
787,0.0963841378688812,-0.112844116985798,-0.00877771526575089,-0.5,-0.0865837410092354,-0.348327219486237
788,0.0719031542539597,-0.100661918520927,-0.000848048191983253,-0.5,-0.0765656679868698,-0.330369800329208
789,0.0434611551463604,-0.091648556292057,-0.0166119784116745,0.5,-0.0901635140180588,-0.306616991758347
790,0.00092057726578787,-0.0941119864583015,-0.0494308918714523,0.5,-0.126581385731697,-0.301443219184875
791,-0.0529433451592922,-0.110412672162056,-0.0832078456878662,0.5,-0.171630412340164,-0.321271270513535
792,-0.0977785363793373,-0.133387014269829,-0.105568334460258,0.5,-0.202083483338356,-0.356016874313354
793,-0.108183011412621,-0.151909992098808,-0.10451403260231,0.5,-0.196835547685623,-0.382808387279511
794,-0.0729395821690559,-0.145451694726944,-0.0791737362742424,0.5,-0.154615834355354,-0.380011260509491
795,-0.00876065902411938,-0.117835871875286,-0.0427912585437298,0.5,-0.0875880643725395,-0.363572090864182
796,0.0511330813169479,-0.118326984345913,-0.00850443262606859,0.5,-0.0146598517894745,-0.364469885826111
797,0.0878219678997993,-0.167412459850311,0.0161810256540775,0.5,0.0356151647865772,-0.386464774608612
798,0.104798406362534,-0.223071336746216,0.0326868668198586,0.5,0.0476941764354706,-0.405417650938034
799,0.102463960647583,-0.241448014974594,0.0517760552465916,0.5,0.0361582525074482,-0.388889044523239
800,0.0761114954948425,-0.216326043009758,0.0759519785642624,0.5,0.0174760278314352,-0.337743699550629
801,0.0392111763358116,-0.177039980888367,0.0926550030708313,0.5,-0.00690517714247108,-0.293807536363602
802,0.0205104537308216,-0.15529990196228,0.102878771722317,0.5,-0.0234682355076075,-0.273340731859207
803,0.0349089913070202,-0.148018956184387,0.126253336668015,0.5,-0.00873793661594391,-0.246268883347511
804,0.069363184273243,-0.132099062204361,0.166924089193344,0.5,0.0370045602321625,-0.190123781561852
805,0.101546496152878,-0.0967569947242737,0.20394791662693,0.5,0.0895375236868858,-0.121923692524433
806,0.120254069566727,-0.0536370128393173,0.212708324193954,0.5,0.12522679567337,-0.0817066952586174
807,0.123768128454685,-0.0134951043874025,0.18401987850666,0.5,0.13098618388176,-0.0829986482858658
808,0.113690331578255,0.0258916523307562,0.131629586219788,0.5,0.107131525874138,-0.0991620868444443
809,0.0970395728945732,0.0446440167725086,0.0865365713834763,0.5,0.0745276212692261,-0.113405212759972
810,0.0807404220104218,0.00593216251581907,0.0711045116186142,0.5,0.0529814250767231,-0.136505872011185
811,0.0663417875766754,-0.0846364721655846,0.0842373222112656,0.348688960075378,0.0416915938258171,-0.167378827929497
812,0.0547390803694725,-0.173803627490997,0.114719621837139,0.312391668558121,0.0368911251425743,-0.184227660298347
813,0.0443432554602623,-0.217345476150513,0.14786072075367,0.5,0.0383504703640938,-0.178360491991043
814,0.0313164368271828,-0.215856119990349,0.167408406734467,0.5,0.0418170914053917,-0.169325426220894
815,0.0201999600976706,-0.198891445994377,0.167205810546875,0.5,0.0439001582562923,-0.176686853170395
816,0.0219715442508459,-0.184487625956535,0.158903107047081,0.5,0.0496387779712677,-0.188163638114929
817,0.0370893813669682,-0.175953224301338,0.158497035503387,0.5,0.0634980425238609,-0.180992022156715
818,0.0559029094874859,-0.172491699457169,0.169778227806091,0.5,0.0826357454061508,-0.152486607432365
819,0.0718734338879585,-0.161954894661903,0.186197400093079,0.5,0.102780722081661,-0.114740535616875
820,0.0827369093894959,-0.135900482535362,0.192321226000786,0.5,0.117076627910137,-0.0897099822759628
821,0.0869985893368721,-0.101921655237675,0.171353802084923,0.5,0.119114324450493,-0.0983450338244438
822,0.0885727480053902,-0.0721175000071526,0.127399295568466,0.5,0.110563993453979,-0.132703006267548
823,0.0971507057547569,-0.0601346306502819,0.0873295292258263,0.5,0.097021147608757,-0.15860316157341
824,0.110331401228905,-0.0796078070998192,0.0705074742436409,0.5,0.0773041918873787,-0.158584207296371
825,0.114648431539536,-0.119617059826851,0.0796874985098839,-0.0538562759757042,0.0544139817357063,-0.144565910100937
826,0.112202391028404,-0.142370045185089,0.11795936524868,-0.5,0.0496370196342468,-0.128960862755775
827,0.11587356030941,-0.129533439874649,0.179244518280029,-0.5,0.0758020207285881,-0.108114771544933
828,0.124261923134327,-0.0924656614661217,0.236785262823105,-0.5,0.11305720359087,-0.0698624700307846
829,0.1250229626894,-0.0429593287408352,0.263379633426666,-0.5,0.130193307995796,-0.0227363612502813
830,0.113857619464397,-0.00843147840350866,0.255405902862549,-0.5,0.11834729462862,0.000225367228267714
831,0.096905529499054,-0.0248787440359592,0.228151068091393,-0.5,0.0924423336982727,-0.0180100798606873
832,0.0855534449219704,-0.0833598002791405,0.201552182435989,-0.5,0.0754714161157608,-0.0592908561229706
833,0.092432901263237,-0.142460092902184,0.191541850566864,-0.5,0.0903092250227928,-0.0914934426546097
834,0.114622615277767,-0.176090732216835,0.198667272925377,-0.5,0.136145487427711,-0.0977690443396568
835,0.133805751800537,-0.180992096662521,0.211936488747597,-0.5,0.178764015436172,-0.0830088555812836
836,0.138625010848045,-0.165431529283524,0.221620634198189,-0.5,0.190607339143753,-0.0557829700410366
837,0.129209503531456,-0.129441976547241,0.226280599832535,-0.5,0.177863985300064,-0.0178830325603485
838,0.110632337629795,-0.07122902572155,0.223922297358513,-0.5,0.153404295444489,0.0221417788416147
839,0.0926976501941681,-0.0129198934882879,0.205094248056412,-0.5,0.119696967303753,0.0422172099351883
840,0.0826902836561203,0.0225717779248953,0.172880902886391,-0.5,0.0843444466590881,0.030606297776103
841,0.0771978870034218,0.023543581366539,0.143223062157631,-0.5,0.056769322603941,-0.00514849647879601
842,0.0724050551652908,-0.0183157976716757,0.119336552917957,-0.5,0.0401257537305355,-0.0570046715438366
843,0.0785465091466904,-0.0832273066043854,0.101440504193306,-0.5,0.045933585613966,-0.108564518392086
844,0.107401482760906,-0.139215439558029,0.100784473121166,-0.5,0.0790279358625412,-0.135081738233566
845,0.137880697846413,-0.183396026492119,0.113261193037033,-0.5,0.103921361267567,-0.141210705041885
846,0.135370388627052,-0.223650097846985,0.121521785855293,-0.5,0.0853973552584648,-0.150520399212837
847,0.105507612228394,-0.242278978228569,0.125570505857468,-0.5,0.0436299555003643,-0.159895792603493
848,0.0781983509659767,-0.217354670166969,0.131111979484558,-0.5,0.0191662479192019,-0.149442464113235
849,0.0629990175366402,-0.167094528675079,0.128881543874741,-0.5,0.0167217161506414,-0.126964911818504
850,0.0490069352090359,-0.142860740423203,0.0999457389116287,-0.5,0.00691227894276381,-0.134855702519417
851,0.0297155939042568,-0.174680352210999,0.0445486195385456,-0.5,-0.0211109984666109,-0.188681349158287
852,0.0109830293804407,-0.228621602058411,0.00236152764409781,-0.5,-0.0361184924840927,-0.23543019592762
853,-0.00455038947984576,-0.241665929555893,0.000985383288934827,-0.5,-0.0257845111191273,-0.226462721824646
854,-0.0235677119344473,-0.189871430397034,0.0180039741098881,-0.5,-0.0225911103188992,-0.180137395858765
855,-0.0446897968649864,-0.10555174946785,0.0336994454264641,-0.5,-0.0398428738117218,-0.133599504828453
856,-0.0483421459794044,-0.0410959869623184,0.0606181435286999,-0.5,-0.0476345047354698,-0.100913539528847
857,-0.0216139871627092,-0.0205031000077724,0.105388686060905,-0.5,-0.0233921967446804,-0.0818901285529137
858,0.0234618708491325,-0.0388442911207676,0.153860867023468,-0.5,0.0242145285010338,-0.0702246353030205
859,0.0675454288721085,-0.0797065123915672,0.191517248749733,-0.5,0.0761160627007484,-0.0605805926024914
860,0.0955522805452347,-0.124679088592529,0.207169577479362,-0.5,0.112769842147827,-0.0575569234788418
861,0.10161941498518,-0.166015118360519,0.194402173161507,-0.5,0.124935396015644,-0.067157581448555
862,0.0964889526367188,-0.197336450219154,0.156335487961769,-0.5,0.11912477761507,-0.083659365773201
863,0.0931468158960342,-0.209483802318573,0.10390393435955,-0.5,0.0991630777716637,-0.0980088114738464
864,0.093265488743782,-0.20032374560833,0.0613113790750504,-0.5,0.0695887207984924,-0.107074812054634
865,0.0994383841753006,-0.174526110291481,0.058043222874403,-0.5,0.0543311312794685,-0.106740012764931
866,0.113227754831314,-0.140566349029541,0.0938232392072678,-0.5,0.0702916905283928,-0.0972128361463547
867,0.119420118629932,-0.109306618571281,0.133084043860435,-0.5,0.0998016893863678,-0.0920568853616714
868,0.106832109391689,-0.0883127450942993,0.151508122682571,-0.5,0.122811548411846,-0.0936277732253075
869,0.0866029933094978,-0.0771487876772881,0.149191990494728,-0.5,0.134530365467072,-0.0904111266136169
870,0.0714302286505699,-0.0757792890071869,0.124202340841293,-0.5,0.121786050498486,-0.0934840515255928
871,0.0586213693022728,-0.091443307697773,0.0773980543017387,-0.5,0.0743325650691986,-0.124896146357059
872,0.0388253703713417,-0.118751414120197,0.0275151543319225,-0.5,0.0146135902032256,-0.167821258306503
873,0.0146172633394599,-0.131532251834869,-0.002933758078143,-0.143092826008797,-0.020092835649848,-0.178842544555664
874,0.00118467397987843,-0.118214927613735,-0.0083566065877676,0.5,-0.0155779924243689,-0.148858174681664
875,0.00524745788425207,-0.100265003740788,-0.00238468870520592,0.5,0.00651150941848755,-0.116517350077629
876,0.013131438754499,-0.1050214022398,-0.00153008685447276,0.5,0.0100099761039019,-0.119660750031471
877,0.0156574081629515,-0.134782135486603,-0.0027462427970022,0.5,-0.00694639561697841,-0.147608295083046
878,0.0237448159605265,-0.166575491428375,0.00972659699618816,0.5,-0.0114402323961258,-0.157280370593071
879,0.0452981144189835,-0.182819843292236,0.035974059253931,0.5,0.00824967492371798,-0.131182372570038
880,0.0720406025648117,-0.183761671185493,0.061578955501318,0.5,0.0353746451437473,-0.092811293900013
881,0.0826677829027176,-0.164074242115021,0.0762709304690361,0.5,0.0571645796298981,-0.0685531720519066
882,0.065833792090416,-0.122999101877213,0.0794402658939362,0.5,0.0712038800120354,-0.065081499516964
883,0.0387325324118137,-0.0821472555398941,0.0798315778374672,0.5,0.0772269889712334,-0.0718430653214455
884,0.0248529296368361,-0.0475107841193676,0.0914282128214836,0.5,0.0797503665089607,-0.063767746090889
885,0.0304380916059017,-0.0086938189342618,0.121012002229691,0.5,0.0891764611005783,-0.0323160216212273
886,0.0456724092364311,0.0263914838433266,0.159627050161362,0.5,0.109830319881439,-0.000979110947810113
887,0.0541686229407787,0.0463350936770439,0.179612666368485,0.5,0.130769208073616,0.00728490622714162
888,0.0450247563421726,0.0491505116224289,0.150417059659958,0.5,0.13658107817173,-0.0155413802713156
889,0.0274872053414583,0.0213584937155247,0.0841581895947456,0.307266175746918,0.131429463624954,-0.0647453814744949
890,0.0256361700594425,-0.0482216328382492,0.029783496633172,0.000638656551018357,0.132622271776199,-0.122099541127682
891,0.0480332635343075,-0.133407846093178,0.00968148279935122,0.0234342943876982,0.133888810873032,-0.167213588953018
892,0.0695617496967316,-0.190157726407051,0.00760516617447138,0.246597453951836,0.105660885572433,-0.187728121876717
893,0.0630446299910545,-0.195303231477737,0.00882482808083296,0.5,0.0445229150354862,-0.187020972371101
894,0.037958387285471,-0.160574316978455,0.019308814778924,0.5,-0.0122677776962519,-0.178451716899872
895,0.0204436108469963,-0.122442871332169,0.047365315258503,0.5,-0.0320808552205563,-0.164690315723419
896,0.0178738422691822,-0.109693050384521,0.0853903219103813,0.5,-0.0170753393322229,-0.143085107207298
897,0.0247267466038466,-0.11927192658186,0.119534142315388,0.5,0.0139443734660745,-0.119306810200214
898,0.0401290133595467,-0.128362014889717,0.144053563475609,0.5,0.0508852116763592,-0.0997493639588356
899,0.0669421479105949,-0.116919957101345,0.161104634404182,0.5,0.0941695123910904,-0.0792603120207787
900,0.103757567703724,-0.0849881023168564,0.170354470610619,0.5,0.141199037432671,-0.0470541715621948
901,0.133723869919777,-0.0573241971433163,0.16163794696331,0.5,0.173011839389801,-0.00573842786252499
902,0.132303386926651,-0.0518580451607704,0.127199918031693,0.5,0.165745198726654,0.0220085121691227
903,0.0981355011463165,-0.0590871535241604,0.0675272196531296,0.5,0.112390942871571,0.00516651012003422
904,0.0529776886105537,-0.0667770802974701,-0.0104330293834209,0.5,0.0305543579161167,-0.0630874484777451
905,0.0153118930757046,-0.0712722539901733,-0.0783772394061089,0.40839558839798,-0.0375078730285168,-0.139601960778236
906,-0.00502558844164014,-0.0586158223450184,-0.0921861827373505,0.0351246930658817,-0.0519512929022312,-0.165518134832382
907,-0.00383773678913713,-0.0244964770972729,-0.0319017134606838,-0.5,-0.00689435051754117,-0.12517811357975
908,0.0156199671328068,0.00946412608027458,0.0747802406549454,-0.5,0.073411300778389,-0.0452096313238144
909,0.0485317669808865,0.0306199882179499,0.172861650586128,-0.5,0.149032235145569,0.0356616117060184
910,0.0887299627065659,0.0384816192090511,0.225491911172867,-0.5,0.19060130417347,0.0840278491377831
911,0.126203328371048,0.0320289805531502,0.23851577937603,-0.5,0.204360976815224,0.0880807489156723
912,0.154129892587662,0.020263385027647,0.234730899333954,-0.5,0.208614528179169,0.0610774867236614
913,0.165352538228035,0.00978496856987476,0.223261475563049,-0.5,0.201514467597008,0.0295697152614594
914,0.148094713687897,-0.0101327123120427,0.197862640023232,-0.5,0.165723338723183,0.00486469035968184
915,0.107022695243359,-0.0423160716891289,0.154052540659904,-0.5,0.101321764290333,-0.0239074118435383
916,0.0701875686645508,-0.0606440044939518,0.107654318213463,-0.5,0.0449476167559624,-0.0546445585787296
917,0.0559880547225475,-0.0470057651400566,0.0791660845279694,-0.5,0.0309772025793791,-0.0708547383546829
918,0.0572254993021488,-0.0241323206573725,0.071447566151619,-0.5,0.0545701459050179,-0.0713188648223877
919,0.0624273158609867,-0.0224988684058189,0.072976216673851,-0.5,0.0866607427597046,-0.0650584027171135
920,0.0672683268785477,-0.0446825288236141,0.0662700831890106,-0.5,0.0957242697477341,-0.0570922940969467
921,0.0662240535020828,-0.0806286036968231,0.0395469814538956,-0.5,0.0642955303192139,-0.0563436299562454
922,0.0602203644812107,-0.121856540441513,0.00510908337309957,-0.5,0.0139687228947878,-0.0683439075946808
923,0.061417143791914,-0.144867554306984,-0.0100191403180361,-0.5,-0.0169540457427502,-0.0818416178226471
924,0.0645573735237122,-0.133848324418068,-0.00826230924576521,-0.5,-0.0303387995809317,-0.0829750299453735
925,0.0502738058567047,-0.110363751649857,-0.0133605096489191,-0.5,-0.0499433577060699,-0.069726973772049
926,0.0207795929163694,-0.0952260419726372,-0.0278654396533966,-0.5,-0.0780300945043564,-0.0600512400269508
927,-0.00838360376656055,-0.0855761915445328,-0.037658728659153,0.140762329101563,-0.101687878370285,-0.0711322426795959
928,-0.0268496312201023,-0.0770213156938553,-0.0295500233769417,0.5,-0.103840656578541,-0.0877071395516396
929,-0.0299901776015759,-0.0687662065029144,-0.00634940341114998,0.5,-0.0823162719607353,-0.0938408002257347
930,-0.0259406864643097,-0.0654036551713943,0.0127155184745789,0.5,-0.060007531195879,-0.102734223008156
931,-0.0273999385535717,-0.0755404457449913,0.0194471590220928,0.5,-0.0503409542143345,-0.123244293034077
932,-0.0320044383406639,-0.0982774272561073,0.0234891530126333,0.5,-0.0391535945236683,-0.136380597949028
933,-0.0248550586402416,-0.117344900965691,0.032334066927433,0.5,-0.0108774332329631,-0.120733477175236
934,0.00410503149032593,-0.116016581654549,0.0369907021522522,0.5,0.0272322464734316,-0.0844378620386124
935,0.041108250617981,-0.103321358561516,0.0167922619730234,0.5,0.0452207997441292,-0.0578715614974499
936,0.0538518764078617,-0.102239169180393,-0.0316339544951916,0.5,0.0187662187963724,-0.0611723437905312
937,0.0401082076132298,-0.113819301128387,-0.0715331137180328,0.5,-0.0304932277649641,-0.0820465236902237
938,0.033154372125864,-0.11163966357708,-0.060867927968502,0.5,-0.0522773712873459,-0.0798647701740265
939,0.0465903803706169,-0.0706805139780045,-0.00411482527852058,0.5,-0.0355601795017719,-0.0303144212812185
940,0.0667305365204811,-0.000238955792156048,0.0554504208266735,0.5,-0.0132905412465334,0.0340381376445293
941,0.0841951966285706,0.0616606473922729,0.0849375128746033,0.5,-0.00682781962677836,0.063196949660778
942,0.0960960611701012,0.0851633474230766,0.0892003178596497,0.5,-0.00860361102968454,0.053034782409668
943,0.0993401780724525,0.0706318318843842,0.0928934812545776,0.5,-0.00355411320924759,0.0352274663746357
944,0.0977973714470863,0.043089896440506,0.111187450587749,0.5,0.0162279028445482,0.0345027446746826
945,0.0981119498610497,0.0237248837947845,0.13949228823185,0.5,0.0447923094034195,0.0511912107467651
946,0.100270472466946,0.0113010508939624,0.161588445305824,0.5,0.0688537061214447,0.0678065866231918
947,0.101029470562935,-0.00571660697460175,0.163505390286446,0.5,0.0803505927324295,0.0665581896901131
948,0.103174790740013,-0.0264106132090092,0.146684601902962,0.5,0.0821424052119255,0.0445427596569061
949,0.113092415034771,-0.0302841700613499,0.124018408358097,0.5,0.0815559327602386,0.0156756117939949
950,0.128281787037849,-0.00391501234844327,0.100349478423595,0.5,0.0768087580800056,-0.00271861557848752
951,0.140957042574883,0.0372455045580864,0.0795497670769691,0.444196432828903,0.0671146661043167,-0.000906495552044362
952,0.140633016824722,0.063003733754158,0.0699867159128189,-0.5,0.0542411655187607,0.0133670810610056
953,0.120936334133148,0.0585639849305153,0.0670879930257797,-0.5,0.0339506864547729,0.0176094621419907
954,0.0966154411435127,0.0364292338490486,0.0651336386799812,-0.5,0.0153187913820148,0.00802494864910841
955,0.0898934826254845,0.0240425001829863,0.0750164091587067,-0.5,0.0177181549370289,0.0120669417083263
956,0.104465954005718,0.0449000671505928,0.0988617166876793,-0.5,0.0388552583754063,0.04487569257617
957,0.121616050601006,0.0938599854707718,0.117541834712029,-0.5,0.055836483836174,0.0870037972927094
958,0.125723510980606,0.140859499573708,0.124965645372868,-0.5,0.0593373849987984,0.128437221050262
959,0.122910968959332,0.167213007807732,0.131155952811241,-0.5,0.0572644807398319,0.170952200889587
960,0.120263293385506,0.179333418607712,0.135338097810745,-0.5,0.0517753288149834,0.19586256146431
961,0.116172656416893,0.187362104654312,0.129435569047928,-0.5,0.0435018241405487,0.192564234137535
962,0.111721642315388,0.17628225684166,0.107584118843079,-0.5,0.0371211059391499,0.165531754493713
963,0.106854423880577,0.124378859996796,0.0710045099258423,-0.5,0.0309633687138557,0.117268078029156
964,0.0985450744628906,0.0415741540491581,0.0356964580714703,-0.5,0.0212450418621302,0.0645708963274956
965,0.0897677838802338,-0.0442826822400093,0.0217578429728746,-0.5,0.0130560426041484,0.0227541234344244
966,0.0840965062379837,-0.108331069350243,0.0308187715709209,-0.5,0.0106798959895968,-0.0103312339633703
967,0.0763925313949585,-0.132595047354698,0.0420896261930466,-0.5,0.00356748187914491,-0.0365056619048119
968,0.0656934902071953,-0.119160532951355,0.0334003530442715,-0.5,-0.0193480346351862,-0.0560553967952728
969,0.0596181079745293,-0.0914347469806671,0.00418753642588854,0.5,-0.0502314157783985,-0.0704217404127121
970,0.0573164522647858,-0.0659666359424591,-0.0292848385870457,0.5,-0.0744585990905762,-0.0743562653660774
971,0.0503820329904556,-0.0432397946715355,-0.055421456694603,0.5,-0.0897587984800339,-0.0602885745465755
972,0.0374779365956783,-0.0273895617574453,-0.0695948377251625,0.5,-0.0966285839676857,-0.0369231663644314
973,0.0251986943185329,-0.0221293922513723,-0.0696848481893539,0.5,-0.0885654836893082,-0.0232870653271675
974,0.0195106640458107,-0.0239571090787649,-0.0550849325954914,0.5,-0.0652192085981369,-0.0218863729387522
975,0.0241820365190506,-0.0303199421614408,-0.0275604203343391,0.5,-0.0361048839986324,-0.0225153993815184
976,0.0366370640695095,-0.0336096026003361,0.00598886562511325,0.5,-0.0106788435950875,-0.0135360984131694
977,0.0478282198309898,-0.0156774334609509,0.0420053191483021,0.5,0.00687166023999453,0.0179232340306044
978,0.0547493174672127,0.0306541416794062,0.0772369876503944,0.5,0.0159573312848806,0.0650961026549339
979,0.0612771101295948,0.0752695351839066,0.102270193397999,0.5,0.0187530871480703,0.101270832121372
980,0.0718590766191483,0.0812368988990784,0.115084536373615,0.5,0.0252289529889822,0.117834024131298
981,0.0851045474410057,0.0560552142560482,0.12142625451088,0.5,0.0413818694651127,0.125306010246277
982,0.0961944982409477,0.0296489614993334,0.12472378462553,0.5,0.0587806813418865,0.124705448746681
983,0.105546109378338,0.0151611901819706,0.122043609619141,0.5,0.0686976537108421,0.113741032779217
984,0.113365687429905,0.00820459704846144,0.107227571308613,0.5,0.0704508051276207,0.103610672056675
985,0.120338574051857,-0.000462860974948853,0.0867235213518143,0.5,0.0741777122020721,0.110217146575451
986,0.131987199187279,-0.0063921925611794,0.0730743482708931,0.5,0.0915426686406136,0.129361674189568
987,0.148178666830063,-0.000647751265205443,0.0649664923548698,0.5,0.113057665526867,0.135078579187393
988,0.163413569331169,0.0148263899609447,0.0595361515879631,0.5,0.119938969612122,0.11899096518755
989,0.171763330698013,0.0403895005583763,0.0594323314726353,0.5,0.107241548597813,0.0996650382876396
990,0.153174489736557,0.0751940384507179,0.052093256264925,0.5,0.0692687556147575,0.0824843198060989
991,0.0905526801943779,0.102241650223732,0.019549397751689,0.5,0.000420178927015513,0.0527947470545769
992,0.0150758652016521,0.104785889387131,-0.0264217555522919,0.5,-0.0718471854925156,0.0174447521567345
993,-0.0195212364196777,0.0873421803116798,-0.0523057505488396,0.5,-0.103076405823231,0.0103100473061204
994,-0.00137297715991735,0.0682621747255325,-0.0451791360974312,0.5,-0.0861327424645424,0.0449314974248409
995,0.0398001745343208,0.0620680712163448,-0.024791719391942,0.5,-0.0521248243749142,0.0987778455018997
996,0.0760929584503174,0.0682077631354332,-0.00981583632528782,0.5,-0.024326354265213,0.134443074464798
997,0.105656206607819,0.0758888423442841,0.00758416811004281,0.5,0.00406035222113132,0.133363664150238
998,0.137340500950813,0.0769301503896713,0.0373235009610653,0.5,0.0453924126923084,0.113414615392685
999,0.165607318282127,0.0692630484700203,0.0692796483635902,0.5,0.0884496346116066,0.0921586006879807
1000,0.175959467887878,0.0593509487807751,0.0916285887360573,0.5,0.111889712512493,0.0734644830226898
1001,0.167904615402222,0.0580992996692657,0.104682259261608,0.5,0.113793551921844,0.0707803517580032
1002,0.153819844126701,0.0718236714601517,0.116100482642651,0.5,0.111585237085819,0.0976493433117867
1003,0.138450011610985,0.0979860872030258,0.13147260248661,0.5,0.117758266627789,0.146555781364441
1004,0.120074272155762,0.125824734568596,0.144884333014488,0.5,0.126060381531715,0.192742377519608
1005,0.10249587893486,0.139433547854424,0.145118251442909,0.5,0.122147426009178,0.210834115743637
1006,0.092308484017849,0.127979636192322,0.13319006562233,0.5,0.106181509792805,0.195717066526413
1007,0.0965624302625656,0.100176058709621,0.118610091507435,0.5,0.0967531427741051,0.167809545993805
1008,0.117031835019588,0.0801916345953941,0.0996669605374336,0.5,0.100963488221169,0.141203835606575
1009,0.137470468878746,0.0842381939291954,0.0714037194848061,0.5,0.101587019860744,0.109979398548603
1010,0.134914234280586,0.103600598871708,0.0404464267194271,0.5,0.0832072049379349,0.0747422873973846
1011,0.108264215290546,0.121078796684742,0.0188783369958401,0.5,0.0547777935862541,0.0526022203266621
1012,0.0785875245928764,0.131611451506615,0.0168197061866522,0.5,0.0381979867815971,0.060530710965395
1013,0.0628922954201698,0.138678818941116,0.0304783601313829,0.5,0.0365921370685101,0.0973732843995094
1014,0.0623739138245583,0.14104625582695,0.0431497916579247,0.5,0.0342803932726383,0.139725416898727
1015,0.0711785405874252,0.13280525803566,0.0485009327530861,0.5,0.0270226169377565,0.164507552981377
1016,0.0844568014144897,0.11283466219902,0.0548728294670582,0.5,0.0289837121963501,0.165708184242249
1017,0.0950305983424187,0.0796918347477913,0.0663770735263824,0.5,0.0509817823767662,0.146036073565483
1018,0.0949055925011635,0.034686341881752,0.0735643208026886,0.5,0.0796890333294868,0.118951834738255
1019,0.0873340368270874,-0.0110295694321394,0.0642891749739647,0.5,0.0868246629834175,0.101114563643932
1020,0.0790215283632278,-0.0497276335954666,0.0359762161970139,0.5,0.0589695386588573,0.083940826356411
1021,0.070827342569828,-0.0752037093043327,0.0075088138692081,0.5,0.0162843130528927,0.0558288656175137
1022,0.0674839466810226,-0.0702170431613922,0.00790912192314863,0.5,-0.00451369071379304,0.0393005348742008
1023,0.0761837661266327,-0.0287170223891735,0.0357372611761093,0.5,0.0114780776202679,0.0512505806982517
1024,0.0961784794926643,0.0266235005110502,0.0639952942728996,0.5,0.0527518838644028,0.0758376121520996
1025,0.123485051095486,0.0757744386792183,0.0809292122721672,0.5,0.100970856845379,0.106997795403004
1026,0.152731955051422,0.129342019557953,0.0895328596234322,0.5,0.141112983226776,0.153279826045036
1027,0.161016792058945,0.196969732642174,0.0807141736149788,0.5,0.154211297631264,0.196827173233032
1028,0.130827695131302,0.24250864982605,0.0487915575504303,0.5,0.128167420625687,0.207979574799538
1029,0.0840525701642036,0.225081354379654,0.0185105055570602,0.5,0.0842512100934982,0.186228215694427
1030,0.0486149750649929,0.159199148416519,0.0136501500383019,0.5,0.0524885952472687,0.149461254477501
1031,0.0280659962445498,0.0866943448781967,0.0268304664641619,0.5,0.0392229780554771,0.115106754004955
1032,0.0180640108883381,0.0373590029776096,0.0420868545770645,0.5,0.0365062952041626,0.0959164351224899
1033,0.0213854089379311,0.01895397529006,0.0573858059942722,0.5,0.0411582849919796,0.0940973237156868
1034,0.0476746298372746,0.0210642255842686,0.0799030885100365,0.5,0.0610743500292301,0.105189643800259
1035,0.0965687558054924,0.0346043184399605,0.112726613879204,0.5,0.0998742058873177,0.12141427397728
1036,0.143984213471413,0.0541114807128906,0.14496573805809,0.5,0.142803564667702,0.132298067212105
1037,0.16474412381649,0.0689405277371407,0.160321548581123,0.5,0.174548551440239,0.131916359066963
1038,0.158811956644058,0.0706809014081955,0.154442459344864,0.5,0.191217735409737,0.121224768459797
1039,0.144065722823143,0.0711946189403534,0.134294614195824,0.5,0.188799574971199,0.111478067934513
1040,0.134707599878311,0.0904652327299118,0.109281495213509,0.5,0.166701853275299,0.124296240508556
1041,0.13262203335762,0.127953946590424,0.0906302481889725,0.5,0.135158196091652,0.16584712266922
1042,0.13275870680809,0.166067749261856,0.0831098631024361,0.5,0.111730247735977,0.207836925983429
1043,0.130190327763557,0.183500617742538,0.0760068222880363,0.5,0.110583916306496,0.21423165500164
1044,0.12753139436245,0.169644802808762,0.0612464249134064,0.5,0.127537220716476,0.176880076527596
1045,0.128846868872643,0.128815844655037,0.0441168509423733,0.5,0.141014561057091,0.112660743296146
1046,0.128050267696381,0.0740533247590065,0.0331820175051689,0.5,0.134019181132317,0.0497177466750145
1047,0.118839025497437,0.0268915351480246,0.0369721502065659,0.5,0.112870626151562,0.0225163940340281
1048,0.105051465332508,0.00351148843765259,0.0566750802099705,0.5,0.0951599851250649,0.0419809445738792
1049,0.0900804176926613,0.0120070828124881,0.0818323716521263,0.5,0.0851952359080315,0.0840281695127487
1050,0.0736545920372009,0.0533799938857555,0.100884795188904,0.5,0.0765467137098312,0.128527194261551
1051,0.0592115968465805,0.108084112405777,0.107368387281895,0.5,0.0676378831267357,0.16595746576786
1052,0.0521508976817131,0.150891318917274,0.104180991649628,0.5,0.0691184401512146,0.182464689016342
1053,0.0589677467942238,0.175785049796104,0.10672765225172,0.5,0.0984853804111481,0.175718083977699
1054,0.0816570073366165,0.185257315635681,0.124395556747913,0.354903608560562,0.149521514773369,0.159766465425491
1055,0.115232184529305,0.184614017605782,0.149054616689682,-0.5,0.193307787179947,0.157001301646233
1056,0.159823313355446,0.187770515680313,0.174909606575966,-0.5,0.224034771323204,0.180809020996094
1057,0.211376368999481,0.194057404994965,0.198950931429863,-0.5,0.252771407365799,0.210019931197166
1058,0.246958687901497,0.194746911525726,0.206200867891312,-0.5,0.269573628902435,0.215390801429749
1059,0.248533546924591,0.195910215377808,0.187457218766212,-0.5,0.259002357721329,0.202086955308914
1060,0.224121108651161,0.1968594789505,0.154555335640907,-0.5,0.227881774306297,0.188708558678627
1061,0.197702974081039,0.187662035226822,0.129682749509811,-0.5,0.199418663978577,0.179024890065193
1062,0.186464637517929,0.173551216721535,0.127048194408417,-0.5,0.194848015904427,0.172923937439919
1063,0.185500115156174,0.1646448969841,0.140886008739471,-0.5,0.217173025012016,0.175840124487877
1064,0.184121966362,0.160790771245956,0.15656191110611,-0.5,0.249227643013,0.195132240653038
1065,0.182198196649551,0.160074576735497,0.160626411437988,-0.5,0.266014188528061,0.217819765210152
1066,0.17765685915947,0.153917551040649,0.143565014004707,-0.5,0.24683766067028,0.207241162657738
1067,0.161048650741577,0.128487452864647,0.110199630260468,-0.5,0.190207540988922,0.152371302247047
1068,0.132984638214111,0.0864648744463921,0.077173076570034,-0.5,0.123794764280319,0.087231770157814
1069,0.109721541404724,0.0553254671394825,0.060799740254879,-0.5,0.0838669240474701,0.0488691255450249
1070,0.0998707488179207,0.064890943467617,0.0650890991091728,-0.5,0.079051710665226,0.0440902411937714
1071,0.092732235789299,0.111836098134518,0.0743065476417542,-0.5,0.0850902646780014,0.0651937574148178
1072,0.0806610137224197,0.16779388487339,0.0730580687522888,-0.5,0.0843718498945236,0.108978599309921
1073,0.0619910061359406,0.215273216366768,0.0580233298242092,-0.5,0.0817180424928665,0.152888745069504
1074,0.0353425368666649,0.244016245007515,0.0317672677338123,-0.5,0.0798384845256805,0.157003134489059
1075,0.021535849198699,0.233073547482491,0.0127206677570939,-0.5,0.0826584100723267,0.121930308640003
1076,0.0475091971457005,0.182580024003983,0.0258589498698711,-0.5,0.107951179146767,0.0946836695075035
1077,0.104846857488155,0.126837402582169,0.0687815174460411,-0.5,0.159906640648842,0.0980149880051613
1078,0.15910130739212,0.0835037231445313,0.110482685267925,-0.5,0.208282575011253,0.109018117189407
1079,0.187118977308273,0.051336757838726,0.130195483565331,-0.5,0.223451927304268,0.111733891069889
1080,0.187081828713417,0.0417567528784275,0.130209565162659,-0.5,0.204083442687988,0.112535007297993
1081,0.168223306536675,0.0597646124660969,0.119351699948311,-0.5,0.167888507246971,0.120387151837349
1082,0.142163723707199,0.0930538028478622,0.106320753693581,-0.5,0.136407598853111,0.146867409348488
1083,0.112374946475029,0.12812452018261,0.0936778262257576,-0.5,0.121028326451778,0.19193722307682
1084,0.0798814818263054,0.143660143017769,0.0719664245843887,-0.5,0.113351717591286,0.220531836152077
1085,0.0483145490288734,0.1170754134655,0.0281475745141506,-0.5,0.0844098404049873,0.188920333981514
1086,0.0127466917037964,0.0573218464851379,-0.0323869846761227,-0.5,0.019236346706748,0.103010967373848
1087,-0.024481413885951,-0.00192498113028705,-0.0851214155554771,-0.5,-0.0565686151385307,0.0149315139278769
1088,-0.0432575307786465,-0.0351750515401363,-0.111678645014763,-0.5,-0.106377281248569,-0.033198244869709
1089,-0.0370476059615612,-0.0385658591985703,-0.114383362233639,-0.5,-0.11980514973402,-0.0335380397737026
1090,-0.0253203213214874,-0.0277823358774185,-0.106462582945824,-0.5,-0.112567819654942,-0.00318615627475083
1091,-0.0195085145533085,-0.012027695775032,-0.0903322473168373,-0.5,-0.0940564125776291,0.0361342616379261
1092,-0.00766187906265259,0.0140688270330429,-0.0587300136685371,-0.310446232557297,-0.0577268563210964,0.0724448040127754
1093,0.0167242381721735,0.047228280454874,-0.0118886167183518,-0.5,-0.00111385469790548,0.104357317090034
1094,0.046908400952816,0.0787318050861359,0.0439262166619301,-0.5,0.0671688318252563,0.132278650999069
1095,0.081238828599453,0.103258103132248,0.0938275828957558,-0.5,0.129039227962494,0.145329147577286
1096,0.118059828877449,0.112705454230309,0.112914241850376,-0.5,0.165106996893883,0.129209399223328
1097,0.14611029624939,0.10406655818224,0.0949005112051964,-0.5,0.17184953391552,0.0935787931084633
1098,0.153086110949516,0.0874458327889442,0.0607468225061893,-0.5,0.158757641911507,0.0677567422389984
1099,0.134258762001991,0.0708539262413979,0.0329969748854637,-0.5,0.134534880518913,0.0678611025214195
1100,0.0991823524236679,0.0553155839443207,0.0199089217931032,-0.5,0.105668902397156,0.0883826613426209
1101,0.0672033876180649,0.0502024181187153,0.0213186182081699,-0.5,0.0778123065829277,0.115805260837078
1102,0.0477771833539009,0.069390781223774,0.0367129072546959,-0.5,0.0587515719234943,0.145966306328774
1103,0.0374157913029194,0.106096483767033,0.0580500513315201,-0.5,0.0559768751263618,0.179022565484047
1104,0.0333548709750175,0.135203555226326,0.0687402784824371,-0.5,0.0669468343257904,0.194837957620621
1105,0.0342693962156773,0.144919008016586,0.0612803250551224,-0.5,0.0761727020144463,0.174070209264755
1106,0.0343702025711536,0.135283172130585,0.0412133410573006,-0.5,0.0637253969907761,0.134755715727806
1107,0.0291086882352829,0.112656883895397,0.0171244759112597,-0.5,0.0246188901364803,0.107579231262207
1108,0.0211039688438177,0.0923609733581543,-0.00247208029031754,-0.5,-0.0240120682865381,0.0947624891996384
1109,0.0183458141982555,0.0832192376255989,-0.0120439734309912,-0.5,-0.0581028051674366,0.0863298922777176
1110,0.0248501002788544,0.0950652956962585,-0.014832534827292,-0.5,-0.0661044716835022,0.08426733314991
1111,0.0328207723796368,0.126882761716843,-0.0183428879827261,-0.5,-0.0543996952474117,0.0851186513900757
1112,0.0346884876489639,0.145725324749947,-0.0194357559084892,-0.5,-0.0293080639094114,0.0819454938173294
1113,0.0362359583377838,0.128780528903008,-0.0104753198102117,-0.5,0.0115339867770672,0.0785572230815887
1114,0.0439216643571854,0.0907274559140205,0.00257989531382918,-0.5,0.0573652423918247,0.078232653439045
1115,0.0477936565876007,0.0577184110879898,0.00473388889804482,-0.5,0.0784910321235657,0.0788503363728523
1116,0.0384307391941547,0.0429538860917091,-0.00821632985025644,-0.5,0.0641355291008949,0.0811924934387207
1117,0.0239856205880642,0.036244347691536,-0.0266646984964609,-0.5,0.0351300053298473,0.0850687846541405
1118,0.011673592031002,0.0234790239483118,-0.045760951936245,-0.5,0.00732870306819677,0.080115057528019
1119,-0.00270958943292499,0.0109546035528183,-0.0709581151604652,-0.5,-0.0218342281877995,0.0557398237287998
1120,-0.0178084503859282,0.00347146904096007,-0.0958257764577866,0.412206500768662,-0.0471231639385223,0.0179262310266495
1121,-0.021864976733923,-0.0104129193350673,-0.0989178940653801,0.5,-0.0514962300658226,-0.0144181186333299
1122,-0.0116004385054111,-0.0318976305425167,-0.0789988934993744,0.5,-0.0367647595703602,-0.0304778311401606
1123,0.00710077956318855,-0.0454622022807598,-0.0580829381942749,0.5,-0.0194405261427164,-0.0282999332994223
1124,0.0208113770931959,-0.0433240793645382,-0.0496376939117908,0.5,-0.00713141914457083,-0.0143189569935203
1125,0.0116668334230781,-0.0284421388059855,-0.0481527112424374,0.5,-0.00335068255662918,-0.00282566575333476
1126,-0.0122463181614876,0.0036258555483073,-0.0415253676474094,0.5,-0.00820661522448063,0.0190461538732052
1127,-0.0279900059103966,0.0550635010004044,-0.0301195196807384,0.5,-0.0142197860404849,0.0699723288416862
1128,-0.0332980565726757,0.110252894461155,-0.0264497622847557,0.5,-0.0176043286919594,0.124520875513554
1129,-0.0374400243163109,0.143862828612328,-0.0364030636847019,0.5,-0.0271284636110067,0.148851707577705
1130,-0.0417866334319115,0.141052052378654,-0.0494062826037407,0.5,-0.0473819375038147,0.147130489349365
1131,-0.0366085581481457,0.112274155020714,-0.0466475896537304,0.5,-0.0614843629300594,0.144295439124107
1132,-0.0128033589571714,0.0808130577206612,-0.0218917038291693,0.5,-0.0523999072611332,0.149621486663818
1133,0.0185364000499249,0.063024565577507,0.00885028764605522,0.5,-0.0293766260147095,0.154909700155258
1134,0.0337962806224823,0.0629523098468781,0.0239809099584818,0.5,-0.0127835180610418,0.151955813169479
1135,0.0269545651972294,0.0714716091752052,0.0192886702716351,0.5,-0.0022339194547385,0.138058096170425
1136,0.0119444094598293,0.0712224468588829,0.00633561890572309,0.5,0.014967761002481,0.113545306026936
1137,-0.00165765406563878,0.0511901266872883,-0.00895151868462563,0.5,0.0274359080940485,0.0794196054339409
1138,-0.00875821337103844,0.0216794237494469,-0.0285559054464102,0.5,0.0154496636241674,0.0429151616990566
1139,-0.000551419507246464,0.0122507307678461,-0.0470055714249611,0.5,-0.00904932525008917,0.01725116930902
1140,0.0212959032505751,0.03856011480093,-0.0547165423631668,0.5,-0.022090932354331,0.013300821185112
1141,0.0492494218051434,0.0836434289813042,-0.0466791652143002,0.5,-0.0151539798825979,0.0414501801133156
1142,0.0830811262130737,0.130120545625687,-0.0169763416051865,0.5,0.0148910023272038,0.099756620824337
1143,0.117880187928677,0.179932907223701,0.0291852150112391,0.5,0.0662770941853523,0.16331073641777
1144,0.139704585075378,0.227827623486519,0.0655862912535667,0.5,0.115043833851814,0.207286328077316
1145,0.140847340226173,0.252746939659119,0.0758506655693054,0.5,0.127712205052376,0.227365016937256
1146,0.127318680286407,0.245592311024666,0.0744364410638809,0.5,0.105027385056019,0.234813004732132
1147,0.107606060802937,0.215811207890511,0.0813722684979439,0.5,0.0794133245944977,0.235555917024612
1148,0.0813740417361259,0.168245926499367,0.0909697934985161,0.5,0.0639141872525215,0.216646894812584
1149,0.0464894883334637,0.0971688404679298,0.079708993434906,0.5,0.0407921485602856,0.162346810102463
1150,0.00942464452236891,0.011712409555912,0.0427814833819866,0.5,0.00023371163115371,0.0842966362833977
1151,-0.0165752079337835,-0.0524421185255051,0.00505510717630386,0.5,-0.0399811305105686,0.0223163515329361
1152,-0.0216523669660091,-0.0649566426873207,-0.00989888608455658,0.5,-0.0579177290201187,0.00646359287202358
1153,-0.00561757665127516,-0.027291202917695,-0.002709198044613,0.5,-0.0472522154450417,0.033797238022089
1154,0.0243489369750023,0.0338141024112701,0.0108238952234387,0.5,-0.0143518634140491,0.0825722590088844
1155,0.0519855506718159,0.0836690068244934,0.010477552190423,0.5,0.020081402733922,0.124742828309536
1156,0.0548816807568073,0.106740027666092,-0.0161668043583632,0.5,0.0280018728226423,0.135731086134911
1157,0.0295624881982803,0.116180025041103,-0.0583904236555099,0.5,0.00297737377695739,0.114491328597069
1158,-0.00163519440684468,0.118186749517918,-0.0947987735271454,0.5,-0.0372250005602837,0.0795901343226433
1159,-0.0241498555988073,0.107825420796871,-0.113389201462269,0.5,-0.0753750577569008,0.0534548498690128
