,AF3,AF4,Fp1,Fp2,AF7,AF8
0,0.0289661567658186,-0.0226881299167871,0.00660324841737747,-0.0193304475396872,0.0334950387477875,-0.0231583695858717
1,0.0410668402910233,-0.0374883823096752,-0.0198152419179678,-0.0350923389196396,0.0203011725097895,-0.0435947999358177
2,0.046230249106884,-0.0294682029634714,-0.0216521471738815,-0.0392734073102474,0.0228627417236567,-0.0533352047204971
3,0.0371116921305656,-0.0185909997671843,-0.0063009443692863,-0.041647057980299,0.0230054091662169,-0.0592783875763416
4,0.0207503568381071,-0.0166340991854668,0.000511260004714131,-0.0469450131058693,0.00639080535620451,-0.0661042407155037
5,0.0083446903154254,-0.0227523874491453,-0.0133376810699701,-0.0548476167023182,-0.023177545517683,-0.0744622498750687
6,-0.000801503309048712,-0.0327810011804104,-0.0377301089465618,-0.0630738884210587,-0.0565624609589577,-0.0791241377592087
7,-0.019008444622159,-0.0383877009153366,-0.0606909804046154,-0.0635518655180931,-0.0851805582642555,-0.0696320384740829
8,-0.0436691083014011,-0.0297723785042763,-0.0720173195004463,-0.0452034063637257,-0.0971584394574165,-0.0390707440674305
9,-0.0512358136475086,-0.000430594140198082,-0.0615038871765137,-0.00445199478417635,-0.0820783749222755,0.0152218202129006
10,-0.0286271572113037,0.0469756163656712,-0.0338174737989903,0.0445907488465309,-0.0469536557793617,0.0835676491260529
11,0.00323945772834122,0.0933459550142288,-0.0101736467331648,0.0749661326408386,-0.0138015551492572,0.134886279702187
12,0.0159676559269428,0.119252257049084,-0.0035690653603524,0.0709991604089737,0.00241566146723926,0.139715507626534
13,0.0077873645350337,0.121547497808933,-0.0108474055305123,0.0399255082011223,0.000662611215375364,0.0973328277468681
14,-0.00178456539288163,0.103007301688194,-0.0207866132259369,0.00445345044136047,-0.00467589125037193,0.0411966480314732
15,0.000487751181935892,0.0676776245236397,-0.0202392265200615,-0.0132432198151946,0.00387878343462944,0.0121909147128463
16,0.00932167284190655,0.0293708480894566,-0.00416969461366534,-0.0069442824460566,0.0236129928380251,0.014054412022233
17,0.0121570425108075,-0.00010271105566062,0.0195607133209705,0.0113076260313392,0.0349385626614094,0.0141505552455783
18,0.000906329660210758,-0.018503624945879,0.035793375223875,0.0238126292824745,0.0232717841863632,-0.00532737420871854
19,-0.0210736002773046,-0.0221051722764969,0.036442831158638,0.0245733875781298,-0.00402888562530279,-0.0286494195461273
20,-0.0384972654283047,-0.0101213790476322,0.0280899256467819,0.0223079305142164,-0.0250630173832178,-0.0392457768321037
21,-0.0400770828127861,0.00942674465477467,0.0189936831593513,0.0250263381749392,-0.0277214683592319,-0.0369778424501419
22,-0.03090606816113,0.0245732720941305,0.00918571185320616,0.0276730135083199,-0.016410144045949,-0.0299166478216648
23,-0.0195603743195534,0.024976521730423,-0.000831345096230507,0.022830406203866,0.00226087379269302,-0.0237338505685329
24,-0.00518446229398251,0.0101236132904887,-0.00919505674391985,0.0127457436174154,0.022951927036047,-0.0173068307340145
25,0.00830450095236301,-0.00980844907462597,-0.0164541341364384,0.00416793720796704,0.0312541723251343,-0.0129367057234049
26,0.00580891501158476,-0.0256030820310116,-0.0249905306845903,-0.00115995004307479,0.0129921147599816,-0.0203747637569904
27,-0.0144121721386909,-0.037006814032793,-0.0377767831087112,-0.00859707966446877,-0.0244029518216848,-0.0386881418526173
28,-0.0348157249391079,-0.0457973591983318,-0.0523618720471859,-0.0240875817835331,-0.0569828599691391,-0.0493386574089527
29,-0.0374485850334167,-0.0481127128005028,-0.0639313012361526,-0.0476697236299515,-0.0692306682467461,-0.040082611143589
30,-0.0246211122721434,-0.0425983443856239,-0.0675252377986908,-0.0683819428086281,-0.0649987682700157,-0.0243095383048058
31,-0.0153787517920136,-0.0320377498865128,-0.0569796748459339,-0.0669771954417229,-0.0549794398248196,-0.0199087951332331
32,-0.0132590429857373,-0.0139630241319537,-0.0327588245272636,-0.0353335961699486,-0.0394490957260132,-0.021755350753665
33,-0.00917499605566263,0.0114647950977087,-0.00475769629701972,0.0107374945655465,-0.0153155522421002,-0.0149973044171929
34,-0.00290848920121789,0.0358816683292389,0.0176637656986713,0.0490788109600544,0.00865149032324553,0.00529619865119457
35,0.00269053899683058,0.0523096136748791,0.0320432335138321,0.0717794671654701,0.0199479404836893,0.0335496179759502
36,0.00927449483424425,0.0600410886108875,0.0401042513549328,0.0837538465857506,0.0186940785497427,0.0615235865116119
37,0.0188849847763777,0.0651397779583931,0.0479749962687492,0.090882308781147,0.0172964911907911,0.086180105805397
38,0.0273936372250319,0.0704148337244987,0.0571656599640846,0.0876446962356567,0.021870294585824,0.0961034446954727
39,0.028286786749959,0.0671394318342209,0.0575761087238789,0.0649493858218193,0.0278303399682045,0.0728543028235435
40,0.0223046336323023,0.0497303977608681,0.0436541140079498,0.0312101375311613,0.0304563138633966,0.0237110368907452
41,0.0154003985226154,0.0178841724991798,0.0194413512945175,0.00364680518396199,0.0240452606230974,-0.0275161564350128
42,0.00916235521435738,-0.0237412620335817,-0.00690626120194793,-0.00858216173946857,0.00736803095787764,-0.0656551048159599
43,-0.00130533694755286,-0.0542026720941067,-0.0224994588643312,-0.00292255193926394,-0.0109210824593902,-0.0800365656614304
44,-0.0180630944669247,-0.0581645332276821,-0.0221051834523678,0.0115876607596874,-0.0233291387557983,-0.0704658105969429
45,-0.0333086140453815,-0.041625402867794,-0.0126564390957356,0.0198852457106113,-0.0277854073792696,-0.0466787628829479
46,-0.0361157059669495,-0.0153096476569772,0.000187713463674299,0.0198003351688385,-0.0226170103996992,-0.0164375156164169
47,-0.023965397849679,0.0111269606277347,0.0181743074208498,0.0191604159772396,-0.00527317356318235,0.0149057293310761
48,-0.0073868609033525,0.0302607305347919,0.0395683199167252,0.0168748553842306,0.0177070982754231,0.0369188971817493
49,0.00281509291380644,0.0414437912404537,0.0509811565279961,0.00524010416120291,0.0286731123924255,0.038369070738554
50,0.00935217458754778,0.0473223552107811,0.0433033406734467,-0.00951931439340115,0.0221383348107338,0.0244021639227867
51,0.0165066178888083,0.0460694581270218,0.0229430217295885,-0.015533278696239,0.0120626883581281,0.0062555680051446
52,0.0217949468642473,0.0306149739772081,0.00186892808414996,-0.0139953857287765,0.0110191786661744,-0.0137997381389141
53,0.0243828147649765,0.00101109070237726,-0.0126041425392032,-0.0109076546505094,0.0156766921281815,-0.0338741987943649
54,0.0258692689239979,-0.0284925494343042,-0.0193141996860504,-0.00385672063566744,0.0147548345848918,-0.0438917018473148
55,0.0288865566253662,-0.0408348441123962,-0.0158942490816116,0.0137839512899518,0.0075342352502048,-0.0266781244426966
56,0.0328120402991772,-0.0349828153848648,-0.00384200154803693,0.0335198603570461,-0.00094685610383749,0.0157579518854618
57,0.0291510447859764,-0.023757092654705,0.00317778531461954,0.0323804430663586,-0.0156670268625021,0.0498992279171944
58,0.0158020090311766,-0.0138574736192822,-0.00170645862817764,0.00515673495829105,-0.0383902601897717,0.0511214025318623
59,0.00488485628738999,-0.00370090873911977,-0.00854867976158857,-0.024934433400631,-0.0519142299890518,0.0268414709717035
60,0.00658450974151492,0.00747625296935439,-0.00748451147228479,-0.035020973533392,-0.0389942862093449,-0.00250420859083533
61,0.0181172098964453,0.0144367162138224,0.00153902044985443,-0.0224672108888626,-0.00543732475489378,-0.02067506685853
62,0.0324481874704361,0.0112314401194453,0.0145049700513482,0.00368552748113871,0.0302212741225958,-0.0198885928839445
63,0.0429275967180729,-0.00273073208518326,0.0237860158085823,0.0272230189293623,0.0503897294402123,-0.00850875210016966
64,0.0394409038126469,-0.0247976742684841,0.0197880603373051,0.0335463620722294,0.0429431535303593,-0.00565159413963556
65,0.0187491029500961,-0.0418176986277103,0.00231285789050162,0.0241920165717602,0.012601506896317,-0.0148309208452702
66,-0.0106484182178974,-0.0350385122001171,-0.01701345667243,0.00666496157646179,-0.0232366677373648,-0.0225095637142658
67,-0.0368618853390217,-0.00654560560360551,-0.0221443958580494,-0.0135635165497661,-0.0471700243651867,-0.0213431399315596
68,-0.0471506714820862,0.021454181522131,-0.00755231827497482,-0.0293066017329693,-0.0462685823440552,-0.0159370508044958
69,-0.0353331826627254,0.0305348411202431,0.0122949099168181,-0.0373717024922371,-0.0217369962483644,-0.010213210247457
70,-0.0128723317757249,0.0126908449456096,0.0163491144776344,-0.0422360822558403,0.00549309886991978,-0.010875497944653
71,0.00560447527095675,-0.0243626497685909,0.000755592074710876,-0.0458950065076351,0.0167599879205227,-0.0255273561924696
72,0.019679382443428,-0.0573779195547104,-0.0166560374200344,-0.0421818420290947,0.0162630826234818,-0.0424779988825321
73,0.034454807639122,-0.0701037421822548,-0.0178635381162167,-0.0253503248095512,0.0216597095131874,-0.0421902574598789
74,0.0518790371716022,-0.0658925473690033,-0.00132221588864923,0.000670556211844087,0.0422249548137188,-0.0212336424738169
75,0.0657296702265739,-0.0530784279108047,0.0186182893812656,0.019276263192296,0.0630339682102203,0.00744385179132223
76,0.0662957653403282,-0.0302489195019007,0.022802984341979,0.0131841935217381,0.0587117560207844,0.0222548749297857
77,0.0514397770166397,-0.00247786054387689,0.00380625599063933,-0.0167824719101191,0.0203343033790588,0.00661581195890903
78,0.0239966288208961,0.0120906252413988,-0.0257734917104244,-0.049934446811676,-0.0364328250288963,-0.0336550436913967
79,-0.00528567004948854,0.0100555587559938,-0.0430948734283447,-0.0620780512690544,-0.0801100879907608,-0.069673091173172
80,-0.0191839877516031,0.00613535894080997,-0.0362321808934212,-0.0441180020570755,-0.0885276943445206,-0.0752080678939819
81,-0.0130064208060503,0.00994687713682652,-0.0142971258610487,-0.00633267778903246,-0.0689470693469048,-0.0495082028210163
82,0.00371681549586356,0.0208945423364639,0.00587281258776784,0.0333307459950447,-0.0420375056564808,-0.0107206711545587
83,0.0232640542089939,0.0325278006494045,0.0201614517718554,0.0613079778850079,-0.0146592296659946,0.0216585546731949
84,0.0398877300322056,0.0335711799561977,0.0318838655948639,0.0688044726848602,0.0108602428808808,0.0345872566103935
85,0.0473660565912724,0.0228058062493801,0.0355127677321434,0.0536305084824562,0.0219719428569078,0.0279955621808767
86,0.0452806949615479,0.0103615159168839,0.0265195351094007,0.0278312247246504,0.0139832003042102,0.0162385031580925
87,0.0388154424726963,0.000477172958198935,0.013230137526989,0.00705448864027858,0.00150331598706543,0.00998388789594173
88,0.0314734131097794,-0.00869653560221195,0.000537094951141626,-0.00934339594095945,-0.00585825275629759,0.00310315773822367
89,0.0200910922139883,-0.0182765536010265,-0.0158316977322102,-0.0241382084786892,-0.0152099262923002,-0.0112317996099591
90,0.00470052240416408,-0.0247047524899244,-0.0291967298835516,-0.0225558374077082,-0.0259708780795336,-0.0235537979751825
91,-0.0060039316304028,-0.0225001070648432,-0.0265770815312862,0.00392652302980423,-0.0271190088242292,-0.0170029029250145
92,-0.00408410467207432,-0.00928537920117378,-0.00785793550312519,0.0409889183938503,-0.0141192739829421,0.0125428242608905
93,0.00716392416507006,0.0185374598950148,0.0191671717911959,0.0708558186888695,0.0121134966611862,0.0503509640693665
94,0.0131987640634179,0.0599257312715054,0.0471961013972759,0.0829005613923073,0.0449753403663635,0.0777912735939026
95,0.00741508137434721,0.0940540209412575,0.0678202509880066,0.0729472413659096,0.0687671974301338,0.0839432626962662
96,-0.00166792224626988,0.097629725933075,0.0702859535813332,0.0442089177668095,0.0675379037857056,0.0674839690327644
97,-0.00853050127625465,0.0744084343314171,0.0466008745133877,0.00412995321676135,0.034037072211504,0.0330720953643322
98,-0.015007664449513,0.0407328009605408,0.00261545646935701,-0.0350207015872002,-0.0213796328753233,-0.0147013878449798
99,-0.0178513024002314,0.00491049140691757,-0.0425821170210838,-0.0600269250571728,-0.0683239251375198,-0.0632787197828293
100,-0.00815842114388943,-0.0238610189408064,-0.0673165246844292,-0.0642896965146065,-0.0786837041378021,-0.0913760885596275
101,0.0177001282572746,-0.0388920940458775,-0.06148861348629,-0.0498255677521229,-0.0521911829710007,-0.0922676473855972
102,0.051632110029459,-0.0444725789129734,-0.0344413742423058,-0.0260599069297314,-0.0110844355076551,-0.0779289230704308
103,0.0804230868816376,-0.0464366152882576,-0.00716120703145862,-0.00581791298463941,0.021137285977602,-0.058893233537674
104,0.0929073020815849,-0.0471957363188267,0.000755893997848034,-0.00120847823563963,0.0286862645298243,-0.0431914702057838
105,0.0813635513186455,-0.0493013709783554,-0.0136759961023927,-0.0155113181099296,0.00772275822237134,-0.0394415706396103
106,0.0462852120399475,-0.0547908544540405,-0.0366093628108501,-0.0398272573947906,-0.0338290110230446,-0.0464281626045704
107,0.000677774951327592,-0.059496782720089,-0.0499038808047771,-0.0569974631071091,-0.0740518122911453,-0.052157636731863
108,-0.0317849516868591,-0.0566315092146397,-0.0413792505860329,-0.0521231442689896,-0.0835990458726883,-0.044490322470665
109,-0.0407976135611534,-0.0454745888710022,-0.0176064744591713,-0.0304821282625198,-0.0610101670026779,-0.0241454038769007
110,-0.0426698215305805,-0.0247052647173405,0.00286838342435658,-0.0111201051622629,-0.0349847041070461,-0.00345346890389919
111,-0.0467206239700317,0.0171819590032101,0.013650618493557,-0.000254392565693706,-0.0222455561161041,0.0178683418780565
112,-0.0444369278848171,0.0790116488933563,0.0189823564141989,0.01046197488904,-0.0191276762634516,0.0500647649168968
113,-0.0322010666131973,0.129532024264336,0.0218086615204811,0.0280815251171589,-0.020471565425396,0.0856544077396393
114,-0.0106339547783136,0.141852706670761,0.0264504179358482,0.0529385358095169,-0.0210906863212585,0.10700336843729
115,0.0180282928049564,0.117887675762177,0.0346652716398239,0.0767983347177505,-0.015209318138659,0.104466699063778
116,0.0444118306040764,0.0749063789844513,0.0393764525651932,0.0848484933376312,-0.00331145501695573,0.0776425153017044
117,0.0616022683680058,0.0270354077219963,0.0306858699768782,0.0689994171261787,0.00746263330802321,0.0349953211843967
118,0.0685377046465874,-0.0236398912966251,0.00356791424565017,0.0331658609211445,0.00669161090627313,-0.0108234649524093
119,0.0669832825660706,-0.0740072205662727,-0.0308594014495611,-0.00877283047884703,-0.00567277474328876,-0.0463355965912342
120,0.0636242628097534,-0.110638841986656,-0.0487526319921017,-0.0373275317251682,-0.0125666279345751,-0.0643714815378189
121,0.0604619272053242,-0.121874839067459,-0.0429047979414463,-0.0465576872229576,-0.00554918218404055,-0.0718945115804672
122,0.0540230609476566,-0.104538768529892,-0.0243773907423019,-0.0461600907146931,0.00502627436071634,-0.0751805901527405
123,0.0440902709960938,-0.0672111138701439,-0.00059918180340901,-0.0407144092023373,0.00942318979650736,-0.0724450275301933
124,0.0301524680107832,-0.0295351427048445,0.0225348249077797,-0.0287395939230919,0.00645863777026534,-0.064508743584156
125,0.0165848881006241,-0.0024143171031028,0.034677367657423,-0.0132024632766843,-3.46379201801028E-05,-0.0511805266141891
126,0.0137011669576168,0.0200719181448221,0.0293362569063902,-4.24995523644611E-05,-0.00593217182904482,-0.0269012935459614
127,0.018237330019474,0.040927816182375,0.00984431989490986,0.00473282672464848,-0.011304272338748,0.0083667179569602
128,0.0159382857382298,0.0543150044977665,-0.0126891266554594,-0.00129217084031552,-0.0188159458339214,0.0421786159276962
129,0.00343370204791427,0.0581195913255215,-0.0281134117394686,-0.011460511945188,-0.0293365549296141,0.0592041797935963
130,-0.0110407713800669,0.0524068512022495,-0.0338508039712906,-0.0173582043498755,-0.0401067808270454,0.0535236299037933
131,-0.020892720669508,0.037586648017168,-0.0317314602434635,-0.0210936367511749,-0.0431047528982162,0.0303812194615602
132,-0.0261389426887035,0.0174764655530453,-0.027290977537632,-0.0299564581364393,-0.0286583267152309,-0.000523609924130142
133,-0.0239419266581535,-0.00757073750719428,-0.0301424600183964,-0.0445303209125996,-0.00266283052042127,-0.0357200913131237
134,-0.0114370416849852,-0.0393550172448158,-0.0459332540631294,-0.0607692711055279,0.00810676068067551,-0.0760089680552483
135,0.000601042876951396,-0.0718175619840622,-0.0688581317663193,-0.0716889873147011,-0.0127341533079743,-0.10989210754633
136,0.0059722913429141,-0.0940910130739212,-0.0853526070713997,-0.0692065209150314,-0.0461075194180012,-0.117332175374031
137,0.0166817512363195,-0.100959315896034,-0.0874267071485519,-0.0524649173021317,-0.0647588595747948,-0.0952594578266144
138,0.0341430306434631,-0.0906346216797829,-0.0757352411746979,-0.0268147122114897,-0.0659150630235672,-0.0604838617146015
139,0.0408132039010525,-0.0619940310716629,-0.0499261803925037,0.00258645368739963,-0.0563058741390705,-0.0276638306677341
140,0.0312463231384754,-0.0230064075440168,-0.0136827444657683,0.0296257231384516,-0.0349308550357819,-0.000525832350831479
141,0.0186491254717112,0.0116896536201239,0.018266323953867,0.0457804948091507,-0.00431077508255839,0.0229124370962381
142,0.0109691275283694,0.0349932424724102,0.0365340225398541,0.0466622374951839,0.0229046810418367,0.043396208435297
143,0.00140226888470352,0.0423164628446102,0.041272509843111,0.0326432771980762,0.0317144878208637,0.0511175952851772
144,-0.0138632832095027,0.0302451774477959,0.0325301624834538,0.00984060205519199,0.0195207707583904,0.0372964404523373
145,-0.0257296431809664,0.0139505369588733,0.01776172965765,-0.00570992240682244,0.000945020990911871,0.0145379360765219
146,-0.0273102335631847,0.0135744931176305,0.0104484353214502,-0.00252464832738042,-0.00699475454166532,0.00920554623007774
147,-0.0220338944345713,0.0274405609816313,0.0140820136293769,0.0128530543297529,0.000307137961499393,0.030185092240572
148,-0.0176993478089571,0.0377386696636677,0.0164654850959778,0.020290669053793,0.0105436891317368,0.0503140352666378
149,-0.0159427542239428,0.0336649566888809,0.00753570813685656,0.0027212337590754,0.0131927821785212,0.0373393185436726
150,-0.0100623508915305,0.0200292840600014,-0.0029820001218468,-0.0359515063464642,0.0154248224571347,-0.0106903770938516
151,-0.00049626873806119,0.00381566258147359,-0.00742768356576562,-0.0776844248175621,0.0177718196064234,-0.0732317715883255
152,0.00384826143272221,-0.0171368848532438,-0.0188383441418409,-0.108463123440742,0.00681510707363486,-0.126578718423843
153,-0.000279600702924654,-0.0402453169226646,-0.0429785400629044,-0.117040351033211,-0.0137992417439818,-0.148580864071846
154,-0.00632992340251803,-0.0490706153213978,-0.0606438964605331,-0.093945249915123,-0.0240178275853395,-0.126003980636597
155,-0.00311153545044363,-0.036228246986866,-0.0547249279916286,-0.0479350350797176,-0.0179437529295683,-0.0717752724885941
156,0.00975755788385868,-0.0137143125757575,-0.0328136272728443,-0.00474730785936117,-0.00796778127551079,-0.0173992644995451
157,0.020716954022646,0.00473728962242603,-0.0145930927246809,0.0211379509419203,-0.0048420843668282,0.0222020354121923
158,0.0236354600638151,0.013792690820992,-0.00702913478016853,0.0368474796414375,-0.00561809819191694,0.0537673532962799
159,0.0197858363389969,0.0150474049150944,-0.00385620072484016,0.049931101500988,-0.0015006948960945,0.0753252059221268
160,0.0131876049563289,0.00887900311499834,-0.00513255968689919,0.0524509698152542,0.00673402426764369,0.071297749876976
161,0.0119093786925077,-0.00797761231660843,-0.0139812408015132,0.0333669446408749,0.0131818614900112,0.0344683118164539
162,0.0133989145979285,-0.029146259650588,-0.0225610584020615,-0.00382913532666862,0.0193853806704283,-0.0239911787211895
163,0.000308398099150509,-0.0397650189697742,-0.0228877235203981,-0.0433354489505291,0.0243096482008696,-0.0798856541514397
164,-0.0276608522981405,-0.0320492088794708,-0.0172241870313883,-0.0702382922172546,0.0189269203692675,-0.105160176753998
165,-0.0514152236282825,-0.0116743491962552,-0.0137306414544582,-0.0808492675423622,-0.00181842048186809,-0.0902300849556923
166,-0.0631281360983849,0.00656801322475076,-0.0191369149833918,-0.0818946361541748,-0.0328664481639862,-0.0599531903862953
167,-0.0648447647690773,0.0164316985756159,-0.0264975000172853,-0.0772581845521927,-0.0557764954864979,-0.0389516428112984
168,-0.0582462288439274,0.0221900660544634,-0.0245798081159592,-0.065375842154026,-0.0559917502105236,-0.0209466405212879
169,-0.0473998300731182,0.0275127738714218,-0.0164197813719511,-0.045700941234827,-0.0403791405260563,0.00746015598997474
170,-0.0319194234907627,0.0339634418487549,-0.00800953339785337,-0.0193154755979776,-0.017322750762105,0.0434716753661633
171,-0.0125853177160025,0.0323711074888706,-0.00467648031190038,0.00233273254707456,0.00627614092081785,0.0652312338352203
172,-0.000422599987359717,0.0134127913042903,-0.0147160105407238,0.00157489231787622,0.015604181215167,0.0479387454688549
173,0.00165431399364024,-0.00829470157623291,-0.0322257876396179,-0.020398149266839,0.00792431738227606,-0.00217797025106847
174,0.00505175022408366,-0.0109426258131862,-0.0437889844179153,-0.0433768592774868,-0.0053207972086966,-0.0522844083607197
175,0.0175134819000959,0.0010451371781528,-0.0491242706775665,-0.0520036034286022,-0.0143297547474504,-0.0819207429885864
176,0.036937553435564,0.00740759028121829,-0.047559630125761,-0.0439235381782055,-0.0139109613373876,-0.0911247730255127
177,0.054744016379118,0.00287250941619277,-0.0313190035521984,-0.0231298487633467,-0.00634883623570204,-0.083545096218586
178,0.0632171034812927,-0.00215067900717258,0.000704729987774044,0.0074508017860353,0.00616557896137238,-0.0578396059572697
179,0.0608752258121967,-0.00291130365803838,0.0363130792975426,0.0400801859796047,0.0258585996925831,-0.0169777311384678
180,0.0483228303492069,-0.00447460683062673,0.0556820631027222,0.055028822273016,0.0458677932620049,0.019560270011425
181,0.0245778299868107,-0.0112343272194266,0.0492418892681599,0.0391457863152027,0.0510543696582317,0.0287579037249088
182,-0.00523742055520415,-0.02183504588902,0.0266980566084385,0.00573206041008234,0.0377362482249737,0.0120168654248118
183,-0.0254681129008532,-0.0245668105781078,0.0102716172114015,-0.0157086569815874,0.0199519488960505,-0.00454359780997038
184,-0.0275283213704824,-0.00915594026446342,0.0146775962784886,-0.0118599897250533,0.0115362126380205,-0.0033606574870646
185,-0.018539248034358,0.0197279918938875,0.031459167599678,0.00428305193781853,0.0104989232495427,0.00876901857554913
186,-0.00830967910587788,0.0476510152220726,0.0411427468061447,0.0156412404030561,0.00493997288867831,0.0153764551505446
187,-0.0018062477465719,0.0653994232416153,0.0380996912717819,0.0201849862933159,-0.00611392874270678,0.0131439305841923
188,-0.00267586461268365,0.0735737830400467,0.0314788445830345,0.0250970013439655,-0.00900594051927328,0.015887850895524
189,-0.0110633978620172,0.0716853886842728,0.027438510209322,0.0310945007950068,0.0042326794937253,0.0286200158298016
190,-0.0192322321236134,0.0574734099209309,0.0216233935207129,0.0279800835996866,0.0239306166768074,0.0371718183159828
191,-0.0184549354016781,0.0361798778176308,0.00644999323412776,0.0086342366412282,0.0336482189595699,0.0391170084476471
192,-0.0083934934809804,0.0199399925768375,-0.0159017704427242,-0.0154756316915154,0.0265700221061707,0.0549985989928246
193,0.000592022784985602,0.0159797593951225,-0.035247515887022,-0.0293982028961182,0.00674744881689548,0.0810504928231239
194,-0.00295561295934021,0.0267985761165619,-0.0378252975642681,-0.0293820761144161,-0.0144568542018533,0.085198350250721
195,-0.0161043591797352,0.0490116029977798,-0.0143491113558412,-0.0157316736876965,-0.0225808937102556,0.0630243942141533
196,-0.0250871479511261,0.0632670223712921,0.0204818155616522,0.00384631240740418,-0.0144483242183924,0.0304867867380381
197,-0.0206984672695398,0.0516227781772614,0.0435703434050083,0.0170358624309301,0.000984209356829524,-0.00531623652204871
198,-0.00430590659379959,0.01808718778193,0.0511753335595131,0.0217357948422432,0.0174472648650408,-0.0346742272377014
199,0.0141284735873342,-0.0195645615458488,0.0477215275168419,0.0216256063431501,0.0311753079295158,-0.0482994355261326
200,0.0250782892107964,-0.043732900172472,0.0369164422154427,0.0186762399971485,0.0344170555472374,-0.0468673817813396
201,0.0228882748633623,-0.046168141067028,0.0288205668330193,0.0151135651394725,0.0238121319562197,-0.036419503390789
202,0.00629118783399463,-0.0337352119386196,0.0279177762567997,0.00925693847239017,0.0074284072034061,-0.0273973550647497
203,-0.0136955976486206,-0.0169490072876215,0.0257327556610107,-0.000244653929257765,-0.00056093605235219,-0.0240734480321407
204,-0.0153981931507587,0.00317995762452483,0.0154818641021848,-0.0033845950383693,0.00865164678543806,-0.0127261336892843
205,0.0104356845840812,0.0276049189269543,-0.00256090960465372,0.00315114390105009,0.0263286493718624,0.0124630928039551
206,0.0385269857943058,0.049463327974081,-0.0243742614984512,0.00493636168539524,0.0282618347555399,0.0329365804791451
207,0.0349610447883606,0.0563008710741997,-0.0417761281132698,-0.00370790995657444,-0.000876454694662243,0.0339277572929859
208,0.00384067790582776,0.0461360551416874,-0.0466254688799381,-0.00963778607547283,-0.0458059273660183,0.021425798535347
209,-0.025863928720355,0.032347958534956,-0.0360690616071224,0.000479320791782811,-0.0752412751317024,0.0109002264216542
210,-0.0380557291209698,0.0243152398616076,-0.0106831518933177,0.0271392855793238,-0.0688249319791794,0.0119655635207891
211,-0.0322691388428211,0.0190028566867113,0.0243031959980726,0.0556543208658695,-0.0271055586636066,0.0219531264156103
212,-0.0122237484902143,0.0139105170965195,0.0588732324540615,0.0677591785788536,0.029906865209341,0.0346283689141274
213,0.0167552307248116,0.0160936322063208,0.0883137881755829,0.0607946328818798,0.0772721618413925,0.0499329939484596
214,0.0443457923829556,0.0316248461604118,0.111724510788918,0.0438557341694832,0.101422630250454,0.0652681440114975
215,0.0603014901280403,0.0517669953405857,0.119557373225689,0.0231962837278843,0.09883963316679,0.0715373829007149
216,0.0622064471244812,0.0602674223482609,0.098678357899189,0.00102561281528324,0.0697559043765068,0.0630864426493645
217,0.0564437843859196,0.049619410187006,0.0526543222367764,-0.0176644586026669,0.0264444276690483,0.0409853383898735
218,0.0503143556416035,0.020817844197154,0.00472798943519592,-0.0229762587696314,-0.007125876378268,0.0162771381437778
219,0.0447344891726971,-0.0179021749645472,-0.0235658958554268,-0.0132836820557714,-0.0177649762481451,-0.00160126877017319
220,0.0370073243975639,-0.0500110946595669,-0.0307048484683037,-0.00359212094917893,-0.0145612927153707,-0.0210225321352482
221,0.0247275028377771,-0.0632750540971756,-0.0326043367385864,-0.0103324837982655,-0.0134408567100763,-0.0500312559306622
222,0.0150876482948661,-0.0552472211420536,-0.0387995317578316,-0.0305110663175583,-0.0160746593028307,-0.075224481523037
223,0.0219764374196529,-0.0310924537479877,-0.0383083447813988,-0.0428723581135273,-0.0102308830246329,-0.0762442722916603
224,0.0441503673791885,-0.00358920777216554,-0.0195094775408506,-0.0328429751098156,0.0115865422412753,-0.0514553487300873
225,0.0669717639684677,0.01525170635432,0.0109794596210122,-0.0071284594014287,0.0419483706355095,-0.0166469905525446
226,0.0797786116600037,0.0204475857317448,0.0358859002590179,0.016246385872364,0.065948873758316,0.0105556547641754
227,0.0787384957075119,0.0138214807957411,0.0440329015254974,0.0252816677093506,0.0724587440490723,0.0207576751708984
228,0.0675492659211159,0.00249837874434888,0.0364942885935307,0.0231774710118771,0.0574562139809132,0.0179272945970297
229,0.0580634362995625,-0.00632471032440662,0.0207844376564026,0.0204063225537539,0.0283744279295206,0.0139503311365843
230,0.0562896579504013,-0.00781465601176023,0.00803009606897831,0.0245990585535765,0.00700911367312074,0.0194620974361897
231,0.0558919534087181,8.92886964720674E-05,0.0120138134807348,0.0393528454005718,0.0114386836066842,0.0406385697424412
232,0.0545123927295208,0.0185915157198906,0.037322424352169,0.057530090212822,0.0360180288553238,0.0691526234149933
233,0.0571245029568672,0.0431899800896645,0.0664271712303162,0.0571522042155266,0.0555902421474457,0.0773014351725578
234,0.0635482296347618,0.0563013926148415,0.0680233538150787,0.0212892089039087,0.0465776957571507,0.0496346466243267
235,0.0630813837051392,0.0454180538654327,0.0308428574353457,-0.0368719212710857,0.00961448159068823,0.00510211056098342
236,0.0462767332792282,0.0209043119102716,-0.0168145447969437,-0.0819403678178787,-0.0306963454931974,-0.0279664639383554
237,0.0193873904645443,0.00138020270969719,-0.0407025963068008,-0.090743713080883,-0.0527376495301723,-0.0383911803364754
238,-0.00381063390523195,-0.00489400001242757,-0.0360375829041004,-0.0655522570014,-0.0534545928239822,-0.033428318798542
239,-0.0156540479511023,0.00254950718954206,-0.0159147512167692,-0.0223219264298677,-0.0397182367742062,-0.0223670322448015
240,-0.0178490579128265,0.0214252136647701,0.00376855931244791,0.0164950359612703,-0.0207681134343147,-0.00289344508200884
241,-0.0184574741870165,0.0459790378808975,0.00970871839672327,0.0340318009257317,-0.00570912612602115,0.0272104721516371
242,-0.0226042065769434,0.0655884519219399,0.0035695640835911,0.0330324806272984,0.00322885159403086,0.0573423877358437
243,-0.0268200933933258,0.07291529327631,0.00171522342134267,0.0272985957562923,0.0113481348380446,0.0761058554053307
244,-0.0261607188731432,0.0723771378397942,0.0143709201365709,0.0264472737908363,0.019696906208992,0.0814420729875565
245,-0.0157699398696423,0.0652376115322113,0.0302552357316017,0.0306980796158314,0.0218413565307856,0.0737471655011177
246,0.00732836127281189,0.0444227047264576,0.0341869257390499,0.0357374139130116,0.0156078282743692,0.0544019602239132
247,0.0338077954947948,0.0109910480678082,0.0286726094782352,0.0416305549442768,0.00968501064926386,0.0303385388106108
248,0.0519816614687443,-0.0221386142075062,0.0263423267751932,0.0517919510602951,0.0178364217281342,0.0117965992540121
249,0.0593920536339283,-0.0424254201352596,0.0338472872972488,0.0657908469438553,0.0419344864785671,0.00447722757235169
250,0.0576692074537277,-0.0457974784076214,0.0483612865209579,0.0769183486700058,0.0656314119696617,0.00600736448541284
251,0.0531368888914585,-0.0361921079456806,0.0603272207081318,0.0761516615748405,0.0755904391407967,0.0106494724750519
252,0.0551292188465595,-0.0245829820632935,0.0550964660942554,0.0564723797142506,0.0718249976634979,0.00832835491746664
253,0.0633596703410149,-0.0213119685649872,0.0275900475680828,0.019362710416317,0.0564892180263996,-0.00935389194637537
254,0.0689730420708656,-0.0243442859500647,-0.00411473447456956,-0.0214106738567352,0.0364220440387726,-0.0344660058617592
255,0.0652143731713295,-0.0257864240556955,-0.0180024057626724,-0.053311426192522,0.0236734561622143,-0.0524344928562641
256,0.0482296459376812,-0.0285947602242231,-0.0136814163997769,-0.0770593732595444,0.0185303781181574,-0.0650994330644608
257,0.0219581462442875,-0.0380531586706638,-0.00963430106639862,-0.096773736178875,0.010008305311203,-0.082077756524086
258,-0.0044808741658926,-0.0491894446313381,-0.0229812227189541,-0.107394434511662,-0.0112591786310077,-0.0961123555898666
259,-0.0253963395953178,-0.0545148551464081,-0.0494435541331768,-0.0949558392167091,-0.0411822497844696,-0.0901884064078331
260,-0.0358292534947395,-0.0463389120995998,-0.0637064650654793,-0.0517681017518044,-0.0597062259912491,-0.0579953826963902
261,-0.0303602702915668,-0.0214658454060555,-0.0482117272913456,0.00812015496194363,-0.0532065369188786,-0.00733459182083607
262,-0.0109031228348613,0.0130016524344683,-0.0133374258875847,0.0564354695379734,-0.0280208922922611,0.0451506786048412
263,0.00842353049665689,0.0436674989759922,0.01775062084198,0.0746406987309456,-0.00154920329805464,0.0834811478853226
264,0.0157159902155399,0.0568037480115891,0.0330806858837605,0.0702179968357086,0.0109688555821776,0.104592725634575
265,0.0129911145195365,0.0515895523130894,0.0363833904266357,0.0631754547357559,0.0103565445169806,0.1116663813591
266,0.0107269575819373,0.0418638996779919,0.0395771637558937,0.0611942820250988,0.0122620686888695,0.102028824388981
267,0.0171945970505476,0.0375254973769188,0.0491033867001534,0.0577114969491959,0.0234716441482306,0.0764026194810867
268,0.0303085688501596,0.0297343973070383,0.0542715974152088,0.0461660958826542,0.0319431647658348,0.0398108884692192
269,0.0427733734250069,0.00734439073130488,0.0447242744266987,0.030698150396347,0.0304965786635876,-0.000540409528184682
270,0.0523207932710648,-0.0197965893894434,0.0287633705884218,0.0206771977245808,0.0273680984973907,-0.0308244470506907
271,0.0596238411962986,-0.0345123484730721,0.0190402567386627,0.0195466447621584,0.029770640656352,-0.042654812335968
272,0.0664181187748909,-0.0333701930940151,0.0199029445648193,0.0248671658337116,0.0406261086463928,-0.0374168902635574
273,0.0742576122283936,-0.0254746153950691,0.0289412196725607,0.0294101424515247,0.0595145598053932,-0.0192742086946964
274,0.0753091648221016,-0.018520237877965,0.0359879732131958,0.0225113183259964,0.0737164542078972,0.000367190717952326
275,0.0632628053426743,-0.0174537375569344,0.0220978911966085,-0.00494587467983365,0.0628122687339783,-0.00108878931496292
276,0.0435875542461872,-0.0316570475697517,-0.0246986020356417,-0.0523452237248421,0.0196112096309662,-0.0345207005739212
277,0.0138778891414404,-0.0597776472568512,-0.0856924876570702,-0.0986828878521919,-0.0396797098219395,-0.0784595459699631
278,-0.030244929715991,-0.0798841342329979,-0.123500786721706,-0.116698049008846,-0.0878974944353104,-0.10259909927845
279,-0.0714196935296059,-0.0726276412606239,-0.121312819421291,-0.099114865064621,-0.106825724244118,-0.0950922071933746
280,-0.0851863101124763,-0.0417582951486111,-0.0907898396253586,-0.0556077770888805,-0.094538077712059,-0.0603599548339844
281,-0.0615365616977215,-0.000703207217156887,-0.0427980571985245,0.00320964632555842,-0.0568973533809185,-0.00543649727478623
282,-0.0120620839297771,0.040898472070694,0.0196252688765526,0.0656946152448654,-0.00309836235828698,0.0593825504183769
283,0.0364780947566032,0.0761631354689598,0.0839932039380074,0.116930603981018,0.0533508993685246,0.117700360715389
284,0.0668434724211693,0.108976073563099,0.128740146756172,0.145260229706764,0.0976271480321884,0.160218358039856
285,0.0806239098310471,0.143194630742073,0.136214405298233,0.144275650382042,0.116410128772259,0.180616393685341
286,0.085079625248909,0.162561148405075,0.109022252261639,0.115331538021564,0.105907097458839,0.166156888008118
287,0.0833353400230408,0.144850075244904,0.0680460035800934,0.0700909718871117,0.0797178596258163,0.114782340824604
288,0.0752969682216644,0.0862524211406708,0.0281474962830544,0.0212756767868996,0.0514806807041168,0.0430454947054386
289,0.0593771524727345,0.00355643127113581,-0.0122692417353392,-0.0270769856870174,0.0155687145888805,-0.0271447338163853
290,0.0337842330336571,-0.073108047246933,-0.0556610487401485,-0.0703274235129356,-0.0323089472949505,-0.0766264498233795
291,0.00530894473195076,-0.110908344388008,-0.0861241221427917,-0.0902445688843727,-0.070168524980545,-0.0943417251110077
292,-0.0107813300564885,-0.100948244333267,-0.0830638110637665,-0.0742079317569733,-0.0709430351853371,-0.0829940959811211
293,-0.00993494223803282,-0.0663501173257828,-0.0518462397158146,-0.0388557352125645,-0.0366861708462238,-0.0552060566842556
294,-0.00724959326907992,-0.0348978750407696,-0.0179553739726543,-0.0125031284987926,0.00862537045031786,-0.0254871472716331
295,-0.0198171436786652,-0.0233887396752834,-0.00331967463716865,-0.0103465523570776,0.0369929149746895,-0.00981407798826694
296,-0.0462299697101116,-0.0347186289727688,-0.0105844847857952,-0.0256318990141153,0.0317723304033279,-0.0161484945565462
297,-0.0644243359565735,-0.0528419055044651,-0.0219133049249649,-0.0366796627640724,0.0098547488451004,-0.0333636440336704
298,-0.0514534898102283,-0.0588593557476997,-0.024927930906415,-0.0326671041548252,0.000749694823753089,-0.0462982021272182
299,-0.0128614287823439,-0.0495689809322357,-0.0232839696109295,-0.0189231708645821,0.00734542636200786,-0.0475456975400448
300,0.0203920118510723,-0.0358843766152859,-0.0229282435029745,-0.00467497576028109,0.0129563873633742,-0.0380740351974964
301,0.0322488807141781,-0.0260361451655626,-0.0228344518691301,0.00489875534549356,0.0145380375906825,-0.025987034663558
302,0.0308347549289465,-0.015179080888629,-0.0157188232988119,0.0116698201745749,0.0226793214678764,-0.0137359425425529
303,0.0257705878466368,0.00188708654604852,0.00122993846889585,0.019219784066081,0.0376918315887451,0.0059221931733191
304,0.0230348464101553,0.0216144043952227,0.0201657433062792,0.0272036362439394,0.050162997096777,0.035013921558857
305,0.0220213886350393,0.0364055633544922,0.0280697867274284,0.0301718134433031,0.0492936596274376,0.0637911334633827
306,0.0160021148622036,0.0477105230093002,0.0181119628250599,0.024657366797328,0.0277574453502893,0.0829191654920578
307,0.00278086517937481,0.0614777989685535,-0.00510244956240058,0.0131443990394473,-0.0101800598204136,0.0869084522128105
308,-0.0138215087354183,0.0722458735108376,-0.0278269313275814,0.000212771003134549,-0.0475961528718472,0.0717429593205452
309,-0.0253843273967505,0.0755534917116165,-0.0353121571242809,-0.00953091681003571,-0.0638114511966705,0.0433928705751896
310,-0.0276989098638296,0.0694629848003387,-0.0255567263811827,-0.0130264814943075,-0.0521351248025894,0.0180992893874645
311,-0.0252733044326305,0.046688299626112,-0.00997626315802336,-0.0132126798853278,-0.0205515883862972,0.00503412168473005
312,-0.0222748462110758,0.00883329287171364,9.86813174677081E-05,-0.0193555168807507,0.0170019790530205,-0.00581983989104629
313,-0.0232538785785437,-0.03317541629076,0.00169253628700972,-0.0342129208147526,0.0377152487635612,-0.0268267076462507
314,-0.03388537093997,-0.0738253220915794,-0.00799220986664295,-0.0518789812922478,0.0224825982004404,-0.05448854342103
315,-0.0508452914655209,-0.108912877738476,-0.035493265837431,-0.0677756667137146,-0.020628560334444,-0.0755140334367752
316,-0.0622178576886654,-0.123555801808834,-0.0709911733865738,-0.0738618299365044,-0.0582117587327957,-0.0794761329889297
317,-0.0628260150551796,-0.105072788894176,-0.0883082747459412,-0.0615926682949066,-0.0615800023078918,-0.0673537403345108
318,-0.0539110116660595,-0.0566096566617489,-0.0728324353694916,-0.0331893041729927,-0.0286239199340343,-0.0445656627416611
319,-0.0379283428192139,0.00622929260134697,-0.0322565101087093,-0.000654851901344955,0.0183456931263208,-0.0139694781973958
320,-0.0216068513691425,0.0623287111520767,0.00938988570123911,0.0199164859950542,0.0497800745069981,0.018461674451828
321,-0.00546355172991753,0.0938051119446754,0.0289519689977169,0.020834868773818,0.0527657344937325,0.0427512042224407
322,0.0149839045479894,0.0952786281704903,0.028231555595994,0.0142629900947213,0.0396811813116074,0.0553133897483349
323,0.0352894142270088,0.0776642337441444,0.0242161508649588,0.0189119633287191,0.0299394726753235,0.0613461211323738
324,0.0451505072414875,0.0518923886120319,0.0164291858673096,0.0304334703832865,0.0247668754309416,0.0547831282019615
325,0.0352727845311165,0.0223484449088573,-0.00143754994496703,0.028013376519084,0.0146517613902688,0.0267785303294659
326,0.0063156746327877,-0.00454992800951004,-0.0185618605464697,0.00687815854325891,0.00361250923015177,-0.0102590443566442
327,-0.0235549248754978,-0.0265516173094511,-0.025083564221859,-0.0215948894619942,-0.00209106062538922,-0.039941992610693
328,-0.0366477109491825,-0.0418343171477318,-0.02532809227705,-0.0451360195875168,-0.00831355433911085,-0.0536528155207634
329,-0.0349578894674778,-0.0396872572600842,-0.0255717188119888,-0.0537105984985828,-0.0171448364853859,-0.0446821339428425
330,-0.0281598623842001,-0.0154272085055709,-0.0241246018558741,-0.0415513403713703,-0.0207064282149076,-0.0167113151401281
331,-0.0191556569188833,0.0165041014552116,-0.0137069895863533,-0.0114435711875558,-0.0124748814851046,0.0174530670046806
332,-0.0109785962849855,0.0374320857226849,0.00845328811556101,0.023498835042119,0.00375135708600283,0.0449452735483646
333,-0.0102148354053497,0.045001495629549,0.0348769724369049,0.0491650998592377,0.0172420535236597,0.0598217621445656
334,-0.0188299901783466,0.0511679463088512,0.0536489859223366,0.0593845583498478,0.0222066640853882,0.0699789747595787
335,-0.0298127122223377,0.0601164996623993,0.0556206777691841,0.0511380545794964,0.0192863717675209,0.0762821361422539
336,-0.0277230069041252,0.0570578016340733,0.0368759632110596,0.0256721917539835,0.0127668408676982,0.0614218041300774
337,-0.00548678729683161,0.0323850251734257,0.00531769497320056,-0.00463959341868758,0.0111803663894534,0.0220649223774672
338,0.0256388448178768,0.00279858172871172,-0.0179107971489429,-0.0201646406203508,0.0217469949275255,-0.0155745940282941
339,0.050385732203722,-0.0101429168134928,-0.0181556306779385,-0.00853017065674067,0.0437738299369812,-0.0266494639217854
340,0.0559435971081257,-0.00611782353371382,-0.00158161390572786,0.0215082075446844,0.069015346467495,-0.0162809733301401
341,0.0426447466015816,0.000776953704189509,0.0162105262279511,0.0465857349336147,0.0846784636378288,-0.00352923572063446
342,0.0245157834142447,0.000591831281781197,0.0260634142905474,0.0525985099375248,0.0812400802969933,0.0031450754031539
343,0.00715129543095827,-0.00768626155331731,0.0269515626132488,0.0414429195225239,0.0622997619211674,0.00470422999933362
344,-0.0144230164587498,-0.0193427912890911,0.0172296948730946,0.0182791147381067,0.0385196842253208,0.00251517281867564
345,-0.0435423813760281,-0.0255065318197012,-0.0054586916230619,-0.0122717972844839,0.0114772245287895,-0.00320449308492243
346,-0.0775114521384239,-0.0195749886333942,-0.0378419458866119,-0.0458288863301277,-0.0233083013445139,-0.0111415209248662
347,-0.10531697422266,-0.00336390663869679,-0.0678166076540947,-0.0749902129173279,-0.0574225075542927,-0.0155135681852698
348,-0.109751403331757,0.0170871112495661,-0.0783547386527061,-0.0854114443063736,-0.0696439817547798,-0.00748882768675685
349,-0.0844995826482773,0.0307753663510084,-0.0626930296421051,-0.0697807520627975,-0.0519894249737263,0.0104745281860232
350,-0.0472509376704693,0.0268360786139965,-0.0319556817412376,-0.0405085384845734,-0.0234928242862225,0.0215645972639322
351,-0.024714631959796,0.00896103214472532,-0.0075388690456748,-0.0183276403695345,-0.0089817363768816,0.0142719699069858
352,-0.0256269574165344,-0.00916074961423874,-0.00197192351333797,-0.00860298797488213,-0.013581657782197,-0.00355015555396676
353,-0.0366902872920036,-0.0152358524501324,-0.00587742030620575,0.0017467241268605,-0.0226280149072409,-0.0143702691420913
354,-0.0428855232894421,-0.00533302361145616,-0.00273428717628121,0.0220316033810377,-0.0211848467588425,-0.0106913726776838
355,-0.0380985289812088,0.0136965624988079,0.0120827183127403,0.0459342375397682,-0.00777658214792609,-0.000691720342729241
356,-0.0253118798136711,0.0335969552397728,0.0282702911645174,0.0572067275643349,0.0106664607301354,0.00301620364189148
357,-0.0166278313845396,0.053158488124609,0.0315815694630146,0.0462139882147312,0.0281341057270765,-0.000584212422836572
358,-0.0145299267023802,0.0668302476406097,0.0171908028423786,0.0206268262118101,0.0382500663399696,-0.00437753042206168
359,-0.00816862843930721,0.0565738864243031,-0.0129554197192192,-0.0132518922910094,0.0284405127167702,-0.0149615183472633
360,0.000800464011263102,0.0175241362303495,-0.0517194271087646,-0.0535927563905716,-0.00734026171267033,-0.0415828004479408
361,-0.000229961791774258,-0.0261440183967352,-0.0825400277972221,-0.0831877291202545,-0.0545575506985188,-0.0697757378220558
362,-0.0151950819417834,-0.0466908514499664,-0.0916447043418884,-0.0850148871541023,-0.0922548994421959,-0.0749324411153793
363,-0.0334703475236893,-0.0345865339040756,-0.077390231192112,-0.0620799101889133,-0.106153041124344,-0.0468264371156693
364,-0.0395225882530212,0.00169541069772094,-0.0489338599145412,-0.0291456896811724,-0.0942994728684425,-0.00188793835695833
365,-0.0295038595795631,0.0412361100316048,-0.0242629013955593,-0.00199976097792387,-0.0715763196349144,0.0286742802709341
366,-0.0111750708892941,0.067917712032795,-0.0141626251861453,0.0131218824535608,-0.0507638901472092,0.0352034904062748
367,0.00117141148075461,0.0787369832396507,-0.0163551848381758,0.015948286280036,-0.0324895940721035,0.0276926308870316
368,-0.00258619035594165,0.0726880729198456,-0.0309586804360151,0.00196970859542489,-0.0209587030112743,0.00475764460861683
369,-0.014778015203774,0.0521973744034767,-0.0541348047554493,-0.0270398538559675,-0.0212666280567646,-0.0369891822338104
370,-0.0250261444598436,0.0304491873830557,-0.0701741874217987,-0.0578373782336712,-0.0316100865602493,-0.0799079537391663
371,-0.0316233187913895,0.0212304145097733,-0.0743809714913368,-0.0794688016176224,-0.0535715818405151,-0.100906856358051
372,-0.0344209559261799,0.0257960557937622,-0.0771282389760017,-0.0891290828585625,-0.0876396670937538,-0.0927718803286552
373,-0.0336653366684914,0.0423747152090073,-0.080137625336647,-0.0877392962574959,-0.119539044797421,-0.0646837875247002
374,-0.0298245325684547,0.0678664296865463,-0.0807338207960129,-0.0808389410376549,-0.133831784129143,-0.0379546731710434
375,-0.0229717269539833,0.0872737914323807,-0.0822125002741814,-0.0747884437441826,-0.127012968063354,-0.026825187727809
376,-0.011627989821136,0.0919139087200165,-0.083957776427269,-0.0715921595692635,-0.103650137782097,-0.0261721294373274
377,0.00639437045902014,0.083931602537632,-0.0950411036610603,-0.0807805210351944,-0.0839284807443619,-0.0352804660797119
378,0.0278368201106787,0.0604318156838417,-0.13022942841053,-0.113798677921295,-0.0882368758320808,-0.0643276944756508
379,0.0346613638103008,0.0258385147899389,-0.181227400898933,-0.164333805441856,-0.114641420543194,-0.110173888504505
380,0.0127070555463433,-0.00383165944367647,-0.229858532547951,-0.214305013418198,-0.154231160879135,-0.153294458985329
381,-0.0198561102151871,-0.0193873774260283,-0.262779772281647,-0.242703601717949,-0.1949452906847,-0.174662739038467
382,-0.0353020839393139,-0.0197060145437717,-0.26759484410286,-0.235536858439446,-0.218244269490242,-0.167558237910271
383,-0.0264474898576736,-0.00602454086765647,-0.239878758788109,-0.198053628206253,-0.212835937738419,-0.138323292136192
384,-0.00333539303392172,0.0184796471148729,-0.19034269452095,-0.146963477134705,-0.182898387312889,-0.09813092648983
385,0.0164938494563103,0.0473415404558182,-0.140041202306747,-0.100409150123596,-0.14704941213131,-0.0625850409269333
386,0.0219445880502462,0.0700781494379044,-0.107055328786373,-0.0731891989707947,-0.123559266328812,-0.0496086850762367
387,0.0166206806898117,0.0793609768152237,-0.0985619053244591,-0.0702448338270187,-0.115575075149536,-0.0644006729125977
388,0.00900203920900822,0.0717294439673424,-0.109519325196743,-0.0882177352905273,-0.114497378468513,-0.100454434752464
389,0.00355521705932915,0.0464335530996323,-0.129008769989014,-0.120069228112698,-0.113748528063297,-0.148043096065521
390,-0.00145113735925406,0.010913192294538,-0.152014836668968,-0.155161067843437,-0.114690557122231,-0.191229626536369
391,-0.00967219937592745,-0.021254213526845,-0.174813330173492,-0.181580886244774,-0.117403298616409,-0.212528571486473
392,-0.021262489259243,-0.0379654914140701,-0.188183352351189,-0.193931996822357,-0.120017752051353,-0.20622418820858
393,-0.035365279763937,-0.0337323509156704,-0.188572064042091,-0.19529327750206,-0.124902114272118,-0.182741522789001
394,-0.0492041371762753,-0.0136485230177641,-0.183324158191681,-0.1906818151474,-0.13484413921833,-0.161575496196747
395,-0.0560108833014965,0.00973714701831341,-0.179938957095146,-0.184392377734184,-0.14894711971283,-0.159168437123299
396,-0.0506731010973454,0.0291513055562973,-0.181025117635727,-0.181326076388359,-0.162369221448898,-0.1751728951931
397,-0.0351405143737793,0.0397104024887085,-0.193241789937019,-0.193151786923409,-0.172149807214737,-0.199470385909081
398,-0.017953384667635,0.0274779684841633,-0.222912788391113,-0.229948252439499,-0.177533149719238,-0.229388251900673
399,-0.00904107932001352,-0.00888997875154018,-0.254664331674576,-0.272327959537506,-0.173278763890266,-0.253553867340088
400,-0.00973570439964533,-0.0422432012856007,-0.25901398062706,-0.281728655099869,-0.15536966919899,-0.242336437106133
401,-0.0125200627371669,-0.0475062429904938,-0.224579960107803,-0.241638943552971,-0.126966029405594,-0.187273174524307
402,-0.0142293265089393,-0.0279335286468267,-0.167436927556992,-0.16794341802597,-0.0972092896699905,-0.1214305087924
403,-0.0154813779518008,-0.000870255578774959,-0.114034548401833,-0.0921147391200066,-0.0753981545567513,-0.0768843814730644
404,-0.0172928180545568,0.0239088498055935,-0.0808347687125206,-0.0428340025246143,-0.0648921206593513,-0.0556732229888439
405,-0.0287542771548033,0.0389644391834736,-0.0700059682130814,-0.0337156057357788,-0.0695294514298439,-0.0517765283584595
406,-0.0507918372750282,0.0370339602231979,-0.0785728543996811,-0.0566642135381699,-0.0886218920350075,-0.0650977566838264
407,-0.0638630017638206,0.019332978874445,-0.0969721525907516,-0.0860621556639671,-0.10401164740324,-0.0907215401530266
408,-0.0597040094435215,-0.00702491728588939,-0.109414592385292,-0.100299723446369,-0.10307115316391,-0.113756097853184
409,-0.0521021336317062,-0.031216025352478,-0.110134594142437,-0.0977715626358986,-0.095657967031002,-0.120112366974354
410,-0.0446023941040039,-0.0394423939287663,-0.100090160965919,-0.0823944285511971,-0.0867258608341217,-0.101792730391026
411,-0.025005741044879,-0.0250158254057169,-0.0801393017172813,-0.0549260526895523,-0.0708529353141785,-0.0597817860543728
412,0.00252441084012389,0.00223986571654677,-0.0610555224120617,-0.0275739654898643,-0.0534134469926357,-0.0137585550546646
413,0.0140474885702133,0.028382433578372,-0.0545458197593689,-0.0158857051283121,-0.0460683815181255,0.0144336214289069
414,0.00175352720543742,0.0476761870086193,-0.0578210391104221,-0.0183199737221003,-0.0490925163030624,0.0206344313919544
415,-0.0165143553167582,0.0581050142645836,-0.0590047985315323,-0.0225810650736094,-0.0524774603545666,0.0131534999236465
416,-0.0230400934815407,0.060274925082922,-0.0506213903427124,-0.0221927240490913,-0.0485821627080441,0.00450960034504533
417,-0.0134480018168688,0.0572730079293251,-0.0377460569143295,-0.0203444268554449,-0.035247016698122,0.000756411463953555
418,0.00507102394476533,0.0483956970274448,-0.0307781770825386,-0.0237740334123373,-0.0173730812966824,-0.00184064731001854
419,0.0139879984781146,0.0307774245738983,-0.0338456071913242,-0.0373032540082932,-0.00855379365384579,-0.00984921399503946
420,-4.03772810386727E-06,0.00890780705958605,-0.0451731719076633,-0.0590981766581535,-0.0172657743096352,-0.0231798384338617
421,-0.0296261478215456,-0.0110573908314109,-0.0614663995802403,-0.0783885791897774,-0.0391707047820091,-0.0324872732162476
422,-0.0593673698604107,-0.0299331396818161,-0.0802758559584618,-0.0853827297687531,-0.0654183998703957,-0.0334831476211548
423,-0.0796113982796669,-0.0466915965080261,-0.0914783403277397,-0.0791037231683731,-0.0809932574629784,-0.0314763486385345
424,-0.088396243751049,-0.0545211955904961,-0.0765365213155746,-0.0612262412905693,-0.0697670429944992,-0.0289116110652685
425,-0.0877584144473076,-0.049297247081995,-0.0363074466586113,-0.0345687568187714,-0.0353200435638428,-0.0221394170075655
426,-0.0809751376509666,-0.034337755292654,0.00204156478866935,-0.00841714162379503,0.00148208485916257,-0.00862124841660261
427,-0.0666142106056213,-0.0146570261567831,0.0234494749456644,0.0132545819506049,0.0298003032803535,0.013088877312839
428,-0.0363519676029682,0.00566082308068872,0.0364557057619095,0.0353570431470871,0.0578341260552406,0.0403054170310497
429,0.00775397103279829,0.0209909658879042,0.0453685186803341,0.0556976906955242,0.0909944996237755,0.0629802569746971
430,0.0456072427332401,0.027310473844409,0.0465811192989349,0.0689260959625244,0.118039898574352,0.0771109759807587
431,0.0636046156287193,0.0233473014086485,0.0389795564115047,0.074647068977356,0.124020427465439,0.0865244939923286
432,0.0623559392988682,0.0129707930609584,0.0250067561864853,0.0732444375753403,0.100868888199329,0.0904158353805542
433,0.0440662801265717,0.00573420943692327,0.0144761009141803,0.0665652230381966,0.0548475235700607,0.0858830362558365
434,0.0151892537251115,0.00660259323194623,0.017803555354476,0.057381447404623,0.00912531837821007,0.0752075910568237
435,-0.0118799433112144,0.0116971964016557,0.0331178121268749,0.0491999983787537,-0.015358948148787,0.0673532858490944
436,-0.0255329348146915,0.0125239612534642,0.0512531995773315,0.047220628708601,-0.0169737115502357,0.0725654885172844
437,-0.0242831725627184,0.00752035621553659,0.0711359828710556,0.0565163940191269,-0.00382552715018392,0.0929635986685753
438,-0.0155015382915735,0.00547350663691759,0.0955285578966141,0.0782874748110771,0.020974138751626,0.119366601109505
439,-0.00586505653336644,0.00762955797836185,0.112313643097878,0.10106048732996,0.0519048273563385,0.137174725532532
440,0.0030462818685919,0.0109376283362508,0.105904415249825,0.109906651079655,0.0763896331191063,0.140257433056831
441,0.0103965485468507,0.014898344874382,0.0773599371314049,0.101061217486858,0.0846960321068764,0.132091552019119
442,0.012978333979845,0.0146883185952902,0.0448216162621975,0.0790286660194397,0.081976629793644,0.119162626564503
443,0.00724219577386975,0.0066877081990242,0.0288166273385286,0.0529721267521381,0.0813558623194695,0.107350550591946
444,-0.00925161503255367,-0.012560585513711,0.0302194897085428,0.0320833101868629,0.0825488790869713,0.0937876477837563
445,-0.0286493059247732,-0.0451870337128639,0.033663634210825,0.0155009320005775,0.0774859189987183,0.0669247508049011
446,-0.0370690412819386,-0.0830204039812088,0.0281561464071274,-0.00173451926093549,0.0662686228752136,0.0271828547120094
447,-0.0383432395756245,-0.106831215322018,0.0190257634967566,-0.00885642599314451,0.0562344938516617,0.00355162378400564
448,-0.0453914031386375,-0.0969661697745323,0.0221282076090574,0.0075985686853528,0.0568178743124008,0.0222135987132788
449,-0.0532843805849552,-0.0529569201171398,0.0435401871800423,0.0407873243093491,0.0723457261919975,0.0721153989434242
450,-0.0545393750071526,-0.00115876982454211,0.0699803382158279,0.0726533457636833,0.0870308801531792,0.122299030423164
451,-0.0538910999894142,0.0301756672561169,0.0877484902739525,0.0941615253686905,0.0807176753878593,0.153193429112434
452,-0.0522671081125736,0.0397898256778717,0.101590946316719,0.114212013781071,0.0633635073900223,0.1714246571064
453,-0.0421542190015316,0.0436523295938969,0.120236471295357,0.14262980222702,0.059348575770855,0.19530662894249
454,-0.0210800506174564,0.0483136288821697,0.140670701861382,0.172555476427078,0.0759312361478806,0.222632393240929
455,0.00267903413623571,0.0468387082219124,0.155462697148323,0.18973034620285,0.103987500071526,0.23067370057106
456,0.021794518455863,0.0338370762765408,0.16258729994297,0.188872545957565,0.131013751029968,0.20806060731411
457,0.0364651530981064,0.0116409575566649,0.164759650826454,0.17491888999939,0.150128677487373,0.165236189961433
458,0.0434087030589581,-0.0164222568273544,0.15964449942112,0.151294127106667,0.15655130147934,0.113951168954372
459,0.0364465229213238,-0.0449698753654957,0.138179704546928,0.121033437550068,0.143763989210129,0.0667547658085823
460,0.0176244787871838,-0.0616086348891258,0.104718416929245,0.0955091938376427,0.120419397950172,0.0467413328588009
461,-0.00466657197102904,-0.0598409250378609,0.0806322321295738,0.0842282101511955,0.1093869805336,0.060448557138443
462,-0.0180867221206427,-0.050579734146595,0.0711902230978012,0.083366833627224,0.112579688429832,0.0843313857913017
463,-0.0158790815621614,-0.0487034022808075,0.0590687431395054,0.0806548297405243,0.112196184694767,0.0946580320596695
464,-0.00725439097732306,-0.057408444583416,0.0386053435504436,0.0697401463985443,0.106729775667191,0.0878498107194901
465,-0.00608073873445392,-0.0664950609207153,0.0261536706238985,0.0587240941822529,0.103921420872211,0.0765667781233788
466,-0.0206816215068102,-0.0636575594544411,0.0329655483365059,0.0562692806124687,0.0932210013270378,0.0726129487156868
467,-0.0502721481025219,-0.0482453927397728,0.0469927527010441,0.0581885017454624,0.0623985230922699,0.0742549151182175
468,-0.0771945714950562,-0.0285482462495565,0.0545398890972137,0.0601268149912357,0.0301790107041597,0.0764974132180214
469,-0.0788343176245689,-0.0141846816986799,0.0645612180233002,0.0665017664432526,0.0282999351620674,0.0795262604951859
470,-0.0536579750478268,-0.0104402415454388,0.0895865485072136,0.0792248994112015,0.0553019046783447,0.0844734907150269
471,-0.0241769514977932,-0.011415584012866,0.121071472764015,0.0957369133830071,0.0855300202965736,0.0992694646120071
472,-0.0131278922781348,-0.00670331297442317,0.142110571265221,0.114765830338001,0.105955347418785,0.131921887397766
473,-0.0180117189884186,0.00610539223998785,0.151147618889809,0.135154753923416,0.118179500102997,0.170031785964966
474,-0.0205235313624144,0.0216221883893013,0.156847670674324,0.151200413703918,0.127727657556534,0.191265553236008
475,-0.0169393233954906,0.0322839617729187,0.156409472227097,0.151003614068031,0.13644827902317,0.186621829867363
476,-0.015987703576684,0.0321289747953415,0.141612723469734,0.128872156143188,0.136874914169312,0.165269464254379
477,-0.0214059092104435,0.0232072379440069,0.1180409938097,0.096716895699501,0.12094783782959,0.142133817076683
478,-0.0284372419118881,0.0135306119918823,0.0980589836835861,0.0744605585932732,0.0949965044856071,0.123247683048248
479,-0.0269511714577675,0.00664344197139144,0.0841646641492844,0.0682223588228226,0.0764042288064957,0.104916997253895
480,-0.0147272376343608,0.00211495812982321,0.0748156830668449,0.0694818273186684,0.0747789740562439,0.0821239203214645
481,0.000980303040705621,-0.00280615244992077,0.0735136047005653,0.0742528885602951,0.084475502371788,0.0589297525584698
482,0.01205640938133,-0.0149643840268254,0.0791566669940948,0.0831776708364487,0.0932936146855354,0.0468242615461349
483,0.00879526045173407,-0.0331754498183727,0.0879524871706963,0.0987514555454254,0.0942550823092461,0.0554218515753746
484,-0.00821182783693075,-0.0424738824367523,0.102640017867088,0.127789616584778,0.0946499481797218,0.0880421474575996
485,-0.0253559537231922,-0.0354318246245384,0.118434131145477,0.16289784014225,0.105362243950367,0.12910333275795
486,-0.0375064872205257,-0.0231780037283897,0.120873600244522,0.180187404155731,0.119279637932777,0.14833465218544
487,-0.0553760714828968,-0.0189101453870535,0.109027348458767,0.163878425955772,0.116358429193497,0.131505697965622
488,-0.0840058475732803,-0.0231693033128977,0.100754968822002,0.123037151992321,0.0949553921818733,0.093177430331707
489,-0.105835631489754,-0.0278498642146587,0.108196198940277,0.0876312702894211,0.0800246372818947,0.061665490269661
490,-0.102514654397964,-0.0299739707261324,0.117500774562359,0.0750437080860138,0.0855491757392883,0.0544501692056656
491,-0.0768160820007324,-0.0292117726057768,0.113543622195721,0.0769389048218727,0.0961649045348167,0.0709359422326088
492,-0.0423137694597244,-0.024042097851634,0.103281624615192,0.0823411270976067,0.0948906093835831,0.0987867936491966
493,-0.0131743606179953,-0.0160720460116863,0.0963718071579933,0.0886098966002464,0.0822291970252991,0.121529102325439
494,0.00230202567763627,-0.00278010335750878,0.097983606159687,0.100227773189545,0.0712052658200264,0.135635033249855
495,0.00561083992943168,0.0171039290726185,0.108878962695599,0.119534268975258,0.0698942095041275,0.146997600793839
496,-0.000151473301229998,0.0313990749418736,0.118494160473347,0.138307482004166,0.0730219557881355,0.152593448758125
497,-0.00710503850132227,0.030530821532011,0.123849086463451,0.148282498121262,0.0816439017653465,0.146635219454765
498,-0.00629181880503893,0.0206580329686403,0.128991991281509,0.145838111639023,0.096543125808239,0.132673606276512
499,0.000549149815924466,0.0149630075320601,0.124273277819157,0.125125288963318,0.0996090844273567,0.117010295391083
500,0.00910100154578686,0.0200615376234055,0.103254914283752,0.0881596133112907,0.0858748778700829,0.0990657582879066
501,0.0173871833831072,0.0270545314997435,0.074565552175045,0.0508194640278816,0.0722019299864769,0.0796534493565559
502,0.0189251601696014,0.0259475484490395,0.0458257757127285,0.0251720529049635,0.0656246468424797,0.0642922073602676
503,0.00458273477852345,0.0154154868796468,0.0221131257712841,0.0115667069330812,0.0623628757894039,0.0497306622564793
504,-0.0207057669758797,-0.00542994402348995,0.0154857644811273,0.0129618532955647,0.0645624473690987,0.0375356115400791
505,-0.0387849770486355,-0.0321159474551678,0.0385026298463345,0.0355005264282227,0.0790626183152199,0.0427424311637878
506,-0.0428974255919456,-0.0565631687641144,0.0813083648681641,0.0691799223423004,0.0965080484747887,0.0601676627993584
507,-0.0438888259232044,-0.0781505554914474,0.109226532280445,0.0923213064670563,0.0915154367685318,0.0657315626740456
508,-0.0495321080088615,-0.0947609767317772,0.104601003229618,0.0960122048854828,0.0602842755615711,0.0530303530395031
509,-0.0520937778055668,-0.100485026836395,0.0844370350241661,0.0852938666939735,0.0279717035591602,0.031028363853693
510,-0.0395644269883633,-0.0939730852842331,0.0675742700695992,0.0723849087953568,0.0151573847979307,0.0131098246201873
511,-0.0129691790789366,-0.0716890171170235,0.0609814748167992,0.0734400376677513,0.0232050400227308,0.0174837168306112
512,0.0135369701310992,-0.0282029341906309,0.0712751820683479,0.0939996987581253,0.0455805622041225,0.0505100153386593
513,0.0294277034699917,0.0298218317329884,0.0988238379359245,0.123568274080753,0.0747793987393379,0.0966130495071411
514,0.0330258905887604,0.0786609053611755,0.125738024711609,0.145546033978462,0.0971888303756714,0.131035566329956
515,0.0293120164424181,0.0978676900267601,0.136579021811485,0.1542137414217,0.105069071054459,0.144255355000496
516,0.0271169766783714,0.0873073488473892,0.134473472833633,0.153454959392548,0.103254497051239,0.143416956067085
517,0.0306971240788698,0.0586082451045513,0.127654045820236,0.143609881401062,0.0966685488820076,0.138154923915863
518,0.0374515280127525,0.0261817015707493,0.121170304715633,0.127034440636635,0.0911450237035751,0.137448951601982
519,0.0434466786682606,-0.00122564076445997,0.112698331475258,0.107286594808102,0.0902005434036255,0.136964902281761
520,0.0471947938203812,-0.0208782684057951,0.0971240326762199,0.0843195989727974,0.0917588099837303,0.122789569199085
521,0.042169414460659,-0.0263445880264044,0.0760301575064659,0.0590337067842484,0.0921871811151505,0.0954909101128578
522,0.0178438536822796,-0.0099682854488492,0.0508489869534969,0.0308837257325649,0.0813183188438416,0.0702019929885864
523,-0.0223822947591543,0.0224940851330757,0.0235937666147947,0.00197349535301328,0.0515391379594803,0.0572419054806232
524,-0.0614640861749649,0.0424521006643772,0.000938604585826397,-0.0184260997921228,0.0114217242226005,0.0483788065612316
525,-0.086319774389267,0.0241530761122704,-0.0153938475996256,-0.0249790959060192,-0.0242267344146967,0.0275906547904015
526,-0.0921667888760567,-0.0219622571021318,-0.0195489563047886,-0.0183151233941317,-0.0388195589184761,-0.00548837939277291
527,-0.0774899870157242,-0.0636119619011879,-0.000760541064664721,-0.00224904250353575,-0.0152360871434212,-0.0343815311789513
528,-0.0496642962098122,-0.0817538499832153,0.0323462784290314,0.013618933968246,0.039252869784832,-0.0435995012521744
529,-0.0262747034430504,-0.0823983401060104,0.0574876219034195,0.0211890395730734,0.0848407074809074,-0.0292703323066235
530,-0.0120925093069673,-0.0794843807816505,0.064947821199894,0.024679271504283,0.0909726247191429,0.0015552839031443
531,0.0042086592875421,-0.0787830278277397,0.0610728673636913,0.0334123075008392,0.0679020136594772,0.033501785248518
532,0.018759585916996,-0.0805842205882072,0.056691225618124,0.0494853593409061,0.0467161014676094,0.0538696758449078
533,0.0203556790947914,-0.0793232470750809,0.0595898143947124,0.0715176612138748,0.0483290292322636,0.068798691034317
534,0.0177673250436783,-0.065184697508812,0.0683750957250595,0.0955643057823181,0.0645611509680748,0.0910768732428551
535,0.0211636479943991,-0.037408858537674,0.0730953365564346,0.112213119864464,0.0716626271605492,0.113365978002548
536,0.0257194936275482,-0.00878090783953667,0.0696046724915504,0.113128408789635,0.0662688761949539,0.118719853460789
537,0.0241119600832462,0.00993032474070787,0.0661374554038048,0.0995913743972778,0.0599845908582211,0.104822486639023
538,0.0155395343899727,0.0190453920513391,0.0703798308968544,0.0820495560765266,0.0534281432628632,0.0822779834270477
539,0.000105633807834238,0.0207010079175234,0.079140730202198,0.0691224634647369,0.0411036536097527,0.0632405057549477
540,-0.0222571473568678,0.0167354308068752,0.083945594727993,0.0605490431189537,0.0262965895235538,0.0528846904635429
541,-0.0428549088537693,0.0137243587523699,0.0802839621901512,0.0531479679048061,0.0196732431650162,0.0501231662929058
542,-0.0517498068511486,0.0174093190580606,0.0700154602527618,0.0479847118258476,0.0243716426193714,0.053652498871088
543,-0.046988308429718,0.0258205663412809,0.0610073134303093,0.0496923997998238,0.0363756008446217,0.0596341527998447
544,-0.0317282527685165,0.0346327573060989,0.0600792355835438,0.0595636777579784,0.0537786595523357,0.0634974837303162
545,-0.0162442997097969,0.0440301150083542,0.0652931779623032,0.0701962932944298,0.0707372725009918,0.0659121796488762
546,-0.0112544717267156,0.0510943979024887,0.0707177072763443,0.0707599148154259,0.077020488679409,0.0657716244459152
547,-0.0187344066798687,0.0443271808326244,0.0686922073364258,0.0533004738390446,0.0661161839962006,0.0531069934368134
548,-0.0350321233272552,0.0167957209050655,0.0476727597415447,0.0159387532621622,0.0392720699310303,0.023084806278348
549,-0.045755323022604,-0.0218253377825022,0.00549016054719687,-0.0312682464718819,0.0123240780085325,-0.0152614442631602
550,-0.0370991975069046,-0.0478391461074352,-0.0390450842678547,-0.0710346698760986,0.0025314602535218,-0.0528877675533295
551,-0.0156801715493202,-0.0466350056231022,-0.0613700486719608,-0.0855118036270142,0.00877941120415926,-0.0765006095170975
552,0.00666849594563246,-0.0300454199314117,-0.0512324534356594,-0.061787836253643,0.0229148343205452,-0.0665783062577248
553,0.0186376832425594,-0.0167700909078121,-0.0170997530221939,-0.00988073367625475,0.0340340472757816,-0.0234786961227655
554,0.00962250027805567,-0.0108526954427361,0.0235792901366949,0.0452317334711552,0.0311307348310947,0.0339438207447529
555,-0.0112838456407189,-0.00347617897205055,0.0599190667271614,0.0926245525479317,0.0202611275017262,0.091077946126461
556,-0.0235923808068037,0.0113162472844124,0.0903911665081978,0.131520241498947,0.0193967260420322,0.136814385652542
557,-0.0194245334714651,0.0275722090154886,0.112363681197166,0.15512715280056,0.0356573313474655,0.155189141631126
558,-0.00720243435353041,0.0384303666651249,0.118995577096939,0.153346911072731,0.0548047050833702,0.134596645832062
559,-0.00085265381494537,0.043232437223196,0.106748662889004,0.12468259781599,0.0546111948788166,0.0886815264821053
560,-0.00741041358560324,0.0382447205483913,0.0779039636254311,0.0806780755519867,0.0288565307855606,0.0481309927999973
561,-0.0210783798247576,0.020961582660675,0.0397974886000156,0.0385567285120487,-0.00522857392206788,0.0279134158045053
562,-0.0298422314226627,0.00360323186032474,0.00435824552550912,0.0132506610825658,-0.0263113901019096,0.0216641034930944
563,-0.0271497294306755,-0.00219066394492984,-0.0170925110578537,0.00772712426260114,-0.0251126028597355,0.0171923246234655
564,-0.0170587096363306,0.00186669290997088,-0.0170865710824728,0.0116005120798945,-0.00306965410709381,0.00984575878828764
565,-0.0113414712250233,0.008221753872931,0.00066987203899771,0.012799940072,0.0271637681871653,0.000107872874650639
566,-0.01410395745188,0.00868729967623949,0.0177593063563108,0.00716052995994687,0.0449986606836319,-0.0122507214546204
567,-0.0182185210287571,-0.000500573369208723,0.020620396360755,-0.0013532160082832,0.0422529242932796,-0.0217038318514824
568,-0.0164866484701633,-0.0106151457875967,0.0165307689458132,-0.00569981290027499,0.0355285070836544,-0.0209470931440592
569,-0.00920765567570925,-0.00761090824380517,0.0199598483741283,-0.0014760879566893,0.0389384254813194,-0.0139630800113082
570,-0.00926353596150875,0.00319871120154858,0.0274193417280912,0.00796560663729906,0.0377921871840954,-0.0138507457450032
571,-0.0254066102206707,0.0066257119178772,0.022492628544569,0.0153585784137249,0.0159706398844719,-0.0237982962280512
572,-0.044240728020668,0.00477619003504515,0.00660869898274541,0.0184714067727327,-0.0132470158860087,-0.0305375754833221
573,-0.046174418181181,0.00632197689265013,-0.00678704911842942,0.0182280261069536,-0.0308420248329639,-0.026126503944397
574,-0.0258982013911009,0.0101612145081162,-0.0146716553717852,0.0164063945412636,-0.0315648950636387,-0.0161782186478376
575,0.00486119464039803,0.0111191254109144,-0.0174801591783762,0.0149676008149982,-0.0130992718040943,-0.00564063573256135
576,0.0251905992627144,0.00602269032970071,-0.0173644591122866,0.00880978815257549,0.0156884286552668,-0.000288165436359122
577,0.0210604052990675,-0.00723576312884688,-0.0253846477717161,-0.0063120611011982,0.0289309192448854,-0.00283195753581822
578,0.00129419646691531,-0.0257580131292343,-0.0426658019423485,-0.0217520128935575,0.0167350973933935,-0.00678322929888964
579,-0.0120312506332994,-0.03890435770154,-0.051323939114809,-0.0269786566495895,0.00286061340011656,-0.00931991450488567
580,-0.0145923793315887,-0.0409595407545567,-0.04485272616148,-0.025017973035574,0.00419353786855936,-0.0140611091628671
581,-0.0169889181852341,-0.0374371744692326,-0.0337243638932705,-0.0221198201179504,0.00995643064379692,-0.0218951925635338
582,-0.0249193497002125,-0.0332818180322647,-0.0232576262205839,-0.0178213864564896,0.00925531331449747,-0.0308088604360819
583,-0.0375049337744713,-0.0248314663767815,-0.0122230760753155,-0.0164925381541252,0.00429146271198988,-0.0407719388604164
584,-0.0467431992292404,-0.013382432051003,-0.00299773248843849,-0.0249520279467106,-0.00271290144883096,-0.053066860884428
585,-0.0474830269813538,-0.0137531915679574,-0.0044758734293282,-0.0393579676747322,-0.0191749446094036,-0.0678461119532585
586,-0.0456044487655163,-0.0298973061144352,-0.0166792329400778,-0.0473882555961609,-0.0429185591638088,-0.0796219408512115
587,-0.0449547544121742,-0.0486834980547428,-0.023861039429903,-0.0412827990949154,-0.0546466335654259,-0.076979398727417
588,-0.0410647317767143,-0.0618914142251015,-0.0195401627570391,-0.0251324772834778,-0.0479930937290192,-0.054936621338129
589,-0.0294250417500734,-0.0646490156650543,-0.0145060615614057,-0.00554296374320984,-0.0332907289266586,-0.0232507735490799
590,-0.00905388873070478,-0.050763551145792,-0.0148075753822923,0.0156908947974443,-0.0150698544457555,0.00223133387044072
591,0.0163808781653643,-0.022344209253788,-0.0119161913171411,0.0398351810872555,0.00906866043806076,0.018360922113061
592,0.0395442992448807,0.0105879446491599,0.00344272027723491,0.0674167796969414,0.0363843478262424,0.0351062454283237
593,0.0561110638082027,0.0383340753614903,0.0287779085338116,0.0914174392819405,0.0585811585187912,0.0547141321003437
594,0.0649473518133163,0.0571976192295551,0.054976686835289,0.101202450692654,0.0714073330163956,0.068109817802906
595,0.0674530640244484,0.0683999732136726,0.0732586234807968,0.093913659453392,0.0772858485579491,0.067742757499218
596,0.0732570290565491,0.072455495595932,0.0777779817581177,0.0748234465718269,0.079713299870491,0.0519745908677578
597,0.0859839022159576,0.0641919076442719,0.0646322891116142,0.0483111925423145,0.0734720304608345,0.0222466196864843
598,0.0895883068442345,0.0421729050576687,0.0330763570964336,0.0183169059455395,0.0486903004348278,-0.0112583935260773
599,0.0733935460448265,0.0164476037025452,-0.00756374839693308,-0.00896771065890789,0.0131084341555834,-0.0323727801442146
600,0.0479050241410732,-0.00408776616677642,-0.0429627634584904,-0.0321394316852093,-0.00833626929670572,-0.0396083556115627
601,0.0230410657823086,-0.0237627867609262,-0.0702401846647263,-0.0572712868452072,-0.00874979421496391,-0.0512821637094021
602,-0.00476599438115954,-0.0498079583048821,-0.0939200893044472,-0.0898007526993752,-0.00784557033330202,-0.0791146382689476
603,-0.0381436124444008,-0.0723510757088661,-0.108749993145466,-0.12637697160244,-0.0176758226007223,-0.110140860080719
604,-0.0667231380939484,-0.0796099677681923,-0.110034883022308,-0.158306732773781,-0.032107412815094,-0.130400106310844
605,-0.0775875672698021,-0.0768701210618019,-0.10492143034935,-0.173529610037804,-0.042920209467411,-0.138729944825172
606,-0.0662966370582581,-0.0690329447388649,-0.097349040210247,-0.159101843833923,-0.0464570075273514,-0.133775636553764
607,-0.0336673259735107,-0.054736789315939,-0.0835523903369904,-0.11649701744318,-0.0428558811545372,-0.114270485937595
608,0.00768727529793978,-0.0369773805141449,-0.0645295828580856,-0.0646543726325035,-0.0380797535181046,-0.0852542147040367
609,0.0323144122958183,-0.0231876205652952,-0.0479953363537788,-0.025990629568696,-0.0428845249116421,-0.0591420903801918
610,0.0281719602644444,-0.0188381690531969,-0.0402214601635933,-0.0129758501425385,-0.0561541765928268,-0.0480992347002029
611,0.0134548954665661,-0.0139691941440105,-0.0390874408185482,-0.019012438133359,-0.0612804032862186,-0.0471959635615349
612,0.0138769298791885,0.00733578717336059,-0.0411966927349567,-0.0295640826225281,-0.0537183359265327,-0.0420960374176502
613,0.0287122968584299,0.0368872843682766,-0.0477867014706135,-0.0393920801579952,-0.0462774075567722,-0.0346847288310528
614,0.0398963987827301,0.0524100288748741,-0.0526732206344604,-0.0462681725621223,-0.0423128865659237,-0.0356139689683914
615,0.0391594506800175,0.0476175658404827,-0.0470619946718216,-0.0450052097439766,-0.0352636910974979,-0.0431281737983227
616,0.0297558289021254,0.0327728874981403,-0.0349459089338779,-0.034306988120079,-0.0240071248263121,-0.0484099164605141
617,0.0191464442759752,0.016993286088109,-0.0299707818776369,-0.0220048930495977,-0.0147590572014451,-0.0498467534780502
618,0.0113970143720508,0.00139631482306868,-0.0402575172483921,-0.0186630096286535,-0.0165512841194868,-0.0492099300026894
619,0.00636590598151088,-0.0108050042763352,-0.0591436177492142,-0.0259278360754251,-0.0298185646533966,-0.0450765416026115
620,0.00732652377337217,-0.0126313837245107,-0.0729700773954391,-0.0369218364357948,-0.0419550091028214,-0.0386883057653904
621,0.0157472509890795,-0.0066020218655467,-0.0780509263277054,-0.0478806160390377,-0.0448322333395481,-0.0373616628348827
622,0.0244700647890568,-0.00368557963520288,-0.0847766697406769,-0.0634469017386436,-0.0460614264011383,-0.0496590472757816
623,0.027831083163619,-0.00709100114181638,-0.0985337644815445,-0.0861086025834084,-0.0522400662302971,-0.0750893801450729
624,0.0275787524878979,-0.0103544471785426,-0.110749460756779,-0.111060708761215,-0.0595150776207447,-0.103227354586124
625,0.0250333342701197,-0.00722263054922223,-0.116112671792507,-0.133621320128441,-0.0652189031243324,-0.125987440347672
626,0.0187081322073936,0.000516440777573735,-0.122357062995434,-0.152168974280357,-0.0717492327094078,-0.142307609319687
627,0.0136135350912809,0.00576131884008646,-0.13466514647007,-0.163340866565704,-0.0755806863307953,-0.150493964552879
628,0.0208228901028633,0.00416678516194224,-0.151587650179863,-0.168338090181351,-0.0705908089876175,-0.151228860020638
629,0.0380385667085648,-0.0045616184361279,-0.173963144421577,-0.178615346550941,-0.0649945065379143,-0.152285739779472
630,0.0446759387850761,-0.0167395528405905,-0.195120185613632,-0.198587715625763,-0.0718427523970604,-0.16055391728878
631,0.0318306460976601,-0.0256966799497604,-0.199225276708603,-0.215908706188202,-0.0874636024236679,-0.175276026129723
632,0.0150116803124547,-0.0281772054731846,-0.182080820202827,-0.217684686183929,-0.102475851774216,-0.186744228005409
633,0.0100794257596135,-0.0282776411622763,-0.160091206431389,-0.206009715795517,-0.118363603949547,-0.188216045498848
634,0.0151777239516377,-0.0290925037115812,-0.15073250234127,-0.191606745123863,-0.138003200292587,-0.183366879820824
635,0.0183161664754152,-0.0229116640985012,-0.153692200779915,-0.178525060415268,-0.155903190374374,-0.173834189772606
636,0.0174488518387079,0.000832219840958714,-0.160096615552902,-0.165562003850937,-0.163441374897957,-0.154725655913353
637,0.0221046898514032,0.033518310636282,-0.169831395149231,-0.158755272626877,-0.159766882658005,-0.131714582443237
638,0.0349239110946655,0.0501728244125843,-0.191754743456841,-0.170116826891899,-0.154100477695465,-0.128279730677605
639,0.0435353256762028,0.0396026596426964,-0.224325180053711,-0.199928045272827,-0.155769914388657,-0.156505778431892
640,0.0373947322368622,0.010256689041853,-0.246581315994263,-0.22874890267849,-0.160356119275093,-0.199161067605019
641,0.0215316955000162,-0.0272859092801809,-0.244012102484703,-0.237804099917412,-0.156464383006096,-0.235416099429131
642,0.00744523806497455,-0.0640235394239426,-0.225504979491234,-0.226599231362343,-0.148274123668671,-0.255963623523712
643,0.0043842769227922,-0.0843532830476761,-0.201680406928062,-0.198912367224693,-0.142683535814285,-0.250667691230774
644,0.0128214759752154,-0.0741108432412148,-0.175031840801239,-0.159547984600067,-0.132836371660233,-0.216949388384819
645,0.0210209861397743,-0.0392494462430477,-0.155283749103546,-0.128537759184837,-0.121040403842926,-0.176565572619438
646,0.0221502352505922,0.00145751982927322,-0.150760516524315,-0.117911264300346,-0.119461752474308,-0.148487791419029
647,0.0225866716355085,0.0332298763096333,-0.155278742313385,-0.115305505692959,-0.126089513301849,-0.129914537072182
648,0.0303347148001194,0.0461825542151928,-0.162293747067451,-0.113350376486778,-0.132041662931442,-0.121339738368988
649,0.0467423796653748,0.0381738506257534,-0.171024784445763,-0.119226299226284,-0.13466913998127,-0.127948507666588
650,0.0626638606190681,0.0203887317329645,-0.176391363143921,-0.133211463689804,-0.1319570094347,-0.140227392315865
651,0.0672286450862885,0.00957110989838839,-0.173779368400574,-0.146291613578796,-0.122464425861835,-0.146592229604721
652,0.0616622269153595,0.0148640684783459,-0.16697596013546,-0.155725240707397,-0.107944577932358,-0.150622799992561
653,0.0507410354912281,0.0280030351132154,-0.162631258368492,-0.167996019124985,-0.0965518578886986,-0.162481427192688
654,0.0333360359072685,0.0292916055768728,-0.162872910499573,-0.18606661260128,-0.0992290750145912,-0.18510203063488
655,0.0124005833640695,0.0138294259086251,-0.164164379239082,-0.200961396098137,-0.116788595914841,-0.208245471119881
656,-0.00609114812687039,-0.00502231111750007,-0.164239704608917,-0.202432975172997,-0.141655191779137,-0.21503846347332
657,-0.0208823960274458,-0.0151788983494043,-0.163568645715714,-0.190627843141556,-0.16328626871109,-0.19639727473259
658,-0.0344673804938793,-0.0119859762489796,-0.166325032711029,-0.177632406353951,-0.174994632601738,-0.161720916628838
659,-0.0442515276372433,0.00363398902118206,-0.181219398975372,-0.180271476507187,-0.178057953715324,-0.134075939655304
660,-0.0374880880117416,0.018732288852334,-0.209112793207169,-0.204187706112862,-0.174702450633049,-0.131674706935883
661,-0.0179224163293839,0.011963858269155,-0.238786190748215,-0.24028779566288,-0.171709433197975,-0.158601745963097
662,-0.00911159813404083,-0.0213772058486938,-0.259137600660324,-0.270797461271286,-0.178526371717453,-0.204242929816246
663,-0.014934416860342,-0.0621749609708786,-0.26291498541832,-0.272900402545929,-0.189158663153648,-0.243957668542862
664,-0.0207682549953461,-0.0861335620284081,-0.241754114627838,-0.234154462814331,-0.184492886066437,-0.252789705991745
665,-0.0222703125327826,-0.0848374888300896,-0.19804373383522,-0.16943122446537,-0.159345716238022,-0.225988864898682
666,-0.0225517749786377,-0.0687494501471519,-0.151608765125275,-0.109754025936127,-0.127393573522568,-0.182690352201462
667,-0.0182123202830553,-0.0465695671737194,-0.116592362523079,-0.0710240676999092,-0.0983523353934288,-0.142857939004898
668,-0.00584232481196523,-0.0178234819322824,-0.0920549854636192,-0.0472005642950535,-0.0756629183888435,-0.109856739640236
669,0.00699740834534168,0.0110352914780378,-0.07926956564188,-0.0344008766114712,-0.0664980709552765,-0.0852273181080818
670,0.0134683642536402,0.0261440891772509,-0.0841961279511452,-0.038131445646286,-0.0705920532345772,-0.0778161212801933
671,0.017055856063962,0.0215900130569935,-0.104733645915985,-0.0585708096623421,-0.0736099407076836,-0.0901289433240891
672,0.0182832144200802,0.00254941405728459,-0.12976461648941,-0.0906232297420502,-0.0656659603118896,-0.113918855786324
673,0.012446298263967,-0.023320160806179,-0.149695724248886,-0.130776807665825,-0.0570209473371506,-0.142433747649193
674,-0.00322530278936028,-0.0522954240441322,-0.160959765315056,-0.172141954302788,-0.0656098425388336,-0.172499775886536
675,-0.027902701869607,-0.0798421502113342,-0.162438631057739,-0.199869215488434,-0.093396432697773,-0.19054488837719
676,-0.0522541217505932,-0.0981976017355919,-0.155588805675507,-0.199952274560928,-0.125385716557503,-0.179991215467453
677,-0.0637973695993423,-0.102993696928024,-0.14358027279377,-0.171920746564865,-0.147149130702019,-0.14430183172226
678,-0.0593920573592186,-0.097537636756897,-0.130998805165291,-0.131451860070229,-0.152901545166969,-0.104830183088779
679,-0.0398532710969448,-0.0874681547284126,-0.121785812079906,-0.0980243161320686,-0.140833556652069,-0.0786472260951996
680,-0.0112203005701303,-0.078369066119194,-0.116851769387722,-0.0832288563251495,-0.116978786885738,-0.0694843903183937
681,0.00788028631359339,-0.0732746571302414,-0.116653919219971,-0.0890766307711601,-0.0943589508533478,-0.0699151828885078
682,0.0113532748073339,-0.0607439428567886,-0.118052199482918,-0.103693768382072,-0.0805649310350418,-0.0644132271409035
683,0.0105719650164247,-0.0347932055592537,-0.122307509183884,-0.112863942980766,-0.0798446908593178,-0.0505910404026508
684,0.0125438459217548,-0.00842705648392439,-0.133643999695778,-0.112713545560837,-0.087629534304142,-0.0401910208165646
685,0.0183524899184704,0.0114997616037726,-0.140566736459732,-0.104178689420223,-0.0898056849837303,-0.0374417044222355
686,0.0228078719228506,0.0199766345322132,-0.12992163002491,-0.0913010686635971,-0.0836668387055397,-0.0431106127798557
687,0.0199804585427046,0.00665958411991596,-0.106466174125671,-0.0770604088902473,-0.0754176154732704,-0.0564343370497227
688,0.0125361252576113,-0.0239587426185608,-0.0832879394292831,-0.0618181303143501,-0.0686950385570526,-0.0681528449058533
689,0.00760291749611497,-0.0529850907623768,-0.0678034946322441,-0.0470453649759293,-0.0635672584176064,-0.0669204592704773
690,0.0102514885365963,-0.0659119859337807,-0.0582666732370853,-0.0326896607875824,-0.0550142005085945,-0.0497124455869198
691,0.0185469482094049,-0.0600675977766514,-0.0494356714189053,-0.0177485998719931,-0.039777185767889,-0.0248850006610155
692,0.0270140077918768,-0.0445127189159393,-0.0407302193343639,-0.00605222582817078,-0.0232807248830795,-0.00560769531875849
693,0.0323657654225826,-0.0326226912438869,-0.0357643961906433,-0.00204608170315623,-0.014469837769866,0.00142860563937575
694,0.0341830290853977,-0.0297891031950712,-0.0323674269020557,0.000491329934448004,-0.011079479008913,0.00177675590384752
695,0.0374988727271557,-0.0335537642240524,-0.0240838006138802,0.00922449678182602,0.0038675325922668,0.0037701828405261
696,0.0456394329667091,-0.0406601242721081,-0.0130575802177191,0.0165598131716251,0.0355415903031826,0.00760952429845929
697,0.0506470985710621,-0.0505282543599606,-0.0092172771692276,0.00989159382879734,0.0599864199757576,0.00762012368068099
698,0.0418374761939049,-0.0664996206760406,-0.0229953825473785,-0.0139736859127879,0.0496842935681343,-0.00589313171803951
699,0.0185157787054777,-0.0898813679814339,-0.057428490370512,-0.0495246574282646,0.00265444000251591,-0.0396171435713768
700,-0.00710246665403247,-0.110402718186378,-0.0956138744950294,-0.0817333310842514,-0.0555816479027271,-0.0800509974360466
701,-0.0228919722139835,-0.117784090340137,-0.112249709665775,-0.0941847786307335,-0.0949011072516441,-0.105407677590847
702,-0.0293081793934107,-0.113287635147572,-0.0983038395643234,-0.0816770941019058,-0.101476654410362,-0.105896502733231
703,-0.0273271314799786,-0.09738589823246,-0.0621408335864544,-0.0475312732160091,-0.076342798769474,-0.0770618319511414
704,-0.0139370122924447,-0.0692897140979767,-0.0205759461969137,-0.00313133839517832,-0.0351788774132729,-0.0240165162831545
705,0.00500589702278376,-0.0346834696829319,0.00916867423802614,0.0334776416420937,-0.00146106595639139,0.0322518907487392
706,0.0223024841398001,8.55259258969454E-06,0.0222943648695946,0.0536541901528835,0.0203824639320374,0.073506698012352
707,0.0398182012140751,0.0276073329150677,0.0253321658819914,0.0603024549782276,0.0414434783160686,0.0946809276938438
708,0.0579319968819618,0.039879098534584,0.0219893343746662,0.0558683536946774,0.0594145320355892,0.0962221622467041
709,0.0751749351620674,0.0341704227030277,0.0140888653695583,0.0432061888277531,0.0676246881484985,0.0798257514834404
710,0.0909871608018875,0.01111676171422,0.00399780739098787,0.0251465868204832,0.0698826909065247,0.0485515370965004
711,0.0943433195352554,-0.0221502166241407,-0.00722686108201742,0.00526266172528267,0.0662596970796585,0.0120485974475741
712,0.0715527758002281,-0.0485385581851006,-0.0164050180464983,-0.00757394405081868,0.0481656454503536,-0.0142329530790448
713,0.0274124499410391,-0.0553204603493214,-0.0223562270402908,-0.0100472429767251,0.0126745719462633,-0.0223597157746553
714,-0.0191986579447985,-0.0443195514380932,-0.0277383588254452,-0.010597356595099,-0.0284576620906591,-0.0161312501877546
715,-0.0506080240011215,-0.0283383261412382,-0.0350251570343971,-0.0201143492013216,-0.0575093999505043,-0.00858453009277582
716,-0.06045937910676,-0.0221648160368204,-0.0448842234909534,-0.0410680361092091,-0.0680424645543098,-0.0141540262848139
717,-0.0597684644162655,-0.0348001234233379,-0.0543861538171768,-0.0657161921262741,-0.0727285891771317,-0.0347514376044273
718,-0.0621681176126003,-0.0645659416913986,-0.0618203170597553,-0.0847423002123833,-0.0890040844678879,-0.0588022917509079
719,-0.0668867528438568,-0.0966458469629288,-0.0700622126460075,-0.0912397131323814,-0.115080893039703,-0.0708197951316834
720,-0.0616225972771645,-0.108055889606476,-0.074374720454216,-0.0780192390084267,-0.124994568526745,-0.058366671204567
721,-0.0390961430966854,-0.0884796380996704,-0.0645733997225761,-0.0472116582095623,-0.0979879125952721,-0.0221957545727491
722,-0.010371602140367,-0.0509061142802238,-0.0421044304966927,-0.0162060894072056,-0.046489205211401,0.0234812889248133
723,0.00868541467934847,-0.0133725944906473,-0.0161129832267761,0.000171109568327665,0.00582868792116642,0.0630444511771202
724,0.0152533818036318,0.0116796744987369,0.00305957719683647,-0.00100822444073856,0.0463902130723,0.0800805613398552
725,0.0116675952449441,0.0186315141618252,0.00646569579839706,-0.0131992613896728,0.0599800273776054,0.069261446595192
726,0.000829798867926002,0.0154540287330747,-0.00338087044656277,-0.0204217582941055,0.0377254635095596,0.0498852469027042
727,-0.0103633468970656,0.016477232798934,-0.0152434334158897,-0.00996699184179306,-0.00535718537867069,0.0442789644002914
728,-0.0171351693570614,0.026546536013484,-0.0213436093181372,0.0149447629228234,-0.0461815893650055,0.053751103579998
729,-0.017501762136817,0.0407558232545853,-0.020391071215272,0.0413811393082142,-0.0702380686998367,0.0632987543940544
730,-0.0105162002146244,0.0518607161939144,-0.0143405441194773,0.059237614274025,-0.071735642850399,0.0621256902813911
731,0.00208830973133445,0.0534899458289146,-0.00520809413865209,0.0661773756146431,-0.0537854693830013,0.0552930608391762
732,0.0169453825801611,0.0450982376933098,0.00495897000655532,0.0651166066527367,-0.0309095550328493,0.0545710362493992
733,0.0303170140832663,0.0330039449036121,0.0115340016782284,0.0587055832147598,-0.0191873963922262,0.0591503866016865
734,0.0360113233327866,0.0215915031731129,0.0103585571050644,0.046431690454483,-0.0234330762177706,0.053704634308815
735,0.0263053644448519,0.0100022871047258,0.00353033398278058,0.0291413441300392,-0.0397207289934158,0.030397679656744
736,0.00363148050382733,-0.00233429344370961,-0.0053716073743999,0.0113463215529919,-0.0617341101169586,-0.00242831325158477
737,-0.0159327480942011,-0.0113535756245255,-0.0160542335361242,-0.00332012679427862,-0.0809360593557358,-0.0321291424334049
738,-0.0190159436315298,-0.0113833099603653,-0.0262260790914297,-0.0137218860909343,-0.0906778946518898,-0.0480580218136311
739,-0.00485662557184696,-0.00215934938751161,-0.0308214835822582,-0.0183856952935457,-0.0904299169778824,-0.0447235181927681
740,0.0172066502273083,0.0106944795697927,-0.0283183977007866,-0.016189431771636,-0.0821424424648285,-0.0274503491818905
741,0.0369555205106735,0.0237491279840469,-0.0196684747934341,-0.00663499161601067,-0.0660863444209099,-0.00553404213860631
742,0.0513500086963177,0.0357885807752609,-0.00706152524799109,0.00736048398539424,-0.0441030114889145,0.0139124980196357
743,0.0584265254437923,0.0372725315392017,9.02402025531046E-05,0.0109522202983499,-0.0262991301715374,0.0180885773152113
744,0.0563594736158848,0.0197710245847702,-0.00809053517878056,-0.0103855039924383,-0.0269776582717896,-0.00311580928973854
745,0.0443020388484001,-0.00927009526640177,-0.0322965569794178,-0.0519766584038734,-0.050985261797905,-0.0435242727398872
746,0.0197731480002403,-0.0362963601946831,-0.06573636084795,-0.0970542505383492,-0.0849807932972908,-0.0865881443023682
747,-0.0119451256468892,-0.053611546754837,-0.0944364666938782,-0.127059623599052,-0.105531133711338,-0.113481186330318
748,-0.0368398800492287,-0.0571966357529163,-0.106497004628181,-0.129297226667404,-0.103472225368023,-0.114515237510204
749,-0.044769924134016,-0.044442642480135,-0.101681508123875,-0.107512041926384,-0.0914092436432838,-0.0960894599556923
750,-0.0370102748274803,-0.0209053829312325,-0.0839089527726173,-0.0744617730379105,-0.0812704712152481,-0.0682295337319374
751,-0.02275250852108,0.00076908286428079,-0.0563303306698799,-0.0391281805932522,-0.072285458445549,-0.0374516062438488
752,-0.0090135931968689,0.0110774636268616,-0.02660814486444,-0.00851616356521845,-0.0622806921601295,-0.012792662717402
753,0.00202032085508108,0.0088814552873373,-0.00702130421996117,0.0106669468805194,-0.0543879047036171,-0.00205849227495492
754,0.00971630029380322,0.000917126249987632,-0.00248619564808905,0.0171655137091875,-0.0507645718753338,-0.00291561731137335
755,0.0156869273632765,-0.00490799685940146,-0.00643141521140933,0.0145961092785001,-0.0492288991808891,-0.00771082704886794
756,0.0227740593254566,-0.00559984473511577,-0.012981734238565,0.00591095257550478,-0.0463702380657196,-0.0128348348662257
757,0.0287745520472527,-0.00416979286819696,-0.022096386179328,-0.00874155107885599,-0.040927529335022,-0.0170956235378981
758,0.0304679702967405,-0.00450303545221686,-0.0303469393402338,-0.0280149318277836,-0.0325182490050793,-0.0180347859859467
759,0.0285138264298439,-0.00645459024235606,-0.0305273924022913,-0.045900359749794,-0.0191756449639797,-0.0193216484040022
760,0.0246989689767361,-0.00791420694440603,-0.0229928605258465,-0.0541706755757332,-0.00275925849564373,-0.025276891887188
761,0.0230700485408306,-0.00653934665024281,-0.0174300987273455,-0.0492894537746906,0.00608047610148788,-0.029300881549716
762,0.0242594331502914,0.000148099701618776,-0.0232264883816242,-0.0380677506327629,-0.00459696725010872,-0.0263195373117924
763,0.0231167487800121,0.0125949503853917,-0.0398365370929241,-0.0304980203509331,-0.0324946753680706,-0.0204983577132225
764,0.0195303298532963,0.0254116579890251,-0.0557632297277451,-0.0294803567230701,-0.0580717623233795,-0.018844909965992
765,0.0208139829337597,0.0303273368626833,-0.0567741803824902,-0.0297715254127979,-0.0595846734941006,-0.0252712238579988
766,0.0320276096463203,0.0242170821875334,-0.0417034365236759,-0.0278021190315485,-0.0319137908518314,-0.0386635586619377
767,0.0509245358407497,0.0111271599307656,-0.0276116523891687,-0.0318513438105583,0.00889603048563004,-0.0593317784368992
768,0.0720335617661476,-0.00452687544748187,-0.0298144016414881,-0.0526765882968903,0.0389635153114796,-0.089057020843029
769,0.0835554674267769,-0.0223678592592478,-0.048833642154932,-0.0899219587445259,0.0387679450213909,-0.124597229063511
770,0.0707226246595383,-0.0381210595369339,-0.0753530859947205,-0.129681274294853,0.00408676406368613,-0.154443562030792
771,0.035601906478405,-0.0439451225101948,-0.0943805202841759,-0.149143189191818,-0.0495556928217411,-0.163519501686096
772,-0.00526996050029993,-0.0372525304555893,-0.092055544257164,-0.13236503303051,-0.0976586788892746,-0.14498744904995
773,-0.036496814340353,-0.0221045054495335,-0.0660288855433464,-0.0858161151409149,-0.119811691343784,-0.103637456893921
774,-0.0499977804720402,-0.00791910942643881,-0.0260272920131683,-0.0300834085792303,-0.109273880720139,-0.0524911433458328
775,-0.0476676821708679,-0.00193191808648407,0.016589630395174,0.0203942079097033,-0.0732495784759521,-0.00648541795089841
776,-0.0370427593588829,-0.0041075530461967,0.0533894822001457,0.0594704449176788,-0.0302072372287512,0.0262181032449007
777,-0.0229795463383198,-0.010337145999074,0.0820571854710579,0.08598942309618,0.00381107698194683,0.0474107190966606
778,-0.00466445414349437,-0.0162500329315662,0.104920476675034,0.101599618792534,0.0304505880922079,0.0605280883610249
779,0.0165414437651634,-0.02235983684659,0.114883065223694,0.102584689855576,0.0517691113054752,0.061057087033987
780,0.0367118492722511,-0.028843317180872,0.104040488600731,0.0882451981306076,0.0616399496793747,0.0469715930521488
781,0.0539981834590435,-0.0287118479609489,0.0830121859908104,0.0702962726354599,0.0602052621543407,0.0291377156972885
782,0.0652816370129585,-0.0185564886778593,0.0675597637891769,0.059554897248745,0.052294634282589,0.0197953507304192
783,0.0658508986234665,-0.0080987149849534,0.0579710826277733,0.0538292750716209,0.0392535664141178,0.0188674423843622
784,0.0514012910425663,-0.00726928794756532,0.050231296569109,0.046383548527956,0.0226158257573843,0.0194293241947889
785,0.0274601560086012,-0.010947129689157,0.0497569181025028,0.0396221987903118,0.0101221641525626,0.0219278782606125
786,0.0114607736468315,-0.0090769911184907,0.0578857250511646,0.0397474691271782,0.00895284488797188,0.0308652799576521
787,0.0147314611822367,0.000794519495684654,0.0673454403877258,0.0468193776905537,0.0192478410899639,0.0460812970995903
788,0.0328482314944267,0.0154604446142912,0.0709450468420982,0.0539206974208355,0.0359432026743889,0.0618646182119846
789,0.0520974695682526,0.0280310250818729,0.0656175538897514,0.0519825220108032,0.0534586645662785,0.0695228725671768
790,0.0585619062185287,0.0300689283758402,0.0567146278917789,0.0395485572516918,0.0695815607905388,0.0693990588188171
791,0.0484314560890198,0.0206172447651625,0.0519503355026245,0.0256110541522503,0.080923892557621,0.0725440755486488
792,0.0359193682670593,0.0103737479075789,0.0551769286394119,0.0234924331307411,0.0855770483613014,0.0843784362077713
793,0.034921083599329,0.00572514114901423,0.0647870898246765,0.0374841392040253,0.086187832057476,0.101613469421864
794,0.0408315733075142,0.00263444986194372,0.0758826285600662,0.0577679798007011,0.0871671214699745,0.119439378380775
795,0.0460087843239307,0.00135385687462986,0.087015837430954,0.0733544379472733,0.0941498950123787,0.128669664263725
796,0.0477213151752949,0.00612028827890754,0.096627339720726,0.0817293077707291,0.104491151869297,0.122696459293365
797,0.0438002273440361,0.0143304187804461,0.101635031402111,0.0868628695607185,0.108735918998718,0.109700858592987
798,0.036024983972311,0.0192180369049311,0.103206001222134,0.0931404456496239,0.104683928191662,0.102986127138138
799,0.0288623757660389,0.0192723087966442,0.107051976025105,0.102920725941658,0.0981194525957108,0.107829287648201
800,0.0249925591051579,0.0162601340562105,0.115646921098232,0.114067688584328,0.0948737785220146,0.117804981768131
801,0.0253076460212469,0.0103092603385448,0.123363517224789,0.119511507451534,0.0971260368824005,0.121489197015762
802,0.0309850089251995,0.00163738755509257,0.122625231742859,0.113703563809395,0.105599775910378,0.113362170755863
803,0.0412485934793949,-0.00878441613167524,0.112779885530472,0.0959898009896278,0.119076207280159,0.0950210243463516
804,0.0491368658840656,-0.0162664409726858,0.101997919380665,0.0712840408086777,0.131588116288185,0.0748487561941147
805,0.0510309338569641,-0.0184797309339046,0.0960819721221924,0.047148160636425,0.13536910712719,0.0590143650770187
806,0.0477872379124165,-0.0228306334465742,0.0932103842496872,0.0302040036767721,0.129085764288902,0.0449978038668633
807,0.0312960296869278,-0.0326062850654125,0.0920183956623077,0.0273009520024061,0.117462374269962,0.0344816297292709
808,-0.002440445125103,-0.0397117659449577,0.0919562354683876,0.0400410331785679,0.0993327274918556,0.0346060991287231
809,-0.0400593727827072,-0.0371402204036713,0.0936176255345345,0.06156375259161,0.0755064710974693,0.0477641634643078
810,-0.0652347952127457,-0.0283285770565271,0.100886285305023,0.0849597454071045,0.0596570074558258,0.070488266646862
811,-0.0723497867584229,-0.0214709006249905,0.115502454340458,0.106027148663998,0.0592288561165333,0.0967375561594963
812,-0.0662608370184898,-0.0164416246116161,0.132078111171722,0.118304222822189,0.0658069029450417,0.121377028524876
813,-0.0529842302203178,-0.00982391647994518,0.141608670353889,0.119153030216694,0.0703127309679985,0.141175121068954
814,-0.0350607112050056,-0.00656593590974808,0.144644677639008,0.118644185364246,0.0739464089274406,0.155892595648766
815,-0.0117540108039975,-0.00903039705008268,0.152549341320992,0.131279841065407,0.0850027203559875,0.171934351325035
816,0.0144804129377007,-0.0136611266061664,0.166666731238365,0.156135872006416,0.102813646197319,0.189687088131905
817,0.0322347357869148,-0.0173094812780619,0.175339415669441,0.175113946199417,0.115969829261303,0.19504888355732
818,0.0364403761923313,-0.0141948098316789,0.174557164311409,0.177127972245216,0.120907865464687,0.183466762304306
819,0.0357704386115074,-0.00452478183433414,0.169809982180595,0.167794972658157,0.123950503766537,0.166580930352211
820,0.0373936519026756,0.00380776938982308,0.166954144835472,0.157716229557991,0.131404876708984,0.153599545359612
821,0.0373223274946213,0.00548926088958979,0.166315495967865,0.149091452360153,0.141646400094032,0.142508611083031
822,0.0283692311495543,0.00102083280216902,0.16229909658432,0.136762395501137,0.145837351679802,0.128035455942154
823,0.0107696745544672,-0.00475382292643189,0.152539268136024,0.121179416775703,0.139007180929184,0.111558094620705
824,-0.0105583583936095,-0.0105480635538697,0.138863116502762,0.106055967509747,0.122752226889133,0.0958417803049088
825,-0.0318339057266712,-0.0187888313084841,0.123381607234478,0.0915866047143936,0.102631159126759,0.0819910317659378
826,-0.0495212711393833,-0.0261171162128448,0.110157698392868,0.0800950527191162,0.0880047753453255,0.0734099820256233
827,-0.0588047094643116,-0.0247517749667168,0.104540027678013,0.0767819881439209,0.0880542919039726,0.0741355046629906
828,-0.0569779649376869,-0.0144065720960498,0.107512161135674,0.0819281861186028,0.101158499717712,0.0827193111181259
829,-0.0468523800373077,-0.00630051223561168,0.114456802606583,0.0904608964920044,0.115719497203827,0.0918666273355484
830,-0.0330976247787476,-0.0134503487497568,0.121760576963425,0.094804622232914,0.127112865447998,0.0918063074350357
831,-0.0182665232568979,-0.0367972850799561,0.128504812717438,0.0881392061710358,0.137834385037422,0.0758277475833893
832,-0.00978960003703833,-0.0634926781058311,0.131191492080688,0.0718691274523735,0.141217231750488,0.0497115030884743
833,-0.0191802382469177,-0.0805646479129791,0.125459551811218,0.0551306009292603,0.125268876552582,0.0281921811401844
834,-0.043732762336731,-0.0835789814591408,0.113110192120075,0.0475945509970188,0.0904944539070129,0.0221475847065449
835,-0.066799059510231,-0.0738184675574303,0.101734362542629,0.0547652132809162,0.0520876385271549,0.0335835032165051
836,-0.0792282819747925,-0.0566493272781372,0.0962440744042397,0.0720082074403763,0.0274211596697569,0.0559703856706619
837,-0.0827360600233078,-0.0386347360908985,0.0985540598630905,0.0900779813528061,0.0253116339445114,0.0807046219706535
838,-0.0822169780731201,-0.024910744279623,0.109270401299,0.104451790452003,0.0419639982283115,0.101467095315456
839,-0.0845397636294365,-0.0191898960620165,0.12258230894804,0.10951229929924,0.0649522021412849,0.11266665905714
840,-0.0887204110622406,-0.0200444385409355,0.12727290391922,0.0978620573878288,0.0864316895604134,0.111214004456997
841,-0.0857612416148186,-0.0283833499997854,0.107431881129742,0.0648587942123413,0.101644180715084,0.0926224291324615
842,-0.0766090601682663,-0.0480643101036549,0.0559825748205185,0.0136247538030148,0.0941226780414581,0.0550128147006035
843,-0.0751159489154816,-0.0719124600291252,-0.0061609297990799,-0.0375565998256207,0.0497743412852287,0.011646743863821
844,-0.0884891077876091,-0.08853430300951,-0.0428148582577705,-0.0613899379968643,-0.0131033565849066,-0.016364986076951
845,-0.103384651243687,-0.0918501615524292,-0.0321731939911842,-0.0411743558943272,-0.0555392429232597,-0.0167767107486725
846,-0.101924538612366,-0.0818027704954147,0.013971128500998,0.0123174395412207,-0.0612551867961884,0.00458126747980714
847,-0.0857128575444222,-0.0666887313127518,0.0625731647014618,0.0684699788689613,-0.0456857271492481,0.0296945925801992
848,-0.0678400471806526,-0.0557212457060814,0.0918281227350235,0.10293035954237,-0.0278065875172615,0.0467513687908649
849,-0.0545575842261314,-0.0520567111670971,0.101683050394058,0.109982088208199,-0.0108950464054942,0.0541857033967972
850,-0.0492451079189777,-0.0543166846036911,0.101885125041008,0.0963435545563698,0.0103687504306436,0.0514391735196114
851,-0.052816241979599,-0.0560350157320499,0.100571684539318,0.0758445113897324,0.034721989184618,0.0442695096135139
852,-0.0597109086811543,-0.0488698221743107,0.101355515420437,0.064242996275425,0.0580159239470959,0.0479697026312351
853,-0.064948245882988,-0.032730408012867,0.102087646722794,0.0638143420219421,0.0793111249804497,0.0685451254248619
854,-0.0648246258497238,-0.0134078003466129,0.100315079092979,0.0648672506213188,0.0913530588150024,0.0936305150389671
855,-0.0579848103225231,0.00402384717017412,0.102955393493176,0.0657894909381866,0.0870567560195923,0.10572973638773
856,-0.050057977437973,0.017281087115407,0.119061835110188,0.0733483210206032,0.0757624134421349,0.0991464331746101
857,-0.0452637784183025,0.0280699450522661,0.14325438439846,0.0890672653913498,0.0702670365571976,0.0809588134288788
858,-0.0423895195126534,0.035039659589529,0.15961791574955,0.108403533697128,0.0706387832760811,0.0600195303559303
859,-0.0413512252271175,0.0335921049118042,0.159689947962761,0.126706600189209,0.0711909160017967,0.0451025478541851
860,-0.0421281382441521,0.0232115257531405,0.145887717604637,0.139747053384781,0.0690329223871231,0.0428508594632149
861,-0.0419375412166119,0.00852040853351355,0.126500755548477,0.145296633243561,0.0643680617213249,0.0527960173785686
862,-0.0375709012150764,-0.00426595332100987,0.109996452927589,0.143295034766197,0.0566832944750786,0.0673830583691597
863,-0.0291456803679466,-0.00972865615040064,0.0980450883507729,0.13420832157135,0.0440068989992142,0.0775435268878937
864,-0.0221156496554613,-0.00395899033173919,0.0876837223768234,0.121921747922897,0.0277928374707699,0.0843825861811638
865,-0.0198749080300331,0.0136068975552917,0.0800225809216499,0.114629752933979,0.0150443902239203,0.0980904325842857
866,-0.0160598829388618,0.0408183671534061,0.0836216881871223,0.120913796126843,0.0156227936968207,0.124112099409103
867,-0.00504083419218659,0.0702701508998871,0.103101342916489,0.13963457942009,0.0344968549907207,0.163052424788475
868,0.0107639543712139,0.090067520737648,0.127015620470047,0.15691964328289,0.0649024546146393,0.210898593068123
869,0.0311465077102184,0.0951074659824371,0.140538513660431,0.161445751786232,0.0914109498262405,0.244966551661491
870,0.0539915822446346,0.0865008607506752,0.141419172286987,0.15305532515049,0.102111503481865,0.233538597822189
871,0.0662408918142319,0.0645278245210648,0.133595928549767,0.138328909873962,0.095691978931427,0.173199668526649
872,0.0558199062943459,0.0322814881801605,0.119836509227753,0.125090792775154,0.0740934312343597,0.0955538600683212
873,0.0261888094246387,0.00190569064579904,0.106420040130615,0.118412993848324,0.0428577587008476,0.0360778160393238
874,-0.00687478296458721,-0.0123225040733814,0.101401604712009,0.119250945746899,0.0153911914676428,0.00935903936624527
875,-0.0285653322935104,-0.00802696403115988,0.107364058494568,0.125879019498825,0.00322917383164167,0.00912998244166374
876,-0.0339583791792393,0.00316468137316406,0.119122594594955,0.133988007903099,0.00630796747282147,0.0212250798940659
877,-0.0290023609995842,0.00358453183434904,0.125616043806076,0.134654715657234,0.0186832696199417,0.0313807837665081
878,-0.0198267679661512,-0.0118696941062808,0.12535959482193,0.12537844479084,0.0438176579773426,0.0345897227525711
879,-0.0127465659752488,-0.0315929390490055,0.129038691520691,0.113547153770924,0.0807217881083488,0.0356869846582413
880,-0.0118360370397568,-0.0415460579097271,0.138240054249763,0.104983776807785,0.106759868562222,0.0403774864971638
881,-0.00612302543595433,-0.0302379447966814,0.145229458808899,0.105614081025124,0.105529390275478,0.056161031126976
882,0.0129244020208716,0.00365341361612082,0.148482456803322,0.119537368416786,0.085302509367466,0.0856448858976364
883,0.0316317826509476,0.0425226874649525,0.146194234490395,0.134977251291275,0.0569484159350395,0.115746505558491
884,0.0312674194574356,0.0657546669244766,0.131106048822403,0.135104238986969,0.022930771112442,0.129626274108887
885,0.0125898802652955,0.07191102206707,0.106961138546467,0.124156966805458,-0.00897221732884645,0.126196801662445
886,-0.00844235252588987,0.0709977000951767,0.0903915539383888,0.11788210272789,-0.0234670974314213,0.115611232817173
887,-0.0208928659558296,0.0677569061517715,0.0907884761691093,0.11990063637495,-0.0167430210858583,0.104672357439995
888,-0.0259619597345591,0.0648378878831863,0.0992193445563316,0.125115379691124,-0.00515433726832271,0.09616319835186
889,-0.028443768620491,0.0640674084424973,0.0979459062218666,0.127529054880142,-0.00482975272461772,0.0893096923828125
890,-0.0299884751439095,0.0623253546655178,0.0800190642476082,0.122100077569485,-0.0141871888190508,0.085080973803997
891,-0.028163330629468,0.0616713650524616,0.0566351413726807,0.111116386950016,-0.0190707631409168,0.0925083458423615
892,-0.01748401299119,0.0693673640489578,0.0410844385623932,0.0984559059143066,-0.0109062949195504,0.10572799295187
893,0.0038430264685303,0.0907650366425514,0.0392057150602341,0.0841074734926224,0.00651446403935552,0.111895032227039
894,0.028750017285347,0.124999821186066,0.0494278855621815,0.0707903280854225,0.0264846459031105,0.124404549598694
895,0.0441729500889778,0.157381892204285,0.0617204830050468,0.0641168653964996,0.0418554171919823,0.14913609623909
896,0.0369698777794838,0.165670588612556,0.0658332109451294,0.0647683814167976,0.0415453724563122,0.156928479671478
897,0.00489853834733367,0.133066922426224,0.0579403266310692,0.0639880672097206,0.0189382582902908,0.123763076961041
898,-0.0358505956828594,0.0665158331394196,0.0465736389160156,0.0589814558625221,-0.006407774053514,0.0644873753190041
899,-0.0631517767906189,-0.00187542440835387,0.0494546741247177,0.0634484887123108,-0.00455299345776439,0.0153462449088693
900,-0.0658482387661934,-0.04717967659235,0.0729505270719528,0.0849078968167305,0.0218383520841599,-0.00563461845740676
901,-0.049814872443676,-0.075162261724472,0.0952505692839623,0.102949939668179,0.0410475470125675,-0.014027314260602
902,-0.0321321934461594,-0.101838119328022,0.0886838883161545,0.0932233482599258,0.0312090031802654,-0.0314285792410374
903,-0.0262917000800371,-0.119355544447899,0.061206977814436,0.0652486979961395,0.00129700324032456,-0.0496533177793026
904,-0.0315302796661854,-0.108351744711399,0.0436467714607716,0.0492266751825809,-0.0247733592987061,-0.0424532108008862
905,-0.0358766466379166,-0.0699710473418236,0.0508836098015308,0.059162650257349,-0.0308729577809572,-0.0021515239495784
906,-0.0318186953663826,-0.0228845458477736,0.0776637196540833,0.0851243212819099,-0.0121155045926571,0.0525496490299702
907,-0.022367799654603,0.0177793148905039,0.112658992409706,0.110088102519512,0.0279760845005512,0.0964817926287651
908,-0.0113665089011192,0.0449548959732056,0.141279697418213,0.122014306485653,0.0717585012316704,0.114864818751812
909,-0.00186462223064154,0.0520393401384354,0.146712079644203,0.113947637379169,0.0921251177787781,0.103438280522823
910,-0.000835194427054375,0.0359103493392468,0.122521229088306,0.086851604282856,0.0748448148369789,0.068126879632473
911,-0.0098665114492178,0.0073333946056664,0.0808933079242706,0.054496131837368,0.032107338309288,0.031574435532093
912,-0.0178135428577662,-0.0128708025440574,0.0452405251562595,0.0357001610100269,-0.00577267678454518,0.0231184791773558
913,-0.0179309714585543,-0.0138599686324596,0.0283737331628799,0.0325397923588753,-0.0212128628045321,0.0455520637333393
914,-0.0169471297413111,-0.00584870204329491,0.0232156589627266,0.028164517134428,-0.021397802978754,0.0703373774886131
915,-0.0173664912581444,-0.00111350591760129,0.0238724146038294,0.0166028682142496,-0.0161634441465139,0.0768727958202362
916,-0.0117920944467187,0.00300405384041369,0.0329178012907505,0.0106615424156189,-0.00984783936291933,0.0688176304101944
917,0.00143789604771882,0.0107535263523459,0.0465775951743126,0.0174393709748983,-0.00503797037526965,0.054916113615036
918,0.0143945291638374,0.0158079117536545,0.05668044090271,0.0301804728806019,-0.000412610766943544,0.0371223911643028
919,0.0206618718802929,0.00980462599545717,0.0622422620654106,0.039915855973959,0.00627452740445733,0.0148185594007373
920,0.0221472475677729,-0.00544093316420913,0.0693242996931076,0.0446586385369301,0.0154918804764748,-0.00682556163519621
921,0.0260862447321415,-0.0219185501337051,0.0766765475273132,0.0470524877309799,0.0238139852881432,-0.0189045760780573
922,0.0351789034903049,-0.0335492417216301,0.0707536116242409,0.0459522679448128,0.0222496278584003,-0.0188176762312651
923,0.0456068255007267,-0.0321911759674549,0.0474853590130806,0.0392350032925606,0.00805375445634127,-0.00904539693146944
924,0.0543781965970993,-0.0101556675508618,0.0239642336964607,0.0324507877230644,-0.00468946155160666,0.0121507663279772
925,0.059598583728075,0.0220177490264177,0.0148280281573534,0.0316431522369385,-0.00233018887229264,0.0394833199679852
926,0.0612091459333897,0.040997389703989,0.0182198695838451,0.0370093882083893,0.0113873789086938,0.0539539568126202
927,0.0614566951990128,0.0381428338587284,0.0275600254535675,0.0469451956450939,0.0242662224918604,0.0474031865596771
928,0.0595272034406662,0.0215132348239422,0.0380944460630417,0.056403037160635,0.0278250388801098,0.0310918819159269
929,0.0567650161683559,-0.00222668424248695,0.0458708517253399,0.0590631030499935,0.0216530915349722,0.0142466677352786
930,0.05952338129282,-0.0355992503464222,0.0430500879883766,0.050461832433939,0.00739280041307211,-0.00810128357261419
931,0.0679474100470543,-0.0747178718447685,0.0246202498674393,0.0305400341749191,-0.0135655738413334,-0.0387440286576748
932,0.0724849626421928,-0.0985608622431755,0.00242731813341379,0.00953815784305334,-0.0319555141031742,-0.0637073293328285
933,0.0657495111227036,-0.0933418273925781,-0.00617624260485172,-0.00277620111592114,-0.0391717776656151,-0.0698640495538712
934,0.0483319982886314,-0.0691079571843147,0.00191864336375147,-0.00659340806305408,-0.0387692004442215,-0.0589167103171349
935,0.0290288552641869,-0.0448237918317318,0.016196770593524,-0.0031655072234571,-0.0354816131293774,-0.0379873439669609
936,0.0239532627165318,-0.0299895666539669,0.0244214907288551,0.00643088202923536,-0.028295086696744,-0.0147497970610857
937,0.0391266457736492,-0.0198509395122528,0.0219116825610399,0.0169548783451319,-0.0186267532408237,0.00409155059605837
938,0.0618304237723351,-0.00572474487125874,0.0171527191996574,0.0274750255048275,-0.00944136176258326,0.0206167623400688
939,0.0772098451852798,0.0176472552120686,0.0224144384264946,0.0430424362421036,0.000192302468349226,0.0418757647275925
940,0.0813897624611855,0.0470759198069572,0.0378529578447342,0.0622822977602482,0.00944532640278339,0.0665028095245361
941,0.0781112834811211,0.0698023959994316,0.0588318109512329,0.0794284716248512,0.0163041092455387,0.0903387814760208
942,0.0721664726734161,0.0756614655256271,0.0825085416436195,0.0899267792701721,0.0241858512163162,0.110722742974758
943,0.0675968527793884,0.0621118769049644,0.0999269932508469,0.0886429622769356,0.0362120531499386,0.115668155252934
944,0.0646457225084305,0.0324367806315422,0.100835606455803,0.074819527566433,0.0484294593334198,0.0940832868218422
945,0.0633869543671608,-0.000915986485779285,0.090360052883625,0.0576156303286552,0.056645579636097,0.055333849042654
946,0.0720125064253807,-0.0237481705844402,0.0861971825361252,0.0526893027126789,0.0639632642269135,0.0209118723869324
947,0.0923737734556198,-0.0318588092923164,0.094041682779789,0.0664009749889374,0.0717809274792671,0.00488318409770727
948,0.111814476549625,-0.0246146135032177,0.108113773167133,0.0902099683880806,0.0737553983926773,0.0083728963509202
949,0.122347459197044,-0.0059457253664732,0.124716490507126,0.110911406576633,0.0645198374986649,0.0198607984930277
950,0.125086054205894,0.0115915350615978,0.139051049947739,0.120440989732742,0.0478149726986885,0.0260118748992682
951,0.121747173368931,0.0204611290246248,0.14570115506649,0.12004791200161,0.0323127955198288,0.0248943772166967
952,0.11349380761385,0.0212574116885662,0.143077716231346,0.113639391958714,0.0214691702276468,0.0196103919297457
953,0.103250168263912,0.0245733615010977,0.137943521142006,0.109167322516441,0.0172006394714117,0.0197461731731892
954,0.0958980247378349,0.0425524823367596,0.13549830019474,0.113724090158939,0.0204420126974583,0.0360860750079155
955,0.0970160216093063,0.0650608763098717,0.125476077198982,0.117985501885414,0.0235509015619755,0.0566666759550571
956,0.103976659476757,0.0739352628588676,0.101302526891232,0.108950212597847,0.0174201261252165,0.0597897469997406
957,0.10562738776207,0.066236324608326,0.0776418074965477,0.0892762839794159,0.00278132199309766,0.042032815515995
958,0.0988699719309807,0.0466626733541489,0.0708059966564178,0.0725826397538185,-0.0146410167217255,0.0147755099460483
959,0.0844951272010803,0.0245094485580921,0.0773043408989906,0.0685514137148857,-0.0338534377515316,-0.0060125975869596
960,0.0625851675868034,0.014357746578753,0.0875794142484665,0.0793179869651794,-0.0491586439311504,-0.00394884077832103
961,0.0397913455963135,0.0219594892114401,0.102122448384762,0.101637847721577,-0.0488577671349049,0.0232873242348433
962,0.0253220871090889,0.0398694910109043,0.119074136018753,0.123015202581882,-0.0321917049586773,0.0582704357802868
963,0.0250589400529861,0.0581996403634548,0.129961356520653,0.129460737109184,-0.00907507445663214,0.0819908007979393
964,0.0336085744202137,0.068018451333046,0.126865610480309,0.117699563503265,0.00596458930522203,0.0849036052823067
965,0.0409956872463226,0.0651449039578438,0.106394566595554,0.0949050486087799,0.00225917715579271,0.0701489374041557
966,0.048107024282217,0.0550406873226166,0.0774116292595863,0.0730367079377174,-0.0125732710584998,0.0578755587339401
967,0.0612827725708485,0.0451910197734833,0.054156456142664,0.057700265198946,-0.0166825521737337,0.0608573667705059
968,0.0838148817420006,0.035542469471693,0.0391867309808731,0.0417369194328785,0.00372058944776654,0.0596326291561127
969,0.106289856135845,0.0181794427335262,0.0260969027876854,0.0143635366111994,0.0320861376821995,0.0298208966851234
970,0.104967594146729,-0.0106370616704226,0.0120559521019459,-0.0261629801243544,0.0325357653200626,-0.0250798743218184
971,0.0736605003476143,-0.0427355542778969,-0.00167858216445893,-0.0669795125722885,-0.00561925815418363,-0.0790658742189407
972,0.0367833226919174,-0.0662967190146446,-0.0160006005316973,-0.0901765003800392,-0.0553421638906002,-0.107552565634251
973,0.0205919053405523,-0.0740220844745636,-0.0321909822523594,-0.0920465737581253,-0.0873941406607628,-0.110680788755417
974,0.0286467336118221,-0.0683312639594078,-0.0433426722884178,-0.0805986896157265,-0.0986110642552376,-0.104596495628357
975,0.0398008786141872,-0.0605402588844299,-0.0434825979173183,-0.0630480200052261,-0.105978362262249,-0.0976431965827942
976,0.0336138755083084,-0.0588968135416508,-0.0419205948710442,-0.0485223829746246,-0.122324466705322,-0.0922109559178352
977,0.0118243684992194,-0.0600078925490379,-0.0448016226291656,-0.0399880185723305,-0.139474108815193,-0.0852532833814621
978,-0.00845325831323862,-0.0584313981235027,-0.0421956926584244,-0.029373899102211,-0.139022320508957,-0.0685601085424423
979,-0.010898619890213,-0.0556649304926395,-0.0300245806574821,-0.0135967135429382,-0.116970650851727,-0.0430396795272827
980,0.00340992817655206,-0.0527502447366714,-0.0182877033948898,0.000167425940162502,-0.0881648734211922,-0.0205125547945499
981,0.0194898787885904,-0.0473318360745907,-0.0130257522687316,0.00464973691850901,-0.0680489018559456,-0.0106566417962313
982,0.0297733526676893,-0.0361787192523479,-0.0075686126947403,0.00123830873053521,-0.0582947358489037,-0.00856764242053032
983,0.0360209047794342,-0.0225602854043245,-0.00227169157005847,-0.0085407430306077,-0.0581520050764084,-0.00680241454392672
984,0.0407017208635807,-0.0158642269670963,-0.00933008827269077,-0.0260406117886305,-0.0682753324508667,-0.012146083638072
985,0.0466099828481674,-0.0170872136950493,-0.0257089789956808,-0.0422499552369118,-0.077138364315033,-0.0290056336671114
986,0.0557766184210777,-0.020715182647109,-0.0348411053419113,-0.0468066409230232,-0.0720473155379295,-0.0481950826942921
987,0.0672229155898094,-0.0262441728264093,-0.0324993282556534,-0.0429437570273876,-0.0551432333886623,-0.0610514990985394
988,0.0754782482981682,-0.0391403287649155,-0.0297429300844669,-0.0424715913832188,-0.0383284389972687,-0.0686753168702126
989,0.0764372646808624,-0.0625743344426155,-0.0378924384713173,-0.0570618622004986,-0.0317833200097084,-0.0807811692357063
990,0.0716320648789406,-0.0929703041911125,-0.0595949776470661,-0.0897622182965279,-0.0398571267724037,-0.106844820082188
991,0.0603256076574326,-0.123594731092453,-0.0879214927554131,-0.128378391265869,-0.0638969242572784,-0.14294658601284
992,0.0408160127699375,-0.147784620523453,-0.109192095696926,-0.156423583626747,-0.101343706250191,-0.174792319536209
993,0.0200148746371269,-0.158221915364265,-0.110385432839394,-0.163725808262825,-0.139220848679543,-0.187198057770729
994,0.00914762075990438,-0.147562101483345,-0.0905339941382408,-0.144896671175957,-0.160262167453766,-0.167896330356598
995,0.0115648154169321,-0.118745818734169,-0.0647224187850952,-0.107649475336075,-0.161452695727348,-0.122447483241558
996,0.0225111078470945,-0.0844636186957359,-0.0456526167690754,-0.0686436519026756,-0.151705503463745,-0.0711256861686707
997,0.0374965853989124,-0.0543962344527245,-0.0338005572557449,-0.038844145834446,-0.138579040765762,-0.0296546146273613
998,0.0547499805688858,-0.032181479036808,-0.028462240472436,-0.0228508431464434,-0.127665042877197,-0.00589855900034308
