,AF3,AF4,Fp1,Fp2,AF7,AF8
0,0.0526508763432503,0.0758586451411247,0.0504103936254978,0.020333418622613,0.00815677549690008,0.0124731548130512
1,0.0445779785513878,0.0385329909622669,0.0470784120261669,0.0130356028676033,0.0117855994030833,-0.00940696522593498
2,0.0460348092019558,0.00538457557559013,0.04829166457057,-0.000730370171368122,0.0272067524492741,-0.0471874810755253
3,0.0616375058889389,-0.0209174510091543,0.0503387600183487,-0.0147114163264632,0.0514828339219093,-0.0829482898116112
4,0.0806809365749359,-0.0373464860022068,0.0385392569005489,-0.0363044366240501,0.0543689131736755,-0.102266028523445
5,0.0802017226815224,-0.0451877936720848,-0.000777880835812539,-0.0769410654902458,0.0135678248479962,-0.11894229054451
6,0.0616050101816654,-0.0545357763767242,-0.0460994355380535,-0.11398658156395,-0.0380823537707329,-0.146581545472145
7,0.0429787486791611,-0.0801061242818832,-0.0681052058935165,-0.11620207130909,-0.055740512907505,-0.171428471803665
8,0.0378070399165154,-0.11505725979805,-0.0665921866893768,-0.089219905436039,-0.0383000038564205,-0.172333583235741
9,0.0453917160630226,-0.129124149680138,-0.0558892898261547,-0.0607585161924362,-0.017703790217638,-0.140080720186234
10,0.0419165827333927,-0.111688725650311,-0.049274280667305,-0.0483586862683296,-0.0266579557210207,-0.0912422612309456
11,0.0152806481346488,-0.0791661664843559,-0.0452836938202381,-0.0437257587909698,-0.062236912548542,-0.0508490689098835
12,-0.00962598901242018,-0.0346835926175117,-0.0229250770062208,-0.0261736884713173,-0.0818147212266922,-0.0144600085914135
13,-0.0105590652674437,0.0241010040044785,0.0263386704027653,0.00622342154383659,-0.0598392002284527,0.0277597550302744
14,0.00795366428792477,0.0753225684165955,0.0804210752248764,0.0358685329556465,-0.0134293083101511,0.0610828958451748
15,0.0329136773943901,0.0983944311738014,0.111970759928226,0.0482905358076096,0.0367651879787445,0.0683197602629662
16,0.0546430982649326,0.0972117036581039,0.110761232674122,0.0382355712354183,0.079145610332489,0.041202612221241
17,0.0686732903122902,0.0769767761230469,0.0878455713391304,0.0117425015196204,0.0972861424088478,-0.0129930442199111
18,0.0724455118179321,0.0411602854728699,0.058593288064003,-0.0206561256200075,0.0783633664250374,-0.064926765859127
19,0.0663840621709824,0.00481438729912043,0.0282651465386152,-0.0487467236816883,0.0321186482906342,-0.0937422662973404
20,0.0560064986348152,-0.0183841660618782,0.00786107685416937,-0.0550686605274677,-0.0107334284111857,-0.0982413440942764
21,0.0440313741564751,-0.0266845356673002,0.00614581955596805,-0.037225179374218,-0.0329201743006706,-0.079542264342308
22,0.0392829775810242,-0.0208691377192736,0.0169560238718987,-0.0125904008746147,-0.0361443012952805,-0.0471399761736393
23,0.0542913973331451,0.00233782106079161,0.0305493418127298,0.00699200574308634,-0.021141491830349,-0.019010204821825
24,0.0768855214118958,0.0262100286781788,0.0303380135446787,0.0121259298175573,-0.00246773124672472,-0.00620379485189915
25,0.0789031684398651,0.0194619260728359,0.00824433099478483,-0.0039111552760005,0.000512049184180796,-0.0106329377740622
26,0.0527330972254276,-0.0132486410439014,-0.0197817105799913,-0.0354167185723782,-0.0118077704682946,-0.0251406133174896
27,0.0176355931907892,-0.0331593416631222,-0.0383908636868,-0.0686807483434677,-0.0353570692241192,-0.0430152602493763
28,0.00023547126329504,-0.0239166654646397,-0.03927031904459,-0.0818860679864883,-0.0573739297688007,-0.0639064833521843
29,0.0106895705685019,-0.00125792110338807,-0.0157055500894785,-0.0614004582166672,-0.0533599220216274,-0.0769211575388908
30,0.0391629710793495,0.016596645116806,0.0197417102754116,-0.0269986651837826,-0.0269707515835762,-0.0697705447673798
31,0.0747856199741364,0.0150342183187604,0.043452512472868,-0.010258911177516,-0.00703767780214548,-0.0534744262695313
32,0.104245781898499,-0.00292029255069792,0.0488718971610069,-0.0200067758560181,-0.00462442683055997,-0.0480924770236015
33,0.110144689679146,-0.0213031955063343,0.0402180030941963,-0.0454472340643406,-0.0127758467569947,-0.0640267506241798
34,0.0884805470705032,-0.0393448732793331,0.0247130151838064,-0.0670637488365173,-0.0281274560838938,-0.0984728336334229
35,0.0550726391375065,-0.0616673864424229,0.0199556853622198,-0.0644520744681358,-0.0460096746683121,-0.121845997869968
36,0.0366745851933956,-0.079430878162384,0.0347934029996395,-0.0349322520196438,-0.0545072332024574,-0.10167832672596
37,0.0422034747898579,-0.0805345177650452,0.0548633262515068,0.000369054236216471,-0.0452160313725472,-0.053288709372282
38,0.0521339736878872,-0.0655498430132866,0.0639944970607758,0.0181638076901436,-0.0205567646771669,-0.016764972358942
39,0.0488481782376766,-0.0463257804512978,0.0591713525354862,0.0142798526212573,0.00447082472965121,-0.00388049543835223
40,0.0267394445836544,-0.0387177504599094,0.0381074249744415,-0.00861136615276337,0.00391471525654197,-0.0139889260753989
41,0.000641353602986783,-0.0529358126223087,0.00417034374549985,-0.0454181954264641,-0.0263269431889057,-0.0481457784771919
42,0.00264141918160021,-0.0758406817913055,-0.0188632532954216,-0.0710295960307121,-0.0528539009392262,-0.081542856991291
43,0.0367359071969986,-0.083174891769886,-0.0136650241911411,-0.0605061016976833,-0.0526197180151939,-0.0852076038718224
44,0.0795676186680794,-0.0691463798284531,0.0121196005493402,-0.0196115542203188,-0.0293789282441139,-0.0658939033746719
45,0.108464784920216,-0.0331474281847477,0.0422466471791267,0.0236487705260515,0.00925585627555847,-0.0441129207611084
46,0.108501337468624,0.0201763287186623,0.0596150755882263,0.04063930362463,0.0461642257869244,-0.0304924193769693
47,0.0874065160751343,0.0576472096145153,0.0576605126261711,0.022336957976222,0.0569636896252632,-0.0334882140159607
48,0.059796042740345,0.0473065078258514,0.0395492240786552,-0.0174738690257072,0.0249323900789022,-0.0553853251039982
49,0.0243138112127781,0.000396408519009128,0.00349029758945107,-0.0632709488272667,-0.0505204275250435,-0.0836228653788567
50,-0.0105290245264769,-0.0380013845860958,-0.0319960564374924,-0.0949818342924118,-0.128563687205315,-0.0952598974108696
51,-0.0237897410988808,-0.037224043160677,-0.0331567637622356,-0.0887969136238098,-0.150604367256165,-0.0773246362805367
52,-0.011057578958571,-0.00549236033111811,0.00278771412558854,-0.0454970151185989,-0.110881373286247,-0.036681167781353
53,0.0131011260673404,0.0294208917766809,0.0496357828378677,0.00753850769251585,-0.0495640709996223,0.012724356725812
54,0.0276949945837259,0.0404281988739967,0.0721856206655502,0.0345380716025829,-0.000300657004117966,0.0385422743856907
55,0.0262813344597816,0.0178373828530312,0.0533842444419861,0.0204595066606998,0.0215790998190641,0.00793059729039669
56,0.0245294626802206,-0.0285762865096331,0.0162912011146545,-0.0143314059823751,0.0170214641839266,-0.0574769303202629
57,0.0358290486037731,-0.0838180556893349,-0.00406581722199917,-0.037369329482317,0.00659789424389601,-0.107820905745029
58,0.0537589341402054,-0.129364237189293,0.00449537113308907,-0.0312988050282002,0.00687495013698936,-0.125182628631592
59,0.0644132792949677,-0.147310823202133,0.0327681675553322,-0.00481665274128318,0.0104161892086267,-0.11631128937006
60,0.0649536550045013,-0.128000736236572,0.0654908940196037,0.0228990837931633,0.00668697291985154,-0.0826748088002205
61,0.0574753545224667,-0.0704940035939217,0.0886593163013458,0.0423810482025146,-0.00545023195445538,-0.0307123530656099
62,0.0363803990185261,-0.00301943230442703,0.0911711901426315,0.0487891510128975,-0.0248945727944374,0.0141270430758595
63,0.00539119774475694,0.0300220530480146,0.0686614960432053,0.0339875183999538,-0.0481543280184269,0.0257547870278358
64,-0.0121867954730988,0.0249792970716953,0.0379109568893909,0.00280579784885049,-0.0608631111681461,0.00304877571761608
65,-0.00791240576654673,0.00967812817543745,0.0186513122171164,-0.0306244045495987,-0.0541934669017792,-0.0363761074841022
66,0.00226981262676418,-0.00296866637654603,0.00634180754423141,-0.0633324310183525,-0.04362827911973,-0.0821553915739059
67,0.0095772547647357,-0.0152878519147635,-0.000136033486342058,-0.0838401988148689,-0.0371588915586472,-0.119650393724442
68,0.0123577564954758,-0.0263692066073418,0.00517810974270105,-0.0757040977478027,-0.0267238132655621,-0.124089322984219
69,0.00753448717296124,-0.0312785729765892,0.00766739249229431,-0.0530364140868187,-0.0155580118298531,-0.093377560377121
70,-0.00339875416830182,-0.0276148058474064,-0.00273288204334676,-0.0412120968103409,-0.00929446611553431,-0.052421111613512
71,-0.0217091795057058,-0.023250175639987,-0.0181050412356853,-0.0468937829136848,-0.0166196245700121,-0.0287954639643431
72,-0.0428854525089264,-0.034146673977375,-0.033472090959549,-0.0609281919896603,-0.0486652404069901,-0.0341398939490318
73,-0.0510069690644741,-0.0653127431869507,-0.0423956178128719,-0.0696618780493736,-0.0870636254549026,-0.0584329143166542
74,-0.0430617183446884,-0.10229517519474,-0.0400902479887009,-0.0701947808265686,-0.103486023843288,-0.0867839753627777
75,-0.0261377617716789,-0.122845448553562,-0.0307398997247219,-0.0647619441151619,-0.0970692038536072,-0.109540313482285
76,-0.00706713134422898,-0.118842929601669,-0.0247075688093901,-0.0572543740272522,-0.087449386715889,-0.117801643908024
77,0.00161707086954266,-0.0925676748156548,-0.032585121691227,-0.0578640252351761,-0.0919262394309044,-0.107597485184669
78,-0.0044551333412528,-0.036422111093998,-0.045219212770462,-0.062913216650486,-0.102101936936378,-0.0780977606773376
79,-0.0210839882493019,0.0389038547873497,-0.0428146496415138,-0.0589247234165668,-0.0958243682980537,-0.036886740475893
80,-0.0414496026933193,0.0944371446967125,-0.0224772039800882,-0.0485603250563145,-0.0698842480778694,-0.00227019982412457
81,-0.0576699934899807,0.111848421394825,0.00140962144359946,-0.0440202131867409,-0.0449413135647774,0.0165952984243631
82,-0.0704960748553276,0.0911782085895538,0.0128553286194801,-0.0477876923978329,-0.0413283035159111,0.0206008888781071
83,-0.0729737505316734,0.0310090053826571,0.0150026641786098,-0.0493052005767822,-0.0481853298842907,0.00542595516890287
84,-0.0545812882483006,-0.0433894135057926,0.0177437663078308,-0.0424711219966412,-0.0451940894126892,-0.0355353020131588
85,-0.0252093058079481,-0.0994273796677589,0.0112195210531354,-0.0378631688654423,-0.0431115925312042,-0.091671347618103
86,-0.00196224101819098,-0.13528436422348,-0.0110869836062193,-0.0450574420392513,-0.0600854754447937,-0.133520975708961
87,0.00875700823962688,-0.154701679944992,-0.0300726648420095,-0.0543519407510757,-0.0845826119184494,-0.142534837126732
88,0.00556976860389113,-0.153397336602211,-0.0289240535348654,-0.0527148805558681,-0.0938218981027603,-0.129334807395935
89,-0.0133025655522943,-0.127663150429726,-0.0154093401506543,-0.0448839254677296,-0.0854671373963356,-0.110779523849487
90,-0.0374792404472828,-0.0838117823004723,-0.00149846344720572,-0.0357626304030418,-0.0646441206336021,-0.0905582904815674
91,-0.0407540649175644,-0.0453603900969028,0.0156722031533718,-0.0182400345802307,-0.024297583848238,-0.0724405869841576
92,-0.00902021490037441,-0.0293615683913231,0.0404159128665924,0.0060726017691195,0.0322010591626167,-0.0641006007790565
93,0.0367573276162148,-0.034552201628685,0.0646442696452141,0.0227021556347609,0.0817247852683067,-0.0674965307116508
94,0.0684712454676628,-0.0465466380119324,0.0800520777702332,0.0209837071597576,0.115734227001667,-0.0801862478256226
95,0.0799240320920944,-0.0523772723972797,0.0865078121423721,0.000305801251670346,0.138214215636253,-0.0982609465718269
96,0.0683217570185661,-0.0640372186899185,0.0777072906494141,-0.0320063978433609,0.129535794258118,-0.119055956602097
97,0.0298065785318613,-0.0835588648915291,0.0469793491065502,-0.0601855367422104,0.0708376690745354,-0.128313571214676
98,-0.0276709590107203,-0.0784841999411583,0.00591307878494263,-0.0708300173282623,-0.0200006663799286,-0.0978521108627319
99,-0.0908837839961052,-0.0390421636402607,-0.0300789605826139,-0.066675566136837,-0.11046776175499,-0.0325345732271671
100,-0.13867025077343,0.00404129642993212,-0.0522148497402668,-0.0528589822351933,-0.171057432889938,0.0196000505238771
101,-0.149512887001038,0.0188448876142502,-0.0530833266675472,-0.0302993189543486,-0.182970970869064,0.0242542698979378
102,-0.122803948819637,-0.00235589314252138,-0.0323633998632431,-0.0100790383294225,-0.154805302619934,-0.0108850076794624
103,-0.0785845890641212,-0.0443072021007538,-0.00614570593461394,-0.0101880272850394,-0.115425139665604,-0.0617784783244133
104,-0.0454878211021423,-0.0902609005570412,-0.00255271559581161,-0.0429117493331432,-0.0885635912418365,-0.117590323090553
105,-0.034592118114233,-0.130799949169159,-0.0217674653977156,-0.0939087867736816,-0.0748289749026299,-0.168872907757759
106,-0.0335218496620655,-0.152198269963264,-0.0289023257791996,-0.12296337634325,-0.0596419982612133,-0.186345905065537
107,-0.041157204657793,-0.14118055999279,-0.0134158777073026,-0.112478844821453,-0.0420486778020859,-0.158234998583794
108,-0.0630540773272514,-0.104676634073257,0.00753995636478066,-0.0774215161800385,-0.0303793083876371,-0.111793488264084
109,-0.085671454668045,-0.0619771964848042,0.0296716969460249,-0.0366062335669994,-0.0202379170805216,-0.0701025873422623
110,-0.0939280986785889,-0.0262028630822897,0.0498564578592777,-0.00679381284862757,-0.0109105221927166,-0.0403090193867683
111,-0.0792803466320038,-0.00551632838323712,0.0614838786423206,0.0110241612419486,-0.00478067481890321,-0.0237264521420002
112,-0.0471437200903893,-0.00379807502031326,0.065870612859726,0.0294116493314505,0.00461504841223359,-0.00945151224732399
113,-0.0303955301642418,-0.0121760964393616,0.0558403693139553,0.0398135669529438,0.00585840223357081,0.0084245465695858
114,-0.045671608299017,-0.00769838830456138,0.0250168349593878,0.0253242608159781,-0.0185840409249067,0.0167864914983511
115,-0.0702513232827187,0.0188916176557541,-0.012992431409657,-0.00543858064338565,-0.0586585514247417,-0.00211756210774183
116,-0.0820768848061562,0.0441768616437912,-0.0393980443477631,-0.0332068353891373,-0.0948197618126869,-0.0466163866221905
117,-0.0730378925800323,0.0416713953018188,-0.0474833659827709,-0.0542332082986832,-0.115661010146141,-0.0912349969148636
118,-0.0471994206309319,0.00204854016192257,-0.0408264212310314,-0.0702020078897476,-0.113697469234467,-0.114905931055546
119,-0.0230584237724543,-0.0606820397078991,-0.0171265359967947,-0.0674535110592842,-0.0876578316092491,-0.115045696496964
120,-0.0175711400806904,-0.113196961581707,0.0269000511616468,-0.0358849540352821,-0.0494644269347191,-0.0949805080890656
121,-0.0313112251460552,-0.132660895586014,0.0773926079273224,0.0101648457348347,-0.0170163977891207,-0.0572740957140923
122,-0.0439916029572487,-0.118928469717503,0.119142383337021,0.0520358644425869,0.00684196269139647,-0.00721638044342399
123,-0.0439776815474033,-0.0896575897932053,0.146995812654495,0.0806310549378395,0.027424281463027,0.0365764759480953
124,-0.0481343530118465,-0.0674397349357605,0.152621760964394,0.0871329009532928,0.034538246691227,0.0454425923526287
125,-0.063600055873394,-0.0584890842437744,0.137278854846954,0.0721909776329994,0.0220975428819656,0.0155211044475436
126,-0.0745826438069344,-0.0553534217178822,0.115370854735374,0.0518323518335819,0.00787239614874125,-0.0260674376040697
127,-0.0721051469445229,-0.0531264655292034,0.0924113988876343,0.0352050438523293,0.00580695504322648,-0.0564877986907959
128,-0.0654376149177551,-0.0455756485462189,0.0651348680257797,0.0162026807665825,0.00592205859720707,-0.0745493248105049
129,-0.0641674399375916,-0.0284093096852303,0.0334275402128696,-0.0100466841831803,-0.00542607344686985,-0.0878865420818329
130,-0.0579954236745834,-0.00368897104635835,-0.00105151324532926,-0.0412977151572704,-0.0281622633337975,-0.089107520878315
131,-0.0369166098535061,0.0238945912569761,-0.0450392067432404,-0.0777160078287125,-0.056484580039978,-0.0680881664156914
132,-0.0235268138349056,0.0296177081763744,-0.105814464390278,-0.120107524096966,-0.0918817892670631,-0.0544174462556839
133,-0.0474940501153469,-0.00624680193141103,-0.165917932987213,-0.15732616186142,-0.141006469726563,-0.0866043791174889
134,-0.0955649167299271,-0.0647802278399467,-0.187062233686447,-0.167474880814552,-0.18897819519043,-0.140692993998528
135,-0.125991210341454,-0.114341109991074,-0.147042825818062,-0.135755121707916,-0.202081456780434,-0.157030254602432
136,-0.125193297863007,-0.129184529185295,-0.0597150586545467,-0.0684796646237373,-0.169004812836647,-0.122182384133339
137,-0.111763916909695,-0.106996931135654,0.0368342511355877,0.00629687635228038,-0.111651919782162,-0.0719683691859245
138,-0.0983150452375412,-0.0739708691835403,0.107358552515507,0.0580849535763264,-0.0587461590766907,-0.0378946997225285
139,-0.0815679579973221,-0.0503046177327633,0.144046992063522,0.0819208472967148,-0.018181199207902,-0.0250622611492872
140,-0.0579663701355457,-0.0338630676269531,0.160803034901619,0.0916682779788971,0.0217555612325668,-0.0197903085500002
141,-0.0289199687540531,-0.0168662462383509,0.166466325521469,0.0899806395173073,0.0636629387736321,-0.00659706490114331
142,-0.00269977492280304,-0.00250981678254902,0.158399865031242,0.071686863899231,0.0883706659078598,0.0192215908318758
143,0.00456092273816466,-0.00317701045423746,0.128819197416306,0.0389085225760937,0.0751403868198395,0.0386676788330078
144,-0.010153497569263,-0.0250881258398294,0.0741014555096626,-0.00252108951099217,0.0264075994491577,0.0209538359194994
145,-0.0355322621762753,-0.0589138753712177,0.00256665702909231,-0.0443774200975895,-0.0395107828080654,-0.0319875217974186
146,-0.0669257789850235,-0.0887084454298019,-0.0730616673827171,-0.0816522464156151,-0.108943343162537,-0.0970950648188591
147,-0.0961134806275368,-0.0985980331897736,-0.130339160561562,-0.111064672470093,-0.163229376077652,-0.154772326350212
148,-0.109478801488876,-0.0811252444982529,-0.142655089497566,-0.12249056994915,-0.179712638258934,-0.180700823664665
149,-0.102893255650997,-0.0440211445093155,-0.1106336414814,-0.111071586608887,-0.156253546476364,-0.164191231131554
150,-0.079967699944973,-0.0051915911026299,-0.0606443397700787,-0.08214470744133,-0.111512407660484,-0.120434999465942
151,-0.0565271265804768,0.00583022367209196,-0.0228072982281446,-0.0483536049723625,-0.0724105015397072,-0.0772416964173317
152,-0.051434725522995,-0.0252801477909088,-0.0120487110689282,-0.0269076842814684,-0.0572026558220387,-0.0508527085185051
153,-0.0648935064673424,-0.0708582773804665,-0.0222121011465788,-0.0235695783048868,-0.0644751936197281,-0.0378460958600044
154,-0.0842908173799515,-0.0981465801596642,-0.0391218848526478,-0.0277320928871632,-0.0825630500912666,-0.0357681177556515
155,-0.0943482294678688,-0.10008729249239,-0.0431349687278271,-0.0237522274255753,-0.0940239354968071,-0.0424847528338432
156,-0.0844426229596138,-0.0782131254673004,-0.0189930833876133,-0.0042406665161252,-0.0814588069915771,-0.0481601804494858
157,-0.0602601543068886,-0.0440295003354549,0.0287874210625887,0.0262415912002325,-0.0407075956463814,-0.0457748807966709
158,-0.0377029962837696,-0.0238802209496498,0.0814104527235031,0.0564584285020828,0.0129982093349099,-0.0333521738648415
159,-0.0279773641377687,-0.0264964792877436,0.117361187934875,0.0718016996979713,0.0518933199346066,-0.0127996420487762
160,-0.0325464084744453,-0.0361399613320827,0.124680355191231,0.0624955631792545,0.0567665696144104,0.00411960482597351
161,-0.0456200502812862,-0.0424041263759136,0.105397306382656,0.0329381376504898,0.0307341068983078,0.00636104447767138
162,-0.0612222664058208,-0.0503941923379898,0.0666096210479736,-0.00468157371506095,-0.0102577703073621,-0.0111321164295077
163,-0.076613575220108,-0.0658114105463028,0.0158330723643303,-0.0434998832643032,-0.0568243488669395,-0.0524464100599289
164,-0.085774838924408,-0.075918473303318,-0.0323116704821587,-0.0778350085020065,-0.100314036011696,-0.096199668943882
165,-0.0812856182456017,-0.0617631748318672,-0.0622146800160408,-0.103685148060322,-0.121225290000439,-0.113452821969986
166,-0.0675495341420174,-0.040377002209425,-0.0768057852983475,-0.127147555351257,-0.120268419384956,-0.118743926286697
167,-0.0588086284697056,-0.0466296412050724,-0.0879677906632423,-0.143423318862915,-0.125061884522438,-0.133273765444756
168,-0.0582535453140736,-0.0683052241802216,-0.0902417674660683,-0.126747250556946,-0.137439325451851,-0.133110225200653
169,-0.0555898137390614,-0.0611478462815285,-0.0655075162649155,-0.0674125701189041,-0.129144966602325,-0.0868551507592201
170,-0.0469585843384266,-0.0190306790173054,-0.0118218557909131,0.0108285620808601,-0.0893150120973587,-0.00877208355814219
171,-0.0374854318797588,0.0124699836596847,0.0427923500537872,0.0732445195317268,-0.0372285842895508,0.0476633794605732
172,-0.0320958606898785,-0.00821664649993181,0.0710915848612785,0.100013583898544,0.00583914946764708,0.0474383421242237
173,-0.0303473751991987,-0.0702788531780243,0.0781325697898865,0.0995166525244713,0.0399873852729797,0.011506081558764
174,-0.0310546848922968,-0.12479929625988,0.0764120221138,0.0846804529428482,0.0576610453426838,-0.0222309064120054
175,-0.0408733673393726,-0.133469954133034,0.0615147165954113,0.0533952750265598,0.0344539284706116,-0.0444822162389755
176,-0.0695098489522934,-0.104021571576595,0.0268181376159191,0.00203541270457208,-0.0278700850903988,-0.0650679096579552
177,-0.108642175793648,-0.0758682563900948,-0.0156393758952618,-0.0588327944278717,-0.0911585316061974,-0.079469233751297
178,-0.127374604344368,-0.0674787610769272,-0.0405578725039959,-0.105866588652134,-0.112133868038654,-0.0809512436389923
179,-0.108985297381878,-0.0661046952009201,-0.0409355945885181,-0.12575575709343,-0.0905230194330215,-0.0880614742636681
180,-0.0666512846946716,-0.0667663738131523,-0.0321118906140327,-0.123002327978611,-0.0690160542726517,-0.111758343875408
181,-0.0205757785588503,-0.0717401877045631,-0.0265040937811136,-0.105279125273228,-0.0705097988247871,-0.132563799619675
182,0.0197494812309742,-0.0747115388512611,-0.0191781744360924,-0.0711390450596809,-0.0747917369008064,-0.12592326104641
183,0.0494706556200981,-0.0726620256900787,0.00328411534428597,-0.0164536368101835,-0.0584682039916515,-0.0886383950710297
184,0.057020328938961,-0.0632060319185257,0.0398438461124897,0.0454346835613251,-0.0249835420399904,-0.0374134443700314
185,0.0392081439495087,-0.0424910187721252,0.0730466246604919,0.0903719514608383,0.00472498824819922,0.0167388040572405
186,0.007016371935606,-0.00915050692856312,0.0863970220088959,0.104108847677708,0.0136936064809561,0.069770410656929
187,-0.0295164305716753,0.0323284529149532,0.0733226612210274,0.0854546576738358,0.000798098801169544,0.106957785785198
188,-0.0604578368365765,0.0617724768817425,0.036219660192728,0.0438286066055298,-0.027993043884635,0.107154078781605
189,-0.0773724019527435,0.0568671599030495,-0.0124697666615248,-0.00140597193967551,-0.0643955245614052,0.0636476278305054
190,-0.0889853835105896,0.0118754236027598,-0.0525276325643063,-0.0321358218789101,-0.0879917964339256,-0.00504793180152774
191,-0.106056027114391,-0.0624122507870197,-0.0720780864357948,-0.0487188287079334,-0.0823011696338654,-0.0737085938453674
192,-0.115084767341614,-0.134856328368187,-0.0684818103909492,-0.0592355020344257,-0.0551688745617867,-0.126727923750877
193,-0.0998236089944839,-0.166201174259186,-0.0451436825096607,-0.0667778700590134,-0.0304341930896044,-0.15502692759037
194,-0.070111483335495,-0.145366862416267,-0.0204408932477236,-0.0765803754329681,-0.0243129245936871,-0.157339632511139
195,-0.04440987855196,-0.0981385856866837,-0.00764191290363669,-0.0869827717542648,-0.0198527108877897,-0.135349333286285
196,-0.0231584794819355,-0.0587738528847694,-0.000892293232027441,-0.0896064713597298,0.00492790108546615,-0.103851668536663
197,0.00149142916779965,-0.0448412485420704,0.00434764614328742,-0.0830780416727066,0.0312780290842056,-0.0922934338450432
198,0.0185807831585407,-0.0603941529989243,0.00487734796479344,-0.0690542086958885,0.0241385344415903,-0.0992812886834145
199,0.0140869086608291,-0.0900312438607216,0.000353792333044112,-0.0474420301616192,-0.0208933781832457,-0.0898122265934944
200,-0.00518966652452946,-0.0941878333687782,-0.00426446739584208,-0.0185187626630068,-0.0745883211493492,-0.0523064024746418
201,-0.0358094424009323,-0.05557506904006,-0.00653466815128922,0.0102937119081616,-0.108680121600628,-0.0133155873045325
202,-0.0731891542673111,0.00372406910173595,-0.00488810334354639,0.0284920800477266,-0.110881045460701,0.00556134479120374
203,-0.0985825136303902,0.0555354803800583,0.00559336505830288,0.0345411747694016,-0.0795871615409851,0.0107578579336405
204,-0.10408828407526,0.0781406909227371,0.0239875968545675,0.0347426496446133,-0.0310125146061182,0.0153257297351956
205,-0.0925679281353951,0.0596645027399063,0.0455226488411427,0.0382718741893768,0.0124580264091492,0.0159991811960936
206,-0.0658043622970581,0.00548898708075285,0.0687720850110054,0.0473479516804218,0.0474375337362289,0.00289226486347616
207,-0.0341224670410156,-0.0599087029695511,0.0860631018877029,0.0513426139950752,0.0738063380122185,-0.018578864634037
208,-0.0172321405261755,-0.103778317570686,0.0833278447389603,0.0403618849813938,0.0749129429459572,-0.0336134992539883
209,-0.0246459301561117,-0.109494157135487,0.0538928732275963,0.0145195946097374,0.0461378358304501,-0.0354897044599056
210,-0.0415917262434959,-0.0852846726775169,0.00811071321368217,-0.0179720763117075,0.00769154587760568,-0.0271009858697653
211,-0.0481641255319119,-0.0505077429115772,-0.0337492153048515,-0.0490534789860249,-0.0286262612789869,-0.0240260157734156
212,-0.0496378056704998,-0.0277078878134489,-0.0651679635047913,-0.079519510269165,-0.0709594190120697,-0.0478560589253902
213,-0.0591733306646347,-0.0352472141385078,-0.0869605988264084,-0.103679724037647,-0.114572323858738,-0.0922335609793663
214,-0.0672864764928818,-0.0603742450475693,-0.0863784030079842,-0.098461925983429,-0.131822869181633,-0.111573770642281
215,-0.060002151876688,-0.0730953365564346,-0.0582854636013508,-0.0574737787246704,-0.108697295188904,-0.0755937322974205
216,-0.0390980020165443,-0.0654724910855293,-0.0172860324382782,-0.00803161412477493,-0.0570260174572468,-0.0148907238617539
217,-0.0113795939832926,-0.0351395420730114,0.0240803807973862,0.0277426186949015,0.0103894835337996,0.0292865596711636
218,0.0113915614783764,0.020325617864728,0.0509296655654907,0.0430701896548271,0.0734062865376472,0.0515296421945095
219,0.0125544480979443,0.0764193758368492,0.0477500446140766,0.0342669785022736,0.0972204580903053,0.0512360632419586
220,-0.0104075279086828,0.0887170508503914,0.0250688716769218,0.0138658685609698,0.0745213404297829,0.0234722066670656
221,-0.044126383960247,0.0298007018864155,0.00341552123427391,-0.00422466499730945,0.0304307378828526,-0.0260340087115765
222,-0.0679099708795547,-0.0769816786050797,-0.00765965459868312,-0.0186709631234407,-0.0146873826161027,-0.0847369432449341
223,-0.0713871419429779,-0.171122401952744,-0.00755064468830824,-0.0275465901941061,-0.0522614903748035,-0.128973081707954
224,-0.066383920609951,-0.209370300173759,-0.00414370372891426,-0.0288858581334352,-0.0764933452010155,-0.134371891617775
225,-0.0627095177769661,-0.177373856306076,0.00136584939900786,-0.0214729830622673,-0.078548863530159,-0.0981311053037643
226,-0.0594063252210617,-0.0830411985516548,0.0120684737339616,-0.00854595378041267,-0.0579125620424747,-0.0412884913384914
227,-0.0549988746643066,0.0276252757757902,0.0229664668440819,0.00129733548965305,-0.0298171881586313,0.00750054279342294
228,-0.0501174256205559,0.0911287888884544,0.0299811903387308,0.00574747798964381,-0.00428602984175086,0.027263768017292
229,-0.0475072227418423,0.0782303214073181,0.0321224369108677,0.00823797658085823,0.0197259802371264,0.0108689740300179
230,-0.0375152081251144,0.0193019509315491,0.0297037921845913,0.0114181870594621,0.0390382893383503,-0.024837639182806
231,-0.00935424864292145,-0.0330661125481129,0.0263703539967537,0.0144656728953123,0.0441494733095169,-0.0473686121404171
232,0.0155575638636947,-0.0571567453444004,0.0218927711248398,0.0119529888033867,0.0272501073777676,-0.0444111041724682
233,0.0154229924082756,-0.0615605115890503,0.0161445420235395,0.00462100422009826,-0.00262231612578034,-0.0234659630805254
234,0.00448767328634858,-0.0587458871304989,0.0172078758478165,0.00483588920906186,-0.0187885742634535,0.016408609226346
235,-0.00178777438122779,-0.0565668158233166,0.0190615188330412,0.00953481253236532,-0.00860552862286568,0.0548080764710903
236,-0.0103070102632046,-0.0606278963387012,0.00201639253646135,-0.00573162315413356,0.010283469222486,0.0469713620841503
237,-0.0344286039471626,-0.075058788061142,-0.0351241417229176,-0.0450804345309734,0.00798158906400204,-0.00665738340467215
238,-0.0720695629715919,-0.093684196472168,-0.0760751143097878,-0.0820240452885628,-0.0287337265908718,-0.0624451898038387
239,-0.100107431411743,-0.0954179763793945,-0.0990626141428947,-0.0931035950779915,-0.0780755802989006,-0.0916933640837669
240,-0.100180901587009,-0.0714853778481483,-0.08807772397995,-0.076345220208168,-0.10187928378582,-0.0943760052323341
241,-0.0773526206612587,-0.0367105342447758,-0.0511895827949047,-0.0436848066747189,-0.0840902030467987,-0.0872045829892159
242,-0.0509368740022182,-0.00336498930118978,-0.00745466444641352,-0.00638511264696717,-0.0405019260942936,-0.0821331664919853
243,-0.0364339835941792,0.0249893218278885,0.0336752645671368,0.0297135543078184,-0.000584994850214571,-0.06650111079216
244,-0.0337260477244854,0.0389883667230606,0.0645895451307297,0.0586489662528038,0.014031165279448,-0.0292143672704697
245,-0.0310065932571888,0.0332398228347301,0.0829269364476204,0.0818150639533997,0.0103209763765335,0.0158056356012821
246,-0.0214507877826691,0.0189701542258263,0.0958937928080559,0.104011237621307,0.0120890652760863,0.0524375736713409
247,-0.0107284085825086,0.0143492259085178,0.106051027774811,0.117067523300648,0.0281127076596022,0.0780734941363335
248,-0.0079414825886488,0.025663623586297,0.105937942862511,0.108356960117817,0.0480603910982609,0.0908808559179306
249,-0.01440205052495,0.0375250764191151,0.0844149738550186,0.075034573674202,0.0550611652433872,0.0836973488330841
250,-0.021578773856163,0.0286472607403994,0.0426636785268784,0.0287424772977829,0.0456833764910698,0.0566180609166622
251,-0.029407499358058,-0.0115422504022717,-0.00532818352803588,-0.0184715744107962,0.0266868565231562,0.0129872402176261
252,-0.044165275990963,-0.0693177357316017,-0.0431773215532303,-0.0582980811595917,-0.00148729176726192,-0.0340338498353958
253,-0.0571704395115376,-0.105352222919464,-0.0551203452050686,-0.0790512189269066,-0.0274450406432152,-0.0545811876654625
254,-0.066099151968956,-0.0953619629144669,-0.0492907352745533,-0.0916685312986374,-0.0377717688679695,-0.0527336522936821
255,-0.0825837850570679,-0.0628619194030762,-0.052475593984127,-0.117285221815109,-0.0473221801221371,-0.0728496387600899
256,-0.101496897637844,-0.0439011119306087,-0.0665001422166824,-0.14297878742218,-0.0728754103183746,-0.127074092626572
257,-0.109581656754017,-0.0503038801252842,-0.0761307030916214,-0.145665064454079,-0.106032505631447,-0.181877329945564
258,-0.10662529617548,-0.0788656696677208,-0.0779096260666847,-0.12489640712738,-0.131366491317749,-0.205246388912201
259,-0.0961380153894424,-0.106185831129551,-0.0696069523692131,-0.0895576253533363,-0.135344192385674,-0.187865883111954
260,-0.0776025950908661,-0.10243896394968,-0.0436699502170086,-0.0423792600631714,-0.109539978206158,-0.138243049383163
261,-0.050299696624279,-0.0677901953458786,-0.00416222075000405,0.0158437993377447,-0.0622850134968758,-0.0679713636636734
262,-0.016431050375104,-0.0178411174565554,0.0332652553915977,0.0752850323915482,-0.0105958059430122,0.0145815368741751
263,0.0139261996373534,0.0299702230840921,0.0569421425461769,0.114326998591423,0.0288084987550974,0.089189350605011
264,0.0237118769437075,0.0559738576412201,0.0668408051133156,0.117109514772892,0.0502356179058552,0.134578049182892
265,0.00490723410621285,0.0547985918819904,0.0650330409407616,0.0872508063912392,0.062425009906292,0.146589040756226
266,-0.0341229140758514,0.0347171239554882,0.0477397851645947,0.0351320691406727,0.0626325607299805,0.121905945241451
267,-0.0701775625348091,0.00730476388707757,0.02289461158216,-0.0220673810690641,0.0444406233727932,0.0660618469119072
268,-0.0801587924361229,-0.023457633331418,0.00848193187266588,-0.0587945021688938,0.0167787447571754,0.00257017789408565
269,-0.0644594952464104,-0.0636413618922234,0.00994772091507912,-0.058143213391304,-0.0119982687756419,-0.0531456731259823
270,-0.0375681854784489,-0.10660058259964,0.0235744174569845,-0.02193140424788,-0.0348377488553524,-0.0908109024167061
271,-0.00894473120570183,-0.128606215119362,0.0437245778739452,0.0296515710651875,-0.0430430360138416,-0.0945215821266174
272,0.0169661398977041,-0.110729984939098,0.0646058768033981,0.0728385150432587,-0.0306674409657717,-0.0583202578127384
273,0.0302496273070574,-0.0528483167290688,0.0802423655986786,0.0921827778220177,0.00113080663140863,0.00207474105991423
274,0.0194511283189058,0.0222006682306528,0.0794425383210182,0.0810677409172058,0.0347125418484211,0.0509133040904999
275,-0.00577095244079828,0.081527940928936,0.0610211603343487,0.0503961443901062,0.0502617098391056,0.063594289124012
276,-0.024311650544405,0.0986367911100388,0.0348944589495659,0.0194000005722046,0.0426828749477863,0.0474603474140167
277,-0.037200566381216,0.0695023462176323,0.00168224470689893,-0.00693369749933481,0.0114827631041408,0.0169668644666672
278,-0.0610624514520168,0.0193132050335407,-0.0382860451936722,-0.0314221233129501,-0.0425892509520054,-0.0221586991101503
279,-0.0945497751235962,-0.0230643749237061,-0.0687539801001549,-0.0475642792880535,-0.101658560335636,-0.0566700212657452
280,-0.117392130196095,-0.03932860866189,-0.0677093490958214,-0.0407059043645859,-0.13383375108242,-0.0570305548608303
281,-0.11990500241518,-0.021889952942729,-0.0326823480427265,-0.00883614644408226,-0.123234763741493,-0.011706112883985
282,-0.109949447214603,0.0117466039955616,0.0132123045623302,0.0235264338552952,-0.084289014339447,0.0476347096264362
283,-0.093052089214325,0.0288716852664948,0.0482478924095631,0.0308553371578455,-0.0413746573030949,0.0809626877307892
284,-0.0689802020788193,0.0106704030185938,0.0663776844739914,0.0161409173160791,-0.00783814955502748,0.0722033083438873
285,-0.0409568101167679,-0.0399678014218807,0.0673262998461723,-0.00071625312557444,0.0144936237484217,0.0264397356659174
286,-0.0113296546041965,-0.0959947183728218,0.0574675649404526,-0.0063483826816082,0.032325629144907,-0.0340958051383495
287,0.0126166185364127,-0.126909822225571,0.0385139808058739,-0.00909367017447948,0.0419489927589893,-0.0857867747545242
288,0.014937344007194,-0.127192556858063,0.00526142958551645,-0.0266250856220722,0.0258792750537395,-0.117999292910099
289,-0.00412168726325035,-0.104674786329269,-0.0283710658550262,-0.0538062304258347,-0.00776141695678234,-0.125534504652023
290,-0.0340532101690769,-0.0810554400086403,-0.0491691790521145,-0.0773901343345642,-0.0340026132762432,-0.112054005265236
291,-0.0685083419084549,-0.0812679678201675,-0.0648378655314446,-0.0928561836481094,-0.0496747493743896,-0.086543969810009
292,-0.0945601016283035,-0.0867647752165794,-0.08043622225523,-0.0974733829498291,-0.0662080198526382,-0.0563799329102039
293,-0.104159750044346,-0.0632094219326973,-0.0953556075692177,-0.0982009321451187,-0.0938267335295677,-0.0387326553463936
294,-0.101799495518208,-0.0226631425321102,-0.107368215918541,-0.0984729751944542,-0.130244225263596,-0.0439385995268822
295,-0.0909254103899002,0.00345032662153244,-0.104137748479843,-0.0828759893774986,-0.14855645596981,-0.0502547584474087
296,-0.0704832300543785,0.0061999149620533,-0.0771415457129478,-0.0447141081094742,-0.124834686517715,-0.0372415743768215
297,-0.0406332388520241,-0.00310782226733863,-0.0329947248101234,0.000834425562061369,-0.0694296509027481,-0.0161543563008308
298,-0.0121917836368084,-0.00572588853538036,0.0156950429081917,0.0363125987350941,-0.00964786764234304,-0.00480697210878134
299,-0.00687353778630495,-0.00551880896091461,0.0542144030332565,0.0494272299110889,0.0271596182137728,-0.0109679251909256
300,-0.027909904718399,-0.0220902170985937,0.0764908641576767,0.0447170361876488,0.029680673032999,-0.0273216217756271
301,-0.0514881201088429,-0.0491117686033249,0.0867610722780228,0.0409040153026581,0.017604473978281,-0.0331612154841423
302,-0.0572179332375526,-0.0655775368213654,0.0858912616968155,0.0422059111297131,0.0129250166937709,-0.0209787935018539
303,-0.0522617511451244,-0.0664991438388824,0.0707389861345291,0.0370839163661003,0.00841262843459845,-0.00589374685660005
304,-0.0570294708013535,-0.0550082810223103,0.0455396473407745,0.0224020257592201,-0.0110383415594697,0.000515743042342365
305,-0.0671776756644249,-0.0288248993456364,0.0273865945637226,0.011163430288434,-0.0352995321154594,0.00963755883276463
306,-0.0656159445643425,0.00391727685928345,0.0281410645693541,0.0149593763053417,-0.0453058704733849,0.0323964990675449
307,-0.054503969848156,0.0263015236705542,0.0385489277541637,0.0290544927120209,-0.0414552837610245,0.0555327087640762
308,-0.0453704409301281,0.0390924513339996,0.0407236665487289,0.0346935801208019,-0.0398552268743515,0.0596596673130989
309,-0.0472894869744778,0.0436319969594479,0.0255833212286234,0.013269416987896,-0.0515146851539612,0.039938673377037
310,-0.0563723966479301,0.0287635289132595,-0.00207685236819088,-0.0321557819843292,-0.0650919079780579,0.00904849357903004
311,-0.0523829609155655,0.00457317754626274,-0.0289305951446295,-0.0755051895976067,-0.059746727347374,-0.0131082590669394
312,-0.0392206385731697,-0.00877480208873749,-0.0493319444358349,-0.101335935294628,-0.0404660850763321,-0.0224213656038046
313,-0.0448229238390923,-0.0194838922470808,-0.0710798278450966,-0.118530035018921,-0.0305819232016802,-0.0369292795658112
314,-0.0625725835561752,-0.0421454943716526,-0.0939662232995033,-0.129907846450806,-0.0327721759676933,-0.0753973945975304
315,-0.0646532997488976,-0.077740766108036,-0.106494076550007,-0.126777783036232,-0.0370902121067047,-0.134965464472771
316,-0.0469280369579792,-0.119123451411724,-0.101422093808651,-0.108058601617813,-0.0438095442950726,-0.185848549008369
317,-0.0219934415072203,-0.147578001022339,-0.0756965354084969,-0.0765453800559044,-0.0517315380275249,-0.195262715220451
318,-0.00664545875042677,-0.153124272823334,-0.0312504731118679,-0.0315385721623898,-0.0537728108465672,-0.157664656639099
319,-0.00931491423398256,-0.141137003898621,0.0250282529741526,0.0266373120248318,-0.0475801527500153,-0.0913095250725746
320,-0.0230812504887581,-0.112207673490047,0.0764991939067841,0.0811367109417915,-0.0374479107558727,-0.0222609452903271
321,-0.0365543887019157,-0.0726034194231033,0.102011620998383,0.105809405446053,-0.0319051779806614,0.0275579821318388
322,-0.0427503511309624,-0.0363347344100475,0.105386689305305,0.102094247937202,-0.0297005921602249,0.0595375262200832
323,-0.0466065257787704,-0.00979438703507185,0.102335803210735,0.0886274874210358,-0.0184213984757662,0.0847137793898582
324,-0.0571425706148148,0.0033915713429451,0.0871015638113022,0.0653565526008606,-0.00476654525846243,0.0904621705412865
325,-0.0673426166176796,0.00562221044674516,0.0586323440074921,0.0346253961324692,-0.000972207344602793,0.0663121119141579
326,-0.0674785822629929,0.0130919050425291,0.0338352173566818,0.00965161249041557,-0.00314078945666552,0.0323027148842812
327,-0.0686196684837341,0.0430313348770142,0.013947862200439,-0.0176264941692352,-0.019155815243721,0.0172685757279396
328,-0.086842805147171,0.0717123821377754,-0.0188101250678301,-0.064129926264286,-0.0608874075114727,0.0195703022181988
329,-0.117407418787479,0.0509488843381405,-0.0731724947690964,-0.122164197266102,-0.118795715272427,-0.00365993496961892
330,-0.135238140821457,-0.0121025117114186,-0.123415194451809,-0.15975846350193,-0.165068507194519,-0.0672157034277916
331,-0.1208161637187,-0.0718564167618752,-0.129796639084816,-0.150558784604073,-0.167530730366707,-0.121234372258186
332,-0.078359954059124,-0.102441608905792,-0.0892692655324936,-0.101772360503674,-0.119296483695507,-0.123277835547924
333,-0.0251158755272627,-0.100107789039612,-0.0318319834768772,-0.0450617112219334,-0.0528321899473667,-0.0911453142762184
334,0.0177697688341141,-0.0783362686634064,0.0131403096020222,-0.00517330877482891,-0.0138652790337801,-0.0636895298957825
335,0.0329398736357689,-0.0594942420721054,0.0329186394810677,0.0192039087414742,-0.01999188400805,-0.0461548864841461
336,0.0249730963259935,-0.0564640387892723,0.0415893867611885,0.0461087115108967,-0.0400059595704079,-0.0209628958255053
337,0.0154624311253428,-0.0621060952544212,0.0629988983273506,0.0833755284547806,-0.0314780622720718,0.0150038367137313
338,0.0137275196611881,-0.0613700672984123,0.0976711884140968,0.11737485229969,0.00500005623325706,0.0458741076290607
339,0.00941116828471422,-0.0524194836616516,0.122970670461655,0.126618042588234,0.0370334200561047,0.0572409853339195
340,-0.00943074841052294,-0.0436044037342072,0.114447623491287,0.0986217260360718,0.0355492867529392,0.0451297126710415
341,-0.0392285622656345,-0.0373120307922363,0.0701380521059036,0.0438742414116859,-0.00542488368228078,0.0181225948035717
342,-0.0629590377211571,-0.0260569509118795,0.0161372199654579,-0.00938460510224104,-0.0584599524736404,0.00106638483703136
343,-0.0716161951422691,-0.00490308133885264,-0.0238520037382841,-0.046005841344595,-0.0916721820831299,0.00714237242937088
344,-0.0685783922672272,0.0161787532269955,-0.043809287250042,-0.0701197907328606,-0.0985616445541382,0.0172862187027931
345,-0.0650231093168259,0.0215466227382421,-0.0517694987356663,-0.0898768901824951,-0.0962542667984962,0.0120550775900483
346,-0.0772447362542152,0.00225044484250247,-0.0684754475951195,-0.116248674690723,-0.11242651194334,-0.0145604005083442
347,-0.100734539330006,-0.0384286902844906,-0.0957059264183044,-0.144696950912476,-0.145544186234474,-0.0624825954437256
348,-0.104356579482555,-0.0794812440872192,-0.103701017796993,-0.145609945058823,-0.149967908859253,-0.106161810457706
349,-0.0709906369447708,-0.0969620645046234,-0.0768097564578056,-0.105217829346657,-0.103130809962749,-0.111440241336823
350,-0.0214862544089556,-0.0926889106631279,-0.03087567538023,-0.0424100458621979,-0.0403269082307816,-0.0789925158023834
351,0.0119042368605733,-0.088538333773613,0.00718066655099392,0.011070279404521,-0.00597354769706726,-0.046187449246645
352,0.0172840654850006,-0.0899461582303047,0.0194639507681131,0.0270122587680817,-0.0117580182850361,-0.0485588163137436
353,0.00231639738194644,-0.0853335335850716,0.015953429043293,0.00695278821513057,-0.0368204899132252,-0.0796357989311218
354,-0.0185318719595671,-0.0730252042412758,0.0203607566654682,-0.0162031706422567,-0.0570198334753513,-0.0988849475979805
355,-0.0297237448394299,-0.0538272485136986,0.0409761555492878,-0.0141511717811227,-0.064568817615509,-0.0723983347415924
356,-0.0257266834378242,-0.019717913120985,0.0660404488444328,0.0115453246980906,-0.0599396787583828,-0.00297656236216426
357,-0.0154420593753457,0.0266186222434044,0.0748667493462563,0.0339588969945908,-0.0439809784293175,0.0694236010313034
358,-0.00597206084057689,0.0566431991755962,0.0525677613914013,0.0255648475140333,-0.0294149518013,0.101105622947216
359,-0.00616089068353176,0.0388900525867939,0.000802364142145962,-0.0174644850194454,-0.0440436415374279,0.0750902816653252
360,-0.027637330815196,-0.0145609313622117,-0.0588048435747623,-0.0691922083497047,-0.0944117531180382,0.0080321878194809
361,-0.0585232265293598,-0.0569836758077145,-0.0942714065313339,-0.0927649512887001,-0.144665911793709,-0.0557374097406864
362,-0.0738485306501389,-0.0649887025356293,-0.0853949785232544,-0.0709283128380775,-0.151526436209679,-0.0752802491188049
363,-0.0632888302206993,-0.0465264059603214,-0.0367695353925228,-0.0189686100929976,-0.109559245407581,-0.0480612330138683
364,-0.0357595607638359,-0.014008067548275,0.0269159954041243,0.0333571285009384,-0.0529448837041855,-0.00389245781116188
365,-0.0167572349309921,0.0157137122005224,0.0730715692043304,0.0636003687977791,-0.0154697624966502,0.0242738965898752
366,-0.0191019158810377,0.0228490699082613,0.0847646743059158,0.0641737952828407,0.000462935917312279,0.0252915788441896
367,-0.025687986984849,-0.000610063842032105,0.0721733942627907,0.0425059087574482,0.00988457258790731,0.0154503686353564
368,-0.0293799377977848,-0.045380674302578,0.0520388968288898,0.0120982490479946,0.00662612309679389,0.00444712303578854
369,-0.0369003564119339,-0.0811282768845558,0.0329347588121891,-0.0131123103201389,-0.0254102703183889,-0.0137506667524576
370,-0.0416432693600655,-0.0767906084656715,0.0170496087521315,-0.0263916924595833,-0.073819026350975,-0.031483456492424
371,-0.0434251837432384,-0.0449617393314838,0.00369757134467363,-0.0348428562283516,-0.114450797438622,-0.0403708405792713
372,-0.048889584839344,-0.0215254332870245,-0.00493884598836303,-0.0409488491714001,-0.135259479284287,-0.0398266017436981
373,-0.0513855144381523,-0.00843840558081865,-0.00551215885207057,-0.0354297645390034,-0.129815861582756,-0.0242709629237652
374,-0.0433134958148003,0.00215299776755273,-0.00220754160545766,-0.0184314288198948,-0.103055864572525,-0.00248931255191565
375,-0.0279927924275398,0.00555666908621788,-0.00263031548820436,-0.0023729729000479,-0.0770081654191017,0.00655135558918118
376,-0.0150314038619399,0.00232831994071603,-0.0108331069350243,0.000503300281707197,-0.0693869441747665,-0.000622545136138797
377,-0.00799650233238935,-0.0172443185001612,-0.0181157272309065,-0.00866106152534485,-0.0691077634692192,-0.0135203413665295
378,-0.000264596106717363,-0.054082952439785,-0.00358154205605388,-0.0102000795304775,-0.048391904681921,-0.016391335055232
379,0.0109578827396035,-0.0818785801529884,0.027547650039196,0.00347155099734664,-0.00593909109011292,-0.00419217953458428
380,0.0215980634093285,-0.0879818126559258,0.04042998701334,0.00975175481289625,0.0257076341658831,0.00599759258329868
381,0.0225889105349779,-0.0827376544475555,0.0177339874207973,-0.012980786152184,0.0149125289171934,-0.00704901153221726
382,0.00265585584565997,-0.0771814212203026,-0.02457688562572,-0.0556670390069485,-0.0415070876479149,-0.0416988506913185
383,-0.0287569984793663,-0.0678829774260521,-0.0532967709004879,-0.0828972160816193,-0.109849005937576,-0.0656189545989037
384,-0.049407072365284,-0.0409662239253521,-0.0523898229002953,-0.0758706778287888,-0.150915235280991,-0.0507371351122856
385,-0.0536864325404167,-0.00470420205965638,-0.040344413369894,-0.0562280789017677,-0.156109243631363,-0.0123085454106331
386,-0.0490060672163963,0.0179714318364859,-0.0344198755919933,-0.0464655831456184,-0.137318179011345,0.0159065369516611
387,-0.0463707633316517,0.0250130090862513,-0.0314634069800377,-0.0479559153318405,-0.107842788100243,0.0180035177618265
388,-0.0491784550249577,0.0181882008910179,-0.0239028055220842,-0.055723998695612,-0.0762293860316277,-0.000825071183498949
389,-0.0485251024365425,-0.00471725594252348,-0.0109403682872653,-0.0633990988135338,-0.0497124120593071,-0.0148641597479582
390,-0.0393567867577076,-0.0290590487420559,-0.00498136039823294,-0.0687573477625847,-0.0414573177695274,-0.0128375822678208
391,-0.0235741138458252,-0.0413620956242085,-0.0121811516582966,-0.0694556385278702,-0.059392012655735,-0.0159383304417133
392,-0.00673028873279691,-0.0427585914731026,-0.0128077445551753,-0.0510260686278343,-0.0843590945005417,-0.0248435866087675
393,0.00544669618830085,-0.035104975104332,0.0103811472654343,-0.00356551539152861,-0.0858226343989372,-0.0109689272940159
394,0.0133254854008555,-0.0193066038191319,0.0430709272623062,0.0540388859808445,-0.0657462775707245,0.0354609042406082
395,0.0167155135422945,0.00193023169413209,0.057797085493803,0.0907637700438499,-0.0515244230628014,0.0935481041669846
396,0.0111558623611927,0.0247502755373716,0.0467775501310825,0.0926508530974388,-0.0563124381005764,0.131480127573013
397,-0.00576450396329165,0.0422493368387222,0.0273030120879412,0.0673838257789612,-0.0754493325948715,0.130107879638672
398,-0.0353396683931351,0.0372270606458187,0.0111611625179648,0.0319114103913307,-0.104205183684826,0.0906640887260437
399,-0.0719286128878593,-0.00166425760835409,-0.00887808296829462,-0.00501225749030709,-0.136476770043373,0.0236378740519285
400,-0.0895998924970627,-0.0536649376153946,-0.0243172645568848,-0.0343925505876541,-0.14733898639679,-0.0457090996205807
401,-0.0698196664452553,-0.089605376124382,-0.0148919923231006,-0.0426504351198673,-0.113757416605949,-0.0870090797543526
402,-0.0281368345022202,-0.103986904025078,0.0138894505798817,-0.0331008620560169,-0.0497097447514534,-0.0940297171473503
403,0.0144437337294221,-0.10429373383522,0.0377750284969807,-0.0254096519201994,0.0131087796762586,-0.0769319906830788
404,0.0405946411192417,-0.101756125688553,0.0344228036701679,-0.0360918268561363,0.0428769551217556,-0.0566399097442627
405,0.0350336730480194,-0.103599362075329,0.00149277457967401,-0.0598956756293774,0.0182572118937969,-0.0546457543969154
406,0.000681604200508446,-0.0955286100506783,-0.0383305512368679,-0.0778209641575813,-0.0474503561854362,-0.0630742162466049
407,-0.0531976632773876,-0.0695688053965569,-0.0705373138189316,-0.0862169414758682,-0.127921149134636,-0.0639649331569672
408,-0.109128847718239,-0.0359207838773727,-0.0921543315052986,-0.0877433270215988,-0.196512341499329,-0.0500927604734898
409,-0.136727884411812,0.00357233500108123,-0.0866411551833153,-0.0735727325081825,-0.21515928208828,-0.00965418200939894
410,-0.121396370232105,0.0328035354614258,-0.0445576868951321,-0.0392458029091358,-0.167919084429741,0.0523667521774769
411,-0.0740589052438736,0.0234913509339094,0.0109402546659112,0.000356130418367684,-0.0887742415070534,0.0954237282276154
412,-0.0208470970392227,-0.0146904271095991,0.0440414845943451,0.0216549374163151,-0.0325134992599487,0.0907183364033699
413,0.0134257376194,-0.0467310473322868,0.0449423417448998,0.0196028910577297,-0.025449812412262,0.0548005774617195
414,0.0274747386574745,-0.0518991984426975,0.0379855819046497,0.0144077772274613,-0.0442748367786407,0.025114219635725
415,0.0307786762714386,-0.0360211655497551,0.0371209494769573,0.016354801133275,-0.0548319332301617,0.0141754345968366
416,0.0258517954498529,-0.020143723115325,0.0268115475773811,0.0119919953867793,-0.0558350682258606,0.00416486291214824
417,0.0150681752711535,-0.00892941560596228,-0.00104310386814177,-0.0045129731297493,-0.0625650212168694,-0.0134364869445562
418,-0.00175392301753163,0.000600163650233299,-0.0348496027290821,-0.0224789120256901,-0.0798275396227837,-0.0322795920073986
419,-0.0187495388090611,-0.00235043256543577,-0.054156806319952,-0.0291659981012344,-0.0941436514258385,-0.0455471873283386
420,-0.0253646019846201,-0.0244760196655989,-0.0443724691867828,-0.0211545936763287,-0.0859751775860786,-0.0484619401395321
421,-0.0252815149724483,-0.0515513606369495,-0.0142692271620035,-0.00710130855441093,-0.0591281093657017,-0.0368109680712223
422,-0.0200537852942944,-0.0530716627836227,0.0179454106837511,0.00608082488179207,-0.0329486429691315,-0.00100023217964917
423,-0.00624600006267428,-0.013431241735816,0.0366887673735619,0.0120774637907743,-0.0118316523730755,0.0485303699970245
424,0.00251926807686687,0.0361902192234993,0.030211528763175,0.00202623312361538,0.00573177868500352,0.0708864107728004
425,-0.00745030259713531,0.0445749126374722,0.00610144343227148,-0.0158916059881449,0.00733435712754726,0.0466247424483299
426,-0.0292792730033398,0.00542331580072641,-0.0160213261842728,-0.026745555922389,-0.0157182570546865,-0.00217016879469156
427,-0.0502147749066353,-0.0399715974926949,-0.0226169992238283,-0.0281033292412758,-0.0480459854006767,-0.044702522456646
428,-0.0613114051520824,-0.058565229177475,-0.00561869936063886,-0.0148193826898932,-0.0662151426076889,-0.0559947453439236
429,-0.0602457150816917,-0.0515786930918694,0.0296235252171755,0.01177928596735,-0.0657210424542427,-0.0281427316367626
430,-0.0568200014531612,-0.0425150729715824,0.0583637580275536,0.0282848048955202,-0.0620422847568989,0.015622902661562
431,-0.0606975667178631,-0.047871008515358,0.0585193075239658,0.0193161405622959,-0.0680564641952515,0.0509248971939087
432,-0.0707543417811394,-0.0601692497730255,0.0327271521091461,-0.00600773794576526,-0.0831254348158836,0.0748999789357185
433,-0.074937142431736,-0.0623537227511406,0.00510558299720287,-0.0285987686365843,-0.0955792367458344,0.082088977098465
434,-0.0626374036073685,-0.0537635795772076,-0.00755549455061555,-0.0364866517484188,-0.0947844684123993,0.0594617910683155
435,-0.0396397635340691,-0.0502418205142021,-0.0110713029280305,-0.0327795520424843,-0.0872562453150749,0.0110046593472362
436,-0.0169633757323027,-0.051285408437252,-0.0104055879637599,-0.0220799669623375,-0.0818128883838654,-0.0385517701506615
437,-7.84417861723341E-05,-0.0381529033184052,-0.00119109323713928,-0.00382848712615669,-0.0726746767759323,-0.0671044439077377
438,0.0096038831397891,-0.0073358160443604,0.0102963214740157,0.0144345229491591,-0.057204831391573,-0.0705297216773033
439,0.0111227529123425,0.0209603998810053,0.00874926615506411,0.0159030277282,-0.0475061498582363,-0.0570148006081581
440,-0.00217531947419047,0.0243812203407288,-0.011663531884551,-0.00620284583419561,-0.0571068115532398,-0.0448370687663555
441,-0.0295780636370182,0.00172624515835196,-0.0424781739711761,-0.0403262339532375,-0.0859051793813705,-0.0537695027887821
442,-0.0526422448456287,-0.0267202537506819,-0.0631414502859116,-0.0629946514964104,-0.111112840473652,-0.0708554834127426
443,-0.0577209629118443,-0.0437906607985497,-0.057077445089817,-0.0558552965521812,-0.104821488261223,-0.0626595541834831
444,-0.0448101498186588,-0.0484848506748676,-0.0298758484423161,-0.0265843216329813,-0.0645759254693985,-0.0308130830526352
445,-0.0160670541226864,-0.0492566116154194,-0.00116161699406803,0.00236244080588222,-0.00895977765321732,-0.00422648480162025
446,0.0156189547851682,-0.0598787888884544,0.00876704044640064,0.0133352996781468,0.0375773012638092,-0.00158382335212082
447,0.025912344455719,-0.0835379213094711,-0.00834901537746191,-0.000341159728122875,0.0488362945616245,-0.0245728958398104
448,-0.00302488263696432,-0.103832460939884,-0.043292835354805,-0.0355116538703442,0.0115192290395498,-0.0607185922563076
449,-0.0655872374773026,-0.103906825184822,-0.0794812589883804,-0.0833326429128647,-0.060703881084919,-0.0814780741930008
450,-0.130627438426018,-0.0826251953840256,-0.0991788879036903,-0.122237235307693,-0.136529892683029,-0.0616064891219139
451,-0.166957184672356,-0.0587214380502701,-0.0935878455638886,-0.13301956653595,-0.188789144158363,-0.0234535429626703
452,-0.158483326435089,-0.0482435822486877,-0.0655131787061691,-0.111435517668724,-0.200136303901672,-0.00814456027001143
453,-0.107781626284122,-0.0380227565765381,-0.0196601506322622,-0.0560007058084011,-0.160145208239555,-0.00764288473874331
454,-0.0407296121120453,-0.00729940598830581,0.0335798785090446,0.0172213893383741,-0.0791863054037094,0.00569457793608308
455,0.0158617198467255,0.0370862111449242,0.0795493125915527,0.0787978991866112,0.00426141591742635,0.0300981421023607
456,0.0495521128177643,0.0691762939095497,0.105927281081676,0.114754110574722,0.0498396791517735,0.0500054508447647
457,0.0553759150207043,0.0699428766965866,0.103151433169842,0.123346008360386,0.0482282042503357,0.0489068478345871
458,0.0434031672775745,0.0366302132606506,0.079973042011261,0.114563457667828,0.0258848667144775,0.0217206049710512
459,0.0333840996026993,-0.00978824310004711,0.0590259656310081,0.103898793458939,0.01178019028157,-0.006662642583251
460,0.0295695140957832,-0.0346467569470406,0.0466101504862309,0.0909311920404434,0.0098815206438303,-0.012430458329618
461,0.0208459701389074,-0.029387678951025,0.0344879887998104,0.0692756921052933,0.0093443114310503,-0.00439064484089613
462,0.00566252460703254,-0.0240189880132675,0.0223056580871344,0.0456137955188751,0.00102446170058101,-0.000497831730172038
463,-0.00123293162323534,-0.0372569784522057,0.0206260494887829,0.0353196002542973,-0.0133574083447456,3.11893636535387E-05
464,0.00843428075313568,-0.049557201564312,0.0328385233879089,0.0457001142203808,-0.0243551898747683,0.00699563603848219
465,0.0228144768625498,-0.0487873516976833,0.0435030721127987,0.062599241733551,-0.0296996776014566,0.0141784334555268
466,0.0284984856843948,-0.0478687137365341,0.0383481495082378,0.0647270008921623,-0.0326592400670052,0.00646124500781298
467,0.0253763701766729,-0.0489194169640541,0.0216495767235756,0.0452865324914455,-0.031620092689991,-0.0175512060523033
468,0.0117286713793874,-0.0389800369739532,-0.000188339705346152,0.00663956301286817,-0.0287750437855721,-0.0461741983890533
469,-0.0147997010499239,-0.0204737540334463,-0.0260898377746344,-0.0398023426532745,-0.0332735031843185,-0.0631806254386902
470,-0.0440628379583359,-0.00981373619288206,-0.0493765659630299,-0.071517214179039,-0.0459658354520798,-0.0548321232199669
471,-0.0649607330560684,-0.010146158747375,-0.0626402124762535,-0.0803787261247635,-0.0589212886989117,-0.0256342105567455
472,-0.0715431049466133,-0.0128952199593186,-0.0619889609515667,-0.0765398889780045,-0.0614595524966717,0.00354803050868213
473,-0.0585302412509918,-0.0216821804642677,-0.0447671189904213,-0.0623684450984001,-0.0405697450041771,0.016343429684639
474,-0.0268885884433985,-0.045220710337162,-0.0169950556010008,-0.0366227440536022,0.00465437630191445,0.00367272086441517
475,0.00729513866826892,-0.0651748925447464,0.00511346058920026,-0.0139767723158002,0.0582034401595593,-0.0307020861655474
476,0.0218637622892857,-0.0633408278226852,0.00835900474339724,-0.0112492181360722,0.098649650812149,-0.0683671310544014
477,0.0185348596423864,-0.054778914898634,-0.00159581447951496,-0.0216278359293938,0.110324464738369,-0.0939375087618828
478,0.0161148514598608,-0.0544987469911575,-0.0134637812152505,-0.0300532355904579,0.0902350395917892,-0.109298139810562
479,0.01758823543787,-0.0655981600284576,-0.0280430987477303,-0.0333165340125561,0.0491623505949974,-0.127667635679245
480,0.0262188520282507,-0.077507771551609,-0.0341594442725182,-0.0191740840673447,0.022737693041563,-0.140711069107056
481,0.0528378821909428,-0.0652362778782845,-0.0116815427318215,0.0243822336196899,0.0467254668474197,-0.124814979732037
482,0.0822672471404076,-0.0366992503404617,0.0320393703877926,0.0760391727089882,0.107158333063126,-0.0884776636958122
483,0.0881286039948463,-0.0262777898460627,0.0691003203392029,0.102104432880878,0.157494708895683,-0.0648504719138145
484,0.0661963447928429,-0.0421217158436775,0.0738209262490273,0.0875266119837761,0.161351323127747,-0.0724726617336273
485,0.0246928296983242,-0.0704201012849808,0.0392785631120205,0.0407976880669594,0.110934980213642,-0.106420211493969
486,-0.0269190892577171,-0.0941716879606247,-0.0132889840751886,-0.012229023501277,0.0358439758419991,-0.144605308771133
487,-0.0770378783345222,-0.0979582220315933,-0.0600723624229431,-0.0528475977480412,-0.0259276889264584,-0.159945532679558
488,-0.113245315849781,-0.075738288462162,-0.0935435965657234,-0.0807318612933159,-0.0615264028310776,-0.14169754087925
489,-0.126892268657684,-0.0359052196145058,-0.108710125088692,-0.0939251929521561,-0.0701697617769241,-0.105276390910149
490,-0.116515412926674,0.00373020372353494,-0.101977027952671,-0.0831079706549644,-0.0523032583296299,-0.07452692091465
491,-0.0822704508900642,0.0278274491429329,-0.0774425864219666,-0.0473544299602509,-0.013192786835134,-0.0618988163769245
492,-0.0285157915204763,0.023147014901042,-0.0421454682946205,-0.000525144627317786,0.0417646914720535,-0.0649768710136414
493,0.0269405823200941,-0.0147444559261203,-0.00709687173366547,0.0348180532455444,0.100298635661602,-0.0750711262226105
494,0.0671737417578697,-0.0670207664370537,0.0204762648791075,0.0480475313961506,0.147374376654625,-0.0922160670161247
495,0.0911947563290596,-0.113781601190567,0.0407930500805378,0.0466049164533615,0.181684494018555,-0.122031785547733
496,0.101422399282455,-0.157875940203667,0.0510105714201927,0.0358053520321846,0.205078154802322,-0.160894051194191
497,0.0982760936021805,-0.18810161948204,0.0516174882650375,0.0193420648574829,0.212279662489891,-0.193531632423401
498,0.0807569772005081,-0.179740339517593,0.0391308404505253,-0.000293387507554144,0.194688111543655,-0.211139678955078
499,0.0451309606432915,-0.151702687144279,0.000825535506010056,-0.0293383337557316,0.144497811794281,-0.224851384758949
500,0.00464201346039772,-0.134864330291748,-0.0507358089089394,-0.0586056634783745,0.0776157900691032,-0.236016228795052
501,-0.0158974379301071,-0.126849636435509,-0.0799396112561226,-0.062840647995472,0.0335919037461281,-0.226312771439552
502,-0.00859366171061993,-0.11822072416544,-0.0709858387708664,-0.0356424562633038,0.0333009921014309,-0.189658895134926
503,0.0167841129004955,-0.106422439217567,-0.035708025097847,0.00788233987987041,0.0674407556653023,-0.141497924923897
504,0.0419464893639088,-0.094894215464592,0.000742461823392659,0.0438597537577152,0.112639345228672,-0.109936729073524
505,0.0554798655211926,-0.0887864753603935,0.0183803308755159,0.0536663755774498,0.146080851554871,-0.110504172742367
506,0.0591366291046143,-0.0882308110594749,0.0162864178419113,0.0392415151000023,0.160001695156097,-0.127859219908714
507,0.053712397813797,-0.095750480890274,0.00361885991878808,0.0152570474892855,0.157414779067039,-0.141093924641609
508,0.0437808260321617,-0.109043940901756,-0.00759853096678853,-0.00125612504780293,0.147378921508789,-0.143819838762283
509,0.0351166725158691,-0.118227660655975,-0.0128929438069463,-0.00552368583157659,0.137935042381287,-0.141258805990219
510,0.0216482691466808,-0.117010250687599,-0.0218820627778769,-0.0100006004795432,0.125421151518822,-0.141650646924973
511,-0.000559048843570054,-0.0984117463231087,-0.0432833954691887,-0.0229051969945431,0.104288659989834,-0.147997155785561
512,-0.0301859378814697,-0.0683594271540642,-0.0816157385706902,-0.0502596870064735,0.0727505534887314,-0.168790638446808
513,-0.0672273933887482,-0.0494519621133804,-0.131986632943153,-0.0974712446331978,0.0344807170331478,-0.210667461156845
514,-0.100058645009995,-0.0548713654279709,-0.167393743991852,-0.144748345017433,0.00889717414975166,-0.252323001623154
515,-0.103841938078403,-0.0890574157238007,-0.162597849965096,-0.160240441560745,0.0168973170220852,-0.266498953104019
516,-0.0656285136938095,-0.146335273981094,-0.11954154074192,-0.13135352730751,0.0592723414301872,-0.254184007644653
517,-0.00241874600760639,-0.195860907435417,-0.0559410154819489,-0.0695395767688751,0.123502433300018,-0.227839097380638
518,0.0521308965981007,-0.202540561556816,0.00515663018450141,-0.00698794983327389,0.18694631755352,-0.190728008747101
519,0.0757769271731377,-0.162058308720589,0.0457088015973568,0.0304785501211882,0.221469640731812,-0.150784745812416
520,0.0694734528660774,-0.106794357299805,0.062569871544838,0.045391708612442,0.216842830181122,-0.125161230564117
521,0.0519537106156349,-0.0802792236208916,0.0613938421010971,0.0498595759272575,0.188227623701096,-0.125789478421211
522,0.0466102287173271,-0.0930848717689514,0.0579575560986996,0.0525261834263802,0.165204033255577,-0.147246584296227
523,0.0552159436047077,-0.115890376269817,0.0620455108582973,0.0529500991106033,0.16639107465744,-0.170692980289459
524,0.0556317120790482,-0.126808792352676,0.0593647584319115,0.0380244590342045,0.178410023450851,-0.183953806757927
525,0.0360336415469646,-0.12988106906414,0.0422745570540428,0.00321830529719591,0.179589420557022,-0.182495385408401
526,0.011127894744277,-0.129865065217018,0.0190039519220591,-0.0378163158893585,0.169811427593231,-0.164882838726044
527,0.00478735333308578,-0.117160767316818,-0.0102142672985792,-0.0744986608624458,0.154859811067581,-0.14533568918705
528,0.0166532564908266,-0.0837731435894966,-0.0474946945905685,-0.109255403280258,0.123869180679321,-0.149097293615341
529,0.0185775905847549,-0.054333433508873,-0.0852978378534317,-0.138604298233986,0.0704507678747177,-0.184406712651253
530,0.000639131409116089,-0.0598900280892849,-0.103618822991848,-0.139260455965996,0.0228996835649014,-0.220711633563042
531,-0.0199519153684378,-0.0851172804832459,-0.0857639238238335,-0.0948838070034981,0.0151569908484817,-0.213360071182251
532,-0.031969927251339,-0.0896263420581818,-0.0398781672120094,-0.0232709124684334,0.0445744581520557,-0.155148297548294
533,-0.0341493487358093,-0.055594976991415,0.0121222091838717,0.0417792461812496,0.085554875433445,-0.0773959830403328
534,-0.0309441480785608,-0.00534392707049847,0.0486598834395409,0.0765910819172859,0.114293105900288,-0.0221068486571312
535,-0.0284082144498825,0.0204557962715626,0.0579931028187275,0.079261414706707,0.120544038712978,-0.01115548517555
536,-0.0261524226516485,0.00750911002978683,0.0483468621969223,0.0665908232331276,0.113765932619572,-0.0236360374838114
537,-0.021162549033761,-0.0252910517156124,0.0366609133780003,0.0537958331406116,0.111706659197807,-0.035672839730978
538,-0.0100509189069271,-0.0540843307971954,0.0340881496667862,0.0452295616269112,0.124495983123779,-0.0532652325928211
539,0.0092192767187953,-0.0718632787466049,0.0416350737214088,0.0387327708303928,0.149616330862045,-0.0807070881128311
540,0.0280069205909967,-0.081068255007267,0.047738891094923,0.0247464291751385,0.174342513084412,-0.101927928626537
541,0.0310852453112602,-0.0730079486966133,0.03612095490098,-0.00740462308749557,0.181347563862801,-0.100916311144829
542,0.0159580372273922,-0.0389814414083958,0.00580043811351061,-0.0505055449903011,0.163274750113487,-0.0844928175210953
543,-0.00635222438722849,-0.0002512423961889,-0.0205630194395781,-0.0774488523602486,0.133032858371735,-0.0741000175476074
544,-0.0247437413781881,0.0121604138985276,-0.0237615872174501,-0.0718717128038406,0.110259853303432,-0.073050431907177
545,-0.0313538536429405,0.00178532348945737,-0.012306809425354,-0.0460781119763851,0.107546292245388,-0.0606588944792748
546,-0.0214078146964312,-0.00311313546262681,-0.00250480137765408,-0.0203382801264524,0.122951455414295,-0.0298427809029818
547,0.00328530045226216,0.00934207532554865,0.00405891239643097,-0.00495555670931935,0.136300176382065,-0.00911665428429842
548,0.028065687045455,0.0159050207585096,0.00503225764259696,-0.00680284015834332,0.124741822481155,-0.0302438549697399
549,0.0353818126022816,-0.0171700716018677,-0.00805243756622076,-0.0259446930140257,0.0867236033082008,-0.0837087780237198
550,0.025696424767375,-0.0857069790363312,-0.0267898347228765,-0.04458973929286,0.043457854539156,-0.125561892986298
551,0.00489453272894025,-0.146215960383415,-0.0382398404181004,-0.0507627613842487,0.00670580472797155,-0.141000673174858
552,-0.0254069976508617,-0.16817519068718,-0.0385689288377762,-0.0469960868358612,-0.0239576920866966,-0.150341719388962
553,-0.0512181967496872,-0.149595677852631,-0.0198464412242174,-0.0298983436077833,-0.0346286296844482,-0.150471746921539
554,-0.0603294037282467,-0.0948605611920357,0.0137348528951406,-0.00562572572380304,-0.0175177752971649,-0.121750749647617
555,-0.0633135065436363,-0.0189333409070969,0.0351848006248474,-0.000792767910752445,0.00293867150321603,-0.0703848302364349
556,-0.0778717324137688,0.0418559052050114,0.0231234040111303,-0.0318526662886143,0.0013827458024025,-0.0278956331312656
557,-0.100899569690228,0.0579324923455715,-0.00782417040318251,-0.0738431513309479,-0.00783619005233049,-0.013264530338347
558,-0.105754137039185,0.0421899929642677,-0.0154648870229721,-0.0758629441261292,0.013821923173964,0.00123384292237461
559,-0.0818485841155052,0.0328010320663452,0.011409092694521,-0.0336157940328121,0.0683767199516296,0.0331080183386803
560,-0.0522862784564495,0.0506076700985432,0.0364381857216358,-0.000211288352147676,0.110364280641079,0.043769471347332
561,-0.0369404554367065,0.0724965706467628,0.0323538742959499,-0.00484555214643478,0.110787212848663,0.00778640480712056
562,-0.0314675755798817,0.0510887950658798,0.00706280581653118,-0.0280212238430977,0.0879505202174187,-0.0557871907949448
563,-0.0169734768569469,-0.0144534232094884,-0.012886019423604,-0.039837658405304,0.0740143209695816,-0.109061278402805
564,0.0145403984934092,-0.071170948445797,-0.0029949105810374,-0.025477746501565,0.0811585411429405,-0.12141964584589
565,0.0429750010371208,-0.0848071798682213,0.0331195183098316,0.000660170335322618,0.0931041240692139,-0.10335411131382
566,0.0510054901242256,-0.0690295994281769,0.073776513338089,0.0203534178435802,0.0922480523586273,-0.0776989907026291
567,0.0480119436979294,-0.0477745607495308,0.108697704970837,0.0383477509021759,0.0852367207407951,-0.0441270768642426
568,0.0485027506947517,-0.0318414494395256,0.132425293326378,0.0573712252080441,0.084324412047863,-0.00690103881061077
569,0.0545422099530697,-0.0319591388106346,0.139291256666183,0.070720873773098,0.0885038077831268,0.0254846885800362
570,0.0582056306302547,-0.0511226132512093,0.133217245340347,0.0755712911486626,0.0879788845777512,0.0441773571074009
571,0.0504462979733944,-0.0793653801083565,0.123025819659233,0.0708099901676178,0.0751912295818329,0.028134161606431
572,0.0326757356524467,-0.104648731648922,0.114374950528145,0.060703307390213,0.0555538386106491,-0.0189977735280991
573,0.0139260487630963,-0.116743147373199,0.105991952121258,0.0518462583422661,0.0415772348642349,-0.0637036040425301
574,-1.32902023324277E-05,-0.113867416977882,0.0921949744224548,0.04173194617033,0.0365058444440365,-0.0892401486635208
575,-0.00695378612726927,-0.0984712988138199,0.0726342126727104,0.0252052955329418,0.0343933887779713,-0.0999650880694389
576,-0.0111584505066276,-0.078504391014576,0.0495322160422802,0.00144630740396678,0.0270168464630842,-0.104845926165581
577,-0.01884401217103,-0.066961944103241,0.0229490455240011,-0.0260597672313452,0.010429366491735,-0.110766440629959
578,-0.0288459248840809,-0.0628850758075714,-0.0029188496991992,-0.0480170473456383,-0.00931474380195141,-0.110779501497746
579,-0.0396024435758591,-0.0550043098628521,-0.0233987662941217,-0.0611153990030289,-0.026529835537076,-0.0969197601079941
580,-0.0488613359630108,-0.0433367677032948,-0.0355149544775486,-0.0672905743122101,-0.04051723331213,-0.0770074278116226
581,-0.049333143979311,-0.0370061285793781,-0.0340013615787029,-0.0596757940948009,-0.0458032190799713,-0.0650260150432587
582,-0.0394717007875443,-0.0434200428426266,-0.0217895265668631,-0.0392926707863808,-0.039221465587616,-0.0756984800100327
583,-0.0247784592211246,-0.0634714290499687,-0.00923562422394753,-0.0214718747884035,-0.0261193551123142,-0.109965682029724
584,-0.0117127355188131,-0.0836365967988968,-0.00126267340965569,-0.0149349421262741,-0.0105046406388283,-0.141709223389626
585,-0.00471533183008432,-0.0886552035808563,0.000221833426621743,-0.0229991152882576,0.00497895572334528,-0.151480421423912
586,-0.00103543314617127,-0.0842905938625336,-0.0074516823515296,-0.0478522032499313,0.0147911459207535,-0.153042927384377
587,0.00122442981228232,-0.0892539694905281,-0.0236176624894142,-0.0812607184052467,0.0127008622512221,-0.169131889939308
588,-0.00333231640979648,-0.102396197617054,-0.0415247268974781,-0.107505455613136,-0.00376859563402832,-0.198211893439293
589,-0.0161795299500227,-0.102282464504242,-0.0502663739025593,-0.11340444535017,-0.0251771621406078,-0.211221516132355
590,-0.0314709208905697,-0.084990069270134,-0.0432351604104042,-0.0974680334329605,-0.0354883037507534,-0.18111677467823
591,-0.0432972274720669,-0.0596156194806099,-0.0268512405455112,-0.0745747685432434,-0.0344144739210606,-0.127252578735352
592,-0.0494321845471859,-0.0317491702735424,-0.015397765673697,-0.0621358677744865,-0.0345331728458405,-0.104067355394363
593,-0.0469146519899368,-0.0206610485911369,-0.0124779222533107,-0.0582666173577309,-0.0363970324397087,-0.124226160347462
594,-0.0331614278256893,-0.0431384742259979,-0.00488643953576684,-0.0462967753410339,-0.0285165943205357,-0.149237543344498
595,-0.0142133617773652,-0.088678315281868,0.0168848410248756,-0.0221357252448797,-0.00227677938528359,-0.151760682463646
596,0.00450463220477104,-0.135435625910759,0.0466992072761059,0.00137487950269133,0.0392929166555405,-0.139352232217789
597,0.0242982730269432,-0.165420919656754,0.0716401487588882,0.0131833404302597,0.0781823173165321,-0.127167776226997
598,0.0354164727032185,-0.164492502808571,0.074106439948082,0.00549750961363316,0.0865157023072243,-0.121129803359509
599,0.0200530663132668,-0.131634756922722,0.0466382317245007,-0.0238933507353067,0.0488621741533279,-0.120950803160667
600,-0.0204311944544315,-0.0962659120559692,0.00574785098433495,-0.0603714361786842,-0.0180804133415222,-0.121390022337437
601,-0.0688187927007675,-0.0927961319684982,-0.0309836659580469,-0.0876437202095985,-0.0834991484880447,-0.12104419618845
602,-0.105983071029186,-0.109483852982521,-0.0518205389380455,-0.0963128358125687,-0.122387886047363,-0.115583248436451
603,-0.116153940558434,-0.104671604931355,-0.0451570488512516,-0.0820183977484703,-0.121627323329449,-0.0909965932369232
604,-0.102413043379784,-0.0614038668572903,-0.0161232706159353,-0.0553986504673958,-0.0899165123701096,-0.0470162630081177
605,-0.0770266950130463,0.000274698686553165,0.0204232018440962,-0.0258141122758389,-0.0470860451459885,-0.0049116020090878
606,-0.0454127043485641,0.0446089468896389,0.0503024570643902,0.00522076711058617,-0.0127306943759322,0.0172955915331841
607,-0.0166031196713448,0.0446053892374039,0.0545769184827805,0.0252175126224756,-0.00553469313308597,0.0136706670746207
608,0.00373074528761208,0.0111407740041614,0.0342328920960426,0.0280816424638033,-0.0187390390783548,-0.00665113935247064
609,0.0136526934802532,-0.0202644187957048,0.0101075675338507,0.0213724747300148,-0.0298365131020546,-0.0256799887865782
610,0.00665076775476336,-0.0374312251806259,-0.00708294939249754,0.00988229364156723,-0.0360491946339607,-0.0424740090966225
611,-0.00715350452810526,-0.0472046248614788,-0.0120324734598398,0.00282112089917064,-0.037441797554493,-0.0567923858761787
612,-0.00719683524221182,-0.050578385591507,-0.00105698546394706,0.00933651253581047,-0.0265044718980789,-0.0569705180823803
613,0.0109424060210586,-0.0455816015601158,0.0213080812245607,0.0259565114974976,-0.00592212658375502,-0.0452147349715233
614,0.0382963120937347,-0.0359340608119965,0.0479702539741993,0.0451516844332218,0.0174073316156864,-0.0306484270840883
615,0.0611398033797741,-0.0291304364800453,0.0716521739959717,0.0597321316599846,0.0419727340340614,-0.0164193604141474
616,0.0708085894584656,-0.0297980718314648,0.0845341458916664,0.0611296109855175,0.0628147572278976,-0.00762999290600419
617,0.0721661448478699,-0.0281931571662426,0.0811799094080925,0.0448965281248093,0.0712951943278313,-0.00544641958549619
618,0.0695898681879044,-0.00405301153659821,0.0606028363108635,0.0141179468482733,0.0613740421831608,-0.00580762466415763
619,0.05739825963974,0.039648212492466,0.0294448956847191,-0.0211623646318913,0.0330587700009346,-0.0119075467810035
620,0.0319572649896145,0.0753760039806366,-0.00396416336297989,-0.0509442165493965,-0.00445562414824963,-0.0209896732121706
621,-0.00357536668889225,0.0906335934996605,-0.0379541963338852,-0.072058841586113,-0.0393659882247448,-0.0121464170515537
622,-0.0380961298942566,0.0894506871700287,-0.063841201364994,-0.0799362063407898,-0.0579853951931,0.0238748155534267
623,-0.0515856482088566,0.0645103678107262,-0.062042199075222,-0.0642855316400528,-0.043063048273325,0.068183958530426
624,-0.033997155725956,0.0103498613461852,-0.0278563965111971,-0.0254628304392099,0.00369393406435847,0.0850330665707588
625,0.00330525590106845,-0.0583281069993973,0.019702298566699,0.0173230562359095,0.0537929236888886,0.0513828843832016
626,0.0410404428839684,-0.117262415587902,0.0586839914321899,0.0451997369527817,0.081587940454483,-0.00764419278129935
627,0.0635849982500076,-0.135481804609299,0.0832878276705742,0.0583648979663849,0.0862983390688896,-0.0457968935370445
628,0.0620224177837372,-0.103865556418896,0.0963097736239433,0.0609985738992691,0.083064042031765,-0.0503622442483902
629,0.0405294150114059,-0.0568721145391464,0.0936591774225235,0.0460440143942833,0.0773696601390839,-0.0430212393403053
630,0.0214709918946028,-0.0271272268146276,0.0759550780057907,0.0184478964656591,0.0637571439146996,-0.0377663150429726
631,0.0204864703118801,-0.0187414735555649,0.0579392053186893,0.0019173186738044,0.0429055169224739,-0.0277443639934063
632,0.0240500960499048,-0.0236576516181231,0.0500854477286339,0.00695921899750829,0.018746193498373,-0.0113675920292735
633,0.0170873533934355,-0.0246184170246124,0.0501720570027828,0.0234205666929483,-0.00265719182789326,0.00578644732013345
634,0.00262831547297537,-0.000540006556548178,0.0533617213368416,0.037753589451313,-0.00817587319761515,0.0255413167178631
635,-0.0103496974334121,0.0464520268142223,0.0574335418641567,0.0415904112160206,0.00488892151042819,0.0535744689404964
636,-0.0149751044809818,0.0872878804802895,0.0637674853205681,0.0385227836668491,0.0203928127884865,0.0912994146347046
637,-0.0154178850352764,0.0998873189091682,0.0662009119987488,0.0339066311717033,0.0185978449881077,0.124665662646294
638,-0.0185602065175772,0.0863360613584518,0.0524919889867306,0.0263229291886091,-0.00593334808945656,0.137342855334282
639,-0.0176680646836758,0.0641330629587173,0.0271652862429619,0.0188045613467693,-0.034552738070488,0.137081518769264
640,-0.00398026127368212,0.0508385971188545,0.00421940442174673,0.0145687935873866,-0.044715940952301,0.129496186971664
641,0.0197589211165905,0.0467801205813885,-0.0150279020890594,0.00405365880578756,-0.037791769951582,0.0985991805791855
642,0.0394941493868828,0.0390892513096333,-0.0356288589537144,-0.0223514679819345,-0.0337414443492889,0.0441728495061398
643,0.0437790863215923,0.0218827109783888,-0.0507786273956299,-0.0505869463086128,-0.0419454611837864,0.000370026362361386
644,0.0403115376830101,0.00167923211120069,-0.0400848612189293,-0.052248302847147,-0.0472901687026024,-0.00419118488207459
645,0.0408909544348717,-0.0141336871311069,0.00582135189324617,-0.0191417317837477,-0.0324857868254185,0.0185400601476431
646,0.0403798073530197,-0.0260501634329557,0.0602512434124947,0.0227807685732841,-0.00889404490590096,0.0353619195520878
647,0.0351987592875957,-0.0338690578937531,0.0887786746025085,0.0449203364551067,0.000838456267956644,0.0320193953812122
648,0.0296909026801586,-0.0279466975480318,0.0865995511412621,0.042271614074707,-0.00526968529447913,0.0216522738337517
649,0.0199991595000029,0.00385318044573069,0.0660660639405251,0.0233325716108084,-0.0188674759119749,0.0234837867319584
650,0.00879732333123684,0.0586814917623997,0.0391864664852619,0.00369985774159431,-0.0301089342683554,0.0485980734229088
651,0.00798927620053291,0.102470934391022,0.00903980433940887,-0.00848857033997774,-0.0318270623683929,0.0855540037155151
652,0.0151497172191739,0.102991051971912,-0.0236183796077967,-0.0172443129122257,-0.0275748465210199,0.108731284737587
653,0.0179413389414549,0.0688182264566422,-0.0460603125393391,-0.0189977772533894,-0.0206891130656004,0.110516346991062
654,0.012206707149744,0.0242967437952757,-0.049761950969696,-0.0120673310011625,-0.0107013629749417,0.0951938331127167
655,0.00530780851840973,-0.00966067984700203,-0.0367259122431278,-0.0046068737283349,0.00356211909092963,0.073360376060009
656,0.00427501415833831,-0.016492223367095,-0.0110963108018041,0.00106871465686709,0.0194424688816071,0.0669869109988213
657,0.00285273441113532,5.43490023119375E-05,0.0160541199147701,0.00495960516855121,0.0257740635424852,0.0739128664135933
658,-0.00272923824377358,0.0282869543880224,0.0344436690211296,0.00255825417116284,0.0235032271593809,0.0754600986838341
659,-0.00425881519913673,0.056101206690073,0.0382585190236568,-0.00935324095189571,0.0200525056570768,0.0763311684131622
660,-0.000242331443587318,0.0587152764201164,0.0239036232233047,-0.0282734930515289,0.00380137702450156,0.0752188637852669
661,0.00217036134563386,0.0249112229794264,0.00135102984495461,-0.0459239073097706,-0.028464287519455,0.0561395287513733
662,0.00368657475337386,-0.0251751895993948,-0.0100432094186544,-0.0516736581921577,-0.0532037392258644,0.0266495794057846
663,0.0160279478877783,-0.0619800835847855,0.00425899494439363,-0.0338243767619133,-0.0484256595373154,0.0124993501231074
664,0.0415922850370407,-0.0681927502155304,0.0424850545823574,0.00910674594342709,-0.0143095683306456,0.0263079442083836
665,0.0616865381598473,-0.0471585802733898,0.079460471868515,0.051666185259819,0.0247675888240337,0.0523025654256344
666,0.0608226098120213,-0.0089191310107708,0.0913598611950874,0.0645640790462494,0.0401051267981529,0.0706629678606987
667,0.0450771674513817,0.0381232500076294,0.083950936794281,0.0539718605577946,0.0310462415218353,0.0915790647268295
668,0.0302136782556772,0.0767306163907051,0.0762180015444756,0.0463713258504868,0.01852136105299,0.126746043562889
669,0.0269259195774794,0.0929121300578117,0.074756070971489,0.0506319738924503,0.0146855171769857,0.156443744897842
670,0.0285354163497686,0.0881524085998535,0.0728782117366791,0.0539582818746567,0.0148787470534444,0.158283278346062
671,0.0211300328373909,0.0685308948159218,0.0582132786512375,0.0409670881927013,0.00486098136752844,0.131086766719818
672,0.00945056229829788,0.039070650935173,0.0306640565395355,0.0166967213153839,-0.0169774480164051,0.0923405215144157
673,0.00891764368861914,0.00426525250077248,0.00982946436852217,0.00133332994300872,-0.0301589034497738,0.0681448802351952
674,0.02367745898664,-0.0271834116429091,0.0116805750876665,0.00155885331332684,-0.0186037607491016,0.0686571598052979
675,0.0429063253104687,-0.0404416993260384,0.0323417782783508,0.0111610861495137,0.0111560896039009,0.0873429402709007
676,0.0471526719629765,-0.0267283767461777,0.048075832426548,0.017446231096983,0.0302868187427521,0.111187189817429
677,0.0286369454115629,0.00820712558925152,0.0328839458525181,0.0016523088561371,0.0130846742540598,0.117009356617928
678,0.00298322807066143,0.0449008829891682,-0.0109962625429034,-0.0376791581511498,-0.0280797239392996,0.0965816304087639
679,-0.0173489153385162,0.0581481866538525,-0.0622150413691998,-0.0824759900569916,-0.066586971282959,0.0599409937858582
680,-0.0331898517906666,0.0407780706882477,-0.104779481887817,-0.115913853049278,-0.0958924442529678,0.0167421717196703
681,-0.0415349081158638,0.0164594240486622,-0.124936930835247,-0.126043245196342,-0.114984028041363,-0.00977195613086224
682,-0.0362923666834831,0.0128806913271546,-0.109225131571293,-0.105208396911621,-0.115052796900272,0.00153881858568639
683,-0.0111547829583287,0.0343403369188309,-0.0543816983699799,-0.0542333349585533,-0.0888935998082161,0.0414069630205631
684,0.0288387909531593,0.057171531021595,0.0190855506807566,0.010310142301023,-0.0441820733249187,0.0852190777659416
685,0.0617904625833035,0.0539954304695129,0.0737129896879196,0.0587713122367859,-0.00339471525512636,0.117486000061035
686,0.0762433633208275,0.031327348202467,0.0947479009628296,0.078147679567337,0.0188970919698477,0.136177688837051
687,0.0774645954370499,0.0159009639173746,0.0980431959033012,0.0820127800107002,0.0236323960125446,0.141822993755341
688,0.0718034654855728,0.0177148133516312,0.0972418859601021,0.0829434841871262,0.014922808855772,0.13458514213562
689,0.0628510192036629,0.0280647668987513,0.0944536626338959,0.0827011168003082,-0.000957432785071433,0.121827006340027
690,0.0504606515169144,0.0353709980845451,0.0895359590649605,0.0788492932915688,-0.0151946879923344,0.110964208841324
691,0.0403124839067459,0.0341033115983009,0.0849188417196274,0.0699716731905937,-0.0179653503000736,0.102645568549633
692,0.0407533682882786,0.0272121038287878,0.081232450902462,0.0575064085423946,-0.00571675226092339,0.0965571179986
693,0.0473090074956417,0.0263294000178576,0.0749411806464195,0.0425865463912487,0.0136530473828316,0.0933261215686798
694,0.0526628829538822,0.040207277983427,0.0658527389168739,0.0276837069541216,0.0316161885857582,0.0965150743722916
695,0.0546003803610802,0.0630056485533714,0.0539951287209988,0.012405707500875,0.0427189059555531,0.111565992236137
696,0.0484579019248486,0.0840077325701714,0.0363871455192566,-0.00681282998993993,0.0395006537437439,0.132226198911667
697,0.0330045521259308,0.101352132856846,0.0147444978356361,-0.0250041745603085,0.018641509115696,0.141453340649605
698,0.0129549764096737,0.113866895437241,-0.0097546735778451,-0.0379582345485687,-0.0180127583444119,0.130087658762932
699,-0.00966065470129251,0.108620204031467,-0.0398384444415569,-0.0530224442481995,-0.0680496171116829,0.100010819733143
700,-0.0264725349843502,0.0774070620536804,-0.0664593055844307,-0.0675263553857803,-0.115238167345524,0.0631685331463814
701,-0.0216471273452044,0.0334324948489666,-0.0707536861300468,-0.0645444393157959,-0.13039955496788,0.0357009433209896
702,0.00716123962774873,-0.00537027465179563,-0.0468952618539333,-0.0388690754771233,-0.100067168474197,0.025680972263217
703,0.0436953827738762,-0.0320593900978565,-0.00819629523903131,-0.0039786733686924,-0.0385952852666378,0.0339741297066212
704,0.0691235810518265,-0.0399266108870506,0.0261466801166534,0.0219796299934387,0.0209392476826906,0.0594657175242901
705,0.0775304734706879,-0.0197221804410219,0.043146438896656,0.0318911150097847,0.0461092926561832,0.0969607532024384
706,0.0732911676168442,0.0188483837991953,0.0388604626059532,0.0290242712944746,0.0317291989922524,0.127364441752434
707,0.0630627572536469,0.0484751835465431,0.0183929856866598,0.0162538718432188,-0.00223868736065924,0.132392719388008
708,0.0575137548148632,0.0532264336943626,-3.44745712936856E-05,0.00294734700582922,-0.0325346030294895,0.123966053128242
709,0.0597331747412682,0.0428256019949913,-0.000187015553819947,-0.00131724879611284,-0.0455670394003391,0.120788179337978
710,0.0528102368116379,0.0355531796813011,0.00590403843671083,-0.009288658387959,-0.0534171760082245,0.112993709743023
711,0.0246888864785433,0.0326925925910473,-0.00365127320401371,-0.0306243989616632,-0.0767316967248917,0.0910033658146858
712,-0.00896624010056257,0.0236900616437197,-0.0231533292680979,-0.0433780625462532,-0.106126144528389,0.0726515799760818
713,-0.0230980552732944,0.00974516849964857,-0.0281564854085445,-0.028783805668354,-0.116120576858521,0.0668242797255516
714,-0.00922932010143995,0.00633842824026942,-0.00832733511924744,0.00265437946654856,-0.0962960571050644,0.0599883235991001
715,0.0181714165955782,0.0179121159017086,0.0253189951181412,0.0305007603019476,-0.0538960658013821,0.0514112673699856
716,0.0395947732031345,0.0332950428128242,0.0571636892855167,0.0442615039646626,-0.00895797926932573,0.054526325315237
717,0.0471779257059097,0.0454438924789429,0.0742150098085403,0.0435145683586597,0.016929779201746,0.0688315853476524
718,0.0384856909513474,0.0557252913713455,0.064141683280468,0.0278847049921751,0.011364758014679,0.0758811831474304
719,0.0116615947335958,0.0668747574090958,0.0266272444278002,-0.00494050420820713,-0.026913283392787,0.062384620308876
720,-0.0262587182223797,0.067960612475872,-0.0245161354541779,-0.0513393543660641,-0.0847180560231209,0.0334626063704491
721,-0.0524702146649361,0.0445730313658714,-0.0676464512944222,-0.0872528031468391,-0.132843196392059,0.00956995412707329
722,-0.0444242469966412,0.00583365419879556,-0.0788770839571953,-0.0806015506386757,-0.140998795628548,0.0132039599120617
723,-0.00840167235583067,-0.0297318529337645,-0.0559462793171406,-0.033594224601984,-0.109923399984837,0.0444288104772568
724,0.0309660192579031,-0.0535949766635895,-0.0186418537050486,0.0210925042629242,-0.0671558380126953,0.0859145671129227
725,0.0598401054739952,-0.0574197433888912,0.0180279705673456,0.061051432043314,-0.0304048843681812,0.127659469842911
726,0.0713593438267708,-0.0345376469194889,0.0449838005006313,0.0802803710103035,-0.00641905190423131,0.162512063980103
727,0.0637655258178711,0.00658309040591121,0.0557432249188423,0.0779226869344711,0.00110880134161562,0.179867923259735
728,0.0482023283839226,0.044361125677824,0.0528246685862541,0.0591951459646225,-0.00145114760380238,0.178186133503914
729,0.0329291000962257,0.0627589672803879,0.0389934405684471,0.0326076038181782,-0.0117592448368669,0.164167523384094
730,0.0171943474560976,0.0677359625697136,0.0152567755430937,0.00803583767265081,-0.03566624969244,0.149235516786575
731,0.00239104614593089,0.073249876499176,-0.0128858489915729,-0.00747502408921719,-0.06634271889925,0.149311393499374
732,-0.0115954242646694,0.0796690881252289,-0.0398191884160042,-0.0193107295781374,-0.08853779733181,0.16187946498394
733,-0.0271312072873116,0.0888271331787109,-0.0616430900990963,-0.0386186316609383,-0.0994031876325607,0.160861626267433
734,-0.0437746196985245,0.114120319485664,-0.0778631716966629,-0.067950077354908,-0.107720665633678,0.130741938948631
735,-0.0589838288724422,0.146126717329025,-0.0908440202474594,-0.0967142432928085,-0.119661264121532,0.0814060419797897
736,-0.0702369511127472,0.149751007556915,-0.106748558580875,-0.118573665618896,-0.138134017586708,0.0226193722337484
737,-0.0801213830709457,0.102408953011036,-0.130888089537621,-0.141814664006233,-0.160238265991211,-0.0487147942185402
738,-0.084971010684967,0.00477062398567796,-0.147762626409531,-0.163329035043716,-0.167816549539566,-0.120553448796272
739,-0.0701352879405022,-0.113372460007668,-0.131821841001511,-0.161142513155937,-0.14238977432251,-0.156524464488029
740,-0.0339139960706234,-0.200272634625435,-0.0794704854488373,-0.122368611395359,-0.0884116739034653,-0.135795563459396
741,0.0103013645857573,-0.223897650837898,-0.0110069317743182,-0.0555180944502354,-0.0330285876989365,-0.0737230032682419
742,0.0500970110297203,-0.187749475240707,0.0505397021770477,0.0221984758973122,0.00190529052633792,0.00663270289078355
743,0.079689659178257,-0.113013707101345,0.09615358710289,0.0945754423737526,0.0211785957217216,0.0936949551105499
744,0.0992300808429718,-0.0235526412725449,0.127804026007652,0.147851973772049,0.0400054045021534,0.178748935461044
745,0.106785863637924,0.0586622208356857,0.144192844629288,0.173223063349724,0.0601209625601768,0.248532176017761
746,0.100023701786995,0.117532476782799,0.138891145586967,0.168623611330986,0.0694300308823586,0.289894253015518
747,0.083821140229702,0.152021542191505,0.111670225858688,0.139573648571968,0.0597141645848751,0.302852362394333
748,0.0613616593182087,0.174877271056175,0.0663048028945923,0.0924967899918556,0.0308980830013752,0.29701179265976
749,0.0294693559408188,0.193824991583824,0.00751936575397849,0.031188840046525,-0.0155836045742035,0.273380666971207
750,-0.0135773234069347,0.197151407599449,-0.051779318600893,-0.0345100350677967,-0.0713741704821587,0.22508978843689
751,-0.0629396364092827,0.162670135498047,-0.0980617105960846,-0.0920755937695503,-0.122614681720734,0.144103676080704
752,-0.103435784578323,0.0921691209077835,-0.121647112071514,-0.129798397421837,-0.15650437772274,0.0439023710787296
753,-0.116222687065601,0.0199206415563822,-0.115576110780239,-0.135950401425362,-0.162908405065537,-0.0256621707230806
754,-0.0966487750411034,-0.0301774740219116,-0.0863822475075722,-0.113173127174377,-0.144024103879929,-0.0378117524087429
755,-0.0581430457532406,-0.0593361631035805,-0.0491571165621281,-0.0748313963413239,-0.111415386199951,-0.0211079586297274
756,-0.0190686900168657,-0.0777855217456818,-0.0137174623087049,-0.0297723971307278,-0.0737596154212952,-0.00645346008241177
757,0.0115409633144736,-0.0913795158267021,0.0153521690517664,0.0147421425208449,-0.0368356630206108,0.00675181485712528
758,0.0377224162220955,-0.0886116474866867,0.0385233573615551,0.0509429164230824,0.00113605370279402,0.0287821944803
759,0.0570690743625164,-0.0644808560609818,0.0538258701562881,0.068024143576622,0.03730758279562,0.0545113459229469
760,0.060128889977932,-0.0374015048146248,0.0571251288056374,0.06174311414361,0.0557629056274891,0.0782466009259224
761,0.0518623702228069,-0.0140048731118441,0.0544876158237457,0.0444221757352352,0.0512199997901917,0.102799385786057
762,0.0367521271109581,0.0213664397597313,0.0508842617273331,0.0235745217651129,0.0294982455670834,0.12541101872921
763,0.0158619787544012,0.0706384629011154,0.03926832228899,-0.00531067000702024,-0.0041335984133184,0.140026167035103
764,0.00180780212394893,0.103904299438,0.0116857187822461,-0.0413953252136707,-0.0425558760762215,0.131541088223457
765,-0.00114131346344948,0.0850279852747917,-0.0330573432147503,-0.0770555213093758,-0.084831103682518,0.081256665289402
766,-4.14009773521684E-05,0.0175894312560558,-0.08380426466465,-0.10095227509737,-0.127909958362579,0.00407161191105843
767,0.00283238035626709,-0.0480762831866741,-0.115529432892799,-0.0989206209778786,-0.150020450353622,-0.0505895800888538
768,0.00589566119015217,-0.0693901926279068,-0.113878041505814,-0.0713672861456871,-0.138055443763733,-0.0486517287790775
769,0.0107559664174914,-0.0499408394098282,-0.0892541483044624,-0.0360602550208569,-0.105779305100441,-0.00329331774264574
770,0.020796088501811,-0.0117611829191446,-0.0593873560428619,-0.00680791866034269,-0.0712584853172302,0.0552276857197285
771,0.0287751369178295,0.0330896489322186,-0.033695824444294,0.0125891296193004,-0.0432417504489422,0.106872230768204
772,0.0256175622344017,0.0720990151166916,-0.00912006292492151,0.0244121551513672,-0.0201602950692177,0.132469311356544
773,0.0115324659273028,0.0879495218396187,0.0155967604368925,0.0307462252676487,-0.00173181493300945,0.123518422245979
774,-0.00606903247535229,0.073555551469326,0.0280600264668465,0.026533454656601,0.000188860401976854,0.0938551649451256
775,-0.0168821252882481,0.0397939160466194,0.019602756947279,0.0105723077431321,-0.0184547994285822,0.0614484511315823
776,-0.0178262908011675,0.0034437736030668,-0.000120946191600524,-0.00837880838662386,-0.0422309562563896,0.0318601727485657
777,-0.0128110200166702,-0.0252114087343216,-0.0148282013833523,-0.0232921205461025,-0.0544863864779472,0.00577859161421657
778,-0.00320752849802375,-0.0409181676805019,-0.0189387984573841,-0.0313080176711082,-0.051798976957798,-0.0111404526978731
779,0.00814431253820658,-0.043733038008213,-0.0226980522274971,-0.0364581346511841,-0.0461485087871552,-0.0204119123518467
780,0.0182953178882599,-0.0403143428266048,-0.0357859060168266,-0.0466437563300133,-0.0463527366518974,-0.0295087918639183
781,0.0267743021249771,-0.0392720066010952,-0.051813255995512,-0.0598202310502529,-0.0443936660885811,-0.0339683555066586
782,0.0278605632483959,-0.0428152121603489,-0.060893539339304,-0.0673404932022095,-0.0389110967516899,-0.0255445148795843
783,0.017410097643733,-0.0394911952316761,-0.0572134032845497,-0.0578554384410381,-0.0392387248575687,-0.00133963581174612
784,0.00015489749785047,-0.020553907379508,-0.0404822751879692,-0.0269865076988935,-0.0436082594096661,0.0362447500228882
785,-0.0149499541148543,0.00399185530841351,-0.0232428777962923,0.0101702529937029,-0.0432056076824665,0.0766283646225929
786,-0.0191368702799082,0.0287653133273125,-0.0169482082128525,0.0360356532037258,-0.0369545854628086,0.111521005630493
787,-0.0136011438444257,0.059132345020771,-0.0223022494465113,0.0449649691581726,-0.0346848964691162,0.143825829029083
788,-0.00776084279641509,0.0926288291811943,-0.0333034135401249,0.0384754911065102,-0.0414217859506607,0.171538561582565
789,-0.0136745497584343,0.115062102675438,-0.0445325598120689,0.0136145800352097,-0.0535935610532761,0.167169600725174
790,-0.0438255444169044,0.105866372585297,-0.0611797273159027,-0.0338579230010509,-0.0754071474075317,0.101021215319633
791,-0.0815121382474899,0.0627296939492226,-0.0756396055221558,-0.0793690904974937,-0.0984381139278412,-0.00114035827573389
792,-0.0859392434358597,0.00600734818726778,-0.0636302977800369,-0.0855435356497765,-0.0933109447360039,-0.0715702176094055
793,-0.0438801981508732,-0.048380870372057,-0.0264196712523699,-0.0508785881102085,-0.050744891166687,-0.0830064788460732
794,0.0210297927260399,-0.0909271538257599,0.012462274171412,-0.00159963476471603,0.00926562584936619,-0.0570718497037888
795,0.0755956098437309,-0.10204865783453,0.0321194864809513,0.0326276607811451,0.0561734065413475,-0.0151880932971835
796,0.0994021892547607,-0.0655813217163086,0.0191778708249331,0.0297812018543482,0.0599783547222614,0.0239892564713955
797,0.0888968706130981,0.000789968820754439,-0.0140858199447393,0.000452162261353806,0.0197827499359846,0.0460988916456699
798,0.0496732257306576,0.0612357184290886,-0.0395866259932518,-0.0224184393882751,-0.0321239531040192,0.0630636811256409
799,-5.64204092370346E-05,0.0930524319410324,-0.0462621040642262,-0.0254517383873463,-0.0700157731771469,0.0850214883685112
800,-0.0378259606659412,0.0878238305449486,-0.0413349792361259,-0.0162281263619661,-0.0861904695630074,0.0936078578233719
801,-0.058481477200985,0.046777855604887,-0.0384429432451725,-0.00656170165166259,-0.0802353322505951,0.0714358612895012
802,-0.0618762038648129,-0.0104529485106468,-0.0383656658232212,-0.0020975167863071,-0.0620128661394119,0.0297541599720716
803,-0.0440888926386833,-0.0463655218482018,-0.0264043360948563,0.00736329145729542,-0.0443218015134335,0.00263313809409738
804,-0.0151454079896212,-0.0446509197354317,-0.0016932770377025,0.0306164138019085,-0.0329726412892342,0.0165862031280994
805,0.0136612094938755,-0.0140488082543015,0.0260083470493555,0.0624058283865452,-0.0225882325321436,0.0619036108255386
806,0.0396236777305603,0.0307030361145735,0.0506012439727783,0.0884696543216705,-0.00539045454934239,0.0973211750388145
807,0.0527765676379204,0.0626071840524673,0.0580406598746777,0.0899874344468117,0.00732643250375986,0.0965536907315254
808,0.0474477969110012,0.0724946931004524,0.0419473871588707,0.0666963905096054,0.00195184187032282,0.0773088037967682
809,0.0332534834742546,0.0762570798397064,0.0172559823840857,0.0381376631557941,-0.013712509535253,0.0690816715359688
810,0.0181876625865698,0.0744301155209541,-0.00279942806810141,0.0140698794275522,-0.0291521158069372,0.0736540630459785
811,0.000608960166573524,0.0560535080730915,-0.0168491825461388,-0.00927760452032089,-0.0421448424458504,0.0690765976905823
812,-0.0194947961717844,0.0225202012807131,-0.0300324503332376,-0.0335038080811501,-0.0507210604846478,0.041041512042284
813,-0.0317136868834496,-0.0155147034674883,-0.0435017943382263,-0.0473460257053375,-0.0511635653674603,0.00414778478443623
814,-0.030307661741972,-0.0441581420600414,-0.0521044358611107,-0.0420378372073174,-0.0413960665464401,-0.0114917857572436
815,-0.0242680907249451,-0.052713755518198,-0.0609633810818195,-0.0300024785101414,-0.0309664215892553,0.00227898731827736
816,-0.018181137740612,-0.0453639067709446,-0.069948747754097,-0.0200391300022602,-0.0287810657173395,0.026833351701498
817,-0.00803414732217789,-0.028765207156539,-0.0631317794322968,-0.00608429312705994,-0.0258268769830465,0.0465202033519745
818,0.00862403400242329,0.00160932226572186,-0.0394302792847157,0.0104187941178679,-0.0145225906744599,0.0575668103992939
819,0.0278327576816082,0.0384449474513531,-0.0157150775194168,0.0194652918726206,-0.00695727253332734,0.0595565550029278
820,0.0335107780992985,0.0627540871500969,-0.00769061129540205,0.0152448229491711,-0.020724905654788,0.0587703064084053
821,0.013279895298183,0.0659064650535584,-0.0198718849569559,-0.000645590829662979,-0.0573820918798447,0.0583982840180397
822,-0.0176835730671883,0.0509997233748436,-0.0358089841902256,-0.0156921185553074,-0.0921771079301834,0.0575396120548248
823,-0.0330813974142075,0.0386854261159897,-0.0341750681400299,-0.0131663577631116,-0.0961748212575912,0.0663810074329376
824,-0.0260854922235012,0.0517076477408409,-0.0210328307002783,0.00409242790192366,-0.0740153715014458,0.0774656981229782
825,-0.00462711462751031,0.0770528092980385,-0.0174334235489368,0.0162023492157459,-0.0477488301694393,0.0657047405838966
826,0.0188978984951973,0.0762825086712837,-0.0319250002503395,0.00756772654131055,-0.0267334673553705,0.0294760782271624
827,0.0296662878245115,0.0322264730930328,-0.0596726275980473,-0.0220681559294462,-0.0149922436103225,-0.0176288690418005
828,0.0214473642408848,-0.0365155413746834,-0.0831674411892891,-0.0513915345072746,-0.0151905370876193,-0.060603179037571
829,0.00259114149957895,-0.0954699292778969,-0.0811014026403427,-0.0557880066335201,-0.0219806116074324,-0.0819086879491806
830,-0.0115120867267251,-0.115831382572651,-0.0482684411108494,-0.0326794683933258,-0.0204114932566881,-0.0727569609880447
831,-0.0129607282578945,-0.0906639918684959,-0.00400456367060542,0.00260640657506883,-0.00461403373628855,-0.0343097783625126
832,-0.00582028366625309,-0.0366626009345055,0.0222818162292242,0.0283531472086906,0.00602229172363877,0.0203647334128618
833,0.00175467599183321,0.0212877951562405,0.0215531010180712,0.0326993390917778,-0.00273164291866124,0.0677518397569656
834,0.00504677975550294,0.0678456723690033,0.00646130414679646,0.0255943164229393,-0.0188078563660383,0.099316269159317
835,0.00792349316179752,0.0991686806082726,-0.0124149741604924,0.0199910588562489,-0.0307449381798506,0.12161910533905
836,0.0148856155574322,0.108001574873924,-0.0276504829525948,0.021289462223649,-0.0375629849731922,0.133486717939377
837,0.0171048790216446,0.0895209237933159,-0.0333606973290443,0.0286052580922842,-0.0376850552856922,0.12634764611721
838,0.0080704428255558,0.0568904504179955,-0.0273559298366308,0.0351146534085274,-0.0268531963229179,0.0994887873530388
839,-0.00237749004736543,0.0287033505737782,-0.0113262766972184,0.0353053919970989,-0.00266319885849953,0.0665337666869164
840,-0.011563160456717,0.0121925286948681,-0.00143940153066069,0.0221530441194773,0.0176319126039743,0.041521068662405
841,-0.0232162438333035,0.0056808297522366,-0.00981453061103821,-0.00212393701076508,0.0116841997951269,0.0250732786953449
842,-0.0284435302019119,0.00351844262331724,-0.0243618916720152,-0.0183782521635294,-0.0106368260458112,0.00868127588182688
843,-0.018101442605257,7.27530787116848E-05,-0.0313097350299358,-0.0164062101393938,-0.0215805917978287,-0.0109018944203854
844,0.0061709457077086,-0.000613208569120616,-0.0268057622015476,-0.00268062390387058,-0.0108131859451532,-0.0229433309286833
845,0.0334478840231895,0.0125552136451006,-0.0139832962304354,0.0159585438668728,0.00947260763496161,-0.0119668180122972
846,0.0489188134670258,0.0401334390044212,-0.00527717173099518,0.0337308719754219,0.0187074355781078,0.0167512763291597
847,0.0475274883210659,0.069705069065094,-0.00823993980884552,0.0437159314751625,0.00889751687645912,0.039456132799387
848,0.0355796702206135,0.0843953490257263,-0.0210281945765018,0.0369738675653934,-0.00987750198692083,0.0398040153086185
849,0.0189721286296844,0.0684522688388824,-0.0434193573892117,0.00562919629737735,-0.029423613101244,0.01347541436553
850,0.00114391779061407,0.0209049135446548,-0.0708023980259895,-0.0406666994094849,-0.0477618351578712,-0.0290167983621359
851,-0.0171349290758371,-0.0362995676696301,-0.0929547920823097,-0.0802877321839333,-0.0626803562045097,-0.0639627277851105
852,-0.0355874560773373,-0.0674080103635788,-0.101891577243805,-0.0988331735134125,-0.070483423769474,-0.0679824277758598
853,-0.048625897616148,-0.0476359650492668,-0.0937416553497314,-0.0898895189166069,-0.0623155832290649,-0.0301111787557602
854,-0.05464206635952,0.0167737379670143,-0.0759689211845398,-0.0605981908738613,-0.040873359888792,0.0348828285932541
855,-0.0594985745847225,0.0928702503442764,-0.0628530234098434,-0.0311121810227633,-0.0222568586468697,0.0959021598100662
856,-0.0702149942517281,0.13741147518158,-0.0643215924501419,-0.0173281151801348,-0.0176889076828957,0.12386779487133
857,-0.086234949529171,0.127854242920876,-0.0815387368202209,-0.0253571290522814,-0.0299100074917078,0.105823807418346
858,-0.091309554874897,0.0867020338773727,-0.100525960326195,-0.0481258295476437,-0.0448269657790661,0.0646814852952957
859,-0.074703685939312,0.0472574308514595,-0.107637412846088,-0.0682980120182037,-0.0453481189906597,0.0264817457646132
860,-0.0469256453216076,0.0125542040914297,-0.100039817392826,-0.0729217231273651,-0.0326959230005741,-0.00907308794558048
861,-0.023461377248168,-0.0272204931825399,-0.0721268206834793,-0.056178729981184,-0.010177937336266,-0.0379723310470581
862,-0.0126627422869205,-0.073202095925808,-0.0277928095310926,-0.0254945326596498,0.0224603284150362,-0.0569180548191071
863,-0.00987584982067347,-0.114762775599957,0.0100125381723046,-0.000185833079740405,0.0521183200180531,-0.0749103277921677
864,-0.00480214320123196,-0.130024433135986,0.0238238256424665,0.0116182519122958,0.0587819628417492,-0.0895482525229454
865,0.00332039315253496,-0.106381461024284,0.0182067267596722,0.0182506926357746,0.0409187264740467,-0.0864673107862473
866,0.0129168853163719,-0.0529645569622517,0.0147590050473809,0.0335353501141071,0.0209810249507427,-0.0522871911525726
867,0.0209841523319483,0.00907277967780828,0.024627635255456,0.0588863976299763,0.0163107067346573,0.0103590581566095
868,0.0202549826353788,0.0593752153217793,0.0346256047487259,0.0794622525572777,0.0187641102820635,0.0796927064657211
869,0.0146346176043153,0.0960775166749954,0.0343783013522625,0.0873927101492882,0.0172868948429823,0.139246270060539
870,0.010814193636179,0.133985698223114,0.0213516429066658,0.0780793726444244,0.0100685181096196,0.180218949913979
871,0.00230883876793087,0.173023566603661,-0.0095648942515254,0.0435028970241547,-0.00903245992958546,0.187630549073219
872,-0.0147219989448786,0.188646227121353,-0.0485960580408573,-0.0019079070771113,-0.0350200273096561,0.159815028309822
873,-0.0344768241047859,0.158996030688286,-0.0785982832312584,-0.0353969410061836,-0.0474600233137608,0.116819776594639
874,-0.048980250954628,0.0873974412679672,-0.097059540450573,-0.0566262416541576,-0.0429551526904106,0.0704532414674759
875,-0.0507619231939316,0.00245440332219005,-0.100994728505611,-0.0680587589740753,-0.0321362763643265,0.0194084104150534
876,-0.0459923148155212,-0.0635861158370972,-0.0868081226944923,-0.0683794468641281,-0.0215697642415762,-0.0330629795789719
877,-0.0444019623100758,-0.0993143320083618,-0.0641623735427856,-0.0606664232909679,-0.0136256478726864,-0.0728299468755722
878,-0.0387962758541107,-0.108353368937969,-0.0448840074241161,-0.0425240062177181,-0.00486868666484952,-0.0820385664701462
879,-0.0252324920147657,-0.0976912155747414,-0.0358426943421364,-0.015672380104661,0.00339286145754159,-0.063463032245636
880,-0.0101328073069453,-0.0787392631173134,-0.0339471884071827,0.0082007423043251,0.00635692384094,-0.0358206778764725
881,0.0020544312428683,-0.0562486797571182,-0.0310049876570702,0.0165802109986544,0.00757176754996181,-0.00326995644718409
882,0.00766962813213468,-0.025202289223671,-0.0287121646106243,0.00386037421412766,0.0099287424236536,0.0323204696178436
883,0.00884823687374592,0.0151831666007638,-0.0303538199514151,-0.0187992453575134,0.0133581003174186,0.0549017004668713
884,0.00162616709712893,0.0591437108814716,-0.0389326214790344,-0.0425277166068554,0.0113868797197938,0.0526703260838985
885,-0.0248515289276838,0.090777762234211,-0.0572862923145294,-0.0684819892048836,-0.00666536763310432,0.0278755612671375
886,-0.059302993118763,0.0868012607097626,-0.0721907392144203,-0.0848585814237595,-0.0310960989445448,-0.00438807485625148
887,-0.0800386890769005,0.0486775562167168,-0.0700393542647362,-0.0793769583106041,-0.0441225692629814,-0.0271720513701439
888,-0.0788969844579697,0.00483125168830156,-0.0542556904256344,-0.054025374352932,-0.042697612196207,-0.0351580269634724
889,-0.060307715088129,-0.0252474565058947,-0.0344193764030933,-0.019997863098979,-0.0274242665618658,-0.0324521847069263
890,-0.038936160504818,-0.042153362184763,-0.0216548386961222,0.0042317290790379,-0.00276921899057925,-0.0232088025659323
891,-0.0257395040243864,-0.0476881228387356,-0.0208051297813654,0.0125796925276518,0.0203554481267929,0.00315550854429603
892,-0.0243225805461407,-0.0380372703075409,-0.0291594453155994,0.0148098897188902,0.0309104733169079,0.0547083877027035
893,-0.0385603792965412,-0.0188980754464865,-0.0471018515527248,0.0105710001662374,0.0178632847964764,0.099562831223011
894,-0.0606136992573738,0.000645981577690691,-0.0694950446486473,-0.00733643723651767,-0.0139476116746664,0.0982593074440956
895,-0.0736484378576279,0.0177463591098785,-0.0836929604411125,-0.0351047776639462,-0.0400400720536709,0.0556707642972469
896,-0.0751465111970901,0.0262352414429188,-0.0837763696908951,-0.0621299669146538,-0.0433117225766182,-0.0002492428466212
897,-0.0724444016814232,0.0229371413588524,-0.0705324858427048,-0.0738992542028427,-0.0275901760905981,-0.0493579171597958
898,-0.0628596842288971,0.0158487521111965,-0.048587117344141,-0.0571127273142338,-0.00745970103889704,-0.0739350095391274
899,-0.0370961651206017,0.0108174774795771,-0.0223432406783104,-0.0152360210195184,0.0117866564542055,-0.0616350807249546
900,0.00373881380073726,0.00470391800627112,0.00831039622426033,0.0334816165268421,0.0377063602209091,-0.0144892623648047
901,0.0436752773821354,-0.00502448808401823,0.0402002930641174,0.0732912868261337,0.0698235854506493,0.04944683983922
902,0.067010723054409,-0.0131623363122344,0.0677675604820251,0.097880095243454,0.0976473987102509,0.102204039692879
903,0.0688022524118423,-0.0137136587873101,0.0819927453994751,0.100470513105392,0.111974336206913,0.126917198300362
904,0.0468521937727928,-0.0116399358958006,0.0624011792242527,0.066636934876442,0.0949202626943588,0.11410204321146
905,0.0053514395840466,-0.0129511607810855,0.00759037164971232,0.00317735853604972,0.0389816388487816,0.0657323896884918
906,-0.0373475775122643,-0.012920786626637,-0.0492196045815945,-0.0518354773521423,-0.0273112151771784,0.0128071922808886
907,-0.0603207163512707,0.000320591847412288,-0.0809106826782227,-0.0723856911063194,-0.0700332671403885,-0.0158712342381477
908,-0.0515296719968319,0.033176876604557,-0.0829176008701324,-0.0606734119355679,-0.0750671029090881,-0.0135105643421412
909,-0.0195196308195591,0.0648761689662933,-0.0611096397042274,-0.0294720474630594,-0.0485333986580372,0.011365557089448
910,0.0125140780583024,0.0665774121880531,-0.0282773021608591,0.00852321088314056,-0.0112369293347001,0.0392083823680878
911,0.0323524512350559,0.0439205765724182,-0.000853770994581282,0.0405780412256718,0.019462238997221,0.0580600574612617
912,0.0410327203571796,0.0219294223934412,0.0104523757472634,0.0568858496844769,0.038192979991436,0.0691756904125214
913,0.044067170470953,0.0117406286299229,0.0125345988199115,0.0623622424900532,0.0496757738292217,0.075590543448925
914,0.0443426631391048,0.0132046649232507,0.01925378292799,0.0664761289954185,0.0626950562000275,0.0772690102458
915,0.0357641316950321,0.0207741893827915,0.0250837523490191,0.0600134134292603,0.0728791356086731,0.0642084032297134
916,0.0171003919094801,0.0292170830070972,0.0182403512299061,0.0324914455413818,0.0681090727448463,0.0305267311632633
917,-0.00310104992240667,0.0391950160264969,0.00373839819803834,-0.0013459490146488,0.0499641038477421,0.000331658084178343
918,-0.021550040692091,0.0450501888990402,-0.0109486151486635,-0.0201714355498552,0.0239760931581259,-0.00488700997084379
919,-0.0375089086592197,0.0399862341582775,-0.0228151138871908,-0.0173782184720039,-0.00229612737894058,0.00420075375586748
920,-0.0462537072598934,0.0219035912305117,-0.0305761843919754,-0.00169964204542339,-0.0146872997283936,0.0137583231553435
921,-0.0425006859004498,-0.0116527266800404,-0.0377751030027866,0.00945710297673941,-0.0123934168368578,0.0170511193573475
922,-0.0240830276161432,-0.0445485822856426,-0.04612922295928,0.00657089706510305,-0.00381954177282751,0.0124356728047132
923,0.00295134563930333,-0.0531658604741097,-0.0587868541479111,-0.011040061712265,0.00772692961618304,0.00845184084028006
924,0.0280029010027647,-0.0358835980296135,-0.077149823307991,-0.0394939891993999,0.0196307878941298,0.0102495132014155
925,0.0399709269404411,-0.00309104472398758,-0.0859399959445,-0.0619596466422081,0.0249037016183138,0.0150911053642631
926,0.0295561384409666,0.0289924871176481,-0.0742283314466476,-0.0628897473216057,0.0108602894470096,0.0159829650074244
927,0.00706646218895912,0.0467219054698944,-0.0544029138982296,-0.0487020500004292,-0.0219561122357845,0.00679726339876652
928,-0.00551809789612889,0.0581619925796986,-0.0433974787592888,-0.0386651568114758,-0.0525128580629826,-0.00683245016261935
929,-0.00885855313390493,0.0672028213739395,-0.0459658838808537,-0.0408568009734154,-0.0691236257553101,-0.0165373794734478
930,-0.0186885073781013,0.0514551252126694,-0.0534355156123638,-0.0424729622900486,-0.0778627991676331,-0.0245480481535196
931,-0.0399222709238529,0.00354000297375023,-0.0536959916353226,-0.0299885272979736,-0.0825703740119934,-0.0329198651015759
932,-0.059323213994503,-0.0414149425923824,-0.0375212170183659,-0.00363547843880951,-0.0746690481901169,-0.0304037109017372
933,-0.0559467375278473,-0.0513402968645096,-0.00070348143344745,0.0343661047518253,-0.0432198122143745,-0.00711358850821853
934,-0.0289624202996492,-0.036179032176733,0.0441497564315796,0.0762509778141975,0.00450850278139114,0.0252545140683651
935,0.00234117289073765,-0.0163642428815365,0.0763175934553146,0.105324827134609,0.0485559701919556,0.0506605133414268
936,0.0247219689190388,0.00478641455993056,0.0904005542397499,0.11467931419611,0.0783604606986046,0.0719728916883469
937,0.0363492369651794,0.0222140830010176,0.0897138193249702,0.110687665641308,0.0918106585741043,0.0993731915950775
938,0.0425602979958057,0.0277318712323904,0.0753227546811104,0.102407209575176,0.0916712805628777,0.127241522073746
939,0.0452094450592995,0.0270720236003399,0.0511028729379177,0.0905237048864365,0.0833651572465897,0.134541019797325
940,0.0335012748837471,0.0271923542022705,0.0187722388654947,0.0664404183626175,0.06540597230196,0.117113582789898
941,0.00592008559033275,0.0211658980697393,-0.022379107773304,0.0282722562551498,0.0390737019479275,0.0888829007744789
942,-0.0243624709546566,-0.000108812986582052,-0.0687649473547935,-0.0196936577558517,0.0057707903906703,0.0443142950534821
943,-0.0509434379637241,-0.0341253206133842,-0.112249106168747,-0.0730955600738525,-0.0408436022698879,-0.0262950416654348
944,-0.0708884447813034,-0.0646276623010635,-0.137913689017296,-0.11613392084837,-0.0862931832671165,-0.0964096337556839
945,-0.0810907036066055,-0.0678499341011047,-0.138327240943909,-0.131604298949242,-0.103055007755756,-0.126050844788551
946,-0.0809682533144951,-0.0376275703310966,-0.122000679373741,-0.11694073677063,-0.0902450531721115,-0.110303126275539
947,-0.0650170519948006,0.000944787636399269,-0.0934182852506638,-0.0767078474164009,-0.0618403293192387,-0.0775364562869072
948,-0.0300175752490759,0.0147419944405556,-0.0563774071633816,-0.0263519678264856,-0.0289337951689959,-0.0562484860420227
949,0.0122887250036001,-0.00680694030597806,-0.0238547306507826,0.0127906678244472,-0.00667304964736104,-0.0501846596598625
950,0.0412764027714729,-0.0420253649353981,-7.5786592788063E-05,0.0382804572582245,-6.11144132562913E-05,-0.0387571603059769
951,0.0467756353318691,-0.062362652271986,0.0181446764618158,0.0561274439096451,0.00250803283415735,-0.0113813458010554
952,0.0393589213490486,-0.0561212934553623,0.0305352825671434,0.0653815418481827,0.0112231802195311,0.0238057803362608
953,0.0380279496312141,-0.0288503132760525,0.0389919355511665,0.0701434910297394,0.0293752122670412,0.062746599316597
954,0.0482820048928261,0.00491329189389944,0.0440585166215897,0.0724394023418427,0.0503891296684742,0.0972181558609009
955,0.0575216487050056,0.0373652800917625,0.0446885861456394,0.0647894069552422,0.0615771412849426,0.112299233675003
956,0.049687135964632,0.0731604918837547,0.040464673191309,0.0459807515144348,0.0576731972396374,0.113403148949146
957,0.0216034296900034,0.112561926245689,0.0265237800776958,0.0238947700709105,0.0372440591454506,0.123631231486797
958,-0.0151851987466216,0.14241224527359,0.000794539228081703,0.00489232037216425,0.000487614393932745,0.140063554048538
959,-0.0480892024934292,0.142756700515747,-0.0315002016723156,-0.0112057263031602,-0.042815525084734,0.124381393194199
960,-0.0688588172197342,0.100160673260689,-0.0608644634485245,-0.024834668263793,-0.0767977833747864,0.0599210783839226
961,-0.0691143125295639,0.0320772230625153,-0.0738654211163521,-0.0299571268260479,-0.0848119631409645,-0.0151917142793536
962,-0.0492379367351532,-0.0293996836990118,-0.0686478018760681,-0.0287097096443176,-0.0616132877767086,-0.0599019341170788
963,-0.0204219073057175,-0.0734304636716843,-0.0559776723384857,-0.0322292931377888,-0.0228602346032858,-0.0792886465787888
964,0.00746621750295162,-0.104447387158871,-0.0406473912298679,-0.0399092175066471,0.0122060133144259,-0.0962461158633232
965,0.0241575017571449,-0.123365201056004,-0.0253581311553717,-0.0449139438569546,0.0330855399370193,-0.115334935486317
966,0.0238250587135553,-0.121930137276649,-0.0132953450083733,-0.0451415739953518,0.0387251526117325,-0.126160651445389
967,0.01281220279634,-0.0977484583854675,-0.00583428284153342,-0.0424302965402603,0.0358602255582809,-0.120964050292969
968,0.00362795847468078,-0.0594008378684521,-0.00585414841771126,-0.0408258773386478,0.0290481559932232,-0.100114561617374
969,0.00279698218218982,-0.0102499192580581,-0.0134148336946964,-0.0448181666433811,0.0173913221806288,-0.0707376003265381
970,0.00262053310871124,0.0377856381237507,-0.0244796574115753,-0.0557568110525608,0.000495403306558728,-0.0454801805317402
971,-0.00331943202763796,0.0579968690872192,-0.0334998331964016,-0.0652645528316498,-0.0178111903369427,-0.0282225348055363
972,-0.0134210512042046,0.0441583842039108,-0.0337304808199406,-0.0616687200963497,-0.0320518910884857,-0.0131390178576112
973,-0.0326899886131287,0.0137081621214747,-0.0261606015264988,-0.0480514131486416,-0.0440503321588039,-0.0026290703099221
974,-0.0605047233402729,-0.0106774000450969,-0.0211317166686058,-0.0372866913676262,-0.0575570948421955,0.00167292228434235
975,-0.0782718807458878,-0.0121412398293614,-0.0218331962823868,-0.029910933226347,-0.063540056347847,0.0116543415933847
976,-0.0765117555856705,-0.00171659921761602,-0.0289957486093044,-0.0251394454389811,-0.0558869354426861,0.0248524267226458
977,-0.0653876885771751,-0.00224292161874473,-0.0439204387366772,-0.0287335216999054,-0.0462860353291035,0.0235817804932594
978,-0.053822323679924,-0.0111665343865752,-0.059272900223732,-0.0390740782022476,-0.0486634336411953,0.00881276745349169
979,-0.0411846749484539,-0.0175937134772539,-0.0765489414334297,-0.0565056204795837,-0.0707323551177979,-0.0130497589707375
980,-0.0217580664902925,-0.0281927958130836,-0.0946791544556618,-0.0715371370315552,-0.101426295936108,-0.0402485281229019
981,-3.42066996381618E-05,-0.0503615587949753,-0.0957733243703842,-0.0622439943253994,-0.111766971647739,-0.0626101419329643
982,0.00801795534789562,-0.0762525051832199,-0.0760633051395416,-0.0352570563554764,-0.0920629128813744,-0.0774772465229034
983,0.000938532815780491,-0.0872602164745331,-0.043226208537817,-0.00983708631247282,-0.0537274442613125,-0.0839741230010986
984,-0.00758655555546284,-0.0733302235603333,-0.000761045084800571,0.0164286326617002,-0.0087563693523407,-0.0692718848586082
985,-0.00462479842826724,-0.0424128659069538,0.0421247817575932,0.0477075651288033,0.0315495505928993,-0.029235927388072
986,0.0162887573242188,-0.0029554832726717,0.0736440047621727,0.0745979771018028,0.0626289993524551,0.0231221988797188
987,0.0449876897037029,0.033992625772953,0.0880741402506828,0.0856463238596916,0.0836647227406502,0.0654046460986137
988,0.0644489228725433,0.0528450198471546,0.0887332484126091,0.0808185860514641,0.0896069183945656,0.08232631534338
989,0.0661466866731644,0.0573323778808117,0.0804624930024147,0.0660813972353935,0.0762497633695602,0.078787125647068
990,0.0440545976161957,0.0643614158034325,0.0572375431656837,0.0396385677158833,0.0419350862503052,0.0711877197027206
991,0.00405289651826024,0.0835174173116684,0.0140816075727344,-0.000575115787796676,-0.00677560595795512,0.0778490975499153
992,-0.0329896472394466,0.109364733099937,-0.0402058735489845,-0.0476434342563152,-0.0532817505300045,0.0891188532114029
