,AF3,AF4,Fp1,Fp2,AF7,AF8
0,-0.0642712488770485,-0.00282258191145957,-0.0917168259620667,-0.0193281024694443,-0.0312377754598856,-0.000883100787177682
1,-0.0537017174065113,-0.00536378845572472,-0.0877710208296776,-0.0215190388262272,-0.0242107771337032,-0.0222107730805874
2,-0.0561218522489071,-0.025817908346653,-0.0983506739139557,-0.0352363362908363,-0.0447678901255131,-0.0485941283404827
3,-0.0597473308444023,-0.0474542379379272,-0.109246022999287,-0.0423922576010227,-0.0626422688364983,-0.0613017901778221
4,-0.053021252155304,-0.0639856830239296,-0.117951765656471,-0.0500870794057846,-0.0589502304792404,-0.063570536673069
5,-0.0347836427390575,-0.0827972963452339,-0.136986419558525,-0.0839390605688095,-0.0546094551682472,-0.0758361518383026
6,-0.0135933924466372,-0.101772546768188,-0.168281480669975,-0.142400428652763,-0.0679351016879082,-0.100879430770874
7,-0.0123034454882145,-0.121628895401955,-0.208141937851906,-0.199379861354828,-0.0937315672636032,-0.131748899817467
8,-0.0334087871015072,-0.143456786870956,-0.244431734085083,-0.22719644010067,-0.106245517730713,-0.156231179833412
9,-0.0513932593166828,-0.153901383280754,-0.254374325275421,-0.211047232151031,-0.088577039539814,-0.159052446484566
10,-0.0616989284753799,-0.148237362504005,-0.23352187871933,-0.164629533886909,-0.0610096901655197,-0.144881889224052
11,-0.0618827790021896,-0.121469981968403,-0.186586081981659,-0.100581727921963,-0.0378482788801193,-0.109293423593044
12,-0.0357348322868347,-0.0676489770412445,-0.120712913572788,-0.020349295809865,-0.0112420246005058,-0.0382264740765095
13,0.0071193422190845,-0.0126413777470589,-0.0636062771081924,0.0510302037000656,0.0119207464158535,0.0437211617827415
14,0.0404570885002613,0.018496984615922,-0.0339467003941536,0.0885095149278641,0.0197610296308994,0.103869415819645
15,0.0462232567369938,0.0265766568481922,-0.0235691424459219,0.0942767262458801,0.0152056589722633,0.133948907256126
16,0.0205837581306696,0.0149216251447797,-0.019070066511631,0.0779294893145561,0.00778042199090123,0.128220111131668
17,-0.0175904259085655,-0.0055016833357513,-0.0153712844476104,0.049660749733448,0.00438435049727559,0.0893317013978958
18,-0.0429560318589211,-0.0225041434168816,-0.0239115543663502,0.0162357240915298,0.00102113536559045,0.0349226482212543
19,-0.0428766198456287,-0.036627009510994,-0.0501318387687206,-0.0175393167883158,-0.00811252556741238,-0.0169463939964771
20,-0.0186963435262442,-0.0442566275596619,-0.0739973112940788,-0.0399629883468151,-0.0147358383983374,-0.048039436340332
21,0.0145541690289974,-0.0434611886739731,-0.0787214338779449,-0.0502596013247967,-0.00910964142531157,-0.0557693652808666
22,0.0339957699179649,-0.0457381680607796,-0.0775400996208191,-0.0678555741906166,0.00182618689723313,-0.0653984695672989
23,0.0147801199927926,-0.0637818798422813,-0.105532348155975,-0.108200922608376,-0.00396741461008787,-0.0930648148059845
24,-0.046273298561573,-0.10040307790041,-0.172717899084091,-0.161175027489662,-0.0457042455673218,-0.122161649167538
25,-0.116812162101269,-0.143758505582809,-0.243937864899635,-0.203455597162247,-0.119309224188328,-0.138542592525482
26,-0.162181317806244,-0.173758462071419,-0.284418046474457,-0.223402678966522,-0.198059290647507,-0.148590862751007
27,-0.164180070161819,-0.169163852930069,-0.28183776140213,-0.210394099354744,-0.240882158279419,-0.141281217336655
28,-0.124249279499054,-0.11881186068058,-0.238944828510284,-0.155253902077675,-0.218988493084908,-0.0937598422169685
29,-0.0723568573594093,-0.0458150506019592,-0.181194975972176,-0.0820247530937195,-0.156806424260139,-0.0237005352973938
30,-0.0353644974529743,0.00309587013907731,-0.136723637580872,-0.0275264512747526,-0.100690938532352,0.0275312345474958
31,-0.0124760707840323,0.00077704613795504,-0.109027363359928,-0.00360311381518841,-0.0638292357325554,0.0414716303348541
32,0.00594434421509504,-0.0391408354043961,-0.0857262462377548,-0.00242369715124369,-0.0317099057137966,0.0246102064847946
33,0.0262831766158342,-0.0812849849462509,-0.0524447225034237,-0.00966011639684439,0.0112460926175117,-0.00144980777986348
34,0.0374360419809818,-0.108488522469997,-0.0175701286643744,-0.0241996683180332,0.0497716702520847,-0.0235112756490707
35,0.0172284729778767,-0.124851800501347,-0.0114144999533892,-0.0555118769407272,0.0472922064363956,-0.047427125275135
36,-0.032635822892189,-0.128779202699661,-0.0403451174497604,-0.0919804349541664,0.00336142932064831,-0.0699772164225578
37,-0.0915776193141937,-0.119612321257591,-0.0929664671421051,-0.118548832833767,-0.0502070151269436,-0.0811698958277702
38,-0.141726925969124,-0.105676375329494,-0.162171214818954,-0.139140620827675,-0.0970808193087578,-0.0798574015498161
39,-0.167440101504326,-0.0871402323246002,-0.228368937969208,-0.156257554888725,-0.135000199079514,-0.0714497044682503
40,-0.164740547537804,-0.0666841790080071,-0.271882742643356,-0.171124160289764,-0.159172877669334,-0.0689620077610016
41,-0.14750300347805,-0.0623574331402779,-0.288666307926178,-0.184541299939156,-0.167354300618172,-0.0752688497304916
42,-0.13122983276844,-0.0867195278406143,-0.279073178768158,-0.186600133776665,-0.16301192343235,-0.0804783180356026
43,-0.126392737030983,-0.130482047796249,-0.252088576555252,-0.173841327428818,-0.157376766204834,-0.0819055214524269
44,-0.130195483565331,-0.161916092038155,-0.2217618227005,-0.154053747653961,-0.157737284898758,-0.0753228068351746
45,-0.118606351315975,-0.155573308467865,-0.185096606612206,-0.125394761562347,-0.145972892642021,-0.0483828112483025
46,-0.0784274265170097,-0.122415341436863,-0.134007290005684,-0.0844726860523224,-0.104185692965984,-0.00702255079522729
47,-0.0277852639555931,-0.083853080868721,-0.0812048763036728,-0.045398186892271,-0.0468351617455482,0.0210532862693071
48,0.00757742486894131,-0.0506028942763805,-0.0488895997405052,-0.0287825204432011,-0.00200598454102874,0.0207130517810583
49,0.0213382877409458,-0.0329494178295136,-0.0392923913896084,-0.0354363210499287,0.0181793849915266,0.00446513574570417
50,0.0257473979145288,-0.03616052120924,-0.0352752208709717,-0.0457145944237709,0.0250223372131586,-0.0104678915813565
51,0.0229996740818024,-0.0566798783838749,-0.0326879322528839,-0.053579818457365,0.0302891712635756,-0.0246802233159542
52,0.00306026777252555,-0.0824696123600006,-0.0430297590792179,-0.0664244741201401,0.0323217771947384,-0.0412827841937542
53,-0.0342689752578735,-0.102736197412014,-0.0694966688752174,-0.0834100618958473,0.0209169425070286,-0.0562638901174068
54,-0.075948528945446,-0.124876879155636,-0.110199734568596,-0.105860710144043,-0.0142438188195229,-0.0797041803598404
55,-0.102889701724052,-0.155930295586586,-0.157990470528603,-0.131928965449333,-0.0592422150075436,-0.119522660970688
56,-0.10146626085043,-0.17487744987011,-0.187430262565613,-0.143850311636925,-0.0811771899461746,-0.151352807879448
57,-0.0810662135481834,-0.158778265118599,-0.186860397458076,-0.141205385327339,-0.0755748972296715,-0.153469741344452
58,-0.066773496568203,-0.120193295180798,-0.178788349032402,-0.14957220852375,-0.0732694938778877,-0.133887365460396
59,-0.0705565959215164,-0.0842915624380112,-0.177610144019127,-0.169501423835754,-0.0896187052130699,-0.0968605652451515
60,-0.0813555419445038,-0.0560822784900665,-0.170611977577209,-0.170385330915451,-0.104474678635597,-0.0421560667455196
61,-0.0779936239123344,-0.0285130999982357,-0.144428938627243,-0.133837282657623,-0.0933225080370903,0.0140985818579793
62,-0.0540430285036564,0.00258460734039545,-0.104734435677528,-0.0688913315534592,-0.0509931072592735,0.0592588894069195
63,-0.017383323982358,0.0410508364439011,-0.0645962506532669,0.000530239951331168,0.00631647929549217,0.0968018844723701
64,0.0198833271861076,0.0809313058853149,-0.0339519567787647,0.0495241209864616,0.0451526641845703,0.122460208833218
65,0.0392730608582497,0.0918617993593216,-0.024970943108201,0.0625949278473854,0.0415085293352604,0.112730920314789
66,0.0371106341481209,0.0518149547278881,-0.0367636159062386,0.0442370735108852,0.0152095463126898,0.0610817223787308
67,0.0286301504820585,-0.0140134207904339,-0.0520433187484741,0.0145462406799197,0.00411648629233241,0.00110395986121148
68,0.0144428135827184,-0.0598113052546978,-0.0695466622710228,-0.0160361398011446,0.00668270327150822,-0.0297940820455551
69,-0.011169814504683,-0.0666662082076073,-0.0923354178667068,-0.0411210060119629,0.00385190267115831,-0.0218712985515594
70,-0.0328333862125874,-0.0559221282601357,-0.105713605880737,-0.0510796047747135,-0.00616396637633443,0.000127477265777998
71,-0.0420972965657711,-0.0687211900949478,-0.107041895389557,-0.0555952191352844,-0.0291221681982279,-0.00971062481403351
72,-0.0464831776916981,-0.11403151601553,-0.107254691421986,-0.0654695555567741,-0.0610175207257271,-0.0616510063409805
73,-0.0444406121969223,-0.158560961484909,-0.113059632480145,-0.0772603899240494,-0.0812029838562012,-0.119686149060726
74,-0.0365834198892117,-0.178109586238861,-0.12444131821394,-0.0902905985713005,-0.0812298133969307,-0.153503566980362
75,-0.0318125337362289,-0.170215010643005,-0.130613029003143,-0.10147962719202,-0.063825711607933,-0.154448300600052
76,-0.0331521257758141,-0.131915763020515,-0.123734563589096,-0.101456753909588,-0.0406567268073559,-0.124283067882061
77,-0.0370991192758083,-0.0671064481139183,-0.106355972588062,-0.0840087383985519,-0.0226470716297627,-0.0701548084616661
78,-0.0391526967287064,0.00311946426518261,-0.0830206573009491,-0.0517063103616238,-0.00253822398371995,-0.000313244585413486
79,-0.0378319397568703,0.0582040026783943,-0.0586262755095959,-0.0169579237699509,0.0257044043391943,0.0677892193198204
80,-0.0325890555977821,0.0888847634196281,-0.0354520007967949,0.00845901388674974,0.050406489521265,0.108956530690193
81,-0.0223756320774555,0.0886739194393158,-0.012667179107666,0.0252691246569157,0.0597877763211727,0.114220432937145
82,-0.00694883242249489,0.0585447549819946,0.00569175835698843,0.0406334921717644,0.057394452393055,0.0930333361029625
83,0.00874218251556158,0.0132767362520099,0.00836695451289415,0.053699716925621,0.0502255521714687,0.0608255080878735
84,0.0159891992807388,-0.0295330360531807,-0.013564620167017,0.0523338094353676,0.0352697037160397,0.031685758382082
85,0.0142958518117666,-0.061218898743391,-0.0583262853324413,0.0248309317976236,0.00705277128145099,0.00666785379871726
86,0.00255059101618826,-0.084373451769352,-0.108897499740124,-0.0239019077271223,-0.0281757097691298,-0.024433296173811
87,-0.0270178597420454,-0.105021215975285,-0.141925349831581,-0.0779011622071266,-0.054613146930933,-0.0637100860476494
88,-0.0674987733364105,-0.127295255661011,-0.147476568818092,-0.121821328997612,-0.0655778050422668,-0.0972680225968361
89,-0.0956490859389305,-0.152487620711327,-0.136657640337944,-0.138374775648117,-0.0698641687631607,-0.112174652516842
90,-0.0978220254182816,-0.173365712165833,-0.129019603133202,-0.120907485485077,-0.075374998152256,-0.113509342074394
91,-0.0809352248907089,-0.173868253827095,-0.124262094497681,-0.0806365162134171,-0.0725494623184204,-0.103631295263767
92,-0.0537508018314838,-0.136477738618851,-0.103304080665112,-0.0303098000586033,-0.0466966442763805,-0.0648697018623352
93,-0.0214736070483923,-0.0700331702828407,-0.070299930870533,0.0100180320441723,-0.0101065868511796,-0.0072011174634099
94,0.00811718497425318,-0.0180761553347111,-0.0458708107471466,0.0197071637958288,0.0174261871725321,0.0254351366311312
95,0.0315341912209988,-0.00578295066952705,-0.0229522436857224,0.00662613892927766,0.045181468129158,0.0202622674405575
96,0.0467517785727978,-0.0136758489534259,0.0087148156017065,-0.00873184204101563,0.0809046626091003,0.000954412797000259
97,0.050755362957716,-0.0146337160840631,0.0375246703624725,-0.0126673979684711,0.110180504620075,-0.00969363376498222
98,0.0372010692954063,-0.00938158854842186,0.0513295195996761,-0.00290782633237541,0.114136144518852,-0.00853244680911303
99,0.00368577614426613,-0.010988206602633,0.0434584803879261,0.00694814370945096,0.0804570391774178,-0.00651844823732972
100,-0.0341633073985577,-0.0101665947586298,0.0140825258567929,0.00542963156476617,0.017003471031785,-0.00492207612842321
101,-0.0614672340452671,0.00746877631172538,-0.0283066462725401,-0.00829058419913054,-0.051350936293602,0.00239496165886521
102,-0.0714433640241623,0.0321971289813519,-0.0663801357150078,-0.0235591940581799,-0.0993017256259918,0.0181986298412085
103,-0.0570605583488941,0.0408378168940544,-0.0863158106803894,-0.0270654484629631,-0.113175466656685,0.0422239489853382
104,-0.0283529795706272,0.0220787059515715,-0.0917760506272316,-0.0232721939682961,-0.0979550629854202,0.0586027577519417
105,-0.00178611685987562,-0.00653919624164701,-0.0815041214227676,-0.0163533538579941,-0.0598122738301754,0.0559243634343147
106,0.0245349239557981,-0.0187112037092447,-0.0493721477687359,0.000567850365769118,7.92429782450199E-05,0.0500528514385223
107,0.0513868555426598,-0.015502399764955,-0.00866901688277721,0.0227243006229401,0.0632425546646118,0.052041057497263
108,0.0675709098577499,-0.0117523921653628,0.023181464523077,0.0391971245408058,0.103566870093346,0.0604712218046188
109,0.0656988993287086,-0.0101447533816099,0.0341631174087524,0.0409076996147633,0.111078709363937,0.0691109076142311
110,0.0460200905799866,-0.0157063845545053,0.0122847240418196,0.0182679072022438,0.0876563936471939,0.0542611554265022
111,0.0186088606715202,-0.0405680276453495,-0.0292660854756832,-0.0217152293771505,0.0457475334405899,-0.000197036410099827
112,-0.00401554629206657,-0.0836150124669075,-0.0608926713466644,-0.0609234049916267,0.00142335263080895,-0.0757411941885948
113,-0.0159971639513969,-0.123897083103657,-0.0736077353358269,-0.0861981809139252,-0.0309906471520662,-0.13357962667942
114,-0.00770488567650318,-0.131604924798012,-0.0662840604782104,-0.0836503356695175,-0.0282798279076815,-0.137376099824905
115,0.0241990592330694,-0.0944400951266289,-0.0362698957324028,-0.0499400608241558,0.0194266382604837,-0.0830946788191795
116,0.0572562180459499,-0.0325288213789463,0.000900160172022879,-0.00963043607771397,0.0750007480382919,-0.0131396455690265
117,0.0575518012046814,0.0247614234685898,0.0155294155701995,0.00344039942137897,0.0796599462628365,0.024212496355176
118,0.0157071426510811,0.0546275898814201,-0.00413578236475587,-0.0174718555063009,0.025084376335144,0.0211922787129879
119,-0.0323303192853928,0.0457295440137386,-0.0340201891958714,-0.0417681708931923,-0.0353018753230572,0.00970065966248512
120,-0.0467243418097496,0.0145419994369149,-0.0441966913640499,-0.0373439863324165,-0.057584572583437,0.0193903725594282
121,-0.0303243082016706,-0.00570686487480998,-0.030577564612031,-0.00607193727046251,-0.0428719036281109,0.0453110039234161
122,0.00148758129216731,0.00153883767779917,-0.00133651390206069,0.0329657010734081,-0.00993204675614834,0.067243829369545
123,0.0426341667771339,0.0243905168026686,0.0349546149373055,0.0710045322775841,0.0287241898477077,0.0800786316394806
124,0.0800716802477837,0.0484962463378906,0.0657061785459518,0.107514545321465,0.0683288872241974,0.0981161594390869
125,0.103529274463654,0.0740419626235962,0.0835504680871964,0.134102448821068,0.0997441709041595,0.127727493643761
126,0.109241597354412,0.0831741243600845,0.0817318633198738,0.127134561538696,0.100142821669579,0.138388529419899
127,0.0911051705479622,0.0475841350853443,0.0463773012161255,0.0717685371637344,0.0505252704024315,0.0963591635227203
128,0.0505867749452591,-0.0139117632061243,-0.016913803294301,-0.0082587581127882,-0.0332408994436264,0.0170723740011454
129,0.004784663207829,-0.0548149608075619,-0.070590116083622,-0.0663472339510918,-0.104174710810184,-0.0486819073557854
130,-0.0214550197124481,-0.0523625127971172,-0.0756370648741722,-0.0711906179785728,-0.120986439287663,-0.0654913783073425
131,-0.0215620025992393,-0.0124557660892606,-0.027249451726675,-0.0313146859407425,-0.0796514749526978,-0.0388480573892593
132,-0.00949571095407009,0.0341072715818882,0.039118118584156,0.0156609825789928,-0.011320548132062,-0.000946478161495179
133,0.0126763721928,0.0591609850525856,0.0835671871900558,0.0466291904449463,0.0522159039974213,0.0243886895477772
134,0.0472349524497986,0.0620424523949623,0.0962048247456551,0.063696064054966,0.09691122174263,0.0351098068058491
135,0.0794459655880928,0.0525570958852768,0.0942271426320076,0.0734132528305054,0.120170369744301,0.0402625985443592
136,0.0936767682433128,0.0400856025516987,0.0947845652699471,0.078989714384079,0.12380139529705,0.0482307784259319
137,0.0826266556978226,0.0261852145195007,0.0945724472403526,0.0754982531070709,0.103188075125217,0.0513588935136795
138,0.0433722920715809,0.00080410175723955,0.0783906951546669,0.0535569712519646,0.05213563144207,0.0319597311317921
139,-0.0117167439311743,-0.0310445111244917,0.0424088314175606,0.0152312749996781,-0.011494617909193,-0.00629580719396472
140,-0.0526052862405777,-0.048067394644022,0.000399034557631239,-0.0260367393493652,-0.0555668510496616,-0.0394155457615852
141,-0.0556905269622803,-0.0403574071824551,-0.0278850384056568,-0.0509110577404499,-0.0659178495407104,-0.0486813373863697
142,-0.019122863188386,-0.00739548821002245,-0.0264244955033064,-0.0408419147133827,-0.0392369739711285,-0.0274705551564693
143,0.0377001166343689,0.039131186902523,-0.00141102494671941,-0.0063706673681736,0.0147501127794385,0.00740803265944123
144,0.0857376009225845,0.0801588520407677,0.0253258235752583,0.0249440651386976,0.0622420087456703,0.0308797582983971
145,0.101470112800598,0.103707283735275,0.0398175567388535,0.0413611643016338,0.072631374001503,0.0401584915816784
146,0.0738058909773827,0.0925042629241943,0.0351031348109245,0.038653340190649,0.0459157302975655,0.0430096611380577
147,0.0241030100733042,0.0537199415266514,0.0257253646850586,0.0302059184759855,0.0190127417445183,0.0520147755742073
148,-0.00161796587053686,0.0313574522733688,0.0386610813438892,0.0410774871706963,0.030083529651165,0.0733985081315041
149,0.0126405162736773,0.0419060289859772,0.069810651242733,0.0636511668562889,0.0740339457988739,0.0859047099947929
150,0.036747220903635,0.0540980324149132,0.0906774327158928,0.0679190307855606,0.115503929555416,0.0660025179386139
151,0.0454564727842808,0.0422742441296577,0.0893609002232552,0.0480889528989792,0.124861612915993,0.0213860776275396
152,0.0492747277021408,0.0217183586210012,0.0824943110346794,0.0304947178810835,0.102946504950523,-0.0148191545158625
153,0.0553800724446774,0.0176341868937016,0.085240826010704,0.0369606465101242,0.0737867504358292,-0.0213882680982351
154,0.0496042259037495,0.0244091339409351,0.0841578990221024,0.054605845361948,0.0510837845504284,-0.0128084933385253
155,0.0377271436154842,0.0250039622187614,0.06740403175354,0.0645770877599716,0.0408703684806824,-0.0068587139248848
156,0.0395908840000629,0.0287749525159597,0.0499905608594418,0.069797195494175,0.043217446655035,0.00444322172552347
157,0.049454290419817,0.0446737892925739,0.0449865721166134,0.076195165514946,0.0425007455050945,0.0308768711984158
158,0.0591956898570061,0.0595651529729366,0.0548553243279457,0.0879940390586853,0.0404395498335361,0.0682705864310265
159,0.072993092238903,0.0685832947492599,0.0837582498788834,0.106995850801468,0.0611111931502819,0.105678968131542
160,0.0805189907550812,0.0706163719296455,0.121985919773579,0.118491753935814,0.102869808673859,0.122814677655697
161,0.0700339302420616,0.0598948560655117,0.140346080064774,0.10525556653738,0.128597527742386,0.100327894091606
162,0.0437079519033432,0.039132721722126,0.115779303014278,0.0674475356936455,0.108492486178875,0.046705137938261
163,0.011854225769639,0.0198432095348835,0.0612249150872231,0.0235422030091286,0.0573444478213787,0.000985716818831861
164,-0.0060433098115027,0.0220370292663574,0.0208154991269112,0.000606821849942207,0.0215367078781128,-0.00334269693121314
165,-0.0011421829694882,0.0544249638915062,0.0188591089099646,0.0106705231592059,0.0249484945088625,0.0271341688930988
166,0.0169953741133213,0.0934972986578941,0.0392109006643295,0.039044301956892,0.0499085262417793,0.0580785349011421
167,0.0318739265203476,0.105056516826153,0.058848537504673,0.0602425821125507,0.0690416470170021,0.0631435364484787
168,0.023621903732419,0.0712978765368462,0.0625700429081917,0.0518791377544403,0.0640551447868347,0.0333102941513062
169,-0.00014291942352429,0.00646673748269677,0.0450884625315666,0.0134166842326522,0.0356139242649078,-0.0131049891933799
170,-0.0056687886826694,-0.0524747893214226,0.0184186827391386,-0.0313185043632984,0.00356461899355054,-0.0401770696043968
171,0.00765254208818078,-0.0953653231263161,-0.00983446929603815,-0.0711867958307266,-0.026146924123168,-0.0567057505249977
172,0.00829258095473051,-0.131990715861321,-0.0386605188250542,-0.103756159543991,-0.0574750602245331,-0.0979350283741951
173,-0.0153405033051968,-0.149057134985924,-0.0524908155202866,-0.111362442374229,-0.0780777335166931,-0.147352784872055
174,-0.0445193946361542,-0.126883506774902,-0.0327203385531902,-0.0799759328365326,-0.0740844309329987,-0.155524134635925
175,-0.054194550961256,-0.0630073547363281,0.0171784106642008,-0.0186102259904146,-0.0447981767356396,-0.108376383781433
176,-0.0425762087106705,0.0265680234879255,0.0612262673676014,0.0378131382167339,-0.0076702288351953,-0.0408207513391972
177,-0.0302429962903261,0.112028725445271,0.0728998631238937,0.0610925815999508,0.0199040919542313,0.013626235537231
178,-0.0272858534008265,0.15382519364357,0.0699302852153778,0.0607364177703857,0.0418591350317001,0.0518501698970795
179,-0.0318537652492523,0.122987635433674,0.0696247592568398,0.0509135313332081,0.0563575141131878,0.0667938813567162
180,-0.03876793384552,0.0386721715331078,0.068697527050972,0.0318030714988709,0.0568959154188633,0.045111496001482
181,-0.0404810272157192,-0.0478410832583904,0.0657147467136383,0.0103433690965176,0.0543773658573627,-0.000555201608221978
182,-0.0318763554096222,-0.10244408249855,0.0600111410021782,-0.00256738299503922,0.0527884364128113,-0.0415614023804665
183,-0.00696038082242012,-0.115321777760983,0.0529388189315796,-0.00334774283692241,0.0492098554968834,-0.0587632358074188
184,0.0251278225332499,-0.100498475134373,0.0420990511775017,-0.00363085162825882,0.0393024273216724,-0.0616484247148037
185,0.0393643230199814,-0.0880725532770157,0.0203934796154499,-0.0172305218875408,0.00929065700620413,-0.0748266279697418
186,0.0368983931839466,-0.0773424282670021,0.00402740342542529,-0.0255989376455545,-0.0246377196162939,-0.0869691148400307
187,0.0438234768807888,-0.0422323830425739,0.0176215432584286,-0.000683571095578372,-0.0245817713439465,-0.0650831982493401
188,0.0607981495559216,0.0135130034759641,0.0521714761853218,0.0472644120454788,0.00813449639827013,-0.00905094761401415
189,0.0628159046173096,0.0599085539579391,0.0782403945922852,0.0840587019920349,0.0440205745398998,0.0522181391716003
190,0.0421864092350006,0.0759060233831406,0.0816227644681931,0.0906466767191887,0.0627203285694122,0.0923257246613503
191,0.0187101140618324,0.0647081658244133,0.0698002427816391,0.0771792456507683,0.0616890043020248,0.10849054902792
192,0.00470272451639175,0.0474534928798676,0.0565797127783298,0.0622133500874043,0.0494567714631557,0.110804475843906
193,-0.01754748262465,0.0366220362484455,0.0416752696037292,0.0414432510733604,0.0230659525841475,0.0932840704917908
194,-0.054217703640461,0.0293157286942005,0.0213375259190798,0.00894799549132586,-0.0137808909639716,0.0524153001606464
195,-0.074279747903347,0.0203778874129057,0.0106813488528132,-0.0164012219756842,-0.0295288227498531,0.00751015683636069
196,-0.0598148740828037,0.00589262042194605,0.0222493130713701,-0.0226058308035135,-0.012427031993866,-0.0269332341849804
197,-0.0312181990593672,-0.0187255889177322,0.0398139096796513,-0.0231457650661469,0.00824836175888777,-0.0544455386698246
198,-0.0182606726884842,-0.0594493709504604,0.0299285557121038,-0.0429675690829754,0.00111745623871684,-0.0866944491863251
199,-0.0289912950247526,-0.112757585942745,-0.0177288986742496,-0.0918718501925468,-0.0317099913954735,-0.127563446760178
200,-0.0358224399387836,-0.153174474835396,-0.0643061921000481,-0.135958507657051,-0.0554057471454144,-0.150459200143814
201,-0.016646720468998,-0.151877105236053,-0.0691161006689072,-0.134644746780396,-0.0494989529252052,-0.126942828297615
202,0.0138498432934284,-0.113048806786537,-0.0376646034419537,-0.0910364389419556,-0.0288986880332232,-0.0736236646771431
203,0.0348747298121452,-0.0734470710158348,0.00424400996416807,-0.0329627990722656,-0.0107733635231853,-0.0266944505274296
204,0.037669375538826,-0.0590714141726494,0.0354738868772984,0.0129370279610157,6.22062798356637E-05,-0.00138770206831396
205,0.0332875549793243,-0.0564429424703121,0.0493695139884949,0.037961021065712,0.00938321836292744,0.0132624199613929
206,0.0411808714270592,-0.0398174710571766,0.0555433332920074,0.0526116937398911,0.0258542336523533,0.03628059476614
207,0.0534803681075573,-0.00690373545512557,0.057383619248867,0.0568594411015511,0.040746632963419,0.0619877614080906
208,0.0458683371543884,0.0232256408780813,0.0504382997751236,0.0412187837064266,0.0404204912483692,0.0665775015950203
209,0.00977696292102337,0.0307619124650955,0.0357855446636677,0.0111624328419566,0.0255315657705069,0.0482835285365582
210,-0.0371449142694473,0.0164532177150249,0.022131472826004,-0.010469714179635,0.00718126259744167,0.025834446772933
211,-0.0659950971603394,0.00158769392874092,0.0150837395340204,-0.00804361794143915,-0.00391350034624338,0.011749254539609
212,-0.0715058222413063,-0.00685065891593695,-0.00182168965693563,-0.00347906560637057,-0.0161109808832407,-0.00180143536999822
213,-0.0727209150791168,-0.029015451669693,-0.0453008450567722,-0.0310179833322763,-0.0426311306655407,-0.0370635725557804
214,-0.0812947079539299,-0.0679672136902809,-0.0926778092980385,-0.0848115608096123,-0.0729566514492035,-0.0930706858634949
215,-0.0871827378869057,-0.10494215041399,-0.117664270102978,-0.137142404913902,-0.0968192368745804,-0.146173000335693
216,-0.0786503329873085,-0.137327328324318,-0.135598435997963,-0.17771802842617,-0.127982959151268,-0.189859479665756
217,-0.0681781843304634,-0.170731246471405,-0.162358209490776,-0.20230521261692,-0.174995839595795,-0.228532582521439
218,-0.0706483423709869,-0.197350636124611,-0.17476499080658,-0.196311384439468,-0.209344282746315,-0.246978610754013
219,-0.0686490461230278,-0.192417860031128,-0.140673711895943,-0.144472435116768,-0.187590003013611,-0.214538604021072
220,-0.0432262979447842,-0.139026015996933,-0.0662999749183655,-0.0587320514023304,-0.111799784004688,-0.128843531012535
221,-0.0145474588498473,-0.0596384480595589,0.00613425020128489,0.0164602156728506,-0.0350187383592129,-0.0355642661452293
222,-0.0106017673388124,-0.00117876473814249,0.0429207570850849,0.0453339293599129,0.00272196275182068,0.0199499260634184
223,-0.0332396514713764,0.00351790944114327,0.0342263020575047,0.0261824205517769,-0.00279420264996588,0.0291179958730936
224,-0.0680078640580177,-0.0338379293680191,-0.0084414929151535,-0.0172860790044069,-0.0355660803616047,0.00591501500457525
225,-0.0955140441656113,-0.0755298733711243,-0.0562733449041843,-0.0561534874141216,-0.060656052082777,-0.0326631926000118
226,-0.110590875148773,-0.111587032675743,-0.096291683614254,-0.0886959955096245,-0.062854953110218,-0.083764523267746
227,-0.121932350099087,-0.141357079148293,-0.127210721373558,-0.122188575565815,-0.0593926198780537,-0.135291919112206
228,-0.13155072927475,-0.146636500954628,-0.13192144036293,-0.14048758149147,-0.0599022507667542,-0.146276608109474
229,-0.142821356654167,-0.123734056949615,-0.108638994395733,-0.138303890824318,-0.07121641933918,-0.110950291156769
230,-0.156139925122261,-0.0910279378294945,-0.0878674536943436,-0.134320259094238,-0.104423701763153,-0.084177277982235
231,-0.162627652287483,-0.077424481511116,-0.097013033926487,-0.141983509063721,-0.155109837651253,-0.107984155416489
232,-0.162085354328156,-0.100143134593964,-0.130049601197243,-0.156715884804726,-0.196610763669014,-0.162933975458145
233,-0.16225229203701,-0.146589636802673,-0.153170123696327,-0.161295190453529,-0.199260979890823,-0.203043565154076
234,-0.169444397091866,-0.203922852873802,-0.152960076928139,-0.155203282833099,-0.16894955933094,-0.21980132162571
235,-0.183939173817635,-0.269333243370056,-0.148306131362915,-0.156760185956955,-0.138718590140343,-0.238459676504135
236,-0.192499220371246,-0.315128087997437,-0.143865242600441,-0.159683614969254,-0.119140043854713,-0.253824234008789
237,-0.188825741410255,-0.306900203227997,-0.132074892520905,-0.149814859032631,-0.101974956691265,-0.239471927285194
238,-0.185820817947388,-0.25415912270546,-0.119760476052761,-0.14646004140377,-0.088614746928215,-0.202041819691658
239,-0.187264278531075,-0.202784359455109,-0.1225825548172,-0.173194617033005,-0.0922103971242905,-0.177341610193253
240,-0.190277725458145,-0.192384228110313,-0.154171839356422,-0.227830618619919,-0.128919959068298,-0.197883278131485
241,-0.196012243628502,-0.21236851811409,-0.195023879408836,-0.276670932769775,-0.184767946600914,-0.242690831422806
242,-0.198680192232132,-0.218357816338539,-0.202381461858749,-0.275930464267731,-0.218315631151199,-0.243437901139259
243,-0.195151105523109,-0.198697507381439,-0.171106040477753,-0.225638180971146,-0.208989664912224,-0.185109719634056
244,-0.183667659759521,-0.168048173189163,-0.126631304621696,-0.161954522132874,-0.166315242648125,-0.118604302406311
245,-0.16641554236412,-0.139966934919357,-0.0908919423818588,-0.115075901150703,-0.122906923294067,-0.0862764343619347
246,-0.158473208546638,-0.131965175271034,-0.0826984867453575,-0.104683414101601,-0.115258559584618,-0.102335698902607
247,-0.169720336794853,-0.139019429683685,-0.102334134280682,-0.130198165774345,-0.142734944820404,-0.147878080606461
248,-0.201440185308456,-0.139493092894554,-0.132628113031387,-0.174258917570114,-0.178863316774368,-0.186867386102676
249,-0.247001081705093,-0.139596909284592,-0.169924095273018,-0.231587067246437,-0.215467900037766,-0.210182785987854
250,-0.288913428783417,-0.161064431071281,-0.214322715997696,-0.297209501266479,-0.257661610841751,-0.234070658683777
251,-0.312096387147903,-0.206430584192276,-0.249298840761185,-0.342667669057846,-0.294219553470612,-0.26704478263855
252,-0.301638782024384,-0.248487055301666,-0.251694679260254,-0.334071278572083,-0.29487806558609,-0.286535084247589
253,-0.246777459979057,-0.254950076341629,-0.212119072675705,-0.26536425948143,-0.244595095515251,-0.263842672109604
254,-0.169098287820816,-0.23313470184803,-0.152709528803825,-0.175012856721878,-0.170216411352158,-0.211635679006577
255,-0.105960674583912,-0.216197937726974,-0.109501168131828,-0.118156500160694,-0.113301783800125,-0.169482693076134
256,-0.0726251006126404,-0.217430010437965,-0.0950470715761185,-0.116233617067337,-0.0964602679014206,-0.157648235559464
257,-0.062424510717392,-0.222266882658005,-0.093130461871624,-0.14375826716423,-0.113365069031715,-0.161160573363304
258,-0.0632863342761993,-0.206394225358963,-0.0877665430307388,-0.15882208943367,-0.136936262249947,-0.151803061366081
259,-0.0734835714101791,-0.163749784231186,-0.0837443917989731,-0.147525265812874,-0.150086835026741,-0.13152588903904
260,-0.0931026116013527,-0.115427061915398,-0.0894294604659081,-0.12816447019577,-0.156423881649971,-0.125204712152481
261,-0.107141926884651,-0.087338924407959,-0.100603133440018,-0.115000210702419,-0.154640316963196,-0.137567207217216
262,-0.104918517172337,-0.0881521552801132,-0.109880492091179,-0.109273843467236,-0.136920094490051,-0.153880327939987
263,-0.101408012211323,-0.100626066327095,-0.112798020243645,-0.109913863241673,-0.112264707684517,-0.150496870279312
264,-0.116081096231937,-0.101085461676121,-0.114104300737381,-0.120855651795864,-0.0972832292318344,-0.118753634393215
265,-0.147511556744576,-0.088233508169651,-0.126345321536064,-0.151389673352242,-0.0959213525056839,-0.0971917062997818
266,-0.190174356102943,-0.0846848413348198,-0.151731461286545,-0.199949309229851,-0.115496188402176,-0.130220264196396
267,-0.240057796239853,-0.11065436154604,-0.17836993932724,-0.249039739370346,-0.16498576104641,-0.206833317875862
268,-0.26872330904007,-0.156496271491051,-0.188859432935715,-0.272235721349716,-0.221338182687759,-0.268896549940109
269,-0.242375537753105,-0.192013695836067,-0.168618693947792,-0.245520353317261,-0.23941807448864,-0.2656170129776
270,-0.169379964470863,-0.197106644511223,-0.121280409395695,-0.175780296325684,-0.20021964609623,-0.20390710234642
271,-0.0909122675657272,-0.179242670536041,-0.0704941526055336,-0.101569056510925,-0.133603677153587,-0.134566187858582
272,-0.032604169100523,-0.156826481223106,-0.032101396471262,-0.0480233207345009,-0.0800173953175545,-0.0831204056739807
273,0.00377320870757103,-0.135891452431679,-0.00751178339123726,-0.0188559181988239,-0.0502663999795914,-0.04171147570014
274,0.020163269713521,-0.113761059939861,2.55100367212435E-05,-0.0181151293218136,-0.0368938073515892,-0.0142150381579995
275,0.0171683225780725,-0.0931412279605865,-0.0145406210795045,-0.0423030667006969,-0.03635049238801,-0.0151734557002783
276,-0.00957199279218912,-0.0881518498063087,-0.0539513528347015,-0.0828992277383804,-0.0558504946529865,-0.0499183349311352
277,-0.0583823658525944,-0.102348439395428,-0.104380249977112,-0.130435287952423,-0.0941102355718613,-0.115498371422291
278,-0.104521162807941,-0.120126567780972,-0.137936025857925,-0.164968758821487,-0.125646576285362,-0.192872047424316
279,-0.127396106719971,-0.132184505462646,-0.140707761049271,-0.171384826302528,-0.127163797616959,-0.247482717037201
280,-0.1275514960289,-0.13413068652153,-0.113862954080105,-0.14970538020134,-0.0962692722678185,-0.254491209983826
281,-0.110262386500835,-0.124001502990723,-0.0689858719706535,-0.111467018723488,-0.0531961619853973,-0.221881568431854
282,-0.085596390068531,-0.108829826116562,-0.0212090071290731,-0.0709277614951134,-0.0302023869007826,-0.176864683628082
283,-0.0633048266172409,-0.0896850153803825,0.0199881605803967,-0.0376690849661827,-0.0342841222882271,-0.133812233805656
284,-0.0436030998826027,-0.066375769674778,0.039110466837883,-0.0258065294474363,-0.0473668500781059,-0.0963157191872597
285,-0.0263424795120955,-0.0500853471457958,0.0208210553973913,-0.0462673865258694,-0.0616181641817093,-0.0700275152921677
286,-0.022702245041728,-0.0450798571109772,-0.0297470316290855,-0.093451701104641,-0.086817242205143,-0.0615742243826389
287,-0.0390412360429764,-0.0392425395548344,-0.0861760303378105,-0.149150714278221,-0.127576872706413,-0.0705143958330154
288,-0.0586092993617058,-0.0315618738532066,-0.1225840523839,-0.189056366682053,-0.166752055287361,-0.082194983959198
289,-0.069381944835186,-0.0380242504179478,-0.134613677859306,-0.197362571954727,-0.184263959527016,-0.0827723518013954
290,-0.0740859284996986,-0.0669884234666824,-0.132153883576393,-0.179894402623177,-0.175000965595245,-0.0833870619535446
291,-0.0666682347655296,-0.109323859214783,-0.115957766771317,-0.150775328278542,-0.137443751096725,-0.102047294378281
292,-0.0504635758697987,-0.138488456606865,-0.0789517089724541,-0.119308270514011,-0.0837770253419876,-0.132112666964531
293,-0.0430579483509064,-0.129702374339104,-0.0247809123247862,-0.0884473770856857,-0.0433836542069912,-0.149887010455132
294,-0.0407865755259991,-0.0829254612326622,0.0376186445355415,-0.0473243966698647,-0.0195236541330814,-0.133298397064209
295,-0.0312395486980677,-0.0197047479450703,0.0966731160879135,0.00912658777087927,0.00514872325584292,-0.0807728916406631
296,-0.0184702910482883,0.0341480784118176,0.132639661431313,0.0599904619157314,0.0267747845500708,-0.0161722488701344
297,-0.00838327500969172,0.0666379183530808,0.134430214762688,0.0844177082180977,0.0305334832519293,0.0327672325074673
298,-0.00176569505129009,0.0795945078134537,0.116122357547283,0.085909016430378,0.0204414669424295,0.0537279807031155
299,0.00329913501627743,0.0732334852218628,0.101749561727047,0.0795459598302841,0.0176831725984812,0.0512625202536583
300,0.0183232948184013,0.0450059063732624,0.0976881012320518,0.0683485493063927,0.0316107086837292,0.0349289141595364
301,0.041381511837244,-0.00285188225097954,0.0896306335926056,0.0386204272508621,0.0445709973573685,0.00836073234677315
302,0.0451354533433914,-0.0526540093123913,0.0662840157747269,-0.0165248345583677,0.0383542366325855,-0.0210512690246105
303,0.0163909215480089,-0.074369840323925,0.0276466589421034,-0.0849005952477455,0.0115595413371921,-0.0436225458979607
304,-0.0329335369169712,-0.0710383653640747,-0.0308109745383263,-0.152394980192184,-0.0401176102459431,-0.0698100551962852
305,-0.0800678879022598,-0.0695175603032112,-0.100167587399483,-0.204399883747101,-0.109397649765015,-0.105682477355003
306,-0.101742029190063,-0.0680213794112206,-0.138525038957596,-0.218961745500565,-0.155919060111046,-0.123356863856316
307,-0.0825880169868469,-0.0555611178278923,-0.107180789113045,-0.177562430500984,-0.142180666327477,-0.0981840193271637
308,-0.0235471893101931,-0.0386491678655148,-0.0126354601234198,-0.0886148661375046,-0.0707026720046997,-0.0503323934972286
309,0.0407579131424427,-0.0324615463614464,0.0927334949374199,0.00401057116687298,0.0166781079024076,-0.0203258581459522
310,0.0711471289396286,-0.0431373193860054,0.157019764184952,0.0605607554316521,0.0726575255393982,-0.0194368567317724
311,0.071157194674015,-0.0581770464777946,0.171441256999969,0.0791575610637665,0.0858471691608429,-0.0292713027447462
312,0.0621518418192863,-0.0645803213119507,0.148673698306084,0.0705945417284966,0.0706767961382866,-0.0380776673555374
313,0.0500007681548595,-0.0576063580811024,0.104412131011486,0.0445078238844872,0.0418578274548054,-0.0414327755570412
314,0.0388281159102917,-0.0369693301618099,0.0663336664438248,0.0227351933717728,0.015893928706646,-0.0241600461304188
315,0.0282198544591665,-0.0129600241780281,0.0491975918412209,0.0178032964468002,-0.0016696936218068,0.0120209725573659
316,0.00562734575942159,-0.000897032732609659,0.0427887216210365,0.0157532393932343,-0.0160756893455982,0.0347941964864731
317,-0.027682401239872,-0.00963446218520403,0.0322451628744602,-0.00265923049300909,-0.0228554625064135,0.0197643581777811
318,-0.0439583472907543,-0.0418114624917507,0.00738707277923822,-0.0451890714466572,-0.018165422603488,-0.0269220396876335
319,-0.0206157993525267,-0.0807338580489159,-0.0198552068322897,-0.0967951193451881,-0.00492330687120557,-0.0744560360908508
320,0.0243857260793447,-0.0936157330870628,-0.0242550726979971,-0.125805363059044,0.00959485489875078,-0.0956249460577965
321,0.0492068193852901,-0.0743294358253479,-0.0108753414824605,-0.119944654405117,0.00400986988097429,-0.09421406686306
322,0.0368749424815178,-0.0348359458148479,0.000952432572375983,-0.0901245102286339,-0.0294521544128656,-0.0790659785270691
323,0.0075213834643364,0.025868808850646,0.0116124581545591,-0.0470368303358555,-0.065572202205658,-0.0410668551921844
324,-0.00879626348614693,0.103707157075405,0.0304374117404222,0.00463983509689569,-0.0734136700630188,0.0240159593522549
325,0.00163846847135574,0.184190794825554,0.0597537681460381,0.0572419352829456,-0.0401361361145973,0.0999273657798767
326,0.0289626307785511,0.24248443543911,0.0834299102425575,0.0890967920422554,0.0161150600761175,0.156478077173233
327,0.0581875778734684,0.245124325156212,0.0861920565366745,0.0838951990008354,0.0687108561396599,0.167424619197845
328,0.086999349296093,0.193199798464775,0.0825212076306343,0.0533481985330582,0.113268561661243,0.134852051734924
329,0.109284915030003,0.128991320729256,0.0894238501787186,0.017857987433672,0.148691222071648,0.0851047188043594
330,0.117402032017708,0.0781183019280434,0.101090788841248,-0.00802983809262514,0.172670543193817,0.0381517671048641
331,0.117517709732056,0.0241106189787388,0.0997102856636047,-0.0216570235788822,0.17905692756176,-0.00792864616960287
332,0.105539664626122,-0.0418016687035561,0.0722609087824821,-0.0359060987830162,0.146982088685036,-0.0594624280929565
333,0.0758494660258293,-0.0880640745162964,0.0312268529087305,-0.0510270856320858,0.0814639329910278,-0.0996033623814583
334,0.0486046746373177,-0.0892395526170731,0.00445781322196126,-0.0496851913630962,0.0178962741047144,-0.100590728223324
335,0.0443036332726479,-0.0569268316030502,0.00660028727725148,-0.0225191675126553,-0.0173099022358656,-0.0540527775883675
336,0.0631051734089851,-0.0115819340571761,0.0363567508757114,0.0255042724311352,-0.0184350870549679,0.020463177934289
337,0.0905750170350075,0.0291352476924658,0.0809339955449104,0.0752477645874023,-0.00157939572818577,0.0796966180205345
338,0.108470156788826,0.049276415258646,0.122361063957214,0.105816684663296,0.0139833781868219,0.0944592282176018
339,0.110621362924576,0.0511209517717361,0.147066399455071,0.113690160214901,0.0272586271166801,0.0806229189038277
340,0.106799900531769,0.0536394715309143,0.152284890413284,0.110289722681046,0.0468459874391556,0.0697216689586639
341,0.110894702374935,0.0733113437891006,0.149075597524643,0.109215259552002,0.0769924819469452,0.0781442373991013
342,0.122565343976021,0.111202850937843,0.142466455698013,0.108872018754482,0.106269598007202,0.102759100496769
343,0.12269002199173,0.149795427918434,0.116572991013527,0.0894354358315468,0.109493814408779,0.125450789928436
344,0.0994948968291283,0.170771449804306,0.0661499574780464,0.0449364930391312,0.0810277909040451,0.129612758755684
345,0.0621008090674877,0.168328568339348,0.0189805738627911,-0.0012749929446727,0.0461813509464264,0.109783746302128
346,0.0254045985639095,0.13709419965744,0.00112458632793278,-0.0298159290105104,0.0281571261584759,0.0689905285835266
347,0.00927968323230743,0.0856567993760109,0.00383034558035433,-0.046655397862196,0.0318530797958374,0.0206937454640865
348,0.0288367811590433,0.041504580527544,0.00336205610074103,-0.0660505369305611,0.0519542619585991,-0.0231215376406908
349,0.0656390115618706,0.00955373980104923,-0.00809465069323778,-0.0940551310777664,0.0696136727929115,-0.0644363537430763
350,0.0754200667142868,-0.0329651571810246,-0.0374712832272053,-0.134758695960045,0.0457197204232216,-0.111668519675732
351,0.0351194925606251,-0.0920578092336655,-0.0929374694824219,-0.184425875544548,-0.039924968034029,-0.167692050337791
352,-0.0183643382042646,-0.134425759315491,-0.14031620323658,-0.206694900989532,-0.132431596517563,-0.207215324044228
353,-0.0245708525180817,-0.128254383802414,-0.134932026267052,-0.167828798294067,-0.156588658690453,-0.198794454336166
354,0.0204700641334057,-0.0842255651950836,-0.086897999048233,-0.0873365253210068,-0.110936120152473,-0.151269271969795
355,0.0736004933714867,-0.0274887215346098,-0.0184183865785599,0.00212062918581069,-0.0353670604526997,-0.0846277475357056
356,0.105078831315041,0.0253997426480055,0.070247545838356,0.0887101367115974,0.0467756539583206,-0.00795594509691
357,0.117841728031635,0.0625077039003372,0.161999359726906,0.158815085887909,0.117110073566437,0.0630504861474037
358,0.13012720644474,0.0887847095727921,0.223335489630699,0.199242234230042,0.155697584152222,0.119810402393341
359,0.139015823602676,0.115062959492207,0.230181410908699,0.199318617582321,0.151382282376289,0.156436279416084
360,0.127500995993614,0.134180590510368,0.18244643509388,0.151226952672005,0.111094132065773,0.152652278542519
361,0.0997674316167831,0.127600222826004,0.10903312265873,0.073441743850708,0.0647283270955086,0.106852918863297
362,0.0693522691726685,0.0888001620769501,0.0389518849551678,-0.00215392396785319,0.0349183119833469,0.0541059523820877
363,0.0363644547760487,0.0326928570866585,-0.0209592841565609,-0.0576226152479649,0.00703873857855797,0.0169355291873217
364,0.00385900842957199,-0.0193575099110603,-0.0678611174225807,-0.0816548690199852,-0.0371869839727879,-0.0132140582427382
365,-0.0136930178850889,-0.0526708848774433,-0.0877826362848282,-0.0724697262048721,-0.0783816128969193,-0.0353765711188316
366,-0.00661997869610786,-0.0548173747956753,-0.0630908310413361,-0.0402538366615772,-0.0793988555669785,-0.0368824861943722
367,0.0217394437640905,-0.0248444154858589,0.000604380038566887,0.00352825713343918,-0.0307208150625229,-0.0200984738767147
368,0.0558335073292255,0.00954206846654415,0.0617043152451515,0.0385803766548634,0.0359796173870564,-0.00212479499168694
369,0.0859975516796112,0.0262964367866516,0.0915626436471939,0.0485905297100544,0.0870796367526054,0.00412221206352115
370,0.106133289635181,0.0313214957714081,0.0988451912999153,0.0327689945697784,0.108912006020546,-0.0075500775128603
371,0.0983052030205727,0.0300277564674616,0.0919595137238503,-0.0063115581870079,0.0952381193637848,-0.0378698743879795
372,0.058640893548727,0.0325417742133141,0.07045628875494,-0.0515399314463139,0.0600445568561554,-0.0630330890417099
373,0.0134139731526375,0.059604674577713,0.0406893864274025,-0.0715075880289078,0.0306635797023773,-0.0522168762981892
374,0.000509471574332565,0.111166663467884,0.0208754055202007,-0.0451148003339767,0.0225991234183311,-0.00198015756905079
375,0.0400957129895687,0.158731088042259,0.0277330651879311,0.0240024831146002,0.0404172614216805,0.0706299692392349
376,0.109494350850582,0.17768070101738,0.0524619482457638,0.103543668985367,0.0751659646630287,0.137608930468559
377,0.170086860656738,0.175297409296036,0.080626517534256,0.162106394767761,0.109570600092411,0.180690109729767
378,0.210077717900276,0.16779513657093,0.115901477634907,0.195258215069771,0.140790209174156,0.22063721716404
379,0.230950102210045,0.157160997390747,0.145203813910484,0.196706429123878,0.171563491225243,0.270064979791641
380,0.226028084754944,0.142812967300415,0.137756079435349,0.145641982555389,0.185436919331551,0.273520559072495
381,0.178959146142006,0.107834123075008,0.0873874351382256,0.0408469550311565,0.151895806193352,0.173158049583435
382,0.0885576605796814,0.0393186770379543,0.0217925440520048,-0.0686750262975693,0.0668515786528587,0.0107593676075339
383,0.00544181140139699,-0.0248586181551218,-0.0120779005810618,-0.107653349637985,-0.0127215459942818,-0.104465253651142
384,-0.0112577527761459,-0.0416330769658089,0.00742079969495535,-0.0561016425490379,-0.0291129965335131,-0.11590513586998
385,0.0394796207547188,-0.0159980673342943,0.0551082752645016,0.0341959744691849,0.00448343297466636,-0.0575371980667114
386,0.118474289774895,0.0282303486019373,0.103609710931778,0.116364873945713,0.0484654903411865,0.0182009413838387
387,0.183807387948036,0.0772346332669258,0.142894834280014,0.178579330444336,0.0849359333515167,0.0920272469520569
388,0.213614150881767,0.127116426825523,0.170078724622726,0.223697200417519,0.114380456507206,0.165084987878799
389,0.221582844853401,0.180009976029396,0.190266296267509,0.258546590805054,0.148491472005844,0.235503748059273
390,0.223504692316055,0.230685204267502,0.199456259608269,0.274711847305298,0.182394102215767,0.286231428384781
391,0.216773495078087,0.265231847763062,0.183958441019058,0.250703722238541,0.200128182768822,0.297351509332657
392,0.202014312148094,0.269001126289368,0.145710065960884,0.184725195169449,0.208075225353241,0.264665365219116
393,0.179804354906082,0.238054066896439,0.102245591580868,0.102248623967171,0.21087634563446,0.209580391645432
394,0.151241853833199,0.189894184470177,0.0710631757974625,0.0319027975201607,0.19564513862133,0.162810981273651
395,0.123551949858665,0.133003637194633,0.0521295070648193,-0.0209094919264317,0.155499964952469,0.119363777339458
396,0.0918003469705582,0.0624837577342987,0.0331685356795788,-0.0642130821943283,0.0921319872140884,0.0598620697855949
397,0.052455548197031,0.00448327977210283,0.0088853957131505,-0.0925531536340714,0.0146859381347895,-0.00292217452079058
398,0.0206392053514719,-0.00740282889455557,-0.0254286844283342,-0.0994039848446846,-0.0581657104194164,-0.0483940169215202
399,0.0192922633141279,0.0261359214782715,-0.0562713295221329,-0.0795577690005302,-0.0914646461606026,-0.0576414130628109
400,0.0639346241950989,0.0848797261714935,-0.0458919145166874,-0.021977411583066,-0.04995022341609,-0.0137570975348353
401,0.129100143909454,0.136181205511093,0.00490812631323934,0.0542461611330509,0.0426794216036797,0.0557137206196785
402,0.165036097168922,0.145392745733261,0.0499098338186741,0.105680495500565,0.117233872413635,0.0914976820349693
403,0.165745973587036,0.112310655415058,0.0690511986613274,0.123170249164104,0.143984094262123,0.0789582282304764
404,0.162426069378853,0.0758470147848129,0.0842920541763306,0.133649975061417,0.14897058904171,0.0621668845415115
405,0.17245802283287,0.0745548456907272,0.122327543795109,0.159093096852303,0.166342988610268,0.0855889692902565
406,0.183953762054443,0.111630268394947,0.178432106971741,0.190175652503967,0.194429010152817,0.145054280757904
407,0.174507901072502,0.160107538104057,0.212191924452782,0.199138090014458,0.201383650302887,0.20405837893486
408,0.146079078316689,0.188440829515457,0.196935474872589,0.173113361001015,0.174628779292107,0.240869835019112
409,0.114784419536591,0.175160631537437,0.137540757656097,0.106508545577526,0.124271295964718,0.233337163925171
410,0.0826312899589539,0.125195562839508,0.0507781691849232,0.00795948226004839,0.0546762682497501,0.157289534807205
411,0.0492128282785416,0.0749287009239197,-0.0314663536846638,-0.0740827322006226,-0.0248305983841419,0.0451313704252243
412,0.0178654938936234,0.047253955155611,-0.0823400467634201,-0.0987274125218391,-0.0906609147787094,-0.0415189154446125
413,-0.00446166750043631,0.035474993288517,-0.0984160676598549,-0.0700763091444969,-0.11770360916853,-0.0765042454004288
414,-0.0032200557179749,0.0402989089488983,-0.0822111815214157,-0.0113002387806773,-0.0973352566361427,-0.0574368871748447
415,0.0302683766931295,0.0604024603962898,-0.0404218509793282,0.0483859404921532,-0.0421183556318283,-3.676946653286E-05
416,0.0839784219861031,0.0701339617371559,0.00534440902993083,0.071294479072094,0.0237587802112103,0.0457494333386421
417,0.129522070288658,0.0502971485257149,0.0335523746907711,0.0446682274341583,0.0708471462130547,0.0411368049681187
418,0.148162826895714,0.018347691744566,0.0443379916250706,0.00895935669541359,0.0865032598376274,0.0145099870860577
419,0.145855262875557,0.0153236612677574,0.0549796149134636,0.0128372181206942,0.0870156362652779,0.0262486655265093
420,0.132905974984169,0.0587945803999901,0.0767509266734123,0.059652853757143,0.0873312130570412,0.0918498486280441
421,0.114840567111969,0.11711647361517,0.099502757191658,0.112807430326939,0.0842732638120651,0.167370691895485
422,0.102983206510544,0.153847813606262,0.113089792430401,0.142353683710098,0.0803306624293327,0.209390044212341
423,0.101999834179878,0.152927443385124,0.115738689899445,0.142841815948486,0.0779033377766609,0.205871865153313
424,0.110682018101215,0.114930279552937,0.0986495390534401,0.11856135725975,0.0677780508995056,0.161012545228004
425,0.130681648850441,0.072596549987793,0.0667694509029388,0.0894055515527725,0.05439817532897,0.104024767875671
426,0.154404729604721,0.0631760656833649,0.0461467988789082,0.0822369232773781,0.0589017458260059,0.0768652856349945
427,0.172082826495171,0.0885513424873352,0.051994264125824,0.101328462362289,0.0946925580501556,0.0875102207064629
428,0.180501475930214,0.118565291166306,0.0702020674943924,0.118600189685822,0.151683360338211,0.102439053356647
429,0.17378169298172,0.114777237176895,0.0686228200793266,0.0956687480211258,0.188039049506187,0.0859595015645027
430,0.145085617899895,0.073411226272583,0.0386672131717205,0.0350918360054493,0.157108306884766,0.0386736951768398
431,0.10007831454277,0.0337862148880959,0.00865499675273895,-0.0128637151792645,0.0677162930369377,-0.00572206871584058
432,0.0614327751100063,0.0319939292967319,0.0102660628035665,-0.00567836361005902,-0.0152624258771539,-0.0081444289535284
433,0.0498812310397625,0.077462874352932,0.0559732280671597,0.0554936192929745,-0.0352848395705223,0.0491764433681965
434,0.0619052723050117,0.146736592054367,0.127689734101295,0.13230562210083,0.00956667214632034,0.139190852642059
435,0.0831839293241501,0.197944954037666,0.185729652643204,0.180473193526268,0.0750285983085632,0.210354283452034
436,0.0997193679213524,0.202602177858353,0.194026604294777,0.176844701170921,0.110498756170273,0.228341668844223
437,0.0967101380228996,0.154889538884163,0.142362996935844,0.12397401034832,0.0931301116943359,0.185918614268303
438,0.0835675597190857,0.084165908396244,0.0654788538813591,0.0542880594730377,0.0464146994054317,0.108062326908112
439,0.0861410945653915,0.0379070676863194,0.0210520997643471,0.0204458571970463,0.0220040623098612,0.0496108010411263
440,0.109886035323143,0.0365872010588646,0.0361666940152645,0.0481374002993107,0.0493736937642097,0.0500820092856884
441,0.140072673559189,0.0673738792538643,0.0864236876368523,0.109447531402111,0.1115702688694,0.0970277562737465
442,0.157774075865746,0.101728059351444,0.1257643699646,0.154117926955223,0.163344442844391,0.145431712269783
443,0.15408918261528,0.116002552211285,0.128639861941338,0.152293249964714,0.175305083394051,0.154608502984047
444,0.142089694738388,0.107511818408966,0.106869652867317,0.111867308616638,0.163539841771126,0.116947829723358
445,0.134484842419624,0.0909048691391945,0.085858166217804,0.0579534955322742,0.154457673430443,0.0551756843924522
446,0.122115947306156,0.082634411752224,0.065162681043148,0.000749971717596054,0.134757742285728,-0.00863113347440958
447,0.0946088060736656,0.0881980434060097,0.0234149303287268,-0.0584709644317627,0.0751680284738541,-0.0602462850511074
448,0.0539699234068394,0.0929768085479736,-0.0335328280925751,-0.102553062140942,-0.0090300440788269,-0.0873434990644455
449,0.0153839578852057,0.0827469974756241,-0.0573034062981606,-0.102793656289577,-0.0615929216146469,-0.0734385475516319
450,-0.00173873838502914,0.0747040212154388,-0.0224846471101046,-0.0540407970547676,-0.0506366267800331,-0.0091638769954443
451,-0.00642964662984014,0.0784938558936119,0.02464216388762,0.00745819602161646,-0.0104075986891985,0.0701607540249825
452,-0.0174704641103745,0.0772777870297432,0.0364953055977821,0.0498698204755783,0.00754952384158969,0.115372650325298
453,-0.0140501130372286,0.0781576782464981,0.0303363930433989,0.083937019109726,0.00593564473092556,0.128985017538071
454,0.0322086177766323,0.102103978395462,0.0487605482339859,0.130543306469917,0.0250255614519119,0.14812371134758
455,0.110593289136887,0.138951286673546,0.104595303535461,0.187744960188866,0.0857049152255058,0.186720415949821
456,0.18013146519661,0.151127859950066,0.162852630019188,0.226198390126228,0.161825358867645,0.210012286901474
457,0.202460870146751,0.110340066254139,0.173668965697289,0.20949698984623,0.1988904774189,0.174000963568687
458,0.177145645022392,0.0340205766260624,0.137312695384026,0.143775254487991,0.173206135630608,0.0943766981363297
459,0.125572144985199,-0.0322226323187351,0.089537151157856,0.0722604170441628,0.100392729043961,0.0281701311469078
460,0.0646915882825851,-0.0593478791415691,0.0482048280537128,0.0242415852844715,0.00485488027334213,-5.03268529428169E-05
461,0.0218074377626181,-0.036701288074255,0.0281873140484095,0.0121804559603333,-0.071349710226059,0.00588167738169432
462,0.0179662220180035,0.0218953993171453,0.0380273796617985,0.0298258680850267,-0.089609369635582,0.0332950763404369
463,0.0414099544286728,0.0760101303458214,0.0569070316851139,0.0481583066284657,-0.0574856474995613,0.0528201833367348
464,0.0677271857857704,0.110896848142147,0.0633184164762497,0.0482392534613609,-0.00796407554298639,0.0519929230213165
465,0.0782382637262344,0.14745332300663,0.0512742251157761,0.0309032052755356,0.0315435454249382,0.0491610690951347
466,0.0656665787100792,0.185456454753876,0.0218437984585762,0.00403616344556212,0.0439918451011181,0.0577980503439903
467,0.0393545739352703,0.192549645900726,-0.0146748311817646,-0.0236177090555429,0.0264565851539373,0.0700338631868362
468,0.0111908763647079,0.148697286844254,-0.0386754833161831,-0.0427279137074947,-0.00787032768130302,0.073342427611351
469,0.00213846121914685,0.0736672058701515,-0.041466485708952,-0.0448548533022404,-0.0343254059553146,0.0648708418011665
470,0.0307271387428045,-0.00345637951977551,-0.0455247014760971,-0.045848798006773,-0.0494236685335636,0.0327978953719139
471,0.0791006684303284,-0.0692929178476334,-0.0629662722349167,-0.0575202442705631,-0.0626230686903,-0.0218012183904648
472,0.125646963715553,-0.106918558478355,-0.0624639876186848,-0.0465524010360241,-0.0481206439435482,-0.0519045069813728
473,0.16685763001442,-0.104582488536835,-0.0189514644443989,0.0103403236716986,0.0108525920659304,-0.0237790066748858
474,0.191288128495216,-0.0617256872355938,0.0581353940069675,0.0957464054226875,0.0834484025835991,0.0559062622487545
475,0.183829754590988,0.0194594878703356,0.142572209239006,0.17554335296154,0.135977938771248,0.155675739049912
476,0.13923117518425,0.108572460711002,0.188235476613045,0.201404541730881,0.135056123137474,0.208910807967186
477,0.0666649267077446,0.164532750844955,0.165582120418549,0.15995717048645,0.0647357180714607,0.179600939154625
478,-0.00124307523947209,0.183704346418381,0.116868250072002,0.107335016131401,-0.0210641957819462,0.119690269231796
479,-0.0316355973482132,0.179743990302086,0.100454606115818,0.0912536084651947,-0.0507900007069111,0.0889933109283447
480,-0.0197729747742414,0.158639952540398,0.117760084569454,0.103736869990826,-0.0169369038194418,0.0900344550609589
481,0.0165004972368479,0.126793473958969,0.127266705036163,0.116631641983986,0.0285958889871836,0.0969011932611465
482,0.0574883446097374,0.0931134968996048,0.101117223501205,0.114170424640179,0.0408771149814129,0.0935477688908577
483,0.0951621830463409,0.071618065237999,0.0604298338294029,0.104815192520618,0.0299932193011045,0.0898044556379318
484,0.121790938079357,0.0673740357160568,0.0327440984547138,0.095276802778244,0.0251105185598135,0.0985607877373695
485,0.128799319267273,0.0746395662426949,0.0129703506827354,0.07246233522892,0.0326646566390991,0.112962648272514
486,0.122314758598804,0.0932705625891685,-0.00571649987250566,0.0341606140136719,0.0453490205109119,0.1165751516819
487,0.107786819338799,0.106901459395885,-0.0195153430104256,-0.00448360154405236,0.0455827862024307,0.0933986306190491
488,0.0803843438625336,0.0834038928151131,-0.0306114591658115,-0.0355439037084579,0.0152820153161883,0.045677375048399
489,0.049471702426672,0.0209042485803366,-0.0404859483242035,-0.0560867302119732,-0.0334107950329781,-0.00143201381433755
490,0.0337874442338943,-0.0469921715557575,-0.0416997708380222,-0.0594743601977825,-0.0662135779857636,-0.0315129458904266
491,0.0350455641746521,-0.08258206397295,-0.0231825653463602,-0.0424324497580528,-0.0648422539234161,-0.0448400005698204
492,0.0405385941267014,-0.0681494921445847,0.0139162531122565,-0.0128387873992324,-0.0442538522183895,-0.0452285744249821
493,0.0350294001400471,-0.0171932633966208,0.0472813211381435,0.0111834313720465,-0.0371817164123058,-0.0422697328031063
494,0.0112333362922072,0.0442379303276539,0.0596273653209209,0.0213362388312817,-0.0563329793512821,-0.0410630255937576
495,-0.016124065965414,0.0889445170760155,0.0580438412725925,0.0267918109893799,-0.0785424038767815,-0.034163124859333
496,-0.0233420953154564,0.0907167345285416,0.055099006742239,0.0332033224403858,-0.0785831362009048,-0.0176773760467768
497,-0.0141975684091449,0.0544764772057533,0.0491274446249008,0.0316800214350224,-0.0666294097900391,-0.00381649262271822
498,-0.00626736087724566,0.0135727031156421,0.032718513160944,0.013488469645381,-0.0674384087324142,-0.0111604277044535
499,0.00324474018998444,-0.00215478776954114,0.0118717337027192,-0.00763852288946509,-0.0773458480834961,-0.0374832488596439
500,0.0133426068350673,0.0202227346599102,-0.000868962903041393,-0.00721383886411786,-0.0758142247796059,-0.0482739843428135
501,0.0106804585084319,0.0738503262400627,-0.00439407164230943,0.0134712802246213,-0.0552863627672195,-0.0121954623609781
502,0.0133612044155598,0.132703244686127,0.00104103493504226,0.0398164317011833,-0.0166512150317431,0.0541410185396671
503,0.0562580525875092,0.158076763153076,0.0199811849743128,0.0727267861366272,0.0336237698793411,0.103052169084549
504,0.12170048058033,0.128556683659554,0.0497841648757458,0.10899443924427,0.0854891389608383,0.113593742251396
505,0.161044865846634,0.0728763192892075,0.0839117914438248,0.131173953413963,0.139913365244865,0.109638266265392
506,0.158969789743423,0.0343133211135864,0.106719650328159,0.122367881238461,0.183332815766335,0.104251861572266
507,0.130462244153023,0.0119208693504334,0.10129301995039,0.082030214369297,0.17636077105999,0.0729144811630249
508,0.100337967276573,-0.010773335583508,0.0795344933867455,0.0440509878098965,0.109465152025223,0.0200010593980551
509,0.0805913209915161,-0.021840812638402,0.0701402723789215,0.0494169816374779,0.0231669992208481,-0.00870395917445421
510,0.0698269307613373,-0.000638619996607304,0.0921609550714493,0.101030431687832,-0.0285474583506584,0.0119140557944775
511,0.0709566920995712,0.0541761554777622,0.137155070900917,0.165110722184181,-0.0269982200115919,0.066632941365242
512,0.0713888183236122,0.118581421673298,0.160040497779846,0.195579990744591,-0.0103349396958947,0.12106978148222
513,0.0506494715809822,0.171217307448387,0.128825604915619,0.170683324337006,-0.0205833278596401,0.15290042757988
514,0.0176763460040092,0.209038138389587,0.064841240644455,0.113942719995975,-0.0549844577908516,0.159880042076111
515,-0.00100409798324108,0.223268389701843,0.00645932694897056,0.0637609958648682,-0.0807207599282265,0.142955541610718
516,0.00705436104908586,0.207020908594131,-0.0244130566716194,0.0387531779706478,-0.0594311952590942,0.107578083872795
517,0.0308777540922165,0.160592049360275,-0.0300612170249224,0.0224405284970999,0.0106793371960521,0.0538901165127754
518,0.0444816090166569,0.075398288667202,-0.0276838764548302,-0.0119883734732866,0.0727335065603256,-0.0242869574576616
519,0.0348900221288204,-0.026801498606801,-0.0184230953454971,-0.0441715009510517,0.0790515542030334,-0.0938528627157211
520,0.0178269129246473,-0.0809891298413277,0.00516567192971706,-0.0294040888547897,0.0420964993536472,-0.0937237814068794
521,0.0136526403948665,-0.0545946843922138,0.0356880463659763,0.0315927527844906,-0.00171775231137872,-0.0143126165494323
522,0.0277169104665518,0.0290097836405039,0.0613137185573578,0.0990754291415215,-0.0319843776524067,0.0929819643497467
523,0.0475781485438347,0.119415022432804,0.0656175315380096,0.132686540484428,-0.0507312193512917,0.169545009732246
524,0.0587818250060081,0.158569186925888,0.0376414507627487,0.115817606449127,-0.0599323436617851,0.183840095996857
525,0.0722106695175171,0.131333813071251,0.000645393622107804,0.0669449120759964,-0.0438715554773808,0.142444491386414
526,0.102012977004051,0.0662571340799332,-0.0249839574098587,0.00304050673730671,-0.0061879544518888,0.0604850873351097
527,0.131940186023712,0.00418785680085421,-0.0505721643567085,-0.0751699805259705,0.0217942129820585,-0.0413931123912334
528,0.122575134038925,-0.0122114671394229,-0.0864248350262642,-0.150511160492897,0.0161200761795044,-0.124875448644161
529,0.0520375370979309,0.0097341388463974,-0.131792217493057,-0.19204942882061,-0.0345510877668858,-0.174076914787292
530,-0.0292875282466412,0.0267928317189217,-0.157616019248962,-0.167468011379242,-0.0956819802522659,-0.17925888299942
531,-0.0420588962733746,0.0331006497144699,-0.122705943882465,-0.0684842765331268,-0.102323852479458,-0.119823090732098
532,0.0138925425708294,0.0493327416479588,-0.0360695123672485,0.0615488663315773,-0.0550889521837235,-0.0119409915059805
533,0.0738435238599777,0.0788347721099854,0.0543721541762352,0.17013193666935,-0.00902480632066727,0.098633386194706
534,0.0985445156693459,0.103867314755917,0.112527690827847,0.235331729054451,0.00481812842190266,0.178904637694359
535,0.0971447378396988,0.118471652269363,0.137077838182449,0.260232895612717,-0.000324372667819262,0.225222960114479
536,0.0929277315735817,0.136211678385735,0.146572113037109,0.25926285982132,0.00562351988628507,0.251525461673737
537,0.0956037193536758,0.153546273708344,0.146350830793381,0.234426528215408,0.0320258587598801,0.253813177347183
538,0.11079715192318,0.143314272165298,0.124278478324413,0.173163041472435,0.0646961852908134,0.206380844116211
539,0.135152474045753,0.0893118530511856,0.0615285001695156,0.0720984488725662,0.0737925469875336,0.104321651160717
540,0.140191406011581,0.0193744637072086,-0.0383355505764484,-0.0408557206392288,0.03609923645854,-0.0055699204094708
541,0.109065845608711,-0.0188501607626677,-0.129395753145218,-0.113678492605686,-0.0327001065015793,-0.054213609546423
542,0.0592969506978989,-0.00569428177550435,-0.163015902042389,-0.112427853047848,-0.088757149875164,-0.0121223293244839
543,0.0212840940803289,0.0507799237966537,-0.13378369808197,-0.0519018024206162,-0.0969149246811867,0.0770836919546127
544,0.0135692004114389,0.122679218649864,-0.0746703967452049,0.0209214854985476,-0.0582058168947697,0.135316327214241
545,0.0264064036309719,0.169420823454857,-0.0260035041719675,0.0647568926215172,-0.00379316648468375,0.123603351414204
546,0.0381386615335941,0.166215732693672,-0.0148385241627693,0.0600997731089592,0.0216912273317575,0.0541388466954231
547,0.0319586768746376,0.120585456490517,-0.0367852635681629,0.0203139297664166,-0.0142775643616915,-0.0329512730240822
548,0.00457559945061803,0.0621145367622375,-0.0561277195811272,-0.0103311613202095,-0.0845179334282875,-0.0842832922935486
549,-0.0179031025618315,0.0243863444775343,-0.0419652312994003,0.0037492357660085,-0.121618025004864,-0.0660725384950638
550,-0.00822982657700777,0.0220749862492085,2.09740414902626E-06,0.054654698818922,-0.102220743894577,0.00682814791798592
551,0.0258863437920809,0.0306935925036669,0.0405479855835438,0.102460935711861,-0.0583611167967319,0.0796250179409981
552,0.0614691749215126,0.0145056741312146,0.0646576061844826,0.119424238801003,-0.0202433802187443,0.103470101952553
553,0.0834719389677048,-0.0245369207113981,0.0717766955494881,0.108228459954262,0.00137746951077133,0.0774619877338409
554,0.0880391597747803,-0.0525645203888416,0.0606237091124058,0.0836493670940399,0.00380292884074152,0.0384971238672733
555,0.0890418291091919,-0.034424252808094,0.0470810644328594,0.0672591105103493,0.000325643282849342,0.0322966352105141
556,0.0944519340991974,0.0325973927974701,0.0450139194726944,0.0682910159230232,-6.97610739734955E-05,0.0751218423247337
557,0.0898206159472466,0.104392565786839,0.0335646942257881,0.0646130442619324,-0.0154621265828609,0.124714747071266
558,0.0694638267159462,0.135548949241638,-0.00257311970926821,0.0404930263757706,-0.0511460267007351,0.126404404640198
559,0.0432422123849392,0.113535203039646,-0.0487193167209625,0.00684154173359275,-0.0798579752445221,0.0721099227666855
560,0.0249308682978153,0.0612585693597794,-0.0844694450497627,-0.01835061237216,-0.0781153365969658,0.0061026168987155
561,0.0271048247814178,0.0218309182673693,-0.0972828939557076,-0.0284712389111519,-0.0545271709561348,-0.0222506113350391
562,0.0394479259848595,0.0154174333438277,-0.0854204297065735,-0.0356787331402302,-0.0317279510200024,-0.0148384720087051
563,0.0483633913099766,0.0297059062868357,-0.0505510866641998,-0.0488887131214142,-0.0106461197137833,-0.00476627005264163
564,0.0656744986772537,0.0404820293188095,-0.0110514853149652,-0.0665847063064575,0.0082713607698679,-0.0115201650187373
565,0.0886625126004219,0.036778025329113,0.000761515868362039,-0.0858968496322632,0.00613293936476111,-0.0346727296710014
566,0.0912550687789917,0.0311497654765844,-0.0179825704544783,-0.09733796864748,-0.0206552185118198,-0.0593258813023567
567,0.0669342875480652,0.0314878821372986,-0.0415295138955116,-0.0880609154701233,-0.0597260221838951,-0.0685044080018997
568,0.0330081805586815,0.0323278680443764,-0.0408410802483559,-0.0463151708245277,-0.0924610197544098,-0.0487409606575966
569,0.0149246444925666,0.0400000102818012,0.00169532420113683,0.031225498765707,-0.0885104238986969,0.0108116716146469
570,0.025945270434022,0.0666992664337158,0.0707944855093956,0.122240044176579,-0.0404969975352287,0.102342195808887
571,0.0523476973176003,0.110510192811489,0.127323731780052,0.18653529882431,0.0165625456720591,0.189109995961189
572,0.0750622600317001,0.160832837224007,0.146398738026619,0.198165252804756,0.0499040447175503,0.233613535761833
573,0.0784154683351517,0.188235476613045,0.120307750999928,0.149094074964523,0.0490043014287949,0.216890677809715
574,0.048544604331255,0.154701948165894,0.049427442252636,0.0432265996932983,0.0165838561952114,0.129750043153763
575,0.0036601556930691,0.0592902898788452,-0.0412097275257111,-0.0883514136075974,-0.0203334800899029,-0.0136687066406012
576,-0.0181026216596365,-0.0506859831511974,-0.105911038815975,-0.194188266992569,-0.0353540740907192,-0.159153893589973
577,-0.00458646612241864,-0.114692442119122,-0.114174850285053,-0.226936027407646,-0.0364246554672718,-0.23422572016716
578,0.0329632833600044,-0.105036750435829,-0.0799780562520027,-0.170212835073471,-0.0407996401190758,-0.193958818912506
579,0.0748355537652969,-0.0357554517686367,-0.040285374969244,-0.055784959346056,-0.0461476258933544,-0.0567641146481037
580,0.107512548565865,0.0556093193590641,-0.00784026551991701,0.0640239641070366,-0.0399729199707508,0.0964173749089241
581,0.127999424934387,0.124980948865414,0.0206110049039125,0.144740805029869,-0.0218825563788414,0.181358128786087
582,0.126323670148849,0.145839408040047,0.035198912024498,0.162913203239441,-0.00896123331040144,0.178401425480843
583,0.0962546244263649,0.120070815086365,0.0271397903561592,0.131059020757675,-0.0139109808951616,0.123956508934498
584,0.0443258620798588,0.06529201567173,0.00400592852383852,0.076811708509922,-0.0373544692993164,0.0554249882698059
585,-0.016242790967226,0.009562648832798,-0.0155996792018414,0.0209436193108559,-0.0693080201745033,-0.00506428396329284
586,-0.0621244199573994,-0.0178008042275906,-0.0142162116244435,-0.0146552324295044,-0.0861135944724083,-0.0356628187000752
587,-0.0793270915746689,-0.0157465785741806,0.00718943728134036,-0.0198108404874802,-0.0752786695957184,-0.0278234984725714
588,-0.0683789849281311,-0.0062048677355051,0.0366960242390633,-0.00251264614053071,-0.0388012863695621,0.00631585437804461
589,-0.0324996672570705,-0.00442307582125068,0.0603523217141628,0.0217791832983494,0.0154765257611871,0.0452774651348591
590,0.00946515612304211,-0.0154299410060048,0.0634230971336365,0.0305094476789236,0.0635336488485336,0.0604002065956593
591,0.0359936878085136,-0.0380255654454231,0.039776124060154,0.00753647880628705,0.0824574530124664,0.0341979786753654
592,0.0478095859289169,-0.0661356076598167,-0.012384214438498,-0.0449001304805279,0.0727122649550438,-0.0196779742836952
593,0.0538610629737377,-0.0773417800664902,-0.0773333087563515,-0.104887612164021,0.0520591773092747,-0.0665055140852928
594,0.0604258477687836,-0.0394129902124405,-0.12297797203064,-0.142624527215958,0.0342496261000633,-0.0797324329614639
595,0.0683583319187164,0.038849975913763,-0.141631796956062,-0.147322356700897,0.0168116670101881,-0.0603250451385975
596,0.0583765059709549,0.100675716996193,-0.146338403224945,-0.127205803990364,-0.0109855961054564,-0.0289161987602711
597,0.0126729439944029,0.108657099306583,-0.136359512805939,-0.0876200050115585,-0.0524941273033619,0.00316667137667537
598,-0.0487428903579712,0.0756833329796791,-0.109666496515274,-0.0415209904313087,-0.100944489240646,0.0383877083659172
599,-0.0893046855926514,0.0327408276498318,-0.0735408961772919,-0.00860855355858803,-0.143728390336037,0.0650476366281509
600,-0.0982226654887199,0.0083259679377079,-0.0286360792815685,0.0170138105750084,-0.163486912846565,0.0678652450442314
601,-0.084723137319088,0.00496687134727836,0.0155592747032642,0.0456555671989918,-0.146710395812988,0.0550460405647755
602,-0.056143119931221,0.00702429050579667,0.0416596382856369,0.0667628720402718,-0.102879762649536,0.0433263890445232
603,-0.0278398562222719,0.00914403796195984,0.044165875762701,0.0706618651747704,-0.0675523728132248,0.0324809774756432
604,-0.0120207751169801,-1.66068039106904E-05,0.0329977236688137,0.0641583576798439,-0.0515147857367992,0.0131897768005729
605,0.00662647001445293,-0.0204442702233791,0.0367882512509823,0.0697162970900536,-0.017021456733346,-0.00223512202501297
606,0.0381375327706337,-0.0314258188009262,0.0685912743210793,0.0973259061574936,0.0491193942725658,0.00353344669565558
607,0.0696289464831352,-0.0237413384020329,0.106931999325752,0.130963668227196,0.107668749988079,0.0240611657500267
608,0.0942648947238922,-0.00102454668376595,0.132764115929604,0.155345067381859,0.132345736026764,0.0494309961795807
609,0.109384842216969,0.0260579288005829,0.141461566090584,0.161616817116737,0.130179509520531,0.0739314630627632
610,0.103593282401562,0.0417395271360874,0.131496101617813,0.141935974359512,0.109191484749317,0.084847591817379
611,0.0730426385998726,0.0409685708582401,0.104535095393658,0.0999090448021889,0.0685148984193802,0.0772586688399315
612,0.0284390673041344,0.0301144532859325,0.0627487078309059,0.0450216941535473,0.0109890103340149,0.0566256083548069
613,-0.0161554384976625,0.0128167988732457,0.0106033850461245,-0.0169642306864262,-0.04742331802845,0.0227761249989271
614,-0.0449070334434509,-0.00927276723086834,-0.0404938757419586,-0.0786436423659325,-0.0853796750307083,-0.0236453283578157
615,-0.0431773029267788,-0.0243138000369072,-0.0742868930101395,-0.126539245247841,-0.0881351381540298,-0.0628004372119904
616,-0.0142307514324784,-0.0255484972149134,-0.088719978928566,-0.152964055538177,-0.0642074793577194,-0.0699084773659706
617,0.0102753154933453,-0.0336464941501617,-0.11404737085104,-0.174221456050873,-0.0558100715279579,-0.0574010536074638
618,0.000884169479832053,-0.0605904161930084,-0.165899574756622,-0.200562417507172,-0.0939893499016762,-0.0596214272081852
619,-0.031796358525753,-0.0843008682131767,-0.208008587360382,-0.207344457507133,-0.151864469051361,-0.0795938223600388
620,-0.0608335584402084,-0.0814225226640701,-0.203573897480965,-0.174289658665657,-0.181240573525429,-0.0855663269758224
621,-0.0723158568143845,-0.0492168255150318,-0.153342857956886,-0.108943127095699,-0.167039483785629,-0.0509971231222153
622,-0.0581795647740364,0.00424431823194027,-0.0798848792910576,-0.0281792618334293,-0.119554482400417,0.0124139087274671
623,-0.0247989054769278,0.0709914043545723,-0.00979659799486399,0.0452722050249577,-0.0518107190728188,0.0702048093080521
624,0.00703173223882914,0.138680011034012,0.0399936251342297,0.0945603027939796,0.0168767534196377,0.103748068213463
625,0.0266557596623898,0.189530521631241,0.0665080472826958,0.123477950692177,0.0647295936942101,0.115373484790325
626,0.0364125408232212,0.209892004728317,0.0725471153855324,0.134857103228569,0.0838410779833794,0.10991209000349
627,0.0414016917347908,0.199287056922913,0.0665558278560638,0.123426638543606,0.0841619670391083,0.0912516638636589
628,0.0344389081001282,0.158023938536644,0.0412458367645741,0.077644869685173,0.0634021833539009,0.0517096072435379
629,0.00230613700114191,0.0829084292054176,-0.0229897927492857,-0.00870214030146599,0.00198462512344122,-0.0204214546829462
630,-0.0339416339993477,0.00600204849615693,-0.0947180241346359,-0.0959527194499969,-0.0730230808258057,-0.0926615074276924
631,-0.0353848971426487,-0.0264218430966139,-0.122305482625961,-0.136268109083176,-0.101916953921318,-0.123228311538696
632,-0.00201128236949444,-0.0246618185192347,-0.114002481102943,-0.137130945920944,-0.0860602483153343,-0.124789603054523
633,0.0313338562846184,-0.0311574004590511,-0.112161003053188,-0.133535668253899,-0.0806897133588791,-0.128460332751274
634,0.0350688062608242,-0.0579143241047859,-0.141773417592049,-0.145824924111366,-0.116594366729259,-0.147765517234802
635,0.00400532083585858,-0.0824680253863335,-0.187320500612259,-0.160378560423851,-0.171798959374428,-0.163859352469444
636,-0.0442863292992115,-0.0696162357926369,-0.211391150951386,-0.146293133497238,-0.205032482743263,-0.130388408899307
637,-0.0837938264012337,-0.0133314188569784,-0.204699322581291,-0.103969812393188,-0.202294573187828,-0.0428494326770306
638,-0.0915190204977989,0.0544081330299377,-0.17272375524044,-0.0541478917002678,-0.169556111097336,0.0519690290093422
639,-0.0578805394470692,0.111425615847111,-0.116854347288609,-0.00960778910666704,-0.110238425433636,0.112932376563549
640,-0.00247133709490299,0.141664102673531,-0.0626624301075935,0.0125183761119843,-0.0488512180745602,0.110559321939945
641,0.0441421642899513,0.117096401751041,-0.0430314689874649,0.000541972811333835,-0.0301339626312256,0.0350552164018154
642,0.0671319365501404,0.0475278683006763,-0.0420342609286308,-0.0194175448268652,-0.0632867440581322,-0.0648035556077957
643,0.0632460862398148,-0.0145528484135866,-0.0198631659150124,-0.0094807455316186,-0.109670214354992,-0.120104663074017
644,0.0458696037530899,-0.0400485098361969,0.0181421376764774,0.0273004006594419,-0.13346754014492,-0.119184114038944
645,0.0382626205682755,-0.0380529016256332,0.0371928624808788,0.0603329688310623,-0.130371153354645,-0.0951639488339424
646,0.046922467648983,-0.0190582275390625,0.026519788429141,0.073849618434906,-0.113967925310135,-0.0669864937663078
647,0.0658762007951736,0.0221865531057119,0.00974763743579388,0.0765156000852585,-0.0882503390312195,-0.023278521373868
648,0.0863139554858208,0.0791774019598961,-0.00118451903108507,0.0692168101668358,-0.0602897368371487,0.0301895588636398
649,0.0939774811267853,0.119391337037086,-0.0223207138478756,0.0396441891789436,-0.0633840188384056,0.0519742369651794
650,0.0791259706020355,0.127756208181381,-0.0459888353943825,0.00593068078160286,-0.108629800379276,0.0350185297429562
651,0.0516836047172546,0.117215104401112,-0.0498228371143341,-0.00372867938131094,-0.15886490046978,0.0140024786815047
652,0.0379283502697945,0.106015563011169,-0.0389522835612297,0.00347446394152939,-0.177324786782265,0.00674958992749453
653,0.0425614677369595,0.109047003090382,-0.0320776589214802,0.00432187598198652,-0.165358006954193,0.010058400221169
654,0.0377712696790695,0.112539917230606,-0.0379456281661987,-0.010016874410212,-0.149369716644287,0.00988879892975092
655,0.0163711868226528,0.0942220687866211,-0.0442675910890102,-0.0250966958701611,-0.137674599885941,-0.00560424942523241
656,-0.00339548452757299,0.058072242885828,-0.0347738079726696,-0.0285326838493347,-0.120346195995808,-0.0342553295195103
657,-0.0165421310812235,0.0150354150682688,-0.0123799806460738,-0.0297267697751522,-0.0943946093320847,-0.0651073381304741
658,-0.0207981541752815,-0.0288874339312315,0.00994622986763716,-0.0393392443656921,-0.0654361471533775,-0.0820626392960548
659,-0.00474808271974325,-0.0624895766377449,0.0253172609955072,-0.0520284622907639,-0.0406414270401001,-0.0771482586860657
660,0.039657436311245,-0.0634777322411537,0.0439133495092392,-0.0462913289666176,-0.0127415908500552,-0.0543292202055454
661,0.103211790323257,-0.0212502405047417,0.0763496533036232,-0.0116695845499635,0.0253838170319796,-0.0205710269510746
662,0.158193066716194,0.0423599295318127,0.114064387977123,0.0342452824115753,0.0642213523387909,0.012757864780724
663,0.184177428483963,0.0944991335272789,0.143948405981064,0.0720390900969505,0.094959519803524,0.0326798819005489
664,0.179475173354149,0.120577529072762,0.155779391527176,0.0934747233986855,0.108474984765053,0.0338635444641113
665,0.152951404452324,0.128284379839897,0.145143687725067,0.0970764011144638,0.100036032497883,0.0241079349070787
666,0.127076506614685,0.12713485956192,0.124586805701256,0.0868099629878998,0.0884815081954002,0.0167403649538755
667,0.120740465819836,0.113562278449535,0.109202563762665,0.0624569803476334,0.0953798964619637,0.0127231488004327
668,0.125321090221405,0.0860590413212776,0.0969572514295578,0.0224196705967188,0.112644344568253,0.00594329182058573
669,0.119320228695869,0.0569659546017647,0.0855503082275391,-0.0186159051954746,0.119272902607918,-0.00237492797896266
670,0.0922017097473145,0.0279183182865381,0.0782759562134743,-0.0427753105759621,0.111226268112659,-0.0141008663922548
671,0.0547610521316528,-0.00408391933888197,0.0696819797158241,-0.0502237491309643,0.0974975600838661,-0.0271826181560755
672,0.0213480237871408,-0.0242487527430058,0.0524562187492847,-0.0508527345955372,0.0745098143815994,-0.0317806825041771
673,-0.0102521767839789,-0.0262857265770435,0.0317791774868965,-0.0482302494347095,0.0312971696257591,-0.0308213531970978
674,-0.0335456617176533,-0.0173455122858286,0.030605360865593,-0.029694365337491,-0.0103017035871744,-0.0195519234985113
675,-0.0301231890916824,-0.00233534746803343,0.0617101825773716,0.0141951898112893,-0.01341637596488,0.0155033366754651
676,-0.00432801758870482,0.00890813954174519,0.105005912482738,0.0643998458981514,0.0192290544509888,0.0541994795203209
677,0.0251850020140409,0.00579454097896814,0.140177056193352,0.0967421382665634,0.0604782924056053,0.0636563301086426
678,0.0534553043544292,-0.0175637863576412,0.165800824761391,0.103590108454227,0.102827854454517,0.042448952794075
679,0.0766870304942131,-0.0614438578486443,0.183419093489647,0.0804398953914642,0.151215195655823,0.00471986830234528
680,0.0813081711530685,-0.106153458356857,0.194025412201881,0.0276452451944351,0.194209322333336,-0.043894998729229
681,0.0644325092434883,-0.127554163336754,0.18984492123127,-0.0409517288208008,0.202727064490318,-0.0986926257610321
682,0.0406476818025112,-0.116639338433743,0.156448140740395,-0.0998998582363129,0.163960307836533,-0.136364325881004
683,0.0251074619591236,-0.0741903558373451,0.106224544346333,-0.118361622095108,0.105710245668888,-0.123645938932896
684,0.0218581780791283,-0.0155607145279646,0.0778697580099106,-0.0833302885293961,0.0726965442299843,-0.0536546632647514
685,0.0365667641162872,0.0390743911266327,0.0981314182281494,-0.0112551180645823,0.0916896462440491,0.0443583019077778
686,0.0733648240566254,0.0758114159107208,0.160579159855843,0.0679269656538963,0.154560506343842,0.125542834401131
687,0.110399074852467,0.0811596065759659,0.230873912572861,0.12454430013895,0.222593680024147,0.155656829476357
688,0.121333561837673,0.0549519471824169,0.277851134538651,0.146855562925339,0.261421352624893,0.139536470174789
689,0.106048353016377,0.0221318751573563,0.295732498168945,0.148697733879089,0.268371522426605,0.115489423274994
690,0.0841014236211777,0.00852409470826387,0.295649588108063,0.14532658457756,0.259828835725784,0.106724113225937
691,0.0766877755522728,0.0161339957267046,0.295117348432541,0.14469188451767,0.252863585948944,0.108698137104511
692,0.0854418873786926,0.0289917569607496,0.301098883152008,0.150944337248802,0.253150820732117,0.112838365137577
693,0.0960045382380486,0.0289759766310453,0.302938878536224,0.156123608350754,0.253997892141342,0.110991172492504
694,0.105724632740021,0.0115846917033196,0.296116024255753,0.151487827301025,0.255918562412262,0.0977826192975044
695,0.119024619460106,-0.0180098842829466,0.284168928861618,0.136350303888321,0.266513526439667,0.0707398653030396
696,0.132782444357872,-0.0568670518696308,0.267859488725662,0.115328848361969,0.286007702350616,0.0334473997354507
697,0.140364125370979,-0.092744268476963,0.249936029314995,0.0967918932437897,0.305949360132217,0.00301733519881964
698,0.130547612905502,-0.104326538741589,0.235305353999138,0.0854946076869965,0.313231557607651,-0.00407318118959665
699,0.0984543859958649,-0.0783917754888535,0.2319565564394,0.0829743817448616,0.302896082401276,0.0160961151123047
700,0.0550936311483383,-0.0293157119303942,0.23549248278141,0.076468899846077,0.271340191364288,0.0479472279548645
701,0.00919113121926785,0.0024277581833303,0.220380425453186,0.0396553799510002,0.207228362560272,0.0596598014235497
702,-0.0286432635039091,0.00568194687366486,0.185869157314301,-0.0169711280614138,0.134050786495209,0.0402485281229019
703,-0.0424325577914715,-0.00107019883580506,0.16134212911129,-0.052994180470705,0.096467636525631,0.00315703568048775
704,-0.0356430634856224,-0.0300710964947939,0.147728085517883,-0.0659854859113693,0.0904311463236809,-0.0476740598678589
705,-0.0147344516590238,-0.087931215763092,0.133779108524323,-0.0735106691718102,0.0977261662483215,-0.102873414754868
706,0.0218404680490494,-0.138933539390564,0.138889834284782,-0.064519003033638,0.130726933479309,-0.13216370344162
707,0.064370408654213,-0.150720953941345,0.186624333262444,-0.0159395784139633,0.19687394797802,-0.109266862273216
708,0.101870305836201,-0.114451475441456,0.272654712200165,0.0730716958642006,0.281961381435394,-0.0323617532849312
709,0.129523053765297,-0.0488844998180866,0.36492708325386,0.170693218708038,0.359516620635986,0.0650459304451942
710,0.145537078380585,0.0140809640288353,0.432786732912064,0.244500949978828,0.409842938184738,0.142684057354927
711,0.152068585157394,0.0606081523001194,0.467980533838272,0.2870032787323,0.433757811784744,0.190527305006981
712,0.144060760736465,0.0838960930705071,0.468340843915939,0.29394143819809,0.431232005357742,0.209690108895302
713,0.117213629186153,0.0851022154092789,0.439428865909576,0.267066389322281,0.404460847377777,0.202020704746246
714,0.0841435939073563,0.0833985731005669,0.403634577989578,0.226771116256714,0.373059302568436,0.179680973291397
715,0.0547955706715584,0.0815258622169495,0.373408913612366,0.186643078923225,0.346089094877243,0.148679688572884
716,0.03105653449893,0.062989704310894,0.34822216629982,0.151986464858055,0.31809589266777,0.110005728900433
717,0.0227057375013828,0.039284598082304,0.331834882497787,0.127719163894653,0.293173789978027,0.0790782794356346
718,0.03449896723032,0.042836457490921,0.318991392850876,0.101461559534073,0.280460357666016,0.068835936486721
719,0.048964649438858,0.0709397345781326,0.296503394842148,0.0590648017823696,0.280802100896835,0.0720340684056282
720,0.0374398045241833,0.0841779336333275,0.259309738874435,0.00557789718732238,0.272936433553696,0.0780708119273186
721,-0.00392224965617061,0.0567917712032795,0.215165957808495,-0.0456653274595737,0.232385486364365,0.0705062076449394
722,-0.0404701009392738,0.00134340149816126,0.189161896705627,-0.0754116848111153,0.178048744797707,0.0301965568214655
723,-0.0402127951383591,-0.0512162297964096,0.205093339085579,-0.0655256137251854,0.154185220599175,-0.0254536494612694
724,-0.0038904391694814,-0.078411690890789,0.257591336965561,-0.0169228259474039,0.178006231784821,-0.0533003583550453
725,0.0461282357573509,-0.0806910321116447,0.317206501960754,0.0482316017150879,0.228338047862053,-0.0408541597425938
726,0.0815472975373268,-0.0806720852851868,0.357152968645096,0.100550323724747,0.263319939374924,-0.0168632045388222
727,0.0911394208669662,-0.0857905223965645,0.370872855186462,0.132370427250862,0.259744703769684,-0.00319476681761444
728,0.0873828753829002,-0.0812113434076309,0.367910802364349,0.157412156462669,0.234706655144691,0.0108184488490224
729,0.0824903100728989,-0.0680398568511009,0.35858228802681,0.180656298995018,0.216728925704956,0.0400864668190479
730,0.0781330242753029,-0.0513194985687733,0.351013869047165,0.197966203093529,0.216300204396248,0.0839667096734047
731,0.0692388862371445,-0.0261464025825262,0.349786996841431,0.203932553529739,0.22444112598896,0.126041129231453
732,0.0541681572794914,0.00731667410582304,0.353776842355728,0.197736501693726,0.233768433332443,0.150136455893517
733,0.0446063801646233,0.0493709407746792,0.364450007677078,0.191679403185844,0.252096056938171,0.163981899619102
734,0.0464174784719944,0.100174687802792,0.3771952688694,0.191119030117989,0.279794842004776,0.181529715657234
735,0.0562526471912861,0.144769743084908,0.380608975887299,0.187747672200203,0.303091168403625,0.199221551418304
736,0.0725254490971565,0.161999851465225,0.370348453521729,0.173189461231232,0.313053369522095,0.206537902355194
737,0.0812290385365486,0.149772316217422,0.340017586946487,0.131925478577614,0.305152028799057,0.193654000759125
738,0.069756954908371,0.123698614537716,0.288765043020248,0.0586359277367592,0.277146011590958,0.161683693528175
739,0.0351586565375328,0.0828128606081009,0.233489200472832,-0.0271912850439548,0.225725576281548,0.10834389179945
740,-0.0220132488757372,0.00739640044048429,0.19231478869915,-0.0989804416894913,0.155413016676903,0.0171531215310097
741,-0.0725047960877419,-0.0866066068410873,0.182013630867004,-0.121528252959251,0.10100219398737,-0.080563060939312
742,-0.0780906155705452,-0.147332966327667,0.213451772928238,-0.072116382420063,0.0965530499815941,-0.114705301821232
743,-0.0425044782459736,-0.150088235735893,0.267551153898239,0.0213523898273706,0.132349863648415,-0.0762568935751915
744,-0.000231598998652771,-0.116860993206501,0.310583382844925,0.104528687894344,0.177237898111343,-0.0179658550769091
745,0.0274416226893663,-0.085002139210701,0.331971496343613,0.150214448571205,0.211255505681038,0.0223340131342411
746,0.0433237813413143,-0.0656413212418556,0.344098657369614,0.17019160091877,0.230445683002472,0.0472087189555168
747,0.0554460175335407,-0.0414875634014606,0.365271031856537,0.188830956816673,0.249566897749901,0.0821494534611702
748,0.0639870092272758,-0.00040444009937346,0.397186189889908,0.214721083641052,0.281888067722321,0.152280196547508
749,0.0667628720402718,0.0627354308962822,0.415301322937012,0.233593836426735,0.309201657772064,0.248957991600037
750,0.0601459518074989,0.13926063477993,0.395603001117706,0.221380174160004,0.297521442174912,0.311425894498825
751,0.0376425348222256,0.175081446766853,0.336993396282196,0.169528141617775,0.242226362228394,0.278458058834076
752,0.0136835258454084,0.12995857000351,0.273124486207962,0.108900085091591,0.185757949948311,0.169853091239929
753,0.0164596289396286,0.0493318699300289,0.250899791717529,0.0826368257403374,0.170410588383675,0.0679102092981339
754,0.0451755300164223,-0.00262113008648157,0.278906464576721,0.0981922969222069,0.189910754561424,0.0232720859348774
755,0.0755342990159988,-0.0113815432414413,0.327964603900909,0.133655220270157,0.21379180252552,0.0302658583968878
756,0.0876045674085617,0.00758209265768528,0.361651539802551,0.162264987826347,0.218989446759224,0.0673413351178169
757,0.0813022032380104,0.0348423644900322,0.359929919242859,0.165322095155716,0.201315850019455,0.117507077753544
758,0.0798415988683701,0.0537394881248474,0.334958404302597,0.143969476222992,0.184738159179688,0.15650986135006
759,0.0939663350582123,0.0453678816556931,0.308192610740662,0.106946602463722,0.188499182462692,0.151436060667038
760,0.100422754883766,0.00414874171838164,0.289126127958298,0.0603002198040485,0.194458663463593,0.0968890935182571
761,0.0817484334111214,-0.0473873429000378,0.273679167032242,0.0194882676005363,0.174118831753731,0.0262068938463926
762,0.0518256463110447,-0.0854192823171616,0.246272549033165,0.000246614159550518,0.126223266124725,-0.0215479265898466
763,0.0299453362822533,-0.0899761617183685,0.210223138332367,0.00729798898100853,0.0798050686717033,-0.0215481072664261
764,0.0191055182367563,-0.0412145666778088,0.192878633737564,0.0421843677759171,0.0636689811944962,0.0237882006913424
765,0.0148362815380096,0.0454868637025356,0.206507757306099,0.0983709543943405,0.079418957233429,0.0838523507118225
766,0.0170469209551811,0.118226304650307,0.238793909549713,0.153978198766708,0.11473460495472,0.125671476125717
767,0.0223850440233946,0.13824999332428,0.26771354675293,0.180570557713509,0.152618780732155,0.129834249615669
768,0.024494519457221,0.10487162321806,0.27543580532074,0.165762141346931,0.171018123626709,0.098211981356144
769,0.0249308291822672,0.0484127849340439,0.267576813697815,0.129145205020905,0.169950619339943,0.0595086254179478
770,0.0261549800634384,0.00668610027059913,0.260376930236816,0.0962555557489395,0.169636279344559,0.0373614281415939
771,0.0293652173131704,-0.00847120955586433,0.255629330873489,0.0741125047206879,0.175736263394356,0.0255000423640013
772,0.0364514626562595,-0.0132866380736232,0.252302408218384,0.0676177218556404,0.180933520197868,0.0148458173498511
773,0.0422374196350574,-0.0307099800556898,0.254734426736832,0.0825896710157394,0.182139456272125,0.012409120798111
774,0.0457743592560291,-0.0565757378935814,0.26732936501503,0.117212720215321,0.184187635779381,0.0281091723591089
775,0.0595892257988453,-0.0558685511350632,0.291886448860168,0.163381174206734,0.195549577474594,0.0610063523054123
776,0.081925630569458,-0.0154808545485139,0.317489594221115,0.200256511569023,0.21149417757988,0.101288974285126
777,0.0916614532470703,0.0465294942259789,0.327947646379471,0.206866949796677,0.215561598539352,0.138009995222092
778,0.0792083516716957,0.101414583623409,0.320658385753632,0.181786090135574,0.200491830706596,0.153610572218895
779,0.0583365857601166,0.116117939352989,0.301405400037766,0.136073112487793,0.174692049622536,0.130182638764381
780,0.0516674146056175,0.0811704322695732,0.277689039707184,0.0896988660097122,0.155216217041016,0.0757950469851494
781,0.0611834116280079,0.0151352975517511,0.25747537612915,0.0663922131061554,0.148505866527557,0.0203035362064838
782,0.0687785968184471,-0.0529107265174389,0.239291727542877,0.0700268372893333,0.141074225306511,-0.015774579718709
783,0.066180408000946,-0.0922876968979836,0.220876857638359,0.0848372057080269,0.123950071632862,-0.0300195552408695
784,0.0554284304380417,-0.0891224518418312,0.206393018364906,0.0953676402568817,0.103833205997944,-0.0270285718142986
785,0.0435148663818836,-0.0477551035583019,0.200079843401909,0.0991838127374649,0.0918255299329758,-0.00718965660780668
786,0.0440955683588982,0.0170368626713753,0.208764880895615,0.110412091016769,0.0996571108698845,0.0322936102747917
787,0.0600273311138153,0.0765872150659561,0.231713652610779,0.136814758181572,0.131146401166916,0.0782643705606461
788,0.0816378220915794,0.105618424713612,0.259928733110428,0.167975127696991,0.17730288207531,0.108877710998058
789,0.0955960601568222,0.102274022996426,0.287490129470825,0.189728155732155,0.215965449810028,0.122489579021931
790,0.0899161174893379,0.0828011259436607,0.302724957466125,0.188763916492462,0.229401499032974,0.127811998128891
791,0.0669450089335442,0.0675603076815605,0.292912572622299,0.162904426455498,0.226141899824142,0.124799951910973
792,0.0333068780601025,0.0687780007719994,0.259200602769852,0.122983418405056,0.212459266185761,0.110040828585625
793,-0.00775882881134748,0.0840827375650406,0.216289564967155,0.0832500904798508,0.178649425506592,0.088289737701416
794,-0.0397316180169582,0.0948013067245483,0.182939648628235,0.0581081509590149,0.134472891688347,0.0665872171521187
795,-0.0404307954013348,0.0764316245913506,0.168320223689079,0.0506037995219231,0.107925869524479,0.0398639962077141
796,-0.0147006586194038,0.025995846837759,0.17524254322052,0.0539982095360756,0.110158056020737,0.00397767778486013
797,0.00608657626435161,-0.0342227481305599,0.199451968073845,0.0628590807318687,0.126570716500282,-0.0361894369125366
798,0.0122567946091294,-0.0790602713823318,0.22383476793766,0.0766764134168625,0.146227732300758,-0.0728542730212212
799,0.0201281104236841,-0.0943404510617256,0.235087901353836,0.0938934981822968,0.17308421432972,-0.0971670225262642
800,0.0329140201210976,-0.0796374678611755,0.238628625869751,0.109402798116207,0.200073018670082,-0.0998495668172836
801,0.0440836176276207,-0.0439856350421906,0.248832583427429,0.124451525509357,0.214265793561935,-0.0725700259208679
802,0.0547584630548954,0.00817942805588245,0.272096395492554,0.145305976271629,0.220026090741158,-0.0160787273198366
803,0.0662045553326607,0.0711430907249451,0.302096605300903,0.167818009853363,0.227165445685387,0.0493271537125111
804,0.0698374956846237,0.120844498276711,0.321477174758911,0.176248118281364,0.230485215783119,0.0979489013552666
805,0.056853499263525,0.145801976323128,0.314269542694092,0.16871240735054,0.217188820242882,0.130744889378548
806,0.0311458930373192,0.165558606386185,0.28022974729538,0.15640877187252,0.186733260750771,0.15275551378727
807,0.0100018000230193,0.189363703131676,0.238656625151634,0.141596630215645,0.159431010484695,0.151524320244789
808,0.00684916321188211,0.194215595722198,0.210200443863869,0.121243171393871,0.15260149538517,0.125605255365372
809,0.0113290194422007,0.160670667886734,0.189565345644951,0.0940579101443291,0.154778316617012,0.0902244746685028
810,0.0147252073511481,0.104143112897873,0.164008617401123,0.0681755691766739,0.15296933054924,0.0585917979478836
811,0.0288285091519356,0.0509271994233131,0.141697108745575,0.058939840644598,0.153027281165123,0.0303484816104174
812,0.0553550980985165,0.00865116063505411,0.132382333278656,0.0646195411682129,0.154712706804276,-0.00233586318790913
813,0.0829531326889992,-0.0209609679877758,0.137243956327438,0.0737857893109322,0.15332980453968,-0.0362332090735435
814,0.101819239556789,-0.0357508324086666,0.156429305672646,0.0865569561719894,0.156178683042526,-0.0567327626049519
815,0.102327510714531,-0.0412233918905258,0.184022143483162,0.105856314301491,0.168151274323463,-0.0524187423288822
816,0.0855505168437958,-0.0309342946857214,0.21284881234169,0.130091577768326,0.184113219380379,-0.0186270736157894
817,0.0602451898157597,0.00564714847132564,0.232671722769737,0.147993639111519,0.199160978198051,0.0312704108655453
818,0.0341097973287106,0.0538281984627247,0.232878938317299,0.142690673470497,0.21138571202755,0.0665892511606216
819,0.0157916024327278,0.0895698890089989,0.214271113276482,0.111784003674984,0.212304532527924,0.0694057941436768
820,-0.00124904280528426,0.101898677647114,0.176561206579208,0.0643010661005974,0.181477203965187,0.0447130054235458
821,-0.0291077513247728,0.0925464555621147,0.128746882081032,0.0174504667520523,0.117417171597481,0.0114613603800535
822,-0.0527192912995815,0.0808283388614655,0.102985292673111,-0.000482201692648232,0.0594600029289722,-0.00800934340804815
823,-0.0498674623668194,0.0909092202782631,0.114080101251602,0.0216909367591143,0.042187012732029,-0.00282530579715967
824,-0.0256488006561995,0.116070859134197,0.146229460835457,0.0675206109881401,0.0648050084710121,0.0231222175061703
825,0.00172722374554724,0.131540358066559,0.185496255755425,0.119188919663429,0.11025570333004,0.0610426217317581
826,0.0246247258037329,0.127274200320244,0.222313776612282,0.165660366415977,0.157116532325745,0.0997131615877151
827,0.0445045121014118,0.107387498021126,0.244822025299072,0.195521056652069,0.194207459688187,0.125076711177826
828,0.0576190613210201,0.0797765105962753,0.244507357478142,0.194050580263138,0.216619104146957,0.124425441026688
829,0.0512601956725121,0.0477588102221489,0.210561886429787,0.14804396033287,0.202570289373398,0.0918803438544273
830,0.02450355514884,0.0136311519891024,0.142151430249214,0.0694134905934334,0.141354963183403,0.0375916659832001
831,0.0012700161896646,-0.0146620450541377,0.0728354156017303,-0.00169448228552938,0.0664681270718575,-0.0180897619575262
832,0.00298848259262741,-0.0259824637323618,0.044533733278513,-0.0303597711026669,0.0236845817416906,-0.0579579286277294
833,0.019363846629858,-0.0186965893954039,0.0605004094541073,-0.0144371204078197,0.0245324969291687,-0.0744341462850571
834,0.0271821860224009,-0.00893168151378632,0.0909783989191055,0.0160739794373512,0.0468000769615173,-0.0771700292825699
835,0.0235656704753637,-0.00490137282758951,0.115798860788345,0.0376366078853607,0.0707428902387619,-0.075339250266552
836,0.0243560783565044,0.00828792434185743,0.138012424111366,0.0578660778701305,0.0943512693047524,-0.0556653179228306
837,0.0386823043227196,0.037518922239542,0.158797517418861,0.0831985846161842,0.119642950594425,-0.0080849165096879
838,0.0602060034871101,0.0741005390882492,0.169043451547623,0.100616410374641,0.144777953624725,0.0556603036820889
839,0.070371225476265,0.109629087150097,0.161714509129524,0.0963177531957626,0.156223103404045,0.110655285418034
840,0.0545706860721111,0.129693135619164,0.138088017702103,0.0720385909080505,0.135887429118156,0.127880111336708
841,0.0252761859446764,0.120638616383076,0.10814057290554,0.0446353033185005,0.0882312804460526,0.100235834717751
842,0.00428716419264674,0.083910807967186,0.0872931331396103,0.02847502194345,0.0413817428052425,0.0515393503010273
843,0.000457807880593464,0.0420114099979401,0.0944878831505775,0.0304623357951641,0.0251217726618052,0.015912014991045
844,0.00504649104550481,0.0236505717039108,0.126865699887276,0.0461628139019012,0.043010238558054,0.00608509918674827
845,-0.00153091188985854,0.0219490453600883,0.150028124451637,0.0561066493391991,0.0657353550195694,0.00658911885693669
846,-0.022181237116456,0.00331093883141875,0.142903879284859,0.0480676852166653,0.0691781118512154,0.00377267994917929
847,-0.0398096516728401,-0.032721359282732,0.118034012615681,0.0274345949292183,0.058684553951025,-0.00511774560436606
848,-0.0382869876921177,-0.044838048517704,0.0990818589925766,0.00452430034056306,0.0561497434973717,-0.0133867636322975
849,-0.013969773426652,-0.0100193377584219,0.0958476066589355,-0.015050707384944,0.0810604691505432,-0.00642494857311249
850,0.0148405777290463,0.041232842952013,0.0864748284220696,-0.0364230312407017,0.112364836037159,0.0126492697745562
851,0.0121706146746874,0.063928447663784,0.0453421622514725,-0.0672303289175034,0.0973910614848137,0.017702903598547
852,-0.0260915644466877,0.0540051907300949,0.00285528204403818,-0.0868321061134338,0.0438953749835491,0.00858882442116737
853,-0.059081818908453,0.0377009697258472,0.00698367226868868,-0.0679441019892693,0.0100331455469131,0.0165174975991249
854,-0.0664923265576363,0.0219499189406633,0.0381466448307037,-0.0333095155656338,0.00519743794575334,0.0345867499709129
855,-0.0595067664980888,0.00461220508441329,0.0520056672394276,-0.0182791594415903,0.00296882702969015,0.022463159635663
856,-0.041929092258215,-0.00627129292115569,0.0529769994318485,-0.0103665934875607,-0.00352584477514029,-0.0198442805558443
857,-0.0147533500567079,-0.00690275430679321,0.0700591132044792,0.0240014214068651,-0.00226302375085652,-0.0439741499722004
858,0.0120883509516716,0.0105060003697872,0.108487039804459,0.0890638455748558,0.0223310030996799,-0.0154667841270566
859,0.0283154714852571,0.0520727448165417,0.149440661072731,0.154677212238312,0.0684726685285568,0.0469059124588966
860,0.037586010992527,0.106904841959476,0.183883294463158,0.197172090411186,0.118498221039772,0.110677883028984
861,0.0497052185237408,0.158021122217178,0.214363098144531,0.221295788884163,0.157346159219742,0.163702934980392
862,0.0569636970758438,0.186072513461113,0.227077603340149,0.229144796729088,0.169302254915237,0.193364307284355
863,0.0493804030120373,0.18101379275322,0.210662111639977,0.211263567209244,0.149553388357162,0.189906999468803
864,0.0349259227514267,0.150915190577507,0.175228491425514,0.166582852602005,0.111247271299362,0.160361185669899
865,0.0208749733865261,0.104198858141899,0.128729358315468,0.102070361375809,0.064796082675457,0.115327626466751
866,0.00459319492802024,0.0461437590420246,0.0735790207982063,0.0297569502145052,0.0166917648166418,0.0654829517006874
867,-0.0117991082370281,-0.00967708136886358,0.019214253872633,-0.0347733050584793,-0.0193401444703341,0.0222561750560999
868,-0.0171062536537647,-0.0417699813842773,-0.0185241494327784,-0.0752681046724319,-0.0279040485620499,-0.00305862654931843
869,-0.0048897941596806,-0.035409614443779,-0.0306642167270184,-0.083952285349369,-0.00979564525187016,-0.000644496991299093
870,0.00723579153418541,-0.0070135542191565,-0.0302236061543226,-0.0765836462378502,0.0164470113813877,0.0205537378787994
871,-0.00350163015536964,0.0099269924685359,-0.0356553643941879,-0.0751098319888115,0.0368915200233459,0.0374962128698826
872,-0.0234726462513208,0.0215271171182394,-0.0446228608489037,-0.0821331888437271,0.0518265515565872,0.0447724796831608
873,-0.0267981011420488,0.0501830838620663,-0.0459888726472855,-0.0900771543383598,0.0591339468955994,0.0476340390741825
874,-0.015819076448679,0.0777508243918419,-0.0346761234104633,-0.0925183966755867,0.0483971834182739,0.0377168357372284
875,-0.0114198522642255,0.0745799317955971,-0.0142941419035196,-0.0913908034563065,0.0109209371730685,0.0021803758572787
876,-0.0310315489768982,0.0329168289899826,-0.0071107717230916,-0.0994417145848274,-0.0568151101469994,-0.0588431097567081
877,-0.0681582763791084,-0.0258667021989822,-0.0266615226864815,-0.112367883324623,-0.136766970157623,-0.123412668704987
878,-0.0962859466671944,-0.06312495470047,-0.0491367690265179,-0.104145973920822,-0.186340674757957,-0.156127691268921
879,-0.0981154814362526,-0.060539323836565,-0.0427829101681709,-0.059956781566143,-0.179751992225647,-0.132593482732773
880,-0.0786463469266891,-0.0291248727589846,-0.000572809542063624,0.0101963793858886,-0.13133604824543,-0.0599454343318939
881,-0.0551955364644527,0.0101238274946809,0.0567146204411983,0.0791055262088776,-0.0728596076369286,0.0273604933172464
882,-0.0370488800108433,0.0389353446662426,0.105713911354542,0.12290470302105,-0.0199481975287199,0.106037549674511
883,-0.0199958067387342,0.0507235899567604,0.136689767241478,0.128753125667572,0.0269675925374031,0.168612778186798
884,-0.0078574800863862,0.0491028241813183,0.138043105602264,0.0890549197793007,0.0526654236018658,0.188070192933083
885,-0.00854699313640594,0.0382027179002762,0.110653974115849,0.0257334541529417,0.0453909635543823,0.150287926197052
886,-0.0161477718502283,0.0259795673191547,0.0771178230643272,-0.0188876409083605,0.0195058938115835,0.0919341519474983
887,-0.0268043242394924,0.0236127972602844,0.0482482649385929,-0.036651249974966,-0.0112235862761736,0.0543244183063507
888,-0.0361482873558998,0.0392650775611401,0.0233706329017878,-0.0454616956412792,-0.0327098444104195,0.0484622865915298
889,-0.0261526275426149,0.0648667365312576,0.00252986513078213,-0.0568241477012634,-0.0301750581711531,0.0537678822875023
890,0.00311254523694515,0.0720640420913696,-0.0201575439423323,-0.0787234157323837,-0.0158462189137936,0.0307003371417522
891,0.0207024347037077,0.0459397546947002,-0.0442024171352386,-0.109408281743526,-0.0139133259654045,-0.0304294191300869
892,0.00026090067694895,0.00345266563817859,-0.0663735568523407,-0.136669129133224,-0.0393362157046795,-0.0968674570322037
893,-0.0469029918313026,-0.0295719318091869,-0.0875304192304611,-0.144185110926628,-0.0876123830676079,-0.129809930920601
894,-0.0744795948266983,-0.0399314723908901,-0.0910316556692123,-0.11253509670496,-0.119179740548134,-0.108830116689205
895,-0.0581004284322262,-0.0326042845845222,-0.0601080283522606,-0.0444303676486015,-0.102554939687252,-0.046197384595871
896,-0.0184093024581671,-0.0195239968597889,-0.00839469023048878,0.032127171754837,-0.0557993166148663,0.0272809881716967
897,0.0215986017137766,-0.00235031289048493,0.0384038314223289,0.0916078016161919,-0.0125089595094323,0.0884762108325958
898,0.054318193346262,0.0202320795506239,0.0656270682811737,0.118636183440685,0.0135957850143313,0.124127604067326
899,0.0805319920182228,0.0466950498521328,0.0775581747293472,0.117250800132751,0.0290700346231461,0.139845117926598
900,0.102210856974125,0.0796768143773079,0.0896067321300507,0.112510181963444,0.0464814901351929,0.159691452980042
901,0.109035030007362,0.11099074035883,0.103511288762093,0.115406028926373,0.0653363987803459,0.188401609659195
902,0.0911424234509468,0.122512258589268,0.109234802424908,0.113724090158939,0.0722871050238609,0.202654749155045
903,0.052342850714922,0.106403909623623,0.101286895573139,0.0966303274035454,0.0553081706166267,0.182027459144592
904,-0.00205598771572113,0.0679651945829391,0.0776606202125549,0.0630514994263649,0.0116730267181993,0.126479342579842
905,-0.0531825982034206,0.0312171261757612,0.0466329380869865,0.0276055280119181,-0.0412769056856632,0.0677305310964584
906,-0.0758261457085609,0.0232635214924812,0.0196475367993116,0.00194254412781447,-0.0768960118293762,0.0413063801825047
907,-0.0703781247138977,0.0431984663009644,-0.00340650114230812,-0.0223742164671421,-0.0847824513912201,0.0437958650290966
908,-0.0492618903517723,0.0688264071941376,-0.0240368563681841,-0.0495636202394962,-0.073350615799427,0.05152802541852
909,-0.0224921721965075,0.07442357391119,-0.0459411405026913,-0.0761174857616425,-0.0606210976839066,0.0392811149358749
910,0.000279005646007136,0.0558771826326847,-0.0641477853059769,-0.0933929979801178,-0.0530947782099247,0.00109269993845373
911,0.0145182590931654,0.0377380549907684,-0.0592122748494148,-0.0866463780403137,-0.0419781766831875,-0.0313895493745804
912,0.0142179969698191,0.0278211329132319,-0.0324658863246441,-0.0523822419345379,-0.0263597797602415,-0.0344423875212669
913,-0.000779527414124459,0.0167057402431965,-0.00249977339990437,-0.000232803417020477,-0.0116478716954589,-0.0144737837836146
914,-0.0143480924889445,0.0124402213841677,0.0218127239495516,0.0520521365106106,-0.000492583028972149,0.0167273972183466
915,-0.0124207111075521,0.0259096380323172,0.0376940108835697,0.0879765152931213,0.0061582145281136,0.052850928157568
916,0.00753080332651734,0.0557831414043903,0.0452412702143192,0.102454304695129,0.0120346006006002,0.0888470187783241
917,0.0381622947752476,0.087115004658699,0.0484565794467926,0.0999482125043869,0.0203826185315847,0.118179522454739
918,0.0639675185084343,0.0993273854255676,0.0560459606349468,0.0933299884200096,0.032133050262928,0.141490414738655
919,0.0770909860730171,0.0923581346869469,0.0723685473203659,0.0916847810149193,0.0494902618229389,0.163425907492638
920,0.0744176656007767,0.0741900578141212,0.0814186707139015,0.0835623070597649,0.0609299018979073,0.170835211873055
921,0.0490624159574509,0.045269038528204,0.0647821947932243,0.0539087802171707,0.0464615039527416,0.143556535243988
922,0.00303490622900426,0.0162891913205385,0.026138287037611,0.00980270653963089,0.00678550265729427,0.0894489288330078
923,-0.0524860434234142,0.00525503512471914,-0.0178918652236462,-0.0300987455993891,-0.043831255286932,0.0385439954698086
924,-0.101829640567303,0.0174677055329084,-0.0523449927568436,-0.0582814253866673,-0.0939566195011139,0.0140892872586846
925,-0.128591671586037,0.0380450561642647,-0.072475254535675,-0.0805824995040894,-0.131868615746498,0.0168450064957142
926,-0.121932670474052,0.0429829694330692,-0.0762592703104019,-0.089941181242466,-0.14214625954628,0.0328150279819965
927,-0.0763768032193184,0.0302623324096203,-0.0470017269253731,-0.061043057590723,-0.108505092561245,0.0567489303648472
928,-0.00627085519954562,0.0323095433413982,0.0215535052120686,-0.000421127828303725,-0.0387134961783886,0.085904061794281
929,0.0459934435784817,0.0686432346701622,0.092244453728199,0.0455554835498333,0.0218075718730688,0.103286497294903
930,0.0465301238000393,0.110975153744221,0.121135555207729,0.0531413294374943,0.0382654368877411,0.0969266220927238
931,0.00787245389074087,0.118715323507786,0.107378885149956,0.0421488434076309,0.026923693716526,0.0786722600460052
932,-0.0219061393290758,0.0875197872519493,0.0828153565526009,0.041346613317728,0.0295933708548546,0.0713701322674751
933,-0.00706717651337385,0.0466381758451462,0.0711064338684082,0.0604280941188335,0.0667199641466141,0.0852515324950218
934,0.0384018421173096,0.0118390284478664,0.0642404109239578,0.079877957701683,0.110523983836174,0.110067658126354
935,0.0758477598428726,-0.0150454146787524,0.0520709827542305,0.0773593187332153,0.123979054391384,0.129736259579659
936,0.0857060700654984,-0.0240975245833397,0.041362039744854,0.0559228360652924,0.106630750000477,0.127457424998283
937,0.0646971091628075,-0.0238192062824965,0.0214961003512144,0.0197541024535894,0.065984345972538,0.0858526006340981
938,0.0225498974323273,-0.029399074614048,-0.018793223425746,-0.0269563943147659,0.00810082629323006,0.0164734814316034
939,-0.0232624765485525,-0.0278615448623896,-0.0603758580982685,-0.0618386045098305,-0.044878751039505,-0.0369663946330547
940,-0.0627377554774284,-0.00270458776503801,-0.0773396790027618,-0.0623498745262623,-0.0698529034852982,-0.0415264070034027
941,-0.0800061598420143,0.042267207056284,-0.0565346106886864,-0.0234102290123701,-0.0626711174845696,0.0055923699401319
942,-0.0703608319163322,0.0918172299861908,-0.0137138068675995,0.0298347696661949,-0.0516871400177479,0.0743928998708725
943,-0.0588275194168091,0.120207086205482,0.0183668900281191,0.0640971809625626,-0.0658930912613869,0.116838961839676
944,-0.0556628629565239,0.111573323607445,0.0350341312587261,0.0796263143420219,-0.0882583260536194,0.120588771998882
945,-0.0476696081459522,0.0866263434290886,0.0521890185773373,0.0936295762658119,-0.0860805884003639,0.113287851214409
946,-0.0343431048095226,0.0679543539881706,0.0706185773015022,0.105692878365517,-0.0596048049628735,0.106342673301697
947,-0.0255018342286348,0.0540523901581764,0.079439714550972,0.106485165655613,-0.0275753643363714,0.093809187412262
948,-0.0208479426801205,0.0440116189420223,0.076756626367569,0.0982922688126564,0.000543547095730901,0.0858236476778984
949,-0.0150868492200971,0.0465179644525051,0.0713746771216393,0.0906510725617409,0.0243006814271212,0.093987725675106
950,-0.0108158029615879,0.0626532658934593,0.0655583515763283,0.0841621235013008,0.0411543436348438,0.109602980315685
951,-0.0128329116851091,0.0735875740647316,0.0566135756671429,0.07192712277174,0.0445039793848991,0.115360416471958
952,-0.0171967633068562,0.0639001801609993,0.051236018538475,0.0536810532212257,0.0361514650285244,0.107279501855373
953,-0.0163853522390127,0.0437819175422192,0.0462553761899471,0.0305863469839096,0.0212205238640308,0.0862929224967957
954,-0.00660356367006898,0.023999635130167,0.0252659115940332,0.00225618993863463,2.70567870757077E-05,0.0492898225784302
955,0.0128243258222938,0.0103000625967979,-0.00640769908204675,-0.0185194835066795,-0.0184225924313068,0.0127364434301853
956,0.0374420173466206,0.0139247924089432,-0.0311142653226852,-0.0217842981219292,-0.018549857661128,-0.00434989295899868
957,0.0618282444775105,0.0314244590699673,-0.0424739718437195,-0.0144032565876842,0.00249832333065569,-0.00753198284655809
958,0.0771246924996376,0.0508075207471848,-0.0313188470900059,0.00527016399428248,0.0313657037913799,0.00217589386738837
959,0.070054680109024,0.068421833217144,0.00644263485446572,0.0426406897604465,0.0519574657082558,0.0317290350794792
960,0.0428116284310818,0.0861248522996902,0.052880484610796,0.0851643532514572,0.0583199337124825,0.0706288814544678
961,0.00967804063111544,0.106738932430744,0.0799745544791222,0.109299957752228,0.0505747757852077,0.0978120192885399
962,-0.022978762164712,0.119728744029999,0.0721334964036942,0.100393012166023,0.0281928163021803,0.102803386747837
963,-0.0440150797367096,0.113048322498798,0.0457176491618156,0.0753954201936722,0.00443985452875495,0.0981334671378136
964,-0.036342766135931,0.100122973322868,0.0288869645446539,0.0619284361600876,-0.00183711480349302,0.103572309017181
965,-0.00828562770038843,0.104563154280186,0.0257888566702604,0.0565828271210194,0.0059497538022697,0.115346692502499
966,0.0117444721981883,0.124810770153999,0.0195384733378887,0.0374151952564716,0.00777819566428661,0.111419163644314
967,0.0101481406018138,0.138033419847488,0.000395853334339336,0.00352862570434809,-0.00655647600069642,0.0909552052617073
968,-0.00588710699230433,0.128539606928825,-0.0245781764388084,-0.0281315930187702,-0.0230316072702408,0.0681294947862625
969,-0.0228426735848188,0.096890464425087,-0.044749666005373,-0.0490662753582001,-0.0163619723170996,0.040945440530777
970,-0.0337760597467422,0.0491360165178776,-0.0546517968177795,-0.0632283315062523,0.0153663549572229,-0.00122974743135273
971,-0.0423519313335419,-0.00681530591100454,-0.0598150491714478,-0.0790591463446617,0.0358878634870052,-0.0600658878684044
972,-0.0513366609811783,-0.052204567939043,-0.06817477196455,-0.0920068696141243,0.0143982544541359,-0.112005524337292
973,-0.0528950020670891,-0.0692512169480324,-0.075903907418251,-0.0844892710447311,-0.0340344458818436,-0.1205038651824
974,-0.0331042371690273,-0.051973856985569,-0.0718159824609756,-0.050217404961586,-0.068226657807827,-0.0795956254005432
975,0.0078392094001174,-0.0131256636232138,-0.0521576665341854,-0.00383582292124629,-0.0618874132633209,-0.0264184009283781
976,0.0434421561658382,0.0146306101232767,-0.0285446885973215,0.0323718972504139,-0.0269760619848967,-0.000951053923927248
977,0.0520108081400394,0.0199892446398735,-0.0118478545919061,0.0507612712681293,0.00599188450723886,-0.00074109440902248
978,0.0377234518527985,0.0199341904371977,-0.00331782968714833,0.0572434961795807,0.0209772419184446,0.000814943748991936
979,0.0165353864431381,0.0236677452921867,0.000633797899354249,0.059994924813509,0.0210929177701473,0.0160384885966778
980,0.00576230324804783,0.0362305901944637,0.0127027770504355,0.0713554099202156,0.0202522948384285,0.0484526976943016
981,0.00657008402049541,0.0556559339165688,0.0364546179771423,0.0907322317361832,0.0282069779932499,0.0896743014454842
982,0.00667004333809018,0.0692050009965897,0.056853398680687,0.100790806114674,0.0489977151155472,0.125564441084862
983,0.00622603669762611,0.0837610214948654,0.0587459728121758,0.0889736413955688,0.077768474817276,0.158801212906837
984,0.00309601193293929,0.112364873290062,0.0308084040880203,0.0507627241313457,0.0856038108468056,0.177316248416901
985,-0.0121786156669259,0.139828398823738,-0.0160078108310699,0.000895955192390829,0.0560353845357895,0.153116017580032
986,-0.0294502340257168,0.143270298838615,-0.0474229902029037,-0.0309842173010111,0.0152075197547674,0.0916209891438484
987,-0.0355249121785164,0.129325315356255,-0.0425256304442883,-0.0347520671784878,-0.00634817639365792,0.0256722178310156
988,-0.0305978711694479,0.122105434536934,7.59800241212361E-05,-0.017592241987586,0.00460998015478253,-0.0146233718842268
989,-0.0179662369191647,0.112666890025139,0.0625336468219757,0.0117695359513164,0.0394322946667671,-0.0214733313769102
990,-0.00527663482353091,0.0707901045680046,0.107123218476772,0.0386363044381142,0.0596469342708588,-0.0137818278744817
991,-0.000215479012695141,-0.000734690227545798,0.101159445941448,0.0458487272262573,0.0356710515916348,-0.0155061576515436
992,0.000952124071773142,-0.0731351971626282,0.0437977537512779,0.0289972089231014,-0.00930691417306662,-0.0368820987641811
993,0.016666991636157,-0.112154565751553,-0.0239891801029444,0.00800480786710978,-0.025061521679163,-0.0595139302313328
994,0.0548248291015625,-0.0961314737796783,-0.0599495470523834,0.00787707697600126,-0.00333229219540954,-0.0520168170332909
995,0.0894549861550331,-0.0443618074059486,-0.069739080965519,0.0246177930384874,0.0142774684354663,-0.011962634511292
996,0.0945562794804573,0.00768410507589579,-0.0757653638720512,0.0418583564460278,0.0014907643198967,0.0377969741821289
997,0.0684749484062195,0.0407005064189434,-0.078980565071106,0.0555912293493748,-0.0331856608390808,0.0732575729489326
998,0.0204552076756954,0.0509501472115517,-0.0741535574197769,0.0623627565801144,-0.0738204196095467,0.0803066417574883
999,-0.0280572809278965,0.0561769902706146,-0.0547158047556877,0.0643089711666107,-0.096823126077652,0.0772094279527664
1000,-0.0578687898814678,0.0796497911214828,-0.0217448230832815,0.0680497661232948,-0.0849821642041206,0.0938550010323524
1001,-0.0689413845539093,0.116380333900452,0.00494696106761694,0.068886324763298,-0.0486401580274105,0.118215285241604
1002,-0.0576641000807285,0.147171512246132,0.0173319168388844,0.0655262097716331,-0.00187219656072557,0.122932612895966
1003,-0.0245212689042091,0.161046579480171,0.0272383466362953,0.0607137344777584,0.048016469925642,0.106443539261818
1004,0.00699428329244256,0.146331965923309,0.0379637405276299,0.0482343882322311,0.085839070379734,0.0739699155092239
1005,0.0268803108483553,0.103869989514351,0.0482529290020466,0.0348003953695297,0.108032763004303,0.0373435169458389
1006,0.0386717282235622,0.050164483487606,0.0570961683988571,0.0331804901361465,0.120551712810993,0.0128035778179765
1007,0.0316255800426006,-0.00456975074484944,0.0499174483120441,0.0318193696439266,0.106943123042583,-0.00320832268334925
1008,0.00261322455480695,-0.0517648756504059,0.0156657192856073,0.0163718815892935,0.0547585338354111,-0.0208857152611017
1009,-0.0346932969987392,-0.0782562717795372,-0.0361608155071735,-0.0107219191268086,-0.0155661907047033,-0.0360384434461594
1010,-0.0629180818796158,-0.0721699371933937,-0.0848281607031822,-0.0405390746891499,-0.0707546770572662,-0.0336674936115742
1011,-0.07331582903862,-0.0338639095425606,-0.115660935640335,-0.0655025094747543,-0.0895536839962006,-0.00861110631376505
