,AF3,AF4,Fp1,Fp2,AF7,AF8
0,0.0488679781556129,-0.0146221369504929,-0.017331400886178,-0.0664160028100014,0.0747214034199715,-0.0135687012225389
1,0.0521317943930626,-0.0348040461540222,0.0019677288364619,-0.0451143085956573,0.106833182275295,-0.0117875002324581
2,0.0497211441397667,-0.0505666770040989,0.00996783841401339,-0.0346799679100513,0.111876346170902,-0.0190148819237947
3,0.053216490894556,-0.0602049306035042,0.015135508030653,-0.0325376205146313,0.0958413034677505,-0.0277365073561668
4,0.0605968981981277,-0.0707681104540825,0.0149003081023693,-0.0331554189324379,0.0671500638127327,-0.0462710857391357
5,0.0619790703058243,-0.0837963446974754,-0.000972786569036543,-0.0397361442446709,0.0345327481627464,-0.0717348530888557
6,0.0577580481767654,-0.0906239226460457,-0.0258197821676731,-0.0637500286102295,0.0162266679108143,-0.0867349952459335
7,0.0464718230068684,-0.0861440300941467,-0.045280497521162,-0.109680503606796,0.0157837606966496,-0.0890913456678391
8,0.0169616937637329,-0.0732112675905228,-0.0579044707119465,-0.163734167814255,0.0117017170414329,-0.098311685025692
9,-0.0267890021204948,-0.0562804937362671,-0.0718400552868843,-0.202030226588249,-0.0135429408401251,-0.125614181160927
10,-0.0625652745366097,-0.0362788066267967,-0.0832202211022377,-0.205328941345215,-0.0507470518350601,-0.142109915614128
11,-0.0738261863589287,-0.00592616572976112,-0.0786568149924278,-0.176061645150185,-0.0727644488215446,-0.114574104547501
12,-0.0660169050097466,0.0347608588635921,-0.057608600705862,-0.13309209048748,-0.0651303976774216,-0.0560559071600437
13,-0.055560652166605,0.0645506680011749,-0.0332639515399933,-0.0859403237700462,-0.0406831800937653,-0.00399345951154828
14,-0.0448780655860901,0.0646000429987907,-0.01933429017663,-0.0415422357618809,-0.0163230132311583,0.0185781586915255
15,-0.0250718407332897,0.0396894216537476,-0.0123902158811688,-0.00878633745014668,0.0117172906175256,0.0158580951392651
16,0.00501983240246773,0.0111708845943213,0.00752830831333995,0.0182692501693964,0.0551280006766319,0.00812032725661993
17,0.0351504310965538,-0.00746098160743713,0.0417179800570011,0.051128413528204,0.101512983441353,0.0041034840978682
18,0.0557647049427032,-0.0181429982185364,0.0691297650337219,0.0875941887497902,0.125457033514977,0.00411981903016567
19,0.0669236928224564,-0.0205339696258307,0.0791303291916847,0.114800289273262,0.12608240544796,0.0105695640668273
20,0.0715924873948097,-0.0136044071987271,0.0734081268310547,0.121802672743797,0.118595130741596,0.0134788025170565
21,0.067396268248558,-0.0119315227493644,0.0556266531348228,0.106454864144325,0.104929573833942,-0.00134907197207212
22,0.0514045655727386,-0.0303318034857512,0.0344241224229336,0.0819037556648254,0.0769379213452339,-0.0270320437848568
23,0.0260948222130537,-0.055726021528244,0.0218330435454845,0.066253587603569,0.0371325016021729,-0.0429112575948238
24,-0.000451609870651737,-0.0648174807429314,0.0234166532754898,0.0656082928180695,0.0014338024193421,-0.0386888980865479
25,-0.01554034370929,-0.0529712103307247,0.0355038605630398,0.0761894285678864,-0.0159397628158331,-0.0136468876153231
26,-0.0128403818234801,-0.0239541772753,0.0507685132324696,0.0903925374150276,-0.0134733123704791,0.0248867217451334
27,-0.00320393545553088,0.0215142108500004,0.0576708540320396,0.097396157681942,-0.00300240982323885,0.0521364882588387
28,-0.00464526610448956,0.0674479678273201,0.0455244220793247,0.0842877179384232,0.00423990841954947,0.0487380139529705
29,-0.0196008868515491,0.0848268121480942,0.0232516750693321,0.0517071783542633,0.012037904933095,0.0285681337118149
30,-0.0326707810163498,0.0743312537670136,0.0135055258870125,0.0181918330490589,0.0265508610755205,0.0165799241513014
31,-0.0362981595098972,0.0626549273729324,0.0149934524670243,-0.0132826454937458,0.0350695624947548,0.00716975657269359
32,-0.0399207286536694,0.0563138723373413,0.00684942863881588,-0.0532124936580658,0.0202747769653797,-0.016240393742919
33,-0.043363906443119,0.042758047580719,-0.00950992573052645,-0.0837681218981743,-0.00575787620618939,-0.0387894883751869
34,-0.0349639132618904,0.0167023669928312,-0.0181824024766684,-0.0809918493032455,-0.016960147768259,-0.0453040227293968
35,-0.0246305894106627,-0.0189682338386774,-0.0220690947026014,-0.0612578690052032,-0.0159974973648787,-0.047534391283989
36,-0.0293142832815647,-0.0573579035699368,-0.0321928560733795,-0.053826566785574,-0.0214765463024378,-0.0522011704742908
37,-0.0397842563688755,-0.0867444202303886,-0.0421581938862801,-0.0545916259288788,-0.032236535102129,-0.051644004881382
38,-0.0374978147447109,-0.0934146195650101,-0.0304567813873291,-0.0380331240594387,-0.0283573530614376,-0.0372470393776894
39,-0.0165730286389589,-0.0720190852880478,0.0146344993263483,0.0091032711789012,0.00696174567565322,-0.00582463247701526
40,0.0177263710647821,-0.0405265167355537,0.0696289762854576,0.0726303532719612,0.0647509098052979,0.0241214763373137
41,0.0541651025414467,-0.0247468072921038,0.090889111161232,0.117083564400673,0.11197667568922,0.0238934457302094
42,0.0754135027527809,-0.0274713113903999,0.0618944354355335,0.115592665970325,0.123231746256351,-0.00151893659494817
43,0.0607555136084557,-0.0272352639585733,0.0073061091825366,0.0754174068570137,0.095055565237999,-0.0167346876114607
44,0.00611446890980005,-0.00443899445235729,-0.0413896292448044,0.0277205128222704,0.0324802957475185,-0.0138822924345732
45,-0.0623066797852516,0.0334367081522942,-0.066107265651226,-0.00143580930307508,-0.0473047569394112,-0.0165378265082836
46,-0.109507992863655,0.0640044212341309,-0.0541738793253899,0.000231936457566917,-0.106908194720745,-0.0264953672885895
47,-0.115228042006493,0.0766606703400612,-0.0072239269502461,0.0346548818051815,-0.114782132208347,-0.0234697926789522
48,-0.0817861109972,0.0784165635704994,0.0539089106023312,0.0898611173033714,-0.0734039545059204,0.00277206883765757
49,-0.0336354747414589,0.0859618559479713,0.105061113834381,0.140845641493797,-0.0111385229974985,0.0432575866580009
50,0.00465880427509546,0.101591654121876,0.131760567426682,0.166482657194138,0.048027615994215,0.0815897807478905
51,0.0229348763823509,0.101860150694847,0.130137234926224,0.162496626377106,0.0903700068593025,0.104193575680256
52,0.0202975422143936,0.0645466670393944,0.101314947009087,0.132220610976219,0.0988235026597977,0.0940141677856445
53,0.00529378466308117,-0.00395409716293216,0.0578459985554218,0.086793027818203,0.0699376463890076,0.0506352931261063
54,-0.0102637382224202,-0.0709509775042534,0.023018216714263,0.0502973087131977,0.0288430042564869,0.00448276707902551
55,-0.0173436217010021,-0.103190816938877,0.0129507565870881,0.0374999716877937,0.004712357185781,-0.0194119736552238
56,-0.0100449807941914,-0.0923514068126678,0.0278597846627235,0.040298268198967,0.00706773810088634,-0.0211061984300613
57,0.00460715545341372,-0.0554835759103298,0.0494111850857735,0.0460656099021435,0.0196682903915644,-0.010176713578403
58,0.011041309684515,-0.0127147771418095,0.0542900562286377,0.0457488037645817,0.0187580529600382,0.00564621994271874
59,0.00580226769670844,0.0291824713349342,0.0373684130609035,0.024444067850709,0.00406094267964363,0.0220838468521833
60,-0.00426639802753925,0.0619887933135033,0.00733107607811689,-0.0292711071670055,-0.0121478084474802,0.0314527451992035
61,-0.0172894150018692,0.0653240606188774,-0.0272841192781925,-0.10778833925724,-0.028658838942647,0.0219104643911123
62,-0.033610999584198,0.0389638803899288,-0.0590930208563805,-0.192569255828857,-0.0475794412195683,-0.00996707938611507
63,-0.050637848675251,0.00784155447036028,-0.078560046851635,-0.260894387960434,-0.0669079348444939,-0.0521257519721985
64,-0.0670405477285385,-0.0151689751073718,-0.0767988488078117,-0.286861151456833,-0.0797647312283516,-0.0794014632701874
65,-0.0795467793941498,-0.0256436914205551,-0.0541495345532894,-0.257156372070313,-0.0765692442655563,-0.0728274434804916
66,-0.0807024911046028,-0.0172023791819811,-0.0208255108445883,-0.186055243015289,-0.0582803785800934,-0.0402521267533302
67,-0.0670627579092979,0.0021970639936626,0.0147740868851542,-0.102684214711189,-0.0343315489590168,0.000324027438182384
68,-0.0424505285918713,0.0167240090668201,0.0517235025763512,-0.0234575141221285,-0.00866057351231575,0.0375685095787048
69,-0.0171982869505882,0.0217426512390375,0.0850617066025734,0.0435075052082539,0.0134018734097481,0.0616166517138481
70,-0.00247971317730844,0.0237571597099304,0.103053100407124,0.0859044715762138,0.0244460832327604,0.0727815181016922
71,-0.00109725946094841,0.0286392197012901,0.100894466042519,0.10285397619009,0.0298190135508776,0.0851397812366486
72,-0.00919580366462469,0.036863885819912,0.0848148912191391,0.104367427527905,0.0401751957833767,0.106103055179119
73,-0.0239022728055716,0.0374311245977879,0.0557125955820084,0.0928293839097023,0.0453998036682606,0.113942943513393
74,-0.0460147187113762,0.0121330227702856,0.00625745020806789,0.0597647577524185,0.0226073227822781,0.076665997505188
75,-0.0739016905426979,-0.0384569391608238,-0.0556547082960606,0.00461046956479549,-0.0250148773193359,-0.00256033870391548
76,-0.0964586734771729,-0.0882441774010658,-0.100809529423714,-0.0399193279445171,-0.0665939748287201,-0.0796563699841499
77,-0.0997853055596352,-0.108603656291962,-0.107700519263744,-0.0355951003730297,-0.0798244625329971,-0.112031668424606
78,-0.0835209861397743,-0.090020477771759,-0.0823736265301704,0.0103926034644246,-0.0717029273509979,-0.0932908430695534
79,-0.0606127940118313,-0.0417500995099545,-0.0407985970377922,0.0652861222624779,-0.0597269609570503,-0.0370518863201141
80,-0.0363188087940216,0.0198080036789179,0.00169482070486993,0.115818478167057,-0.04676578566432,0.0402116030454636
81,-0.0093023618683219,0.0781582221388817,0.027546027675271,0.165120765566826,-0.0299432408064604,0.102035969495773
82,0.0114183900877833,0.11301102489233,0.0310942605137825,0.21063993871212,-0.0180118829011917,0.109535165131092
83,0.0125839179381728,0.106347031891346,0.0264233555644751,0.241366595029831,-0.0194844249635935,0.0746789276599884
84,-0.0107850572094321,0.0642871782183647,0.0287291500717402,0.247556880116463,-0.0286230333149433,0.0387941189110279
85,-0.0444132201373577,0.0149377128109336,0.0412018932402134,0.236215725541115,-0.0317204035818577,0.020590640604496
86,-0.0585312359035015,-0.0111110722646117,0.0650758594274521,0.239146545529366,-0.0147689105942845,0.0283680558204651
87,-0.0395200923085213,-0.00337128364481032,0.0966352447867393,0.27712544798851,0.024374408647418,0.067179799079895
88,-0.00229344656690955,0.0179408974945545,0.116139136254787,0.322212666273117,0.0699212104082108,0.116366274654865
89,0.0261574983596802,0.0264417082071304,0.10475355386734,0.331096589565277,0.0981117486953735,0.138851881027222
90,0.0250564943999052,0.0183205101639032,0.0681849345564842,0.302955448627472,0.0936972573399544,0.122934952378273
91,-0.00733595062047243,0.00582175329327583,0.0273533686995506,0.268023937940598,0.0624782517552376,0.0861432254314423
92,-0.0553542077541351,-0.00566820567473769,-0.00388709153048694,0.238967031240463,0.0205600969493389,0.044505637139082
93,-0.0923030450940132,-0.0141264153644443,-0.0176733415573835,0.206183820962906,-0.0161084309220314,0.0146543066948652
94,-0.0973632037639618,-0.0105084786191583,-0.00960677023977041,0.163191869854927,-0.0323718152940273,0.0133159728720784
95,-0.0782007500529289,0.0070635718293488,0.00915107689797878,0.116008430719376,-0.0284183844923973,0.0320925451815128
96,-0.0620997399091721,0.0236862935125828,0.016752565279603,0.0689003393054008,-0.0212677903473377,0.0509398244321346
97,-0.062255222350359,0.022492004558444,0.00520716700702906,0.0200875196605921,-0.0186690967530012,0.0621669180691242
98,-0.0654760673642159,-0.000904702697880566,-0.0192927736788988,-0.0311565268784761,-0.0142898485064507,0.0515185482800007
99,-0.0618675127625465,-0.0330432802438736,-0.0506545640528202,-0.0874431654810905,-0.0130547415465117,0.010127330198884
100,-0.0598893463611603,-0.0514963008463383,-0.0761063471436501,-0.138972640037537,-0.0269215516746044,-0.0346156060695648
101,-0.0560210831463337,-0.0418590493500233,-0.072605587542057,-0.151800349354744,-0.041394654661417,-0.0490221343934536
102,-0.0373039990663528,-0.00603044824674726,-0.0288967452943325,-0.0958606451749802,-0.0304383467882872,-0.0246881637722254
103,-0.0118026100099087,0.0378877744078636,0.037206094712019,0.0254361648112535,-0.000397873140173033,0.0251097921282053
104,-3.8343121559592E-05,0.0656377747654915,0.0887586548924446,0.170524835586548,0.0177356265485287,0.0686930119991302
105,-0.00969579070806503,0.0666388943791389,0.098221480846405,0.281699359416962,0.00700312200933695,0.0853338465094566
106,-0.0293611455708742,0.0504034608602524,0.0685144886374474,0.325117558240891,-0.0236922856420279,0.0888857319951057
107,-0.0466657727956772,0.0262877680361271,0.024544844403863,0.312518537044525,-0.0546342208981514,0.0892612561583519
108,-0.0600760020315647,-0.00125736114569008,-0.00824903603643179,0.282756119966507,-0.0673554912209511,0.0783314555883408
109,-0.0670394599437714,-0.0204692631959915,-0.0179949887096882,0.265718758106232,-0.0514390952885151,0.0550628043711185
110,-0.0589321218430996,-0.0243233758956194,-0.00804121699184179,0.270062118768692,-0.0140311606228352,0.0266004465520382
111,-0.0352628231048584,-0.0160256512463093,0.0123805971816182,0.29116091132164,0.0252462327480316,0.00591263873502612
112,-0.00773007841780782,0.0030135044362396,0.0363611429929733,0.317914336919785,0.0540486387908459,0.00262093031778932
113,0.0116757191717625,0.0242864452302456,0.0552402399480343,0.341293305158615,0.0715809911489487,0.0103101441636682
114,0.0135754495859146,0.0323370695114136,0.0560495294630528,0.355931758880615,0.0749630033969879,0.0241642612963915
115,-0.00620217993855476,0.0226881615817547,0.0317192114889622,0.357589572668076,0.0551614016294479,0.0467452928423882
116,-0.0380179882049561,0.00623975740745664,-0.0126391686499119,0.343231827020645,0.00848924368619919,0.0634684562683105
117,-0.0697789490222931,-0.00298517243936658,-0.0655398219823837,0.311750054359436,-0.059320691972971,0.0481589958071709
118,-0.0958205386996269,-0.00156577525194734,-0.108147799968719,0.276416808366776,-0.126413032412529,0.00706903776153922
119,-0.100775197148323,0.00722472229972482,-0.115053400397301,0.262673765420914,-0.152972668409348,-0.0183835159987211
120,-0.074524037539959,0.0142447790130973,-0.0779322907328606,0.281709402799606,-0.12023651599884,-0.00862737372517586
121,-0.0350200794637203,0.00954239722341299,-0.0163520369678736,0.31733563542366,-0.0533872172236443,0.0138873197138309
122,-0.00119293329771608,-0.00116577034350485,0.0457064211368561,0.344134569168091,0.0152098024263978,0.0280496701598167
123,0.02786885201931,-0.00385607965290546,0.0972562879323959,0.35612165927887,0.0728355497121811,0.0391304604709148
124,0.0542171336710453,0.00635036779567599,0.130578339099884,0.356275975704193,0.109051413834095,0.0565017536282539
125,0.0689269304275513,0.0232824813574553,0.135556995868683,0.326311707496643,0.109421089291573,0.0765026733279228
126,0.0626554563641548,0.0360254012048244,0.111547477543354,0.244603484869003,0.0754934474825859,0.0926669165492058
127,0.0349469184875488,0.0384957417845726,0.0736008137464523,0.124635457992554,0.0290594939142466,0.10691075026989
128,-0.00455978652462363,0.0362296365201473,0.0384533554315567,-0.00111787556670606,-0.0106073766946793,0.123515486717224
129,-0.0449156500399113,0.041111446917057,0.00612051039934158,-0.125448614358902,-0.0417503975331783,0.12947641313076
130,-0.0775846093893051,0.061186995357275,-0.0272795576602221,-0.252974033355713,-0.0654955878853798,0.103596530854702
131,-0.0953290387988091,0.0879107415676117,-0.050179623067379,-0.361167132854462,-0.0787535384297371,0.0553717389702797
132,-0.0979358702898026,0.0957227721810341,-0.0557705536484718,-0.42089518904686,-0.0848287418484688,0.014434402808547
133,-0.08920718729496,0.0739151686429977,-0.056987602263689,-0.425971299409866,-0.0878710374236107,-0.00982688181102276
134,-0.0694601759314537,0.0428826808929443,-0.0625857412815094,-0.387817054986954,-0.0820509418845177,-0.0212045013904572
135,-0.0380141660571098,0.0243486072868109,-0.0616833679378033,-0.328861802816391,-0.0591526292264462,-0.0199969746172428
136,-0.00840420927852392,0.0158366877585649,-0.0477346256375313,-0.268776476383209,-0.0280185882002115,-0.0125744072720408
137,0.00411188649013639,0.0102187478914857,-0.0318126231431961,-0.210447549819946,-0.00697969878092408,-0.00405280338600278
138,0.00765885738655925,0.0144471395760775,-0.0257287304848433,-0.156860694289207,-0.00127001130022109,0.00483685964718461
139,0.0126523114740849,0.0285803079605103,-0.0292190257459879,-0.119488544762135,-0.0054108090698719,0.00908256135880947
140,0.0140050128102303,0.0375714600086212,-0.0311221536248922,-0.0953484028577805,-0.0100848022848368,0.0103065567091107
141,0.00919961463660002,0.028278848156333,-0.0267838481813669,-0.0741608142852783,-0.00916598364710808,0.00618162751197815
142,0.00345094199292362,0.00232461793348193,-0.0208954811096191,-0.057469766587019,-0.00449755927547812,-0.0101652890443802
143,0.00161608925554901,-0.017211714759469,-0.00906034652143717,-0.0497030168771744,0.00831869710236788,-0.0181380491703749
144,0.010612484999001,-0.00850826874375343,0.0174545571208,-0.0449366457760334,0.0368775837123394,0.00753381056711078
145,0.0283032339066267,0.01701963506639,0.050260603427887,-0.0321835912764072,0.0664992183446884,0.0511967577040195
146,0.0359899029135704,0.0326300524175167,0.0691797956824303,-0.0152274714782834,0.0724012479186058,0.0810815021395683
147,0.0216025691479445,0.0355967171490192,0.0638007670640945,-0.00785685051232576,0.0544158667325974,0.092025063931942
148,-0.00372373964637518,0.0506369508802891,0.0420457348227501,-0.0182295180857182,0.0379191823303699,0.0956635028123856
149,-0.0228522680699825,0.0869804248213768,0.0164376180619001,-0.0478472709655762,0.0376414805650711,0.0919680818915367
150,-0.0368530005216599,0.115688428282738,-0.0107883233577013,-0.0929636210203171,0.0358910895884037,0.0748113766312599
151,-0.0509574934840202,0.113996341824532,-0.0334582924842834,-0.137652218341827,0.0145270917564631,0.050358846783638
152,-0.0529389195144176,0.0895473510026932,-0.0347938574850559,-0.148881614208221,-0.0133162848651409,0.0339273288846016
153,-0.0382923036813736,0.0554164908826351,-0.0161127895116806,-0.112144365906715,-0.0264189336448908,0.0325299426913261
154,-0.0253029186278582,0.0210485067218542,-0.00329291285015643,-0.060358464717865,-0.0258966982364655,0.0297943241894245
155,-0.0215663872659206,-0.00489333039149642,-0.0102946320548654,-0.0315578356385231,-0.024347435683012,0.008522086776793
156,-0.01064239628613,-0.0246272925287485,-0.0227656997740269,-0.0214085876941681,-0.0254453141242266,-0.0211064610630274
157,0.0171292964369059,-0.0447180010378361,-0.0219946652650833,-0.0046852407976985,-0.0233547575771809,-0.0379379093647003
158,0.0447649993002415,-0.0553524643182755,-0.00796635542064905,0.0278361570090055,-0.0141832297667861,-0.0280724409967661
159,0.0523423366248608,-0.042885810136795,0.00621109921485186,0.0681223794817925,-0.00241009471938014,0.0074477382004261
160,0.0415691398084164,-0.00912716239690781,0.0133275836706162,0.0924435630440712,0.00592235894873738,0.052294809371233
161,0.0243528094142675,0.0292596872895956,0.0132731534540653,0.0748425871133804,0.0102071864530444,0.0865900218486786
162,0.0127364546060562,0.0478880330920219,0.00899104587733746,0.00845294073224068,0.0155639462172985,0.100417517125607
163,0.0147785125300288,0.0394606031477451,0.00955358520150185,-0.0935265347361565,0.0278079118579626,0.0995698049664497
164,0.0238520130515099,0.0278154462575912,0.0228480007499456,-0.196358934044838,0.0474389903247356,0.0929329395294189
165,0.0245323479175568,0.0421090088784695,0.0432469733059406,-0.263996243476868,0.0686144009232521,0.0863506272435188
166,0.00769863137975335,0.0846455991268158,0.0544543378055096,-0.291960507631302,0.0806050375103951,0.083967387676239
167,-0.0162469726055861,0.125163793563843,0.0484471321105957,-0.292754352092743,0.0760312750935555,0.0868205204606056
168,-0.0312040653079748,0.128476560115814,0.0247065722942352,-0.274601697921753,0.053712897002697,0.0862721130251884
169,-0.0414472371339798,0.0912669524550438,-0.018459465354681,-0.241735905408859,0.0155703769996762,0.0612744055688381
170,-0.0544498190283775,0.0365632064640522,-0.0650966092944145,-0.188847362995148,-0.023853525519371,0.0116863595321774
171,-0.0610995069146156,-0.0127726318314672,-0.0912011936306953,-0.11702174693346,-0.0433067716658115,-0.0352637581527233
172,-0.0546244755387306,-0.0374004431068897,-0.0985504388809204,-0.0541904382407665,-0.0397572219371796,-0.0664911717176437
173,-0.0397430695593357,-0.0335297137498856,-0.0963474661111832,-0.0278838537633419,-0.0227933488786221,-0.0760640427470207
174,-0.0194731075316668,-0.022300947457552,-0.0803895443677902,-0.0210952386260033,-0.00152075267396867,-0.0539600849151611
175,0.000640455400571227,-0.0239586196839809,-0.0564572587609291,0.0108242472633719,0.00659113004803658,-0.0170863997191191
176,0.0117944348603487,-0.0359516553580761,-0.0360783599317074,0.079375185072422,-0.0066831330768764,0.00357564049772918
177,0.0157441552728415,-0.0433345213532448,-0.0132421953603625,0.163284882903099,-0.0187569763511419,0.00583206303417683
178,0.0211405642330647,-0.0377218164503574,0.0218337029218674,0.244948104023933,-0.00610541086643934,0.012682618573308
179,0.0336150005459785,-0.0173401869833469,0.0689167678356171,0.312130689620972,0.0282384902238846,0.0432339198887348
180,0.0498386472463608,0.0188506580889225,0.119033627212048,0.356656819581985,0.067024439573288,0.0967032387852669
181,0.059629287570715,0.067678265273571,0.155304715037346,0.376136004924774,0.0960914492607117,0.152567207813263
182,0.0556988269090652,0.115123324096203,0.161327138543129,0.364050328731537,0.107652850449085,0.184792667627335
183,0.0412767231464386,0.141118228435516,0.134487584233284,0.321961224079132,0.100599817931652,0.180619105696678
184,0.026706350967288,0.138316065073013,0.088283360004425,0.275501877069473,0.0824151411652565,0.146692991256714
185,0.015287971124053,0.116461239755154,0.0390657521784306,0.249508410692215,0.060235284268856,0.100130185484886
186,0.00286424532532692,0.0901044607162476,-0.00274602300487459,0.250611633062363,0.0358664095401764,0.0662219077348709
187,-0.0119613753631711,0.0707460269331932,-0.0295700058341026,0.275795519351959,0.0165315885096788,0.0589766316115856
188,-0.0252826418727636,0.059317696839571,-0.0371937230229378,0.303777903318405,0.0096618328243494,0.0531394816935062
189,-0.0356105342507362,0.0462690703570843,-0.0311541873961687,0.285894572734833,0.00703269150108099,0.0198596008121967
190,-0.0407828353345394,0.029058551415801,-0.0183669850230217,0.195093169808388,0.00405245739966631,-0.0235908944159746
191,-0.0318901762366295,0.0148854665458202,-0.00231005577370524,0.0813233032822609,0.00987487938255072,-0.0376001819968224
192,-0.00858444534242153,0.00698762573301792,0.00946700852364302,0.00770341325551271,0.023697130382061,-0.0137161472812295
193,0.012086714617908,-0.00885224156081676,0.00657394900918007,-0.0394794568419456,0.0284997150301933,0.00905465427786112
194,0.0155353713780642,-0.0501328259706497,-0.0127756679430604,-0.108359090983868,0.010629772208631,-0.00787982996553183
195,0.00895664654672146,-0.0966211631894112,-0.0306790638715029,-0.197557851672173,-0.0181215275079012,-0.0452952496707439
196,0.00609811069443822,-0.104518741369247,-0.0293833576142788,-0.2662692964077,-0.0338621623814106,-0.0523719638586044
197,0.00688465358689427,-0.0570452660322189,-0.0150659494102001,-0.290435433387756,-0.0316150858998299,-0.0117375813424587
198,0.00325340544804931,0.0175285656005144,-0.00963947735726833,-0.278776377439499,-0.028167687356472,0.0424828715622425
199,-0.0106918206438422,0.0734003335237503,-0.0224026180803776,-0.257750153541565,-0.0373596586287022,0.0673938915133476
200,-0.0333718024194241,0.0941671431064606,-0.0318029075860977,-0.246554017066956,-0.0453115440905094,0.0638306364417076
201,-0.0503169670701027,0.0923354104161263,-0.0162512697279453,-0.240471795201302,-0.0313106626272202,0.0623611025512218
202,-0.0472823306918144,0.0796982645988464,0.00878933072090149,-0.227629989385605,-0.0027950641233474,0.0712356269359589
203,-0.0276876799762249,0.0586979202926159,0.0125976577401161,-0.210169434547424,0.018752034753561,0.0728327631950378
204,-0.00486282305791974,0.0343203879892826,-0.00685938540846109,-0.192090958356857,0.0233842227607965,0.0553605705499649
205,0.01869922503829,0.0245603490620852,-0.0192379839718342,-0.164862886071205,0.017528161406517,0.0309752114117146
206,0.0452585741877556,0.0327365696430206,-0.00154522003140301,-0.125165387988091,0.0109474612399936,0.0206226576119661
207,0.0607392340898514,0.0339825823903084,0.0364469587802887,-0.0869873911142349,0.0047926907427609,0.0267009921371937
208,0.0527388565242291,0.0205002035945654,0.0738361850380898,-0.0662796646356583,-0.000168379032402299,0.0431850031018257
209,0.0281309317797422,0.0155859645456076,0.0964424684643745,-0.0684807971119881,-0.00291657028719783,0.0688775107264519
210,-0.00272759282961488,0.0361041538417339,0.0934310480952263,-0.0960373431444168,-0.00894198939204216,0.0985738933086395
211,-0.0324104316532612,0.073942244052887,0.0629099681973457,-0.151758894324303,-0.0242138430476189,0.116772226989269
212,-0.0545674376189709,0.0972600430250168,0.0202643759548664,-0.220494776964188,-0.0445435643196106,0.103931851685047
213,-0.0682987794280052,0.0776637867093086,-0.01604457013309,-0.266115665435791,-0.0638311579823494,0.0616400204598904
214,-0.0717622041702271,0.030451936647296,-0.0408022552728653,-0.264768898487091,-0.0846800729632378,0.0196001343429089
215,-0.0552747771143913,-0.000120449250971433,-0.0495138056576252,-0.226027876138687,-0.0994365513324738,0.0128880590200424
216,-0.0147477006539702,0.0123846856877208,-0.035219345241785,-0.172510802745819,-0.0878944918513298,0.0554590858519077
217,0.0340853556990623,0.0554273836314678,-0.00949046202003956,-0.120169751346111,-0.0514497756958008,0.124327644705772
218,0.0683625489473343,0.0956403464078903,0.00198190426453948,-0.0831582620739937,-0.0214678607881069,0.174755305051804
219,0.0768383368849754,0.111734889447689,-0.012173249386251,-0.0754390880465508,-0.0263302326202393,0.175834849476814
220,0.0603973083198071,0.102363616228104,-0.0381261445581913,-0.0926024094223976,-0.0625319704413414,0.136310368776321
221,0.029067624360323,0.0766666978597641,-0.0539811514317989,-0.115101002156734,-0.100616663694382,0.0899661555886269
222,-0.00450321333482862,0.0471297986805439,-0.0548265017569065,-0.138573735952377,-0.115519136190414,0.0593869388103485
223,-0.0285842176526785,0.02424774505198,-0.0546659827232361,-0.166405588388443,-0.110986277461052,0.0498235672712326
224,-0.0355445630848408,0.0116776861250401,-0.0636514872312546,-0.188795760273933,-0.109210923314095,0.0531146451830864
225,-0.0300703831017017,0.0107170669361949,-0.0769403800368309,-0.196447849273682,-0.116953752934933,0.0515596494078636
226,-0.0236225556582212,0.0207643192261457,-0.0863771215081215,-0.190634354948998,-0.124190412461758,0.0374344661831856
227,-0.0270294975489378,0.0353454425930977,-0.08494982868433,-0.170985221862793,-0.126220092177391,0.0259210485965014
228,-0.0425962768495083,0.0498324185609818,-0.0697607770562172,-0.13254052400589,-0.126376569271088,0.0343951359391212
229,-0.0560330860316753,0.0623976215720177,-0.0451547354459763,-0.0795253291726112,-0.124224670231342,0.0549017786979675
230,-0.0502078644931316,0.0725353807210922,-0.0134557858109474,-0.0233764853328466,-0.110344454646111,0.0744442194700241
231,-0.0263651814311743,0.0803462266921997,0.0220633465796709,0.0274474620819092,-0.0809415504336357,0.0960006043314934
232,0.000348552130162716,0.0861948505043983,0.0523967556655407,0.0597787648439407,-0.0443235039710999,0.12056939303875
233,0.0153979444876313,0.0895992368459702,0.0640383511781693,0.0574735403060913,-0.0128893181681633,0.135541245341301
234,0.0103005645796657,0.0814871266484261,0.0438757166266441,0.0187541469931602,-0.000739373965188861,0.125765547156334
235,-0.0100404601544142,0.0521802380681038,-0.00155306060332805,-0.0394006595015526,-0.0147884180769324,0.0924838334321976
236,-0.0329671390354633,0.00846503209322691,-0.0534766875207424,-0.0990482196211815,-0.0492179542779922,0.0507108420133591
237,-0.0532817542552948,-0.0296590942889452,-0.100703001022339,-0.154425635933876,-0.09446881711483,0.0128465592861176
238,-0.0666753724217415,-0.0420758835971355,-0.124470844864845,-0.18859888613224,-0.132859334349632,-0.00577773712575436
239,-0.0614698007702827,-0.0185904800891876,-0.11089588701725,-0.184902220964432,-0.143589437007904,0.00724218785762787
240,-0.0384071096777916,0.0270340014249086,-0.0797256678342819,-0.16363126039505,-0.130320578813553,0.0395223051309586
241,-0.0180969461798668,0.0639664232730865,-0.0547057837247849,-0.147087588906288,-0.113896369934082,0.062976285815239
242,-0.0107238525524735,0.0739176720380783,-0.0347818545997143,-0.126531809568405,-0.104341648519039,0.0622946880757809
243,-0.00486359093338251,0.0646703392267227,-0.00937214214354753,-0.0880144089460373,-0.0957293137907982,0.0547336265444756
244,0.00915415305644274,0.0587881281971931,0.0225517507642508,-0.0405121669173241,-0.0792723521590233,0.0699668303132057
245,0.0281344912946224,0.0687584280967712,0.0486598685383797,-0.0121058179065585,-0.0551495216786861,0.10528951883316
246,0.0405043475329876,0.0817763358354568,0.0540915541350842,-0.021863266825676,-0.0313913561403751,0.12882724404335
247,0.0382803566753864,0.0776914656162262,0.0333368740975857,-0.0675496011972427,-0.0213487800210714,0.117346912622452
248,0.0257011950016022,0.0516176447272301,-0.0112333344295621,-0.139325469732285,-0.0382966808974743,0.0713386237621307
249,0.00619777059182525,0.0166102536022663,-0.063043974339962,-0.22154127061367,-0.0752430558204651,0.017394658178091
250,-0.020770575851202,-0.00540294777601957,-0.0914429277181625,-0.292451322078705,-0.101862363517284,-0.00667957169935107
251,-0.0432475507259369,-0.00559780560433865,-0.0809821039438248,-0.343205034732819,-0.0966455787420273,0.0057415128685534
252,-0.043841727077961,0.00290050311014056,-0.044463261961937,-0.371257752180099,-0.0633152723312378,0.0238655544817448
253,-0.0269707813858986,0.00323004345409572,-0.00938413385301828,-0.365838676691055,-0.0231033265590668,0.0215560346841812
254,-0.0137247517704964,-0.009355204179883,0.00287849828600883,-0.325168579816818,-0.000815281993709505,-0.00180683308281004
255,-0.0103111946955323,-0.0237738899886608,-0.00543437246233225,-0.262983024120331,0.000404749327572063,-0.0262293424457312
256,-0.00846482999622822,-0.0232295263558626,-0.01421535667032,-0.198509603738785,0.000591041229199618,-0.0295858103781939
257,-0.00135407142806798,-0.00414139730855823,-0.0106414677575231,-0.14484803378582,0.0137649886310101,-0.0135443164035678
258,0.0154880145564675,0.0231348257511854,0.00257808761671185,-0.100602313876152,0.0387240685522556,0.0117477430030704
259,0.0384609736502171,0.0483824834227562,0.0191783960908651,-0.0558931902050972,0.0678538978099823,0.0456808246672153
260,0.0561347380280495,0.067212276160717,0.0292161852121353,-0.00789045449346304,0.0807391256093979,0.0779375061392784
261,0.0598336420953274,0.0792069211602211,0.0259675513952971,0.0286601129919291,0.0574522316455841,0.0968414843082428
262,0.0476536527276039,0.0860569253563881,0.0172589402645826,0.0403266809880733,0.00754950288683176,0.109378315508366
263,0.0260497536510229,0.0875678285956383,0.0103363804519176,0.032979492098093,-0.0424002781510353,0.118235476315022
264,0.00917275901883841,0.0780770778656006,0.00536632165312767,0.024192800745368,-0.0709711536765099,0.110216237604618
265,0.00872179120779037,0.0558046326041222,0.00777181284502149,0.0259107481688261,-0.0657846927642822,0.0843684151768684
266,0.0215599741786718,0.0298592653125525,0.0218297895044088,0.0300629772245884,-0.034155759960413,0.0565546303987503
267,0.0330136306583881,0.00835071317851543,0.0386966392397881,0.0231487788259983,-0.00244309846311808,0.0360685624182224
268,0.0344396680593491,-0.00671119755133986,0.0420257262885571,0.00596409477293491,0.00884053763002157,0.0231233537197113
269,0.0313965901732445,-0.0156439803540707,0.0211986266076565,-0.011289237998426,-0.000937005621381104,0.0153632927685976
270,0.0278500411659479,-0.0219666287302971,-0.0213712025433779,-0.0214533917605877,-0.0250107999891043,0.00585939642041922
271,0.0135150998830795,-0.0240560155361891,-0.07200688123703,-0.0256146267056465,-0.0583737231791019,-0.0121410693973303
272,-0.0148375211283565,-0.0185911227017641,-0.109893940389156,-0.0288263577967882,-0.0894452705979347,-0.0389731153845787
273,-0.0369767099618912,-0.0105097405612469,-0.114180669188499,-0.0226958338171244,-0.0988508686423302,-0.0634376332163811
274,-0.0335872322320938,0.00184209842700511,-0.0792605876922607,0.0211838707327843,-0.0755951702594757,-0.0641444027423859
275,-0.00972838141024113,0.0206229258328676,-0.0269953738898039,0.104153387248516,-0.031412448734045,-0.0340134054422379
276,0.018356516957283,0.038786955177784,0.0112869367003441,0.17478035390377,0.0125919990241528,0.0131841767579317
277,0.0396601669490337,0.0542966239154339,0.0237383302301168,0.193047091364861,0.0459357388317585,0.0557406544685364
278,0.0477905385196209,0.0641714707016945,0.0183431003242731,0.17358286678791,0.0641892626881599,0.0710360109806061
279,0.0453303270041943,0.0620488673448563,0.00976350624114275,0.159127071499825,0.0651488527655602,0.0576592348515987
280,0.0420923382043839,0.0468670465052128,0.0112077500671148,0.180959954857826,0.0542516782879829,0.0339811444282532
281,0.0393308401107788,0.018162539228797,0.0236716959625483,0.231755018234253,0.0377732664346695,0.0118955802172422
282,0.0305601470172405,-0.0184869952499866,0.0374984219670296,0.280704081058502,0.0170055571943522,-0.00446799769997597
283,0.0186836589127779,-0.0475634001195431,0.0441188849508762,0.310273438692093,-0.00617033010348678,-0.0125431260094047
284,0.0154239796102047,-0.0587383471429348,0.0398529283702374,0.323129653930664,-0.0254490077495575,-0.00866366922855377
285,0.0239063110202551,-0.0514657385647297,0.0294001922011375,0.325538456439972,-0.0327054522931576,0.00489901006221771
286,0.0343819335103035,-0.0324432142078877,0.0177793018519878,0.315582752227783,-0.0289573855698109,0.00946973450481892
287,0.0359915532171726,-0.0176059789955616,-0.00411836244165897,0.284525573253632,-0.0270456857979298,-0.0146292913705111
288,0.0259331073611975,-0.0213446654379368,-0.0487968660891056,0.235923588275909,-0.0399061664938927,-0.0629565417766571
289,0.00821312144398689,-0.0398988910019398,-0.1041080057621,0.203630402684212,-0.067350298166275,-0.0996993780136108
290,-0.00488068070262671,-0.0512463860213757,-0.136966794729233,0.211746260523796,-0.0916867181658745,-0.0946633219718933
291,0.000388806714909151,-0.0334836840629578,-0.133079513907433,0.234827280044556,-0.0987491086125374,-0.0620991066098213
292,0.0140986246988177,0.0108471587300301,-0.11177434027195,0.240680664777756,-0.094841942191124,-0.0333256945014
293,0.0123923327773809,0.047022745013237,-0.0931168496608734,0.23067744076252,-0.0836659148335457,-0.0218201857060194
294,-0.00626751687377691,0.0438063479959965,-0.0706282556056976,0.227283284068108,-0.0532526597380638,-0.0245389603078365
295,-0.0223882608115673,0.0147364242002368,-0.0312008708715439,0.250910222530365,-0.00486700283363461,-0.022935539484024
296,-0.021506929770112,-0.0042663374915719,0.0168334729969502,0.302313268184662,0.0376522280275822,0.000281664193607867
297,-0.00795699283480644,-0.00255403411574662,0.053326565772295,0.366726726293564,0.0544118322432041,0.0358064025640488
298,0.00265575479716063,-0.000446808320702985,0.0667524039745331,0.429381728172302,0.0403882153332233,0.057093758136034
299,0.00272579002194107,-0.0107169207185507,0.0589552894234657,0.47559255361557,0.00496582919731736,0.0537624061107636
300,0.000758631911594421,-0.0163948722183704,0.0445467866957188,0.498648464679718,-0.0263353418558836,0.0415646731853485
301,0.00832517258822918,-0.00448333751410246,0.0379666462540627,0.5,-0.0329158306121826,0.0335343517363071
302,0.0261677503585815,0.0128989974036813,0.0376304388046265,0.5,-0.0201133731752634,0.0247705597430468
303,0.0468399561941624,0.0227684304118156,0.0338979996740818,0.48885190486908,-0.00522374967113137,0.0103858485817909
304,0.0612433478236198,0.0256842225790024,0.0247321221977472,0.463707238435745,0.00481105549260974,5.64137408218812E-05
305,0.0649245157837868,0.0239290371537209,0.0137681290507317,0.439922660589218,0.0160579383373261,0.00233967462554574
306,0.0619616247713566,0.0206933561712503,0.00090885121608153,0.419755011796951,0.0329247862100601,0.0100395977497101
307,0.0557798929512501,0.0251036994159222,-0.0189912859350443,0.391221195459366,0.0438411384820938,0.0166293866932392
308,0.0428177379071712,0.0362122170627117,-0.0494282990694046,0.347330808639526,0.0293097570538521,0.012879635207355
309,0.0161208398640156,0.0349077023565769,-0.0862504169344902,0.298597067594528,-0.0174171719700098,-0.0207614172250032
310,-0.0225816462188959,0.0113567896187305,-0.117335885763168,0.261008709669113,-0.0786276385188103,-0.0805753096938133
311,-0.0529282316565514,-0.0152497598901391,-0.130325987935066,0.240450844168663,-0.122967720031738,-0.13198909163475
312,-0.0539967454969883,-0.0236986055970192,-0.119924806058407,0.234653398394585,-0.130889847874641,-0.14524681866169
313,-0.0281906221061945,-0.0180265605449677,-0.0884624272584915,0.244985267519951,-0.104409858584404,-0.112797282636166
314,0.00320783886127174,-0.00724629405885935,-0.0454177297651768,0.27957546710968,-0.0553708709776402,-0.0462491363286972
315,0.0189127400517464,-0.000144369856570847,-0.00878797844052315,0.340549379587173,-0.00348582374863327,0.0159412696957588
316,0.0104513522237539,-0.0179621148854494,0.0055911117233336,0.416699796915054,0.0248123500496149,0.026260644197464
317,-0.0120110101997852,-0.0608261562883854,0.0032721518073231,0.49638620018959,0.0213970839977264,-0.0187451634556055
318,-0.0268999170511961,-0.097525343298912,0.00223436905071139,0.5,0.00108000705949962,-0.07483921200037
319,-0.0194034576416016,-0.0986766889691353,0.0155684920027852,0.5,-0.0152273559942842,-0.0976214855909348
320,0.00951751135289669,-0.0586521178483963,0.0444891154766083,0.5,-0.0106130437925458,-0.0720521286129951
321,0.0457676015794277,0.000885904591996223,0.0720244869589806,0.5,0.0139241553843021,-0.0152348233386874
322,0.0695207715034485,0.0534564480185509,0.0820687264204025,0.5,0.0389802791178226,0.0385125502943993
323,0.0697920620441437,0.0882474184036255,0.0740881264209747,0.5,0.0461791977286339,0.0693036243319511
324,0.0452006496489048,0.0983021184802055,0.0425160191953182,0.5,0.0252076629549265,0.0742088183760643
325,-0.000422952987719327,0.0762401968240738,-0.0140458084642887,0.5,-0.0209075622260571,0.0502302125096321
326,-0.0464199148118496,0.0367904342710972,-0.0643910095095634,0.5,-0.0642744973301888,0.0112058352679014
327,-0.0646868795156479,0.0124407121911645,-0.0717299655079842,0.5,-0.0726601183414459,-0.0113082192838192
328,-0.0495653115212917,0.0165274273604155,-0.0359524488449097,0.5,-0.0421342737972736,-0.00571804959326983
329,-0.0180219281464815,0.0324245393276215,0.0151868248358369,0.5,0.0106472102925181,0.0136059485375881
330,0.0183145422488451,0.0411585494875908,0.0603261776268482,0.5,0.0708022490143776,0.0361759066581726
331,0.0556700117886066,0.0407511219382286,0.0894895866513252,0.5,0.119555972516537,0.0550124980509281
332,0.0820571184158325,0.0352548658847809,0.0975334495306015,0.5,0.137298375368118,0.0601591803133488
333,0.0857605710625649,0.0263525769114494,0.085069440305233,0.5,0.120771855115891,0.0535947009921074
334,0.0707362964749336,0.0176448319107294,0.0537254102528095,0.5,0.0796717777848244,0.0393133647739887
335,0.0487895868718624,0.0148100070655346,0.0127584980800748,0.5,0.030969824641943,0.0128905512392521
336,0.0291993767023087,0.0167804528027773,-0.0159273091703653,0.5,-0.00225858413614333,-0.0226055551320314
337,0.0208781771361828,0.0110081154853106,-0.0186315048485994,0.5,-0.00697539420798421,-0.0537015497684479
338,0.0259621050208807,-0.00787662528455257,-0.00494439899921417,0.5,0.00631678709760308,-0.0707280561327934
339,0.0356483459472656,-0.0287577155977488,0.0078471302986145,0.5,0.0174240935593843,-0.0682144314050674
340,0.0406278818845749,-0.0363341271877289,0.012970058247447,0.5,0.017555758357048,-0.0423055700957775
341,0.0390575863420963,-0.0205025095492601,0.0105501255020499,0.5,0.0130257084965706,-0.000505546573549509
342,0.0295600481331348,0.0106512205675244,-0.000978520489297807,0.5,0.0112339444458485,0.0348549894988537
343,0.00746684242039919,0.031057445332408,-0.0224166829138994,0.5,0.00704996660351753,0.0397754274308681
344,-0.0218134522438049,0.0215925592929125,-0.0474834553897381,0.5,-0.00865696743130684,0.0166963767260313
345,-0.0437224432826042,-0.009892956353724,-0.0651617422699928,0.5,-0.0314917974174023,-0.00442238477990031
346,-0.0503634884953499,-0.0367205962538719,-0.0713643431663513,0.5,-0.0475606508553028,-0.0118896411731839
347,-0.0401187911629677,-0.0396233052015305,-0.0651727169752121,0.5,-0.0459255315363407,-0.0183589514344931
348,-0.0182201489806175,-0.0240706913173199,-0.045879065990448,0.5,-0.0279210787266493,-0.0277036689221859
349,0.000351116235833615,-0.011969287879765,-0.0186827126890421,0.5,-0.00476369028910995,-0.0372887924313545
350,0.0115510942414403,-0.0128629524260759,0.0194655414670706,0.5,0.0256027057766914,-0.0419645458459854
351,0.0251427553594112,-0.0181375164538622,0.0699190348386765,0.5,0.0686091333627701,-0.0354737266898155
352,0.0405840650200844,-0.0217721424996853,0.109746411442757,0.5,0.108269974589348,-0.0228462684899569
353,0.0487648323178291,-0.0258200746029615,0.11673828959465,0.498242944478989,0.125972583889961,-0.0124595100060105
354,0.0502809844911098,-0.0290206782519817,0.102191105484962,0.460456967353821,0.127717241644859,-0.00234700669534504
355,0.058422327041626,-0.0234477128833532,0.0951953232288361,0.450888961553574,0.138127326965332,0.0160988308489323
356,0.0822564885020256,-0.00631813472136855,0.103636242449284,0.469869613647461,0.159202292561531,0.0419975630939007
357,0.104294568300247,0.0149695798754692,0.110408037900925,0.484609216451645,0.157630920410156,0.0620167888700962
358,0.0990246161818504,0.0302615836262703,0.098911464214325,0.464207857847214,0.113437242805958,0.0645441114902496
359,0.0693608447909355,0.0382135547697544,0.070424035191536,0.411509573459625,0.0486097447574139,0.0540291741490364
360,0.0317658558487892,0.0522381998598576,0.0364676453173161,0.356195062398911,-0.0047595570795238,0.0497549250721931
361,-0.00936529040336609,0.081939123570919,0.00208455068059266,0.31937363743782,-0.0394014120101929,0.0563785806298256
362,-0.0531050153076649,0.11110357940197,-0.0332628823816776,0.301138341426849,-0.0667803734540939,0.0514008179306984
363,-0.0881397426128387,0.111745111644268,-0.0602328330278397,0.304762989282608,-0.0874028429389,0.0257801376283169
364,-0.0966632962226868,0.0773234441876411,-0.0568513907492161,0.332919836044312,-0.0809372365474701,0.00505285384133458
365,-0.0707618519663811,0.0278247576206923,-0.0143417622894049,0.371677458286285,-0.0353639423847198,0.00423993449658155
366,-0.0223582927137613,-0.0165916010737419,0.0469863750040531,0.405142605304718,0.0312292743474245,0.00679614441469312
367,0.0246805623173714,-0.0495366603136063,0.0977280661463737,0.423845320940018,0.089876800775528,-0.000856419210322201
368,0.0557124465703964,-0.0663724467158318,0.126286208629608,0.424831509590149,0.125766649842262,-0.00933931954205036
369,0.0753770619630814,-0.0622267574071884,0.138244271278381,0.419256150722504,0.141305193305016,-0.00524367531761527
370,0.0885622799396515,-0.0441423393785954,0.13298599421978,0.414271205663681,0.142390057444572,0.00252792588435113
371,0.0827574878931046,-0.0286375135183334,0.0999288782477379,0.399395495653152,0.127058535814285,-0.00502736028283834
372,0.0480729639530182,-0.023264791816473,0.0423795059323311,0.364070653915405,0.0911185219883919,-0.0271615348756313
373,0.00134411174803972,-0.0224291086196899,-0.0153848230838776,0.309945642948151,0.0395220257341862,-0.0484721548855305
374,-0.0264249537140131,-0.019861988723278,-0.0475728884339333,0.256628602743149,-0.0071925250813365,-0.0570630989968777
375,-0.0247742179781199,-0.0119846165180206,-0.0452103763818741,0.226164981722832,-0.0232453476637602,-0.0482279099524021
376,-0.0129588358104229,-0.00103561265859753,-0.0234292391687632,0.210529416799545,-0.00755378557369113,-0.0246882159262896
377,-0.00816581584513187,0.0150598362088203,-0.00264070159755647,0.185333162546158,0.0155669078230858,0.00676437187939882
378,-0.00860786996781826,0.0421483479440212,0.0118076605722308,0.148095205426216,0.0273319706320763,0.0342874303460121
379,-0.00138851883821189,0.060683149844408,0.0250861905515194,0.122113972902298,0.0335048027336597,0.0453257039189339
380,0.0287051275372505,0.0512707270681858,0.0426688380539417,0.128862038254738,0.0531646236777306,0.0394925996661186
381,0.070324644446373,0.0304855164140463,0.0606043487787247,0.16094197332859,0.0846037417650223,0.0286875385791063
382,0.0841907784342766,0.0158330537378788,0.0666065812110901,0.190394908189774,0.102390073239803,0.0223657451570034
383,0.0594364628195763,-0.00111541536170989,0.054448202252388,0.201738700270653,0.093946598470211,0.0135821485891938
384,0.026875626295805,-0.0263911243528128,0.0347598306834698,0.210424587130547,0.0754114091396332,-0.00574556784704328
385,0.0112574463710189,-0.0436619929969311,0.0250411331653595,0.241627484560013,0.0665883645415306,-0.0227269660681486
386,0.0120711447671056,-0.0352086052298546,0.0300792586058378,0.288406223058701,0.0683367475867271,-0.0206006467342377
387,0.0196295119822025,-0.0130438301712275,0.0373735763132572,0.317333549261093,0.0680318549275398,-0.0115462327376008
388,0.0231464989483356,-0.0065684630535543,0.0310798138380051,0.310495555400848,0.0540155284106731,-0.0206354949623346
389,0.0148118091747165,-0.0148029560223222,0.0122780920937657,0.277337163686752,0.0281739737838507,-0.0387338697910309
390,-0.00093581952387467,-0.010196678340435,-0.00576985068619251,0.240041673183441,0.0044122226536274,-0.0352351516485214
391,-0.0134633183479309,0.0180436559021473,-0.0156417731195688,0.213192671537399,-0.00700761657208204,-0.00856726337224245
392,-0.01769501529634,0.0547083541750908,-0.0130779882892966,0.199057564139366,0.000266660616034642,0.0203906986862421
393,-0.0120140360668302,0.0784545913338661,0.00386388879269362,0.19702360033989,0.0295718163251877,0.036191500723362
394,0.0020664818584919,0.0756345242261887,0.0245593916624784,0.208286583423615,0.0647942870855331,0.0321767888963223
395,0.020500510931015,0.0427925474941731,0.0366626232862473,0.235964089632034,0.0840538963675499,0.0142674818634987
396,0.0394402295351028,-0.00861960742622614,0.0398391783237457,0.278342247009277,0.0866699814796448,-0.00968624278903008
397,0.049221146851778,-0.0611984692513943,0.0325446650385857,0.321269750595093,0.0762505382299423,-0.0359851457178593
398,0.0330030992627144,-0.107521049678326,0.00587678188458085,0.342783659696579,0.0450332351028919,-0.0582116283476353
399,-0.00923407915979624,-0.137208804488182,-0.0317138023674488,0.33587846159935,0.00137997115962207,-0.0679749920964241
400,-0.0478663183748722,-0.133658915758133,-0.0516082122921944,0.318830579519272,-0.0209988597780466,-0.0582373067736626
401,-0.0554757863283157,-0.098084919154644,-0.0406294316053391,0.30956906080246,-0.00350178824737668,-0.0327871143817902
402,-0.0290116686373949,-0.042845293879509,-0.0104085551574826,0.309869647026062,0.0394877828657627,-0.00286371330730617
403,0.0139982430264354,0.0202174987643957,0.0202683191746473,0.312979519367218,0.0843911543488503,0.0233438946306705
404,0.0408479012548923,0.065051756799221,0.0343990884721279,0.303311258554459,0.109852723777294,0.039152704179287
405,0.0293451566249132,0.0659517794847488,0.0230045989155769,0.274953097105026,0.0989144742488861,0.0370228178799152
406,-0.00493261264637113,0.0335151329636574,-0.000225870186113752,0.248058885335922,0.0610844492912292,0.0178688168525696
407,-0.0289627686142921,0.00440636463463306,-0.00473094545304775,0.239217549562454,0.0323713086545467,-0.00462344102561474
408,-0.0264618415385485,-0.00369008886627853,0.0205668974667788,0.242930442094803,0.0378473848104477,-0.0180796068161726
409,-0.0061452160589397,-0.0052406289614737,0.0551257729530334,0.245926082134247,0.0680977404117584,-0.0198117662221193
410,0.0124711850658059,-0.0153207154944539,0.0733757242560387,0.238171309232712,0.0953492745757103,-0.0131908413022757
411,0.0228250697255135,-0.0306034702807665,0.0678416267037392,0.212905287742615,0.106454089283943,-0.00715790083631873
412,0.0296559240669012,-0.0458664149045944,0.0471604019403458,0.16693414747715,0.103501603007317,-0.0116814579814672
413,0.034185066819191,-0.056648425757885,0.0206271838396788,0.109868086874485,0.0910048708319664,-0.0264085028320551
414,0.0298233367502689,-0.0585157498717308,-0.0161818489432335,0.0517695844173431,0.0664359480142593,-0.0482258424162865
415,0.00209464551880956,-0.0629846006631851,-0.069352813065052,-0.00692381383851171,0.0152408517897129,-0.0763454362750053
416,-0.0481190495193005,-0.0786925777792931,-0.117844045162201,-0.0453258119523525,-0.0548518151044846,-0.0991858616471291
417,-0.0896559879183769,-0.0874949172139168,-0.124099381268024,-0.0323243550956249,-0.101970858871937,-0.0954262763261795
418,-0.0944551005959511,-0.069782093167305,-0.0763425976037979,0.0276709049940109,-0.0973560139536858,-0.0569447539746761
419,-0.0641140714287758,-0.0312889516353607,0.00183599081356078,0.0993813276290894,-0.050482377409935,-0.00472968863323331
420,-0.0199935883283615,0.0057505602017045,0.0791215822100639,0.152498960494995,0.0104273827746511,0.0376736558973789
421,0.0159935932606459,0.0261684097349644,0.133238807320595,0.169683381915092,0.0601497702300549,0.0668972432613373
422,0.0353185199201107,0.0304593164473772,0.15559720993042,0.147050708532333,0.0881376713514328,0.0853802263736725
423,0.0457416251301765,0.0286124851554632,0.153515845537186,0.106188334524632,0.0992001369595528,0.0946582555770874
424,0.0582455508410931,0.034362904727459,0.13813479244709,0.0701909288764,0.102999359369278,0.0980377644300461
425,0.0720971375703812,0.0608593076467514,0.11369401216507,0.0398579798638821,0.106630399823189,0.101233929395676
426,0.0787060856819153,0.110280558466911,0.079711802303791,0.00556290289387107,0.108142323791981,0.113744795322418
427,0.0728612542152405,0.157129228115082,0.0385047867894173,-0.0416860394179821,0.0978345721960068,0.132602140307426
428,0.0532951578497887,0.157018750905991,-0.00414237845689058,-0.101919792592525,0.0721553787589073,0.129032582044601
429,0.0236425008624792,0.0972805991768837,-0.0402247682213783,-0.157517209649086,0.0379567444324493,0.0798884928226471
430,-0.00429050298407674,0.0191254932433367,-0.0544078312814236,-0.179125905036926,0.0116248605772853,0.003699766471982
431,-0.0202634781599045,-0.0384628735482693,-0.0417919978499413,-0.15749180316925,0.0051907142624259,-0.0589922666549683
432,-0.0251314342021942,-0.0733722746372223,-0.0202867910265923,-0.11738508939743,0.0119658317416906,-0.0807531401515007
433,-0.0218987017869949,-0.084269605576992,-0.00154651049524546,-0.0829242765903473,0.0250644329935312,-0.0594479627907276
434,-0.0108377896249294,-0.0748419612646103,0.014801237732172,-0.0607912428677082,0.0408353731036186,-0.0303220581263304
435,0.00574869709089398,-0.0705944895744324,0.0244591701775789,-0.0521021783351898,0.0463954992592335,-0.0341682769358158
436,0.0246995352208614,-0.0806398689746857,0.0253355950117111,-0.0528390444815159,0.0378805249929428,-0.0651038661599159
437,0.0367184616625309,-0.0931352376937866,0.0209567062556744,-0.0543484017252922,0.0284321252256632,-0.0876922085881233
438,0.033091776072979,-0.0933442562818527,0.0191258601844311,-0.0454069003462791,0.0267437845468521,-0.0767065212130547
439,0.0181601047515869,-0.0657619088888168,0.0299935694783926,-0.0189288053661585,0.026602016761899,-0.0266338251531124
440,0.00160612061154097,-0.0140849752351642,0.0495969988405705,0.0198266562074423,0.0196824595332146,0.0445253364741802
441,-0.00822686124593019,0.0302337724715471,0.0585083588957787,0.058413028717041,0.00863612350076437,0.096294529736042
442,-0.00530055304989219,0.0438065230846405,0.0499404184520245,0.08721674233675,0.0041738054715097,0.100761011242867
443,0.00944771245121956,0.0373312868177891,0.0378720983862877,0.105042524635792,0.0130469743162394,0.071975015103817
444,0.0260652806609869,0.0288357511162758,0.0306107196956873,0.11437563598156,0.0295340865850449,0.0435367859899998
445,0.0313483588397503,0.0198998861014843,0.0214900244027376,0.112592495977879,0.0389432497322559,0.0276166424155235
446,0.0196766946464777,0.00576507532969117,0.00711301108822227,0.0970561951398849,0.0335192009806633,0.0121374009177089
447,0.00290795462206006,-0.0121525470167398,-0.00329637224785984,0.0791720077395439,0.0249940436333418,-0.00674358289688826
448,-0.00199867505580187,-0.0200915019959211,-0.000293120101559907,0.0772544667124748,0.0310473795980215,-0.0177074335515499
449,0.00612349808216095,-0.00775634124875069,0.0103918602690101,0.094584733247757,0.048506073653698,-0.0158298332244158
450,0.0135435871779919,0.00642574345692992,0.0120081603527069,0.115491144359112,0.0548696666955948,-0.0179998762905598
451,0.0123670911416411,-0.000203361734747887,0.000506819109432399,0.125047340989113,0.0434251800179482,-0.039581473916769
452,0.00981550849974155,-0.0208414010703564,-0.0108945174142718,0.127298310399055,0.0303362347185612,-0.0657393857836723
453,0.0124251861125231,-0.0349403470754623,-0.014659671112895,0.12998166680336,0.0208287239074707,-0.0727369040250778
454,0.0179671347141266,-0.0352378748357296,-0.0149541664868593,0.131280168890953,0.00451229326426983,-0.0547804981470108
455,0.0201373603194952,-0.0304763484746218,-0.0164704453200102,0.130049467086792,-0.0195909403264523,-0.0263638384640217
456,0.0141835389658809,-0.025192504748702,-0.01603470928967,0.127151921391487,-0.0383777692914009,-0.00780646502971649
457,0.00584198255091906,-0.0114241987466812,-0.00414750399067998,0.127636462450027,-0.0358710289001465,-0.00460817385464907
458,0.0103775709867477,0.00613397359848022,0.0188467055559158,0.135436192154884,-0.00561575731262565,-0.00776022812351584
459,0.028978118672967,0.00587012572214007,0.0373744778335094,0.140661373734474,0.0363183096051216,-0.0128351161256433
460,0.0434065014123917,-0.0181585177779198,0.0373682603240013,0.129265666007996,0.0610773824155331,-0.0224626809358597
461,0.040865071117878,-0.0483599193394184,0.021261390298605,0.103678181767464,0.0546524934470654,-0.0321450904011726
462,0.0229372177273035,-0.0630768686532974,0.00353979342617095,0.0785301029682159,0.0280591379851103,-0.0326942317187786
463,0.00125926162581891,-0.0503732338547707,-0.00191068346612155,0.0581664443016052,0.00551230041310191,-0.0238672029227018
464,-0.00866234861314297,-0.0150783527642488,0.0108459582552314,0.0432516634464264,0.0017442082753405,-0.0154233565554023
465,-0.00390338571742177,0.0283673126250505,0.0335852727293968,0.0400857888162136,0.00763066625222564,-0.0124596608802676
466,0.00284467171877623,0.0654446557164192,0.0463829897344112,0.0425175130367279,0.0030189473181963,-0.0101876016706228
467,0.00270924274809659,0.0843930691480637,0.0383352562785149,0.0346874631941319,-0.0179009288549423,-0.00245110224932432
468,0.00206428207457066,0.0832908228039742,0.0192029122263193,0.0143332704901695,-0.0416110903024673,0.0118180643767118
469,0.0105499690398574,0.0646490603685379,0.00318914977833629,-0.00829772651195526,-0.0534298866987228,0.0212582014501095
470,0.0247871335595846,0.0296200718730688,-0.00370861706323922,-0.0232387278228998,-0.0504525266587734,0.013206890784204
471,0.0353363305330276,-0.0100520290434361,-0.00130624079611152,-0.024229584261775,-0.0370213948190212,-0.00417461106553674
472,0.0370649434626102,-0.0339209362864494,0.00318640656769276,-0.0138295432552695,-0.0207242779433727,-0.0155742540955544
473,0.0259367842227221,-0.0359692499041557,0.000269203825155273,-0.00565035967156291,-0.00981427449733019,-0.0226572416722775
474,0.00806258805096149,-0.0281132534146309,-0.00765551207587123,-0.0153898252174258,-0.00211243121884763,-0.0335966944694519
475,-4.78116671729367E-05,-0.0191223882138729,-0.0152742303907871,-0.0438803099095821,0.00639662658795714,-0.0464631579816341
476,0.00399639829993248,-0.0127355409786105,-0.0319672264158726,-0.0776465758681297,0.00380165106616914,-0.0535356998443604
477,0.00592883164063096,-0.0192356277257204,-0.0657300502061844,-0.10759075731039,-0.0196840353310108,-0.0557437129318714
478,-0.00212777499109507,-0.0428330600261688,-0.104394793510437,-0.128887921571732,-0.0549439042806625,-0.066439650952816
479,-0.017341572791338,-0.0692861676216125,-0.128875344991684,-0.134519711136818,-0.0891568139195442,-0.0918531641364098
480,-0.0328184179961681,-0.079773485660553,-0.130535289645195,-0.121153220534325,-0.112535931169987,-0.116188712418079
481,-0.037727028131485,-0.0727636590600014,-0.117823049426079,-0.0989178195595741,-0.114021934568882,-0.121976770460606
482,-0.0304956305772066,-0.0658709853887558,-0.109785959124565,-0.0879315882921219,-0.094389520585537,-0.116200983524323
483,-0.0211817342787981,-0.0703733712434769,-0.106580659747124,-0.0911309570074081,-0.0685324668884277,-0.11785214394331
484,-0.0116089163348079,-0.0808277130126953,-0.0834335014224052,-0.0850746333599091,-0.0444800220429897,-0.124730490148067
485,0.00312695046886802,-0.0858223363757133,-0.0313783325254917,-0.0509174093604088,-0.0212300606071949,-0.114587344229221
486,0.0202905684709549,-0.0741228833794594,0.0306125115603209,-0.00307961693033576,0.00164590834174305,-0.076046995818615
487,0.0296119265258312,-0.044746458530426,0.0828400403261185,0.0188800878822804,0.0229835975915194,-0.0224583502858877
488,0.02537558414042,-0.00597085012122989,0.113383576273918,-0.0124557036906481,0.0388805381953716,0.0234627574682236
489,0.0157722420990467,0.0328519716858864,0.117620825767517,-0.0870219543576241,0.0430924482643604,0.0504648350179195
490,0.0123511105775833,0.0598629899322987,0.102994680404663,-0.168242037296295,0.0343665853142738,0.0603414811193943
491,0.0207948368042707,0.0685415118932724,0.0816332697868347,-0.224991351366043,0.0244498625397682,0.0609238967299461
492,0.0407867506146431,0.0608579069375992,0.0595012195408344,-0.253544867038727,0.0257807821035385,0.0592630989849567
493,0.0584566555917263,0.0411279983818531,0.0342516377568245,-0.266033619642258,0.0318387784063816,0.0487062782049179
494,0.0550347156822681,0.0210679527372122,0.00437256461009383,-0.273748189210892,0.0275028329342604,0.0191528517752886
495,0.0293144416064024,0.0203558355569839,-0.022858677431941,-0.283029079437256,0.0121570574119687,-0.0168179851025343
496,-0.00743686221539974,0.0342614576220512,-0.0476488396525383,-0.294157445430756,-0.0116237485781312,-0.0463706403970718
497,-0.0445569418370724,0.0232392232865095,-0.0811264142394066,-0.303105175495148,-0.0492572486400604,-0.0794693678617477
498,-0.0654035583138466,-0.028003828600049,-0.111582078039646,-0.294872671365738,-0.0841264650225639,-0.113807775080204
499,-0.0555149875581265,-0.0875870659947395,-0.111336953938007,-0.258576363325119,-0.0847919285297394,-0.126950308680534
500,-0.0241182819008827,-0.122331351041794,-0.0830567106604576,-0.215117678046227,-0.0538629405200481,-0.113167524337769
501,0.00792675092816353,-0.126354306936264,-0.0529717616736889,-0.195016101002693,-0.0185765977948904,-0.092519111931324
502,0.0328726023435593,-0.106780000030994,-0.0342747904360294,-0.203347489237785,0.0102160759270191,-0.0812832042574883
503,0.0493083037436008,-0.0648609325289726,-0.0255355630069971,-0.228799745440483,0.0338739976286888,-0.0767958089709282
504,0.0554313883185387,-0.0139496149495244,-0.0200098901987076,-0.258983045816422,0.0517532341182232,-0.0746644362807274
505,0.0589244849979877,0.0179781038314104,-0.00545499846339226,-0.281623154878616,0.0690095722675323,-0.0694514960050583
506,0.0723365470767021,0.0253426805138588,0.022132121026516,-0.292352557182312,0.0936881750822067,-0.0518836602568626
507,0.0967634320259094,0.031393263489008,0.0493981838226318,-0.30000451207161,0.122452966868877,-0.0276972930878401
508,0.116222627460957,0.04593850299716,0.0639985799789429,-0.314565628767014,0.140697404742241,-0.018250523135066
509,0.118217743933201,0.0447547510266304,0.0687092170119286,-0.331332981586456,0.142595395445824,-0.0361203849315643
510,0.111064963042736,0.015406297519803,0.071556031703949,-0.337896645069122,0.138693496584892,-0.0708360522985458
511,0.104869358241558,-0.0181189309805632,0.0738732367753983,-0.332554847002029,0.136371001601219,-0.0963598117232323
512,0.0968798995018005,-0.0329184085130692,0.0700975134968758,-0.327376395463943,0.133051574230194,-0.0908797234296799
513,0.0840184763073921,-0.0359759368002415,0.0529073253273964,-0.335504442453384,0.12610337138176,-0.0561238564550877
514,0.0708028972148895,-0.0413950234651566,0.0241829492151737,-0.357196599245071,0.115868203341961,-0.0173613000661135
515,0.0607958771288395,-0.042366698384285,-0.000155547808390111,-0.379213094711304,0.104343704879284,-0.000464820681372657
516,0.0517288781702518,-0.0321267619729042,-0.00920105073601007,-0.38841313123703,0.0930591523647308,-0.0122644295915961
517,0.0445437133312225,-0.0198142491281033,-0.0142300566658378,-0.384399443864822,0.0816946923732758,-0.0414423681795597
518,0.0388430394232273,-0.0158022120594978,-0.034667931497097,-0.385519117116928,0.0649313777685165,-0.0744892582297325
519,0.025880990549922,-0.0249960441142321,-0.0694084018468857,-0.412501245737076,0.0392184667289257,-0.109120391309261
520,0.00828610081225634,-0.0454651564359665,-0.0905213057994843,-0.448182076215744,0.0193172711879015,-0.144035309553146
521,0.000850941287353635,-0.0651766434311867,-0.0779958516359329,-0.447077095508575,0.0209538601338863,-0.168308913707733
522,0.00826307572424412,-0.0700774863362312,-0.0470114089548588,-0.402252435684204,0.0336847901344299,-0.174314364790916
523,0.0201735459268093,-0.0683170706033707,-0.0214275903999805,-0.352654993534088,0.0413551367819309,-0.166043728590012
524,0.0260395798832178,-0.0783167406916618,-0.00184540392365307,-0.323904603719711,0.050637349486351,-0.150558546185493
525,0.0289920121431351,-0.0920047387480736,0.0216101780533791,-0.310172975063324,0.0733102411031723,-0.130762800574303
526,0.038603238761425,-0.0918977111577988,0.0466624088585377,-0.303711652755737,0.0997467041015625,-0.105962753295898
527,0.0563647150993347,-0.0774604454636574,0.0627384409308434,-0.304940015077591,0.113767668604851,-0.0799118801951408
528,0.0738776475191116,-0.0564775988459587,0.0611529089510441,-0.314243167638779,0.113602668046951,-0.0631334334611893
529,0.0793085321784019,-0.0346470326185226,0.0375602804124355,-0.333693236112595,0.0997222885489464,-0.0595031604170799
530,0.0609123818576336,-0.0209284257143736,-0.00771152321249247,-0.363702982664108,0.0631729811429977,-0.0592200420796871
531,0.024160273373127,-0.0221150554716587,-0.0569146536290646,-0.387847095727921,0.0117906471714377,-0.0493837743997574
532,-0.0100381160154939,-0.0229996535927057,-0.0795947685837746,-0.379926472902298,-0.0269730407744646,-0.032741092145443
533,-0.0286610573530197,-0.00191241025459021,-0.0614675283432007,-0.332719087600708,-0.0378078110516071,-0.0215979050844908
534,-0.0279558524489403,0.0343770422041416,-0.0107816718518734,-0.256206661462784,-0.0189536344259977,-0.0149285327643156
535,-0.0101715279743075,0.062968984246254,0.0480656996369362,-0.175104677677155,0.0215984974056482,-0.00270626996643841
536,0.0193093121051788,0.0718912780284882,0.0877082496881485,-0.13002946972847,0.0644058212637901,0.0173810571432114
537,0.0483871325850487,0.0566411875188351,0.0989539697766304,-0.136390790343285,0.0944810509681702,0.0303088612854481
538,0.0648891106247902,0.0269137993454933,0.0981568768620491,-0.168207779526711,0.115034073591232,0.0208478029817343
539,0.0661292746663094,0.00230475072748959,0.0992481485009193,-0.197258070111275,0.129172384738922,-0.00517529295757413
540,0.0537980012595654,-0.0067213554866612,0.0905013605952263,-0.221712782979012,0.125252440571785,-0.0345231592655182
541,0.0386598706245422,-0.00315773277543485,0.0628103688359261,-0.249795243144035,0.100747503340244,-0.0548021420836449
542,0.0308408569544554,-0.000553733494598418,0.0263978857547045,-0.27944952249527,0.0691426768898964,-0.0567267835140228
543,0.0274453088641167,-0.0052434429526329,-0.00505345640704036,-0.299939870834351,0.0416096523404121,-0.0440959669649601
544,0.0241856705397367,-0.00961536262184381,-0.021826546639204,-0.299029976129532,0.0228527188301086,-0.0293035097420216
545,0.0172295290976763,-0.0123412171378732,-0.0247715786099434,-0.282063782215118,0.00795421656221151,-0.0260158684104681
546,0.00705588702112436,-0.0210511293262243,-0.0207587592303753,-0.267991125583649,-0.0089485589414835,-0.0347886867821217
547,0.00706587266176939,-0.0323417074978352,-0.0128794750198722,-0.260147869586945,-0.0199856478720903,-0.0438329987227917
548,0.0234740022569895,-0.0388629771769047,-0.00490327691659331,-0.251228004693985,-0.0171195156872272,-0.0515405349433422
549,0.0415960513055325,-0.0394109897315502,0.000133988869492896,-0.243304818868637,-0.00319648603908718,-0.0619821697473526
550,0.0464003346860409,-0.0364487580955029,-0.00191458244808018,-0.244977131485939,0.0123146288096905,-0.072177916765213
551,0.037296611815691,-0.0266874264925718,-0.0167549904435873,-0.261058121919632,0.0166599471122026,-0.0691283121705055
552,0.0143899200484157,0.00512308860197663,-0.0426872745156288,-0.286081999540329,0.000647508248221129,-0.0442342609167099
553,-0.0215621385723352,0.0514373034238815,-0.0688962638378143,-0.307643681764603,-0.0274363905191422,-0.0145505601540208
554,-0.0530278906226158,0.0720362812280655,-0.0830124989151955,-0.316005378961563,-0.0450472384691238,-0.000799757486674935
555,-0.059587761759758,0.0399973802268505,-0.0795990005135536,-0.304476886987686,-0.0396088026463985,-0.00640276493504643
556,-0.0392883569002151,-0.0294311456382275,-0.055389866232872,-0.269440025091171,-0.0128904962912202,-0.030376635491848
557,-0.00621486036106944,-0.0927324071526527,-0.0157543253153563,-0.218633711338043,0.0231740064918995,-0.0649214535951614
558,0.0212184302508831,-0.113431818783283,0.0175917539745569,-0.176186069846153,0.0490535460412502,-0.0883318409323692
559,0.0271738804876804,-0.094207376241684,0.0260411035269499,-0.164614349603653,0.0528661981225014,-0.0821683257818222
560,0.00946945324540138,-0.0600384883582592,0.00850736256688833,-0.185838252305985,0.0343161039054394,-0.0482880435883999
561,-0.0108391419053078,-0.0199171975255013,-0.0116651682183146,-0.219135731458664,0.00849812105298042,-0.00761333107948303
562,-0.012661088258028,0.0166542269289494,-0.00633705453947186,-0.23632176220417,0.00275899516418576,0.0177416671067476
563,0.00319609185680747,0.030064532533288,0.0183967780321836,-0.23555463552475,0.0298691261559725,0.0236825477331877
564,0.0245922561734915,0.0147773735225201,0.0355695821344852,-0.237824618816376,0.070321723818779,0.0160255208611488
565,0.0371368490159512,-0.0187398549169302,0.0346098281443119,-0.252981901168823,0.0843807011842728,-0.0021548371296376
566,0.0359048843383789,-0.0507135316729546,0.0299716684967279,-0.270410120487213,0.0607799552381039,-0.0238307565450668
567,0.0302221979945898,-0.0657493621110916,0.0420617014169693,-0.270934820175171,0.0318675637245178,-0.0384158082306385
568,0.0287494901567698,-0.0661584511399269,0.0709817260503769,-0.240161284804344,0.0240983944386244,-0.037857037037611
569,0.0350073240697384,-0.0588125102221966,0.0999350547790527,-0.181668236851692,0.0339441634714603,-0.0191788133233786
570,0.0436569266021252,-0.0473434403538704,0.112296342849731,-0.12863390147686,0.0431683287024498,0.00532665476202965
571,0.045754037797451,-0.0344241261482239,0.10413533449173,-0.112803243100643,0.0410426333546638,0.0173154138028622
572,0.0475174076855183,-0.0133412377908826,0.0896787345409393,-0.121426530182362,0.0378741770982742,0.0232324097305536
573,0.0581850111484528,0.0208719000220299,0.0788226574659348,-0.126321747899055,0.0438068211078644,0.0400168672204018
574,0.0688270330429077,0.0539533346891403,0.0633108019828796,-0.126021221280098,0.0513753555715084,0.063510850071907
575,0.0659406781196594,0.0726286321878433,0.037526573985815,-0.131259426474571,0.0546899959445,0.0820820853114128
576,0.0495196096599102,0.0790298208594322,0.00330956070683897,-0.148964866995811,0.0541028492152691,0.0827902257442474
577,0.0269434228539467,0.0638043805956841,-0.0346366688609123,-0.17813815176487,0.0451496616005898,0.052859965711832
578,0.00249886233359575,0.0148593559861183,-0.0622399784624577,-0.203230738639832,0.0256895832717419,0.00278334366157651
579,-0.0179576762020588,-0.0399307124316692,-0.0638077408075333,-0.208061724901199,0.00384820788167417,-0.0409068092703819
580,-0.0244828518480062,-0.0620496906340122,-0.0377667732536793,-0.188075885176659,-0.00699986144900322,-0.0640146061778069
581,-0.0146654155105352,-0.0538434088230133,-0.00274549168534577,-0.149374097585678,-0.000792856095358729,-0.0718153417110443
582,0.00396779645234346,-0.039212591946125,0.0210057366639376,-0.107270628213882,0.0192873924970627,-0.0690173804759979
583,0.0207528173923492,-0.0318053551018238,0.0293986443430185,-0.0728633627295494,0.0453878939151764,-0.051462359726429
584,0.0281035788357258,-0.0273949634283781,0.0309870876371861,-0.0519852042198181,0.0674960985779762,-0.0201813131570816
585,0.0243396535515785,-0.0139494510367513,0.0360978804528713,-0.0515528507530689,0.0790107995271683,0.0232006385922432
586,0.0104239229112864,0.00177722610533237,0.0387922413647175,-0.0698829144239426,0.0757500380277634,0.0671342760324478
587,-0.00830648932605982,0.00645763194188476,0.0199735332280397,-0.0985666736960411,0.0534771606326103,0.082545094192028
588,-0.023095415905118,0.0110687911510468,-0.0193327218294144,-0.128451272845268,0.0167597625404596,0.0651247873902321
589,-0.0288722794502974,0.0260331146419048,-0.0507740154862404,-0.150978520512581,-0.0141178090125322,0.0361370593309402
590,-0.0228220243006945,0.0312189813703299,-0.053876843303442,-0.155234441161156,-0.0228627659380436,0.000707159575540572
591,-0.00697748037055135,0.00557415839284658,-0.0404710657894611,-0.133787259459496,-0.0213249418884516,-0.045545969158411
592,0.0109470179304481,-0.0377893969416618,-0.0336577519774437,-0.100384533405304,-0.0289582870900631,-0.0928642898797989
593,0.0244787186384201,-0.0700292065739632,-0.0382123440504074,-0.0765049308538437,-0.0431844368577003,-0.122767820954323
594,0.0249101836234331,-0.0823992192745209,-0.0474521927535534,-0.0689936429262161,-0.0556870996952057,-0.127455309033394
595,0.00846058782190084,-0.080612026154995,-0.0582428947091103,-0.0734071657061577,-0.0676283314824104,-0.111639127135277
596,-0.0114530231803656,-0.0662942081689835,-0.0667119547724724,-0.0780244693160057,-0.0743924602866173,-0.0774519741535187
597,-0.0174891222268343,-0.0423719100654125,-0.062432486563921,-0.0701654404401779,-0.0641789138317108,-0.0212390534579754
598,-0.00806745793670416,-0.0138413282111287,-0.0395332425832748,-0.0543459989130497,-0.0378821790218353,0.0454178489744663
599,0.00481532188132405,0.0137185771018267,-0.00849737413227558,-0.0490297488868237,-0.0104984017089009,0.087007187306881
600,0.0130867790430784,0.0290282014757395,0.018242459744215,-0.0606991462409496,0.0109636606648564,0.0820618346333504
601,0.0189744923263788,0.0271255113184452,0.0381608605384827,-0.0736523792147636,0.0301189366728067,0.0518230088055134
602,0.0232957918196917,0.0199566166847944,0.05260369181633,-0.070378914475441,0.0477664805948734,0.0315770842134953
603,0.0205935575067997,0.0216661561280489,0.063301794230938,-0.053596056997776,0.0610025152564049,0.0263551212847233
604,0.0123677728697658,0.0314102098345757,0.0689973682165146,-0.0378741770982742,0.0695836767554283,0.0161058939993382
605,0.0121271470561624,0.0376084260642529,0.066990502178669,-0.0305197183042765,0.0774494111537933,-0.00340807507745922
606,0.0256259255111218,0.0366424657404423,0.0594169273972511,-0.0272962171584368,0.0812454149127007,-0.0168662220239639
607,0.0382989272475243,0.0332356579601765,0.0460317842662334,-0.0246884413063526,0.0682193487882614,-0.0175602585077286
608,0.0340980030596256,0.021521994844079,0.0176831316202879,-0.0335094258189201,0.0337481126189232,-0.0202263854444027
609,0.0189921017736197,-0.00657581817358732,-0.025772962719202,-0.0594774633646011,-0.00777486711740494,-0.0406940840184689
610,0.0110326735302806,-0.0376122817397118,-0.0638499483466148,-0.08523278683424,-0.0356204360723495,-0.0620526224374771
611,0.0141914421692491,-0.0486793182790279,-0.0821581333875656,-0.0987882912158966,-0.0453519076108933,-0.0562668591737747
612,0.0206979960203171,-0.034554872661829,-0.0868816822767258,-0.110183268785477,-0.0454433038830757,-0.0285476241260767
613,0.0232174769043922,-0.0104048727080226,-0.0854746997356415,-0.124807208776474,-0.0391204245388508,-0.00275727990083396
614,0.0209504272788763,0.0118751097470522,-0.0797226503491402,-0.129838049411774,-0.0298355761915445,0.00610253727063537
615,0.0159726962447166,0.0312568470835686,-0.0667272359132767,-0.113297335803509,-0.0283455681055784,-0.00190145149827003
616,0.00514045590534806,0.0422183908522129,-0.0394020117819309,-0.0752439945936203,-0.0345743261277676,-0.0134338680654764
617,-0.00800085254013538,0.037174366414547,2.34521285165101E-05,-0.0257453043013811,-0.0347939096391201,-0.0205090921372175
618,-0.0104556744918227,0.014839056879282,0.0372737534344196,0.0182100925594568,-0.0257255416363478,-0.0248247012495995
619,-0.000989071326330304,-0.0146154537796974,0.0620936490595341,0.045012105256319,-0.018195029348135,-0.0231877136975527
620,0.00486579071730375,-0.0353191308677197,0.0712720155715942,0.059914730489254,-0.0196518991142511,-0.0186268612742424
621,-0.00278590433299541,-0.0417286604642868,0.066834956407547,0.0735867321491241,-0.023728035390377,-0.0250598099082708
622,-0.017392298206687,-0.0383172184228897,0.0570633336901665,0.0857650712132454,-0.0196235794574022,-0.0476883426308632
623,-0.0281292758882046,-0.0276632066816092,0.0423941612243652,0.0881872177124023,-0.0091815497726202,-0.0725458711385727
624,-0.0337185189127922,-0.0112455971539021,0.0110062127932906,0.071496956050396,-0.00879057589918375,-0.0757658928632736
625,-0.044598788022995,-0.00320855504833162,-0.0412193574011326,0.035429585725069,-0.0321348384022713,-0.058365274220705
626,-0.0625025182962418,-0.0133295282721519,-0.0901675745844841,-0.00410232692956924,-0.0660698190331459,-0.0425985530018806
627,-0.0685537084937096,-0.0208804663270712,-0.0985668897628784,-0.02207519300282,-0.080547995865345,-0.028426181524992
628,-0.0495552122592926,-0.00439052004367113,-0.0577346347272396,0.00390542298555374,-0.0657029524445534,-0.00553350942209363
629,-0.0146474419161677,0.0286359768360853,0.00823028851300478,0.0737627148628235,-0.0354747660458088,0.021993238478899
630,0.0220934357494116,0.0635669082403183,0.0681695342063904,0.156454980373383,-0.00533849420025945,0.0469526350498199
631,0.053334079682827,0.0905862003564835,0.0973065495491028,0.213951706886292,0.0143473772332072,0.0673453584313393
632,0.0721035450696945,0.0978128686547279,0.0842502638697624,0.23087665438652,0.0145189482718706,0.0847722217440605
633,0.0709515437483788,0.076115719974041,0.0383902117609978,0.216865301132202,-0.00637195957824588,0.0891812667250633
634,0.0542415156960487,0.0318250134587288,-0.011712234467268,0.192042782902718,-0.0343788526952267,0.0631318464875221
635,0.035679716616869,-0.00831972248852253,-0.0391785576939583,0.17400124669075,-0.0531539767980576,0.0152147132903337
636,0.0199431292712688,-0.0237929113209248,-0.0397014617919922,0.16571643948555,-0.0594184026122093,-0.0248748194426298
637,0.00236345874145627,-0.0195804536342621,-0.0290766432881355,0.157529830932617,-0.0581453293561935,-0.0429929830133915
638,-0.0174993760883808,-0.00866769161075354,-0.0210226289927959,0.142348736524582,-0.0524265207350254,-0.0467332005500793
639,-0.0328252129256725,0.0033757546916604,-0.0153126092627645,0.119335055351257,-0.0427154004573822,-0.0420230999588966
640,-0.0421053916215897,0.0140663227066398,-0.013860366307199,0.0816116034984589,-0.0351947918534279,-0.029519347473979
641,-0.0547421909868717,0.0183496382087469,-0.023942356929183,0.0317649506032467,-0.0369476117193699,-0.0194353368133307
642,-0.0726339221000671,0.0199097078293562,-0.0379255600273609,-0.00426294840872288,-0.0443288572132587,-0.0156937669962645
643,-0.0863165482878685,0.0321110263466835,-0.0450774244964123,-0.0198292285203934,-0.0569031424820423,-0.00906438287347555
644,-0.0872134864330292,0.0502941496670246,-0.0506070479750633,-0.0370454750955105,-0.0759222060441971,-0.00571319786831737
645,-0.0649280101060867,0.0557764433324337,-0.0464101918041706,-0.0556483417749405,-0.0807782113552094,-0.0103964181616902
646,-0.021118700504303,0.0460762903094292,-0.0118168778717518,-0.0488986298441887,-0.0545599982142448,-0.00260451692156494
647,0.0180246364325285,0.0288215484470129,0.0383578427135944,-0.0154236182570457,-0.0185308307409287,0.023043304681778
648,0.0338261388242245,0.0102263549342752,0.0652528777718544,0.0114522511139512,-0.00471744174137712,0.0402497053146362
649,0.032770961523056,-0.0073628993704915,0.0569849908351898,0.00536880642175674,-0.0175273809581995,0.0350440256297588
650,0.0222234781831503,-0.0259976424276829,0.0321539901196957,-0.0289369616657496,-0.0420213490724564,0.0241854935884476
651,-0.000721121148671955,-0.0410810559988022,0.00691115390509367,-0.0660736039280891,-0.0709052160382271,0.0224212948232889
652,-0.0348120406270027,-0.0447330065071583,-0.0195664949715137,-0.0893627181649208,-0.105187073349953,0.0206094421446323
653,-0.0649218484759331,-0.0406294837594032,-0.0487665273249149,-0.102834068238735,-0.1366276293993,0.00154039834160358
654,-0.0755494236946106,-0.0347552597522736,-0.0714744031429291,-0.111249826848507,-0.148250073194504,-0.030981108546257
655,-0.0686701834201813,-0.021580470725894,-0.0788799300789833,-0.109869718551636,-0.131929114460945,-0.0453874357044697
656,-0.0520423650741577,-0.0050240820273757,-0.0688767656683922,-0.091625913977623,-0.0930730029940605,-0.0238762944936752
657,-0.02342738956213,0.000155988178448752,-0.0404116436839104,-0.0603357814252377,-0.0417931154370308,0.00772557780146599
658,0.0065406528301537,-0.00935272499918938,-0.00475684832781553,-0.0435953550040722,0.00154725031461567,0.0126495286822319
659,0.0115869212895632,-0.0313953459262848,0.0163071434944868,-0.0675321221351624,0.0126727018505335,-0.0145698441192508
660,-0.00732437148690224,-0.0570101886987686,0.0258875451982021,-0.116890773177147,-0.00197149277664721,-0.0430715568363667
661,-0.0255281664431095,-0.0699564963579178,0.0431796200573444,-0.151566118001938,-0.0136561300605536,-0.0429929085075855
662,-0.0324156060814857,-0.069007471203804,0.0597477667033672,-0.160067543387413,-0.0143438205122948,-0.0188817344605923
663,-0.0345229096710682,-0.0639668330550194,0.052885364741087,-0.166514217853546,-0.0171809773892164,0.00820362754166126
664,-0.0411349274218082,-0.0515009872615337,0.0237837973982096,-0.188854023814201,-0.0281642600893974,0.0272546410560608
665,-0.054286889731884,-0.0203113704919815,-0.0107986843213439,-0.220758751034737,-0.0415896251797676,0.034256961196661
666,-0.0645497590303421,0.0225702095776796,-0.0362414829432964,-0.244693949818611,-0.0470542423427105,0.0367804169654846
667,-0.0585159808397293,0.0545260384678841,-0.0405369475483894,-0.243746772408485,-0.031320083886385,0.0551114268600941
668,-0.0345531105995178,0.0665959864854813,-0.0239335112273693,-0.214356362819672,0.00509227439761162,0.0850397944450378
669,-0.00635853037238121,0.0644452646374702,-0.0029331068508327,-0.172337964177132,0.0396345369517803,0.0941154956817627
670,0.00914157554507256,0.0509883724153042,0.00497923186048865,-0.138189658522606,0.0466320440173149,0.0672083720564842
671,0.0074351872317493,0.0285061579197645,-0.00190557527821511,-0.117534346878529,0.0196800641715527,0.0217578411102295
672,-0.0014156186953187,0.00547336833551526,-0.0129601564258337,-0.0979412868618965,-0.0237568374723196,-0.0171773843467236
673,-0.00520402146503329,-0.00988557375967503,-0.0220351107418537,-0.0685011148452759,-0.0581701844930649,-0.041001208126545
674,-0.0021774279884994,-0.0124928597360849,-0.029278140515089,-0.0333102829754353,-0.0691006183624268,-0.0523858405649662
675,-0.00172770326025784,-0.00821597035974264,-0.0365753807127476,-0.0057821930386126,-0.061775729060173,-0.0560529604554176
676,-0.0046972306445241,-0.0182323753833771,-0.0463394932448864,-0.0066893408074975,-0.0523112006485462,-0.0600292719900608
677,-0.0038127088919282,-0.050047617405653,-0.055004708468914,-0.0398949608206749,-0.0503655038774014,-0.0661332681775093
678,-0.003872892819345,-0.0818808451294899,-0.0552608147263527,-0.082009069621563,-0.0531608276069164,-0.0662742331624031
679,-0.0136619228869677,-0.0888326466083527,-0.0522999651730061,-0.122536137700081,-0.0577105060219765,-0.0571863651275635
680,-0.0310564618557692,-0.0718491524457932,-0.0547170713543892,-0.163307085633278,-0.0631077587604523,-0.0447910353541374
681,-0.0442315191030502,-0.0463549643754959,-0.0509459003806114,-0.189579591155052,-0.0604017674922943,-0.0276811048388481
682,-0.0409873612225056,-0.0132810389623046,-0.0264390837401152,-0.18487511575222,-0.0421341396868229,0.0045877075754106
683,-0.0209779851138592,0.030205400660634,0.011469405144453,-0.155634060502052,-0.012085834518075,0.0520238913595676
684,-0.00122078240383416,0.0683011263608933,0.0410421155393124,-0.127396434545517,0.0176098756492138,0.101256422698498
685,0.000709368789102882,0.0880531445145607,0.047396082431078,-0.11859106272459,0.0308912210166454,0.143349826335907
686,-0.0112827531993389,0.0975525006651878,0.0344472490251064,-0.122409127652645,0.0210523381829262,0.16823123395443
687,-0.0248579047620296,0.0968109741806984,0.0136139085516334,-0.125583991408348,-0.00165342842228711,0.153553500771523
688,-0.0371925011277199,0.0734240636229515,-0.00729995826259255,-0.135395020246506,-0.022027313709259,0.0938846990466118
689,-0.0470929518342018,0.0345397517085075,-0.0239529721438885,-0.165754035115242,-0.0357393734157085,0.0169145409017801
690,-0.0535182468593121,-0.00186841562390327,-0.0379004627466202,-0.206150233745575,-0.0504473596811295,-0.046712402254343
691,-0.0557866096496582,-0.0342783182859421,-0.0471952855587006,-0.22811584174633,-0.0645154565572739,-0.0861454531550407
692,-0.0497355200350285,-0.0603467263281345,-0.0417918488383293,-0.216740056872368,-0.06318099796772,-0.0997695326805115
693,-0.0321482457220554,-0.0644688755273819,-0.019122913479805,-0.176110878586769,-0.0411947406828403,-0.0845958888530731
694,-0.00406863121315837,-0.041919507086277,0.0104232188314199,-0.120466761291027,-0.00694030150771141,-0.0459370575845242
695,0.0232223123311996,-0.00910836551338434,0.030952213332057,-0.0723241344094276,0.0240395050495863,-0.00244302675127983
696,0.0349989868700504,0.0137606207281351,0.0337113216519356,-0.0517523139715195,0.0370042808353901,0.0293764211237431
697,0.0285736601799726,0.0237015634775162,0.0260254759341478,-0.0671949461102486,0.0293281935155392,0.0468901135027409
698,0.0108191920444369,0.0381096564233303,0.0201126839965582,-0.111199922859669,0.0091296648606658,0.05615558847785
699,-0.00998532678931952,0.062984012067318,0.00976991187781096,-0.164980173110962,-0.019695695489645,0.0544257573783398
700,-0.0311207938939333,0.0677600130438805,-0.0229881852865219,-0.211982741951942,-0.0614483617246151,0.0309547241777182
701,-0.0504366457462311,0.0344392769038677,-0.0653275549411774,-0.231620281934738,-0.102720409631729,-0.000111643719719723
702,-0.0547386184334755,-0.0064464514143765,-0.0758470296859741,-0.206065088510513,-0.110543467104435,-0.00331372139044106
703,-0.0355981290340424,-0.0282983221113682,-0.0417130924761295,-0.145619571208954,-0.0793243572115898,0.0255958717316389
704,-0.0079093836247921,-0.0375775210559368,0.0088594239205122,-0.0777419656515121,-0.0386963821947575,0.0527916662395
705,0.0113147208467126,-0.0388019792735577,0.0494655333459377,-0.022088835015893,-0.00621820380911231,0.05980284512043
706,0.026450140401721,-0.0248293299227953,0.0752547979354858,0.0173142459243536,0.0268417242914438,0.057717889547348
707,0.042658593505621,0.000212813291000202,0.0857762768864632,0.0456072203814983,0.0608590878546238,0.0540781617164612
708,0.0533324666321278,0.0228437688201666,0.0799652934074402,0.0656042620539665,0.0789519101381302,0.0484581254422665
709,0.0542201809585094,0.038733784109354,0.0635966062545776,0.076787069439888,0.0727641507983208,0.0466286353766918
710,0.0432013049721718,0.0529159307479858,0.0427384786307812,0.0770101472735405,0.0476887822151184,0.0516629591584206
711,0.0247353315353394,0.0694243386387825,0.0194965917617083,0.0611302144825459,0.0126012805849314,0.055507555603981
712,0.00985301565378904,0.0877121984958649,-0.00620121695101261,0.0300004817545414,-0.02423963136971,0.0519193857908249
713,-0.00260382634587586,0.102364264428616,-0.0337548516690731,-0.00400391267612576,-0.0566742680966854,0.0449099242687225
714,-0.0219640806317329,0.102823786437511,-0.059573907405138,-0.0357078537344933,-0.0829105526208878,0.0388808064162731
715,-0.0458162575960159,0.0765246227383614,-0.0795252099633217,-0.0715382322669029,-0.102937832474709,0.0236933082342148
716,-0.0643165931105614,0.0209973584860563,-0.0920207276940346,-0.106680706143379,-0.116122491657734,-0.018091294914484
717,-0.0695700198411942,-0.0421201847493649,-0.0926045104861259,-0.118794314563274,-0.114221304655075,-0.0707774683833122
718,-0.0553174167871475,-0.0779958218336105,-0.0718560814857483,-0.090344563126564,-0.084414966404438,-0.08694838732481
719,-0.0283700805157423,-0.071467749774456,-0.0326634645462036,-0.0324436873197556,-0.0382499173283577,-0.0464454106986523
720,-0.00982516352087259,-0.0378644689917564,0.00357435015030205,0.0226866789162159,-0.00812592450529337,0.0214069746434689
721,-0.00827543623745441,-0.00228670774959028,0.0163879841566086,0.0492773801088333,-0.0103731546550989,0.0711413696408272
722,-0.0125176692381501,0.020830512046814,0.00579684833064675,0.0452238917350769,-0.0353864096105099,0.080676943063736
723,-0.0100550381466746,0.0322659313678741,-0.00950287282466888,0.0314945466816425,-0.058246161788702,0.0623814165592194
724,0.00122149428352714,0.0405589714646339,-0.0150011610239744,0.028277138248086,-0.0594054721295834,0.0405112206935883
725,0.00954542681574821,0.0471879877150059,-0.0142857665196061,0.0330942496657372,-0.0443326011300087,0.024076022207737
726,0.00468327663838863,0.0464224554598331,-0.0104832900688052,0.0364520885050297,-0.0250892527401447,0.010543767362833
727,-0.00591443013399839,0.0397754088044167,0.00580823142081499,0.046031191945076,-0.00168690667487681,0.00128586846403778
728,-0.00738834124058485,0.0335157886147499,0.0325891189277172,0.072772853076458,0.0216300394386053,0.00279609486460686
729,0.00201701209880412,0.0292141698300838,0.0481561608612537,0.102782338857651,0.0276665631681681,0.0125086782500148
730,0.00951698422431946,0.0249176621437073,0.039222490042448,0.113087601959705,0.00618163775652647,0.0141308754682541
731,0.00656082574278116,0.0180830545723438,0.0163155347108841,0.105658300220966,-0.0302277263253927,0.00323199643753469
732,-0.00243750587105751,0.0119490046054125,-0.00102834217250347,0.101197130978107,-0.0600545890629292,-0.00534411519765854
733,-0.00918064080178738,0.0133114075288177,-0.00466531375423074,0.111104905605316,-0.0736920759081841,-0.00248056277632713
734,-0.0134752690792084,0.0166353788226843,-0.00230331951752305,0.127650648355484,-0.0750232934951782,0.0055579636245966
735,-0.0169136133044958,0.0140284961089492,-0.00106661499012262,0.143873289227486,-0.066327229142189,0.013792684301734
736,-0.0117858331650496,0.0105980578809977,0.00116038287524134,0.16592937707901,-0.0439407639205456,0.0236219204962254
737,0.00698521267622709,0.0117367701604962,0.00542563898488879,0.193184494972229,-0.0119035895913839,0.0332438237965107
738,0.0271976310759783,0.0188322756439447,0.00962601136416197,0.21417923271656,0.0180155746638775,0.0442899614572525
739,0.0310871861875057,0.0320996791124344,0.0129203908145428,0.225388437509537,0.0370178930461407,0.0642574802041054
740,0.018333101645112,0.0462934114038944,0.0124793527647853,0.22769983112812,0.0391865074634552,0.0905246958136559
741,0.000683182326611131,0.0536627396941185,-0.000100702040072065,0.215485274791718,0.0197819918394089,0.0992639288306236
742,-0.0147387105971575,0.0524971298873425,-0.0314216054975986,0.186132207512856,-0.0166783612221479,0.0680293142795563
743,-0.02442323602736,0.0432043150067329,-0.0743260309100151,0.148097664117813,-0.0522208288311958,0.0098394276574254
744,-0.0229866821318865,0.0189157873392105,-0.108167603611946,0.11689481139183,-0.0647078976035118,-0.0409917421638966
745,-0.00595678854733706,-0.018359599635005,-0.115241624414921,0.108351603150368,-0.0414386503398418,-0.0628233775496483
746,0.0193302910774946,-0.0446284860372543,-0.097386971116066,0.12580206990242,0.00916955340653658,-0.0573070533573627
747,0.0366046465933323,-0.0352219641208649,-0.066113218665123,0.150364816188812,0.0579702667891979,-0.0399875491857529
748,0.0374852865934372,0.00174356205388904,-0.0292245708405972,0.156856879591942,0.0706009194254875,-0.025484099984169
749,0.0257814135402441,0.0270850174129009,0.00235836720094085,0.143452271819115,0.0337087847292423,-0.0175889674574137
750,0.0111684026196599,0.0246832966804504,0.0236780066043139,0.134883761405945,-0.0257904510945082,-0.00732456939294934
751,0.00299931038171053,0.0158825051039457,0.0422110445797443,0.150547564029694,-0.0647745132446289,0.0111036337912083
752,0.00211127707734704,0.015477723442018,0.0578689314424992,0.181424990296364,-0.0690089985728264,0.0311423260718584
753,-7.19250383554026E-05,0.0207227021455765,0.066024549305439,0.208924531936646,-0.0535295344889164,0.0494887121021748
754,-0.00803504884243011,0.0309149641543627,0.0719645768404007,0.225119814276695,-0.0330511778593063,0.070526696741581
755,-0.0171812027692795,0.0486259162425995,0.074980117380619,0.226765811443329,-0.0166846960783005,0.0901326388120651
756,-0.0207123383879662,0.067263551056385,0.0653140693902969,0.213319450616837,-0.0110437422990799,0.0968018174171448
757,-0.0122202206403017,0.0750768706202507,0.0482259355485439,0.192191228270531,-0.00929577741771936,0.0900927037000656
758,0.00834537204355001,0.0682657957077026,0.040412038564682,0.174184411764145,0.00338558782823384,0.083926796913147
759,0.0288490988314152,0.0500966869294643,0.0417605228722095,0.165338099002838,0.0236246585845947,0.0817490518093109
760,0.0366533510386944,0.0249489564448595,0.0376642420887947,0.169409200549126,0.0320291221141815,0.0676505789160728
761,0.0345422811806202,-5.52160781808198E-05,0.0255351793020964,0.19116672873497,0.0239125248044729,0.041313573718071
762,0.030880082398653,-0.0165977645665407,0.0124850822612643,0.2246073782444,0.0112928757444024,0.0234432946890593
763,0.0278941839933395,-0.0242114122956991,-0.000175218476215377,0.245778098702431,0.00237347581423819,0.0197671167552471
764,0.0313327573239803,-0.0261816997081041,-0.0119808409363031,0.234688892960548,-0.00117120635695755,0.020166102796793
765,0.0440163835883141,-0.0162419956177473,-0.0196570493280888,0.196619138121605,0.000504760886542499,0.0244639478623867
766,0.0552094988524914,0.0154871018603444,-0.0240552593022585,0.148019403219223,0.00609087012708187,0.0356898307800293
767,0.0547987595200539,0.0603397712111473,-0.0293183065950871,0.0979423224925995,0.0139500396326184,0.0410140007734299
768,0.0378253236413002,0.0903243497014046,-0.0397377423942089,0.052839171141386,0.0196113884449005,0.018364118412137
769,0.00517053576186299,0.0855489894747734,-0.0607963539659977,0.0159965865314007,0.0208333935588598,-0.0407983772456646
770,-0.0266652964055538,0.0493768081068993,-0.0901944488286972,-0.0180014725774527,0.0189425405114889,-0.114663615822792
771,-0.0456772148609161,-0.00303068920038641,-0.113610170781612,-0.0462332703173161,0.00396473566070199,-0.166969045996666
772,-0.0569953434169292,-0.057828426361084,-0.116497464478016,-0.0530517026782036,-0.0333716087043285,-0.179199635982513
773,-0.0608199797570705,-0.101761348545551,-0.0947404280304909,-0.0293406769633293,-0.0771322846412659,-0.153692528605461
774,-0.0546932965517044,-0.120689302682877,-0.0532041192054749,0.0216698572039604,-0.101831935346127,-0.0998363718390465
775,-0.0433388017117977,-0.110092870891094,0.000832318561151624,0.0881053581833839,-0.0966121479868889,-0.0323477797210217
776,-0.0293104127049446,-0.0792922601103783,0.0531182140111923,0.152457982301712,-0.0684052705764771,0.03104168176651
777,-0.0115688657388091,-0.0383758842945099,0.0854843258857727,0.200180098414421,-0.0350164994597435,0.0841895267367363
778,0.00906588137149811,0.00587066588923335,0.0917612761259079,0.223301813006401,-0.0116337258368731,0.134925737977028
779,0.0249832179397345,0.0392356105148792,0.0744838565587997,0.216339766979218,-0.00490217888727784,0.173103362321854
780,0.0296792797744274,0.0471581555902958,0.0399008877575397,0.186347782611847,-0.011753998696804,0.1651701182127
781,0.023688830435276,0.0335596352815628,0.00267939222976565,0.15908819437027,-0.0194333232939243,0.105554528534412
782,0.0111463842913508,0.0146826580166817,-0.025169787928462,0.156958714127541,-0.0174081791192293,0.0318946354091167
783,0.00446426961570978,0.00184451777022332,-0.0410816594958305,0.177815541625023,-0.00389190251007676,-0.0125448787584901
784,0.0107147758826613,0.00511346710845828,-0.0449542552232742,0.197138756513596,0.0184955131262541,-0.0110347718000412
785,0.0164149943739176,0.0284290034323931,-0.0455865748226643,0.186580047011375,0.0385550037026405,0.00730594294145703
786,0.00398312835022807,0.0460929870605469,-0.0592507645487785,0.133427351713181,0.0337611772119999,-0.007872074842453
787,-0.0273197516798973,0.0254626218229532,-0.0860853791236877,0.0520614050328732,-0.00314492196775973,-0.0627631023526192
788,-0.0606183521449566,-0.0269664824008942,-0.109052397310734,-0.0193842854350805,-0.0467974133789539,-0.1137760207057
789,-0.0776355564594269,-0.075401246547699,-0.113256946206093,-0.0463409535586834,-0.0678699463605881,-0.127966552972794
790,-0.0719554349780083,-0.0953119844198227,-0.0951672196388245,-0.0239305403083563,-0.0596154816448689,-0.111848078668118
791,-0.0510148927569389,-0.0912958383560181,-0.0622179917991161,0.0254179406911135,-0.0363891944289207,-0.0877253040671349
792,-0.0301731750369072,-0.0816579982638359,-0.0248611681163311,0.0770465135574341,-0.0171148646622896,-0.0663040652871132
793,-0.0198056362569332,-0.0713912770152092,0.00831705797463655,0.119580179452896,-0.00850389152765274,-0.0452295616269112
794,-0.0199350789189339,-0.0511527135968208,0.0296152103692293,0.145272195339203,-0.00894613284617662,-0.0170119907706976
795,-0.0255196262151003,-0.0210816152393818,0.0345270670950413,0.152074307203293,-0.015256711281836,0.0214562602341175
796,-0.0280347000807524,0.00555381597951055,0.0277219768613577,0.148825973272324,-0.01715655811131,0.0570144951343536
797,-0.0217771138995886,0.0211753584444523,0.0201217643916607,0.13781601190567,-0.00873789191246033,0.0697326883673668
798,-0.0136118615046144,0.0234091971069574,0.0128707950934768,0.113064087927341,-0.00082382612163201,0.0570245534181595
799,-0.0151112787425518,0.005561004858464,-0.0040422142483294,0.078076183795929,-0.00694480119273067,0.0304494313895702
800,-0.0278572607785463,-0.0295884795486927,-0.0302987024188042,0.0522033199667931,-0.0279459375888109,0.000503645336721092
801,-0.0415448471903801,-0.056927677243948,-0.0513595752418041,0.0534718222916126,-0.0527996420860291,-0.0207571424543858
802,-0.0460402555763721,-0.0545991398394108,-0.0577659942209721,0.0743405893445015,-0.0688240900635719,-0.0288092195987701
803,-0.0397346802055836,-0.0329747386276722,-0.0508038066327572,0.0955326929688454,-0.0678852573037148,-0.0293464902788401
804,-0.0288233105093241,-0.0150300944224,-0.0407636947929859,0.110801674425602,-0.0558639355003834,-0.0237626675516367
805,-0.0210436619818211,-0.000937970413360745,-0.0379970520734787,0.121769353747368,-0.0487761721014977,-0.010106360539794
806,-0.0193001255393028,0.0151568362489343,-0.0393571145832539,0.136468544602394,-0.0501525104045868,0.00539725460112095
807,-0.0265144221484661,0.0187632944434881,-0.0391709767282009,0.162923336029053,-0.0527600683271885,0.0111011508852243
808,-0.038245651870966,0.000722438271623105,-0.0376453399658203,0.191600918769836,-0.0516489036381245,0.00548935541883111
809,-0.0388505719602108,-0.0280391294509172,-0.0344616658985615,0.205674707889557,-0.0430112816393375,-0.00754575012251735
810,-0.0256374999880791,-0.0546551086008549,-0.0292184315621853,0.201772227883339,-0.0257571060210466,-0.0256099309772253
811,-0.0138459447771311,-0.0724654942750931,-0.0240683704614639,0.187917441129684,-0.00878704711794853,-0.0404615625739098
812,-0.0140985753387213,-0.0743170976638794,-0.0242124237120152,0.168734818696976,-0.00563837867230177,-0.0450048297643662
813,-0.0246747843921185,-0.0519172474741936,-0.0295809730887413,0.144741475582123,-0.0178829431533813,-0.0436880253255367
814,-0.0363244935870171,-0.0173417553305626,-0.0279124714434147,0.123043045401573,-0.028418742120266,-0.0385987721383572
815,-0.0408637784421444,0.000364187959348783,-0.0139574240893126,0.111728325486183,-0.0221569109708071,-0.0232769399881363
816,-0.0405723229050636,-0.00488432170823216,0.00171134923584759,0.107612937688828,-0.00247447844594717,0.00234260386787355
817,-0.0366495437920094,-0.0133647564798594,0.0144561054185033,0.10451615601778,0.022455733269453,0.0280486419796944
818,-0.0218198299407959,-0.00636320328339934,0.0295865572988987,0.103306330740452,0.0446335487067699,0.0421517789363861
819,0.00272161606699228,0.0167193152010441,0.0452748686075211,0.107562758028507,0.0579111315310001,0.0446837767958641
820,0.0205707512795925,0.0312402676790953,0.04303028434515,0.111611276865005,0.0622190907597542,0.0376616790890694
821,0.0139932716265321,0.013340849429369,0.00503240106627345,0.0994434133172035,0.0516314022243023,0.0089057320728898
822,-0.020516037940979,-0.0326913632452488,-0.0558294020593166,0.068971760571003,0.0179773326963186,-0.0456377565860748
823,-0.0613595396280289,-0.0856896936893463,-0.103091791272163,0.0453220270574093,-0.0263905320316553,-0.0987588092684746
824,-0.0810122564435005,-0.12597544491291,-0.115756556391716,0.0499705821275711,-0.0588192529976368,-0.119521506130695
825,-0.079898975789547,-0.138983875513077,-0.101839423179626,0.0699497759342194,-0.077210433781147,-0.107690744102001
826,-0.0718957111239433,-0.114998489618301,-0.0742097795009613,0.0805110931396484,-0.0877916589379311,-0.0773750394582748
827,-0.0587983503937721,-0.0613542050123215,-0.0367033109068871,0.0791193246841431,-0.0835573077201843,-0.0406904965639114
828,-0.038493949919939,-0.00730258598923683,0.00595916341990232,0.0814673379063606,-0.0574535243213177,-0.00984236318618059
829,-0.0119310934096575,0.0250914786010981,0.0407529547810555,0.0968072488903999,-0.0167808998376131,0.0124202463775873
830,0.0152598824352026,0.0399424657225609,0.0565996989607811,0.117851577699184,0.0248514097183943,0.0323266126215458
831,0.0347382798790932,0.0496896542608738,0.0631799325346947,0.133941248059273,0.0639005973935127,0.0541270785033703
832,0.0477893501520157,0.0602929219603539,0.0779741033911705,0.141311049461365,0.0997279956936836,0.0729500725865364
833,0.061281219124794,0.0656818896532059,0.0951800644397736,0.137556582689285,0.120630919933319,0.0775415897369385
834,0.0725010856986046,0.0512170046567917,0.0943244770169258,0.118006244301796,0.115291081368923,0.0607841052114964
835,0.0684803500771523,0.0137493219226599,0.0676097571849823,0.0822317227721214,0.0840475633740425,0.0252410545945168
836,0.0389325730502605,-0.0273367613554001,0.0246647205203772,0.0376764684915543,0.0410085171461105,-0.00969602912664413
837,-0.00680409977212548,-0.0439909584820271,-0.0136639233678579,-0.00131254619918764,0.009446045383811,-0.0134018957614899
838,-0.0481854826211929,-0.0231019575148821,-0.0325556397438049,-0.0227039679884911,-0.00434613041579723,0.01421158015728
839,-0.0781450867652893,0.0207645669579506,-0.0367228277027607,-0.0303549338132143,-0.0164135899394751,0.0376624763011932
840,-0.0947879999876022,0.060834176838398,-0.0328644588589668,-0.0336508080363274,-0.0294462479650974,0.0396917462348938
841,-0.0877845957875252,0.0845925509929657,-0.0168504007160664,-0.0274558924138546,-0.025487469509244,0.0325340330600739
842,-0.0582866370677948,0.0878771841526031,0.0101764621213079,-0.00302118645049632,-0.00240529421716928,0.0291683133691549
843,-0.0239869356155396,0.0739337652921677,0.0331418476998806,0.0287236496806145,0.0201625619083643,0.0357171185314655
844,0.00407106941565871,0.0636889785528183,0.0392433628439903,0.0458235219120979,0.0331779792904854,0.0526514314115047
845,0.0260360538959503,0.0617297664284706,0.0304333232343197,0.0455033145844936,0.0406911075115204,0.065287709236145
846,0.0387163199484348,0.0434928573668003,0.0184857901185751,0.0422500818967819,0.0397958867251873,0.0521865002810955
847,0.0365574955940247,-0.00221408577635884,0.0156763009727001,0.0423991158604622,0.0284118875861168,0.0135157136246562
848,0.0269763115793467,-0.0580439195036888,0.0214105937629938,0.0430548973381519,0.0153856556862593,-0.0309874191880226
849,0.0163959506899118,-0.101460292935371,0.020713834092021,0.0394555851817131,0.00401894934475422,-0.065896138548851
850,-0.00170339248143137,-0.120450913906097,0.00789710413664579,0.0298764798790216,-0.00776843167841434,-0.0830354019999504
851,-0.0230716951191425,-0.109341189265251,-0.00515114469453692,0.0178255792707205,-0.0139815080910921,-0.0758506134152412
852,-0.0369962714612484,-0.0686228349804878,-0.0104322889819741,0.00677353050559759,-0.0111075444146991,-0.0454384572803974
853,-0.0429766327142715,-0.013939312659204,-0.0112096518278122,0.00103762908838689,-0.00280973268672824,0.00317039340734482
854,-0.0404109172523022,0.0331660136580467,-0.00674914894625545,0.00903801806271076,0.00710367597639561,0.0650209710001946
855,-0.028704235330224,0.0597558543086052,0.00906286668032408,0.0415678694844246,0.0163649097084999,0.115660831332207
856,-0.0129482010379434,0.0625265538692474,0.0374208688735962,0.0969139710068703,0.0281291902065277,0.125853359699249
857,0.00325202196836472,0.0496799349784851,0.0736842453479767,0.152854353189468,0.0469890907406807,0.102776348590851
858,0.0179667063057423,0.0339613072574139,0.103419378399849,0.186670288443565,0.0656204298138618,0.0721900090575218
859,0.0264102201908827,0.0185129251331091,0.10996213555336,0.190730884671211,0.0697662606835365,0.046085499227047
860,0.0232441425323486,-0.000337332865456119,0.0924200862646103,0.165832236409187,0.0533528737723827,0.0210891533643007
861,0.00727363443002105,-0.016109362244606,0.0584466531872749,0.110803589224815,0.0186581704765558,-0.0163459721952677
862,-0.014192134141922,-0.0142077170312405,0.017859635874629,0.0357466451823711,-0.0217455644160509,-0.0640842020511627
863,-0.0287267901003361,0.00139757886063308,-0.0164050031453371,-0.025602025911212,-0.0475652627646923,-0.0944693088531494
864,-0.0308016762137413,0.0161458943039179,-0.0396059490740299,-0.0492571368813515,-0.0516185984015465,-0.0899853855371475
865,-0.0275889858603477,0.0247778836637735,-0.0547029040753841,-0.0446998663246632,-0.0439114235341549,-0.0619978494942188
866,-0.0268660839647055,0.0268083140254021,-0.0622791908681393,-0.0353165008127689,-0.0324615500867367,-0.0319843292236328
867,-0.0269935224205256,0.0273317042738199,-0.0574186891317368,-0.0356889963150024,-0.0175252296030521,-0.0116590317338705
868,-0.0221291910856962,0.0256410501897335,-0.0332631170749664,-0.0478021651506424,0.00031417774152942,0.00144649413414299
869,-0.00786981452256441,0.0112282605841756,0.00611189007759094,-0.0658171251416206,0.0164482556283474,0.0138242151588202
870,0.0166362076997757,-0.0147445853799582,0.0421905517578125,-0.0817589163780212,0.0255343895405531,0.0258074440062046
871,0.0405076891183853,-0.0404034964740276,0.0564337372779846,-0.0968699082732201,0.0237219110131264,0.0283545833081007
872,0.0446850694715977,-0.0583744421601295,0.0458450727164745,-0.114411003887653,0.0137824872508645,0.0147505104541779
873,0.0300149116665125,-0.0594851300120354,0.0287909675389528,-0.124382875859737,0.0147420028224587,0.0056036920286715
874,0.0174731686711311,-0.0394601747393608,0.0237255226820707,-0.114080592989922,0.0410271547734737,0.0283726900815964
875,0.0198218375444412,-0.0107469223439693,0.0280104093253613,-0.0951210260391235,0.0755485817790031,0.0638680905103683
876,0.0296508651226759,0.0161727555096149,0.0316182821989059,-0.0922653004527092,0.0883158892393112,0.065373033285141
877,0.0284155607223511,0.0381289757788181,0.0308373067528009,-0.108756028115749,0.066479355096817,0.0251149460673332
878,0.00626225862652063,0.05507617816329,0.0242772791534662,-0.132435649633408,0.0175533574074507,-0.0172108840197325
879,-0.02852195315063,0.0697454139590263,0.010616410523653,-0.148597180843353,-0.0401045493781567,-0.0268199183046818
880,-0.0561317950487137,0.0788436904549599,-0.00786992162466049,-0.149459883570671,-0.0816612988710403,-0.0135234631597996
881,-0.0648375526070595,0.0787945464253426,-0.0203383713960648,-0.143329530954361,-0.0849219039082527,-0.000185665849130601
882,-0.0594990067183971,0.0709077641367912,-0.0172342155128717,-0.138726964592934,-0.0536356903612614,0.0151016414165497
883,-0.0467274263501167,0.0537022463977337,-0.00373542169108987,-0.133105173707008,-0.0178654082119465,0.0354759693145752
884,-0.0322560109198093,0.024722758680582,0.0115675618872046,-0.118439547717571,-0.00102054118178785,0.0449064783751965
885,-0.0226314123719931,-0.011213606223464,0.0280358884483576,-0.0873138159513474,-0.00179738830775023,0.0306640323251486
886,-0.00935090612620115,-0.038559801876545,0.0522375665605068,-0.0369772389531136,0.000340272352332249,0.0104764634743333
887,0.0223276745527983,-0.036387924104929,0.0900187641382217,0.0290221329778433,0.0246151760220528,0.0167371015995741
888,0.0605849660933018,-0.00631780363619328,0.125296279788017,0.095842570066452,0.061686959117651,0.0470137931406498
889,0.0809074938297272,0.0183958411216736,0.128060847520828,0.136763095855713,0.0840155184268951,0.0693333670496941
890,0.0821563825011253,0.0173725746572018,0.0934682935476303,0.134957194328308,0.0849219337105751,0.071649357676506
891,0.0747657120227814,0.00597175769507885,0.0437624678015709,0.0964261144399643,0.0793273895978928,0.0625972151756287
892,0.0621331185102463,0.00355904968455434,-0.000451214669737965,0.0352206192910671,0.0740217193961143,0.0464520491659641
893,0.0438228137791157,0.00733653688803315,-0.030488820746541,-0.0288012064993382,0.0591903254389763,0.022316912189126
894,0.018235094845295,0.00228894874453545,-0.0434482842683792,-0.0694876909255981,0.02769510820508,-0.00608478905633092
895,-0.0109174242243171,-0.0109403729438782,-0.0399095676839352,-0.0770150944590569,-0.00702161295339465,-0.0268262140452862
896,-0.0364799462258816,-0.0126651832833886,-0.0273655373603106,-0.0653490424156189,-0.024420078843832,-0.029455853626132
897,-0.0546226389706135,0.00187795085366815,-0.0161302257329226,-0.0560624189674854,-0.0204166360199451,-0.0177490077912807
898,-0.0649334415793419,0.0120597491040826,-0.0115599445998669,-0.0618484728038311,-0.00852837972342968,-0.00337683013640344
899,-0.0656663104891777,0.00857059750705957,-0.0150471273809671,-0.0755182653665543,-0.00457251677289605,0.0100877499207854
900,-0.0532628111541271,0.00528410077095032,-0.0269540045410395,-0.0791901126503944,-0.0144225554540753,0.021662088111043
901,-0.0360933616757393,0.00602194480597973,-0.0438825562596321,-0.0671818032860756,-0.0332860760390759,0.022141246125102
902,-0.0311679262667894,-0.00328680058009923,-0.0592630058526993,-0.0481654740869999,-0.0529870986938477,0.00574580207467079
903,-0.040402140468359,-0.0259987730532885,-0.066415935754776,-0.0303430669009686,-0.0628297626972198,-0.01738291233778
904,-0.048447098582983,-0.0486353561282158,-0.0601365379989147,-0.0132746007293463,-0.0509958826005459,-0.0314133763313293
905,-0.0440842062234879,-0.0530567206442356,-0.0431532077491283,0.00695773726329207,-0.0215234123170376,-0.0313969179987907
906,-0.0327718481421471,-0.0255934726446867,-0.0226506944745779,0.0279568545520306,0.00528805609792471,-0.0133410133421421
907,-0.0249464623630047,0.021807923913002,-0.00120122544467449,0.0444516465067863,0.0161347817629576,0.0270706601440907
908,-0.0239459965378046,0.0597605854272842,0.0178199633955956,0.0545036941766739,0.0153739675879478,0.068146713078022
909,-0.0303069464862347,0.0794675424695015,0.0243310909718275,0.055069837719202,0.00994175113737583,0.0768876224756241
910,-0.0409332886338234,0.0850687548518181,0.0130694573745131,0.0428720042109489,-0.001454375567846,0.0513764061033726
911,-0.0412721894681454,0.0728345662355423,-0.00186431861948222,0.028314895927906,-0.0145443826913834,0.0205731820315123
912,-0.0171005073934793,0.0488370768725872,0.000183285024832003,0.0315868332982063,-0.0138357151299715,0.00773855065926909
913,0.0265559442341328,0.032994594424963,0.0222495459020138,0.0574899017810822,0.0116107370704412,0.012382049113512
914,0.0715602338314056,0.0320334136486053,0.0479207634925842,0.0902611687779427,0.0527448058128357,0.0268614422529936
915,0.0970696955919266,0.0339395627379417,0.055768795311451,0.105752572417259,0.0832459405064583,0.0439988784492016
916,0.0866913348436356,0.0279740113765001,0.0371834859251976,0.0915565341711044,0.0833573639392853,0.0526642166078091
917,0.0451323129236698,0.0100814662873745,0.00560586899518967,0.0628196820616722,0.0589820258319378,0.0450617112219334
918,0.00163246411830187,-0.016778077930212,-0.0174289643764496,0.0438275188207626,0.0344433262944222,0.0220960900187492
919,-0.0158762615174055,-0.0386539250612259,-0.0219690427184105,0.0449348203837872,0.0299463551491499,-0.00380160938948393
920,-0.0066934903152287,-0.0423633344471455,-0.00922431331127882,0.0628313198685646,0.0476574413478374,-0.0133176213130355
921,0.0117805553600192,-0.0307374969124794,0.0125561561435461,0.0875224322080612,0.0723740607500076,-0.00202139327302575
922,0.0285975281149149,-0.0134411631152034,0.0299587715417147,0.10170091688633,0.0848729461431503,0.0201044324785471
923,0.0423914380371571,0.00822153594344854,0.0352102220058441,0.0905871018767357,0.0781891122460365,0.0464600957930088
924,0.0460239686071873,0.0314276739954948,0.027182798832655,0.059425100684166,0.0545454435050488,0.0656706169247627
925,0.0298975836485624,0.0481026060879231,0.00758448056876659,0.0217395257204771,0.0211372803896666,0.0622070245444775
926,-0.00153986818622798,0.0566719807684422,-0.0150482105091214,-0.023301662877202,-0.00699047325178981,0.0370684675872326
927,-0.0308763608336449,0.055568665266037,-0.0319559052586555,-0.0839910954236984,-0.0250272955745459,0.0077248434536159
928,-0.0402364507317543,0.0422280840575695,-0.0403300076723099,-0.151572972536087,-0.0395932197570801,-0.00460367184132338
929,-0.0252604801207781,0.0263910200446844,-0.0402187407016754,-0.205911383032799,-0.0436160527169704,0.00050863396609202
930,-0.000984307145699859,0.0193731375038624,-0.0372385419905186,-0.241180956363678,-0.0315819345414639,-0.00358183449134231
931,0.0120956255123019,0.0202117878943682,-0.0361188873648643,-0.266096383333206,-0.0163805279880762,-0.0257210768759251
932,0.00713535863906145,0.0206014532595873,-0.0318830423057079,-0.288206189870834,-0.00670947367325425,-0.0456640645861626
933,-0.00768427923321724,0.0153531096875668,-0.0173892993479967,-0.303442925214767,0.00277819810435176,-0.0483591444790363
934,-0.018539410084486,0.00686272280290723,0.00410820264369249,-0.305292904376984,0.0201702620834112,-0.0370249971747398
935,-0.0164239536970854,-0.00472376123070717,0.0153918173164129,-0.30279266834259,0.0431793630123138,-0.0265010315924883
936,-0.00268519530072808,-0.0237286165356636,0.00591906206682324,-0.304376840591431,0.0586699359118938,-0.0249251145869493
937,0.0160478837788105,-0.047461275011301,-0.0106722563505173,-0.29773086309433,0.0577723495662212,-0.0248949155211449
938,0.0321952737867832,-0.0636991858482361,-0.0157884918153286,-0.273713052272797,0.0438634194433689,-0.0149685274809599
939,0.0381150953471661,-0.0634832009673119,-0.0104973139241338,-0.246684014797211,0.0229559652507305,0.00494021875783801
940,0.0296736694872379,-0.0511761531233788,-0.0102530010044575,-0.23560419678688,-0.00495102209970355,0.017829392105341
941,0.00776331592351198,-0.0313869267702103,-0.0222187079489231,-0.243489891290665,-0.0393830016255379,0.0124216051772237
942,-0.0199946910142899,-0.00359808001667261,-0.0380973070859909,-0.257871240377426,-0.0701014772057533,-0.00311200506985188
943,-0.0386602878570557,0.0246502049267292,-0.0445739552378654,-0.258406907320023,-0.0811454281210899,-0.0160613991320133
944,-0.0361676663160324,0.0460969656705856,-0.0342127755284309,-0.228635460138321,-0.0655783787369728,-0.0138662941753864
945,-0.016203984618187,0.0609886720776558,-0.0133918570354581,-0.168535470962524,-0.0335831381380558,0.0112551497295499
946,0.00638432847335935,0.0656558275222778,0.00495200790464878,-0.0948934406042099,-0.00028792506782338,0.045777503401041
947,0.0213094260543585,0.0587400123476982,0.0146173862740397,-0.0393366180360317,0.0259757433086634,0.060995165258646
948,0.0270806588232517,0.0488690100610256,0.0162624157965183,-0.0252993553876877,0.0447330921888351,0.0473088696599007
949,0.0290042739361525,0.0401911661028862,0.0118105923756957,-0.0415093451738358,0.0620149299502373,0.0201943330466747
950,0.0300223995000124,0.032666277140379,0.000694495276547968,-0.0651102066040039,0.0740510001778603,-0.00461976742371917
951,0.0240342374891043,0.0321710929274559,-0.0125639503821731,-0.0819522812962532,0.068475641310215,-0.0170559920370579
952,0.00689525855705142,0.0345461927354336,-0.0223149750381708,-0.0845176056027412,0.0426585488021374,-0.0176176857203245
953,-0.0171569064259529,0.0252541843801737,-0.032514575868845,-0.0747874155640602,0.00222483091056347,-0.0222559701651335
954,-0.0415342189371586,0.00302941165864468,-0.0441710129380226,-0.0565420463681221,-0.0430174134671688,-0.03986781463027
955,-0.0591806173324585,-0.0180997997522354,-0.048737395554781,-0.0314003154635429,-0.0784000232815742,-0.0577453710138798
956,-0.0650708675384521,-0.0285537261515856,-0.0416256077587605,-0.00669795600697398,-0.0915429517626762,-0.0661308616399765
957,-0.0648439452052116,-0.0355611592531204,-0.0333654396235943,0.006057801656425,-0.0859201326966286,-0.0757078975439072
958,-0.067488931119442,-0.0436454229056835,-0.0391330718994141,0.0029965431895107,-0.0765040665864944,-0.0842152610421181
959,-0.0642690807580948,-0.0390860736370087,-0.0531703159213066,-0.00757738668471575,-0.0668026804924011,-0.0648241937160492
960,-0.0367608889937401,-0.00870683323591948,-0.0532175377011299,-0.0160731617361307,-0.0474647395312786,-0.0134244197979569
961,0.00978955067694187,0.039130799472332,-0.0346276648342609,-0.0273475609719753,-0.0166928041726351,0.039048682898283
962,0.0487719215452671,0.0781451165676117,-0.0142151080071926,-0.056988287717104,0.011868903413415,0.0634878128767014
963,0.0622468031942844,0.0833789482712746,-0.00614702003076673,-0.103403054177761,0.0216784253716469,0.0556781962513924
964,0.0545662641525269,0.0533756129443645,-0.00692424923181534,-0.144833773374558,0.0141342571005225,0.0325723774731159
965,0.0422559827566147,0.0138164442032576,-0.00162742892280221,-0.165323689579964,0.00801202747970819,0.0126372948288918
966,0.0363500602543354,-0.0102894119918346,0.0128018707036972,-0.167067632079124,0.0149344019591808,0.00357395969331265
967,0.0377263575792313,-0.0161338895559311,0.0213657189160585,-0.166372790932655,0.0286262575536966,0.00060151721118018
968,0.0381065234541893,-0.0136924777179956,0.0133462995290756,-0.171299055218697,0.0373302362859249,-0.00787142757326365
969,0.0276129320263863,-0.00662185624241829,-0.00322560290805995,-0.172905191779137,0.0358497984707356,-0.0226130411028862
970,0.00679075578227639,0.00357959419488907,-0.0138600738719106,-0.1680908203125,0.0255962908267975,-0.0325536243617535
971,-0.0150910709053278,0.0134768951684237,-0.013487471267581,-0.165975958108902,0.00997089315205812,-0.0311842728406191
972,-0.0321052111685276,0.0334057733416557,-0.00691551994532347,-0.171531796455383,-0.00888319872319698,-0.0207202434539795
973,-0.0470754913985729,0.0791573822498322,-0.00786070059984922,-0.186698645353317,-0.033050000667572,-0.00838114880025387
974,-0.0618846639990807,0.130347967147827,-0.0292766019701958,-0.220045387744904,-0.0646787956357002,-0.00503700599074364
975,-0.0725829601287842,0.132768228650093,-0.0654472783207893,-0.268279582262039,-0.0961263924837112,-0.0214524660259485
976,-0.0738358497619629,0.0705899372696877,-0.0932343304157257,-0.301278650760651,-0.10537626594305,-0.0529816225171089
977,-0.0576795190572739,-0.0141086922958493,-0.0882896333932877,-0.28588193655014,-0.0724989324808121,-0.0767344534397125
978,-0.0243408288806677,-0.078326903283596,-0.0475330799818039,-0.21692156791687,-0.0106134368106723,-0.0753598809242249
979,0.0129435323178768,-0.10525293648243,0.0106061175465584,-0.117682628333569,0.047917552292347,-0.0458385571837425
980,0.0438375435769558,-0.0952369123697281,0.0661279633641243,-0.0204180609434843,0.0874099209904671,0.00401998870074749
981,0.061723418533802,-0.0613630227744579,0.102456323802471,0.0483196564018726,0.104738749563694,0.0598263517022133
982,0.0628302246332169,-0.0182876158505678,0.112571753561497,0.077500157058239,0.102004714310169,0.113582670688629
983,0.0547816678881645,0.02773093059659,0.104450300335884,0.0754915401339531,0.0891956463456154,0.15618771314621
984,0.0486357286572456,0.0660261437296867,0.0839071422815323,0.0594441220164299,0.0720230862498283,0.16756746172905
985,0.0482793338596821,0.0829479619860649,0.0501187406480312,0.0381065644323826,0.0503457672894001,0.138454169034958
986,0.0479883626103401,0.077377550303936,0.0114453313872218,0.0118529964238405,0.0286607071757317,0.0807409733533859
987,0.0375819653272629,0.0536018162965775,-0.017642667517066,-0.0204527452588081,0.0117528578266501,0.0156160602346063
988,0.018388444557786,0.018104650080204,-0.0304963551461697,-0.0564327351748943,-0.00121109466999769,-0.0339157320559025
989,0.00182366161607206,-0.0128273954614997,-0.0304773822426796,-0.0842668563127518,-0.0101642059162259,-0.0558903962373734
990,-0.00697116414085031,-0.0212336629629135,-0.0242878552526236,-0.0924405455589294,-0.0114910574629903,-0.0493179634213448
991,-0.0122655993327498,-0.0031665067654103,-0.0178262274712324,-0.0787943080067635,-0.00432714819908142,-0.0190403051674366
992,-0.0167106240987778,0.0340678319334984,-0.0131749920547009,-0.0476873517036438,0.00857593398541212,0.0182242374867201
993,-0.0208757743239403,0.0784721523523331,-0.0117264082655311,-0.0146191576495767,0.0168471373617649,0.0435255020856857
994,-0.0301835052669048,0.111386239528656,-0.0217007901519537,-0.00270700687542558,0.00467944983392954,0.0495148152112961
995,-0.044322494417429,0.117935441434383,-0.0528958849608898,-0.0203858129680157,-0.0314494743943214,0.03439786657691
996,-0.0511794984340668,0.0958573371171951,-0.0968696102499962,-0.0456916727125645,-0.073852002620697,0.00112579553388059
997,-0.0409411415457726,0.0547923669219017,-0.119876444339752,-0.0418263152241707,-0.0918286293745041,-0.0286307502537966
998,-0.01989621296525,0.00740429991856217,-0.100426390767097,-0.00350401224568486,-0.0733444169163704,-0.0359101034700871
999,-0.00142947898712009,-0.0396976619958878,-0.0551571995019913,0.0362707003951073,-0.0373175479471684,-0.0299821496009827
1000,0.0107058277353644,-0.0789940878748894,-0.0102851390838623,0.0576704740524292,-0.00223414762876928,-0.0258277133107185
1001,0.0182506144046783,-0.0967330932617188,0.0250867120921612,0.0757252350449562,0.0273617375642061,-0.0200591292232275
1002,0.0217641890048981,-0.0833155289292336,0.0534188039600849,0.109397679567337,0.0492991991341114,-7.59706745157018E-05
