,AF3,AF4,Fp1,Fp2,AF7,AF8
0,0.0277207810431719,0.0349791496992111,-0.000186008895980194,0.0201489608734846,0.0161434728652239,0.0485584884881973
1,0.00511243985965848,-0.012947523035109,-0.0409772880375385,-0.0321760028600693,0.00129848439246416,-0.0278943143785
2,0.00386505294591188,-0.0297438222914934,-0.0352413766086102,-0.0404229536652565,0.0284297112375498,-0.057434543967247
3,0.0216913465410471,0.00426660431548953,0.00139794999267906,-0.0114347916096449,0.0804812982678413,-0.0303358752280474
4,0.0465392805635929,0.0531058721244335,0.0373875014483929,0.0269696339964867,0.127900451421738,0.0106458310037851
5,0.0813853740692139,0.0730438306927681,0.0614698641002178,0.0630147010087967,0.161628916859627,0.0319513194262981
6,0.128505051136017,0.0458748415112495,0.0710722953081131,0.0906178206205368,0.185282573103905,0.0298776961863041
7,0.161808416247368,-0.0190523583441973,0.056000828742981,0.0908466354012489,0.19107811152935,0.00143531174398959
8,0.146954879164696,-0.09122484177351,0.0144276088103652,0.0555240400135517,0.161777898669243,-0.0532326214015484
9,0.0873468816280365,-0.126491785049438,-0.0322141274809837,0.00482349283993244,0.104308106005192,-0.0995671674609184
10,0.0202316176146269,-0.105920054018497,-0.0564704686403275,-0.0328163653612137,0.0496048107743263,-0.0991972684860229
11,-0.0169806238263845,-0.0582883507013321,-0.0444973222911358,-0.033638559281826,0.024700965732336,-0.0569764338433743
12,-0.0105489734560251,-0.015919167548418,-0.00198546471074224,0.00776885356754065,0.0369916632771492,-0.00456954631954432
13,0.0208307523280382,0.0162196923047304,0.0443620607256889,0.0615375898778439,0.06850216537714,0.0337902344763279
14,0.046814501285553,0.0462440699338913,0.0630856156349182,0.087295837700367,0.0905256420373917,0.0568474270403385
15,0.04817184060812,0.0663357302546501,0.036624189466238,0.0642958432435989,0.0831282213330269,0.0641687139868736
16,0.0262050777673721,0.0544776730239391,-0.0239478182047606,0.0026863762177527,0.0498444177210331,0.0366036780178547
17,0.00473379390314221,0.0152606153860688,-0.0733186006546021,-0.0520482286810875,0.0252173952758312,-0.0204256009310484
18,0.00895307678729296,-0.022174097597599,-0.0726627036929131,-0.0570272020995617,0.0434557758271694,-0.0686236843466759
19,0.0478446520864964,-0.0455897711217403,-0.0276576727628708,-0.0125376814976335,0.10669831186533,-0.0903660953044891
20,0.109112903475761,-0.0656463429331779,0.0236454494297504,0.0428828224539757,0.18875952064991,-0.100919768214226
21,0.162064775824547,-0.0894701108336449,0.0458216518163681,0.0632577985525131,0.252422600984573,-0.120697565376759
22,0.186040282249451,-0.106362327933311,0.036724790930748,0.0428314283490181,0.275498956441879,-0.149867102503777
23,0.178182631731033,-0.106605857610703,0.0161645673215389,0.0148714277893305,0.257140636444092,-0.170124083757401
24,0.143068328499794,-0.0927964523434639,-0.00318299815990031,0.000150922176544555,0.2063118070364,-0.168128684163094
25,0.093781903386116,-0.053669735789299,-0.0198221001774073,-0.00858791917562485,0.142129808664322,-0.13616918027401
26,0.0404325351119041,0.0216309186071157,-0.04132966324687,-0.0293056610971689,0.0820265039801598,-0.0817215144634247
27,-0.0101592103019357,0.0907454714179039,-0.0734378919005394,-0.0643316134810448,0.0333909243345261,-0.0440452098846436
28,-0.0425603985786438,0.0908175110816956,-0.105649724602699,-0.0929971411824226,0.00726213492453098,-0.053422711789608
29,-0.0419216491281986,0.0154392030090094,-0.119031481444836,-0.096570797264576,0.0151680922135711,-0.0955946668982506
30,-0.00225117686204612,-0.0817587971687317,-0.105533674359322,-0.0748019367456436,0.0559596344828606,-0.134827628731728
31,0.0674297213554382,-0.143510565161705,-0.072066955268383,-0.0384070463478565,0.116692200303078,-0.14608770608902
32,0.133250668644905,-0.156554147601128,-0.0328882895410061,-0.000951040536165237,0.17600966989994,-0.132674485445023
33,0.163508877158165,-0.14205102622509,-0.00628153700381517,0.0217825304716825,0.213269904255867,-0.121895596385002
34,0.15921413898468,-0.122696988284588,0.0022987115662545,0.0272076819092035,0.221551105380058,-0.130403473973274
35,0.136089697480202,-0.111794717609882,0.00759744364768267,0.0316669903695583,0.204777836799622,-0.143515884876251
36,0.106162205338478,-0.0994952544569969,0.0224494133144617,0.0476387403905392,0.176178380846977,-0.13792322576046
37,0.0819456055760384,-0.0637673437595367,0.0442565977573395,0.0696674063801765,0.157990545034409,-0.112837284803391
38,0.0763379037380219,-0.0142204705625772,0.0640635713934898,0.0859349146485329,0.165634945034981,-0.0902570337057114
39,0.0923354923725128,0.0260372459888458,0.0776769295334816,0.0921517685055733,0.195236146450043,-0.0814751833677292
40,0.111808136105537,0.05209656432271,0.0703686699271202,0.0766249373555183,0.216655641794205,-0.082765519618988
41,0.112827785313129,0.0546210072934628,0.0243348572403193,0.0269009359180927,0.199274063110352,-0.0940831229090691
42,0.0955881848931313,0.0193219128996134,-0.0406346991658211,-0.0331054031848907,0.160194054245949,-0.109075844287872
43,0.0766617581248283,-0.0458425506949425,-0.0861340686678886,-0.0658417865633965,0.13728928565979,-0.118488699197769
44,0.077214427292347,-0.107525587081909,-0.0937637984752655,-0.0596187338232994,0.143355369567871,-0.116278067231178
45,0.0983258634805679,-0.128926441073418,-0.0631318762898445,-0.0222176164388657,0.169976115226746,-0.0965075194835663
46,0.110123448073864,-0.104533970355988,-0.0109770204871893,0.0281813442707062,0.191642507910728,-0.0743979215621948
47,0.104765497148037,-0.0675574094057083,0.0450678244233131,0.080104760825634,0.199150532484055,-0.0701024010777473
48,0.106987871229649,-0.0455063246190548,0.101512305438519,0.135013058781624,0.21155758202076,-0.0756824612617493
49,0.123024359345436,-0.0361660867929459,0.151988551020622,0.184970587491989,0.235634371638298,-0.0744770392775536
50,0.140866130590439,-0.025913180783391,0.186562985181808,0.218452662229538,0.26428696513176,-0.0558642782270908
51,0.152008667588234,-0.00593560980632901,0.197093456983566,0.228778555989265,0.288048028945923,-0.0249495431780815
52,0.157132789492607,0.0204065591096878,0.178171709179878,0.207895427942276,0.29779464006424,-0.00656148698180914
53,0.167521223425865,0.0415107645094395,0.13188499212265,0.155820220708847,0.288544118404388,-0.0154589843004942
54,0.178465932607651,0.0451081991195679,0.0619895942509174,0.0811428427696228,0.254549831151962,-0.0543306842446327
55,0.166283801198006,0.0237585715949535,-0.0201903637498617,-0.00372886238619685,0.20023187994957,-0.12212035804987
56,0.123111248016357,-0.0145079903304577,-0.0930889397859573,-0.0794752612709999,0.138952895998955,-0.195558875799179
57,0.0603889301419258,-0.0526044145226479,-0.139948189258575,-0.126262322068214,0.078189380466938,-0.237590849399567
58,0.00256400974467397,-0.0841125920414925,-0.147200092673302,-0.128912210464478,0.0341874472796917,-0.223074316978455
59,-0.0225388295948505,-0.10485066473484,-0.107835754752159,-0.0841699466109276,0.031377699226141,-0.154874742031097
60,-0.0181266274303198,-0.105387039482594,-0.0460899136960506,-0.0209876392036676,0.0621790923178196,-0.0765782073140144
61,-0.00554081937298179,-0.0924994945526123,9.90417684079148E-05,0.0233853310346603,0.0935712829232216,-0.0343705378472805
62,0.0152559075504541,-0.0773860588669777,0.020475197583437,0.0483671799302101,0.113211534917355,-0.0249340794980526
63,0.0543706603348255,-0.0546729415655136,0.023341815918684,0.0687859803438187,0.130272522568703,-0.0269891563802958
64,0.106591656804085,-0.0356754474341869,0.0108787892386317,0.0787174478173256,0.151079252362251,-0.0490907542407513
65,0.15131801366806,-0.0510808303952217,-0.0134805934503675,0.0665025785565376,0.171943515539169,-0.105591036379337
66,0.173603549599648,-0.0907155722379684,-0.025427270680666,0.0472734533250332,0.19562540948391,-0.169893726706505
67,0.17486572265625,-0.10334337502718,0.00292214588262141,0.0519864670932293,0.229056552052498,-0.186782881617546
68,0.158008009195328,-0.0641421973705292,0.0573745295405388,0.0801558420062065,0.248071521520615,-0.142696857452393
69,0.12524402141571,-0.00480889109894633,0.0933440774679184,0.098769374191761,0.218929812312126,-0.0841952189803123
70,0.0904354453086853,0.0256093963980675,0.0897309929132462,0.0878764390945435,0.154464453458786,-0.0502515360713005
71,0.0668194815516472,0.0211023930460215,0.0584542751312256,0.0562944039702415,0.0967519879341125,-0.0315702185034752
72,0.0563563294708729,0.0060301274061203,0.022574545815587,0.0258879791945219,0.0684008151292801,-0.0121671110391617
73,0.0564316920936108,-0.0142650958150625,0.00222101551480591,0.0169701837003231,0.0646897777915001,-0.00145297637209296
74,0.061088390648365,-0.040163841098547,0.0111991195008159,0.0392420552670956,0.0755856111645699,-4.95721651532222E-05
75,0.0666488707065582,-0.0557158403098583,0.0499457158148289,0.0836699306964874,0.0992740020155907,0.0149100488051772
76,0.0688851699233055,-0.0540099032223225,0.0897571370005608,0.119168341159821,0.124011486768723,0.0377158150076866
77,0.057736549526453,-0.0522247552871704,0.0946434587240219,0.11580865830183,0.127524614334106,0.0270942859351635
78,0.0330755673348904,-0.0504135414958,0.0700174197554588,0.0813177227973938,0.114052675664425,-0.0142315626144409
79,0.0100635522976518,-0.0257892962545156,0.0437491610646248,0.0480123795568943,0.105581179261208,-0.0374241583049297
80,0.00454951962456107,0.00507378717884421,0.017248971387744,0.0283116903156042,0.0996586605906487,-0.0327171348035336
81,0.0205486696213484,0.00644153915345669,-0.015545466914773,0.0153338387608528,0.0824579894542694,-0.0357151441276073
82,0.0449694842100143,-0.0121279591694474,-0.0388077199459076,0.00794382952153683,0.0572942420840263,-0.0631899312138557
83,0.0605199374258518,-0.0219292622059584,-0.0318263657391071,0.0175581611692905,0.0404919348657131,-0.0922022685408592
84,0.0605002194643021,-0.015977481380105,0.00260633649304509,0.047757588326931,0.0439497195184231,-0.0997444540262222
85,0.0474085099995136,-0.0070548583753407,0.0364697463810444,0.075505293905735,0.061592735350132,-0.0905468761920929
86,0.0287928394973278,-0.0112387668341398,0.04810781031847,0.0795900151133537,0.0789289548993111,-0.0772185325622559
87,0.0140278013423085,-0.0299323815852404,0.0463375449180603,0.0724289566278458,0.0915872678160667,-0.0570468753576279
88,0.0148898726329207,-0.0466431193053722,0.051273126155138,0.0766292661428452,0.102665454149246,-0.022967129945755
89,0.0338011048734188,-0.0483622439205647,0.0642548054456711,0.0921472907066345,0.11138279736042,0.0161931440234184
90,0.0558514408767223,-0.0370216630399227,0.0752224028110504,0.104548282921314,0.120219521224499,0.0455977618694305
91,0.0732156336307526,-0.0179728548973799,0.0770514756441116,0.104156270623207,0.130089268088341,0.0592526905238628
92,0.0892319083213806,0.000122469413327053,0.0633869916200638,0.090655080974102,0.124668337404728,0.0576760917901993
93,0.0981598198413849,0.0109398234635592,0.0341131500899792,0.0687710866332054,0.095079705119133,0.0493297912180424
94,0.0934102088212967,0.0137567790225148,-0.000979561125859618,0.0433402918279171,0.0589321292936802,0.0410357303917408
95,0.0821405425667763,0.00150793162174523,-0.0318123921751976,0.017298486083746,0.0305719077587128,0.0244694966822863
96,0.0727857202291489,-0.0186458770185709,-0.05081832036376,-0.0030576481949538,0.00757444277405739,0.000737604685127735
97,0.06634820997715,-0.0193370711058378,-0.0522168725728989,-0.00875668320804834,-0.00497834431007504,-0.014205832965672
98,0.060133308172226,-0.00188762112520635,-0.0416147299110889,-0.00462112249806523,0.00240919133648276,-0.0284409057348967
99,0.0480985380709171,0.00281307799741626,-0.02592140622437,-0.000848900701384991,0.0222755502909422,-0.0593677647411823
100,0.0331117063760757,-0.0161214750260115,-0.00447653979063034,0.00591262150555849,0.038614809513092,-0.0954575091600418
101,0.0234296172857285,-0.0467309877276421,0.0112426364794374,0.01426403503865,0.0407296977937222,-0.116635985672474
102,0.018466567620635,-0.0716371834278107,0.00902088917791843,0.0166676566004753,0.0295714624226093,-0.115667052567005
103,0.0181944780051708,-0.0759554728865623,0.00324941426515579,0.0243566893041134,0.0179345980286598,-0.0880183354020119
104,0.0164227336645126,-0.0645599737763405,0.00552181201055646,0.0394683033227921,0.00780249387025833,-0.0444958843290806
105,0.00273277214728296,-0.0535677559673786,0.000975235481746495,0.0366218239068985,-0.0103654554113746,-0.014241011813283
106,-0.0134682646021247,-0.0452846139669418,-0.0188135746866465,0.00647164229303598,-0.0313179418444633,-0.00851360708475113
107,-0.0191031452268362,-0.0339516177773476,-0.0380308143794537,-0.0283425264060497,-0.0440995134413242,-0.0162673145532608
108,-0.0143688013777137,-0.0233506262302399,-0.0347466059029102,-0.038235031068325,-0.0427715964615345,-0.0238337218761444
109,1.93219730135752E-05,-0.0191944073885679,-0.00212268810719252,-0.00937578920274973,-0.0168223474174738,-0.0181896761059761
110,0.0232926849275827,-0.0129012726247311,0.0470816679298878,0.0456079803407192,0.032747395336628,0.00613971333950758
111,0.0449219308793545,0.0103182345628738,0.0940288603305817,0.0983808860182762,0.0813190639019012,0.0437394008040428
112,0.0491355210542679,0.0515190586447716,0.120729692280293,0.127188697457314,0.103413261473179,0.0864976942539215
113,0.0378230921924114,0.0912118256092072,0.113718599081039,0.124030098319054,0.0933422967791557,0.121607631444931
114,0.0296642910689116,0.102248549461365,0.0753192156553268,0.0931206345558167,0.0684169009327888,0.126874536275864
115,0.0321393124759197,0.0678389891982079,0.0158456675708294,0.0451241098344326,0.0457905791699886,0.0824499577283859
116,0.0395856387913227,0.0034166902769357,-0.0516003556549549,-0.00623352639377117,0.0194108057767153,-0.00198863539844751
117,0.0493589341640472,-0.0467564165592194,-0.0979111045598984,-0.0385680347681046,-0.0134067218750715,-0.0808351933956146
118,0.061600923538208,-0.061050720512867,-0.0979259088635445,-0.0351654067635536,-0.0339256040751934,-0.112435713410378
119,0.0715768709778786,-0.0550179928541183,-0.0566174983978271,-0.00163551920559257,-0.0286271832883358,-0.0937032476067543
120,0.0723759531974792,-0.0467560589313507,-0.00038963690167293,0.0409144535660744,-0.00504659954458475,-0.0519811548292637
121,0.0597904659807682,-0.0428242869675159,0.0406650565564632,0.0699455440044403,0.0137897050008178,-0.0164505392313004
122,0.0331009812653065,-0.0364382900297642,0.0577220320701599,0.0805384442210197,0.014114037156105,0.00885359756648541
123,-0.00348650454543531,-0.0186668410897255,0.0651589334011078,0.0835034102201462,0.0047285845503211,0.0323355421423912
124,-0.0351584404706955,0.00693889148533344,0.0668539106845856,0.0808621793985367,-0.00946720223873854,0.0474754832684994
125,-0.0435220450162888,0.0392612181603909,0.0540322288870811,0.0671176910400391,-0.0298623442649841,0.047739539295435
126,-0.030928086489439,0.0746703147888184,0.024831036105752,0.0406340733170509,-0.0469956547021866,0.0348191149532795
127,-0.0169058460742235,0.0899260863661766,-0.00724571105092764,0.0122446743771434,-0.0453745648264885,0.0174616556614637
128,-0.0137452548369765,0.0727150216698647,-0.018276946619153,0.00665560131892562,-0.0171225611120462,0.0232544597238302
129,-0.0261966735124588,0.037101436406374,-0.0098525220528245,0.0244578439742327,0.0157373771071434,0.0570143423974514
130,-0.0480605885386467,0.00210620579309762,-0.000314151198836043,0.0430400595068932,0.0238314364105463,0.0807122811675072
131,-0.0572346784174442,-0.0163758117705584,0.0145380012691021,0.0591589286923409,0.0143227521330118,0.0807099118828774
132,-0.0410666093230248,-0.0176297388970852,0.0381184779107571,0.0748909786343575,0.00765299377962947,0.0752744972705841
133,-0.00718603143468499,-0.0192717239260674,0.0559627152979374,0.0840471014380455,0.00886573921889067,0.0660935863852501
134,0.0333568789064884,-0.0334752351045609,0.0565143115818501,0.0851211100816727,0.0119587192311883,0.0452417246997356
135,0.0671955794095993,-0.052454087883234,0.0446255244314671,0.080029122531414,0.00716624176129699,0.0151205025613308
136,0.0808766484260559,-0.0563714914023876,0.0419826060533524,0.0801758766174316,-0.00128157646395266,-0.00997897144407034
137,0.0738866180181503,-0.0315549783408642,0.0586078278720379,0.0917791798710823,-0.00112797087058425,-0.0150918494910002
138,0.0542593747377396,0.0171313881874084,0.0736733675003052,0.0964925512671471,0.00146080902777612,-0.00465980870649219
139,0.0288529433310032,0.0661118626594543,0.0689609050750732,0.0833497941493988,-0.00691605405882001,0.00665895501151681
140,0.000674732902552933,0.0891389697790146,0.0502932406961918,0.062581367790699,-0.0259132608771324,0.0120308734476566
141,-0.0266925506293774,0.0897186696529388,0.0266879331320524,0.0373613275587559,-0.0462317802011967,0.0136524280533195
142,-0.0497501902282238,0.093885213136673,-0.0121224578469992,-0.00645809946581721,-0.0635461509227753,0.0109402285888791
143,-0.0685153231024742,0.097991406917572,-0.0885416939854622,-0.084834910929203,-0.0854110568761826,-0.0121547756716609
144,-0.0782200768589973,0.0722929388284683,-0.192015528678894,-0.183914914727211,-0.116644941270351,-0.0667844712734222
145,-0.0686838328838348,0.0115102250128984,-0.262663453817368,-0.248744577169418,-0.139405459165573,-0.132800504565239
146,-0.0365574583411217,-0.0589450486004353,-0.249511793255806,-0.228310018777847,-0.130534470081329,-0.166704133152962
147,0.00663361558690667,-0.105325624346733,-0.162670627236366,-0.12900473177433,-0.0938155800104141,-0.13797789812088
148,0.0379888974130154,-0.106702774763107,-0.0531088896095753,-0.00655703479424119,-0.0512152649462223,-0.0662676468491554
149,0.0428570955991745,-0.0778523683547974,0.0344698019325733,0.0877874344587326,-0.0162605363875628,-0.00407762918621302
150,0.0343640819191933,-0.0567468963563442,0.0853964686393738,0.139358282089233,0.0136492345482111,0.0234113149344921
151,0.0362566933035851,-0.0490671619772911,0.110139824450016,0.158452183008194,0.0484542995691299,0.0308813862502575
152,0.0585332587361336,-0.0207098945975304,0.117322355508804,0.153391569852829,0.0921962633728981,0.0330701470375061
153,0.0917275920510292,0.0327135622501373,0.0949991643428802,0.116672806441784,0.130976945161819,0.0208645593374968
154,0.101158708333969,0.0643928647041321,0.0282987952232361,0.0357367247343063,0.135292246937752,-0.0248731225728989
155,0.0571068041026592,0.0355294570326805,-0.0663450658321381,-0.0741855502128601,0.0907165855169296,-0.099792443215847
156,-0.0303606688976288,-0.0404736511409283,-0.147811323404312,-0.167602762579918,0.00838378444314003,-0.169314131140709
157,-0.120297439396381,-0.107494860887527,-0.183904960751534,-0.203765630722046,-0.0865205079317093,-0.196848019957542
158,-0.162246733903885,-0.116434901952744,-0.153771698474884,-0.160734549164772,-0.147836655378342,-0.163395151495934
159,-0.137557700276375,-0.0683494955301285,-0.0652694255113602,-0.0549529381096363,-0.1406090259552,-0.0826117992401123
160,-0.0760832726955414,7.26160988051561E-06,0.0334728546440601,0.0597174279391766,-0.0829047933220863,0.0107814967632294
161,-0.0137283448129892,0.0614324435591698,0.106881156563759,0.146288931369781,-0.00819472782313824,0.0952585563063622
162,0.0357329547405243,0.106863938271999,0.148202672600746,0.193818494677544,0.0641916990280151,0.153161317110062
163,0.0672666952013969,0.127043202519417,0.150015085935593,0.192617565393448,0.105896927416325,0.164567813277245
164,0.0736237466335297,0.120519414544106,0.111420460045338,0.14650484919548,0.0942844226956367,0.135808929800987
165,0.0561436638236046,0.111246183514595,0.0488824471831322,0.0810889229178429,0.0445666052401066,0.0969474464654922
166,0.0306408349424601,0.115024641156197,-0.0145847676321864,0.0213129874318838,-0.00248463917523623,0.0628408640623093
167,0.0127795254811645,0.106761135160923,-0.0635261908173561,-0.0280567891895771,-0.0167106296867132,0.0193811859935522
168,0.00462726410478354,0.0561284758150578,-0.0981077700853348,-0.0757444947957993,-0.00562109751626849,-0.0475473068654537
169,0.00271287560462952,-0.0310160163789988,-0.117089934647083,-0.113415740430355,0.00155157572589815,-0.122462168335915
170,0.00206295889802277,-0.106734625995159,-0.104790337383747,-0.109687842428684,-0.00862247217446566,-0.160936042666435
171,-0.00205579795874655,-0.121312148869038,-0.0536770112812519,-0.0507285371422768,-0.02250050380826,-0.129534766077995
172,-0.0043397406116128,-0.0732859745621681,0.0138633288443089,0.0323744565248489,-0.0176836922764778,-0.0495026223361492
173,-0.00197815336287022,-0.00539895612746477,0.0547949820756912,0.0833009257912636,-8.47386036184616E-05,0.0185631550848484
174,-0.000514413812197745,0.0443388596177101,0.0510953553020954,0.0801185220479965,0.0041161896660924,0.0436059944331646
175,0.00321765802800655,0.0723744183778763,0.0315656401216984,0.0600988194346428,-0.00132698321249336,0.0486702136695385
176,0.0133941248059273,0.0823688805103302,0.0231425818055868,0.0579748265445232,0.00466720806434751,0.0571240857243538
177,0.0234940834343433,0.0759435817599297,0.0297497492283583,0.0744829177856445,0.0244293343275785,0.0677260980010033
178,0.0279962047934532,0.0727505534887314,0.0525998175144196,0.0996934100985527,0.0477807186543942,0.079781748354435
179,0.0225765686482191,0.0927015915513039,0.0747395679354668,0.110352665185928,0.0570779480040073,0.0932015180587769
180,0.0083245700225234,0.126965507864952,0.0677124857902527,0.08700842410326,0.0436708033084869,0.0942485705018044
181,0.000741044990718365,0.139445409178734,0.0310748852789402,0.0445979684591293,0.021919097751379,0.0688470378518105
182,0.00610472308471799,0.106094717979431,-0.0131387254223228,0.0082236984744668,0.00193994166329503,0.0253871232271194
183,0.0105096818879247,0.0434634797275066,-0.0435408018529415,-0.0118200778961182,-0.0182078890502453,-0.0123018147423863
184,0.00640554586425424,-0.0180389061570168,-0.0487571321427822,-0.0125789334997535,-0.0348643697798252,-0.0291382689028978
185,0.00351073825731874,-0.0592186339199543,-0.0339338071644306,0.00107906432822347,-0.0409998819231987,-0.0288009811192751
186,0.00683890702202916,-0.0669903755187988,-0.0139562739059329,0.0158225726336241,-0.0364283844828606,-0.0198014974594116
187,0.00770633574575186,-0.0390194617211819,-0.0017060877289623,0.0210359916090965,-0.0266324337571859,-0.00332792685367167
188,0.0039779026992619,0.0118225542828441,0.00419890787452459,0.0190686881542206,-0.0129631841555238,0.014454934746027
189,0.0045300554484129,0.064793273806572,0.0134396115317941,0.0178256072103977,0.00318358140066266,0.0201171580702066
190,0.0126827238127589,0.0952029079198837,0.0219442509114742,0.0144680626690388,0.015867805108428,0.0129032097756863
191,0.019418329000473,0.0961717963218689,0.0244730152189732,0.0077798985876143,0.0252373199909925,0.0114387795329094
192,0.0163949262350798,0.0906265825033188,0.0288746803998947,0.00952652841806412,0.0371526703238487,0.0320369303226471
193,0.00661625759676099,0.106140181422234,0.0245871171355248,0.0107416529208422,0.0421301499009132,0.0609774962067604
194,-0.00203126156702638,0.143986910581589,-0.0145809138193727,-0.0189321376383305,0.0155801214277744,0.0657715499401093
195,-0.00446303840726614,0.171154156327248,-0.0744268596172333,-0.0687074437737465,-0.0372215770184994,0.0408423580229282
196,-0.00228215637616813,0.147993743419647,-0.112525217235088,-0.092351108789444,-0.0810529440641403,0.0025396419223398
197,-0.000471116945846006,0.0692408680915833,-0.11065823584795,-0.0726577788591385,-0.0981772989034653,-0.0402640178799629
198,-0.00447136862203479,-0.0267161726951599,-0.0775682330131531,-0.0284235775470734,-0.0980271175503731,-0.0753060728311539
199,-0.0160102564841509,-0.0940716490149498,-0.0344863906502724,0.0142025640234351,-0.0965595543384552,-0.0847805142402649
200,-0.02268036454916,-0.103157624602318,0.00994827784597874,0.0492208376526833,-0.0835789889097214,-0.0529369823634624
201,-0.0121369324624538,-0.0532262921333313,0.0576779544353485,0.0829075053334236,-0.0374313667416573,0.012509249150753
202,0.00910341460257769,0.0149417361244559,0.0920974463224411,0.104022614657879,0.025450250133872,0.067713737487793
203,0.0300449971109629,0.0595283173024654,0.0987116023898125,0.104925327003002,0.0692307502031326,0.0849393010139465
204,0.0427298732101917,0.0731715261936188,0.086823508143425,0.09769456833601,0.076718769967556,0.078773096203804
205,0.042213711887598,0.0724302753806114,0.0730795338749886,0.0914741680026054,0.0537057034671307,0.0722355023026466
206,0.0418522655963898,0.0790555104613304,0.0677302181720734,0.0887945294380188,0.0276459455490112,0.0793241783976555
207,0.0523219183087349,0.096183218061924,0.0652892366051674,0.0850603431463242,0.0195630751550198,0.0943495705723763
208,0.0577771626412869,0.107928693294525,0.047422781586647,0.0650327503681183,0.0161011479794979,0.091399647295475
209,0.039338331669569,0.105853691697121,0.00453227339312434,0.0205560997128487,-0.0069761979393661,0.054036483168602
210,-0.00618485501036048,0.0971136018633842,-0.0467049516737461,-0.0302275214344263,-0.0503430925309658,-0.0024164505302906
211,-0.0580403804779053,0.0970861166715622,-0.0692266374826431,-0.0536599792540073,-0.089709460735321,-0.0361513160169125
212,-0.088060662150383,0.117809168994427,-0.0460751838982105,-0.0402113236486912,-0.105123117566109,-0.0196303129196167
213,-0.0889828056097031,0.144972711801529,-0.00365972705185413,-0.0102777276188135,-0.0988219901919365,0.0307303015142679
214,-0.0678239464759827,0.141609653830528,0.0202677845954895,0.0147822145372629,-0.0817011967301369,0.075160950422287
215,-0.039061963558197,0.0921225696802139,0.00766197359189391,0.0196562297642231,-0.0677456259727478,0.0804596170783043
216,-0.0124201197177172,0.0243213325738907,-0.0295797828584909,0.00418297527357936,-0.0653535276651382,0.0485871843993664
217,0.0148242460563779,-0.020098989829421,-0.0625829100608826,-0.0143653061240911,-0.0680636912584305,0.0109202433377504
218,0.0290703382343054,-0.0299493633210659,-0.0798041298985481,-0.0277897175401449,-0.0697270631790161,-0.0139989908784628
219,0.00703632039949298,-0.0254037976264954,-0.0877557471394539,-0.0393732003867626,-0.0696468874812126,-0.0268302876502275
220,-0.036629993468523,-0.0242520570755005,-0.0862347856163979,-0.044457670301199,-0.0692982897162437,-0.0282507408410311
221,-0.0584569647908211,-0.0191398002207279,-0.0681637898087502,-0.0335281901061535,-0.0688312202692032,-0.00945228803902864
222,-0.0395756512880325,0.02195686660707,-0.036271944642067,-0.00848283525556326,-0.0607091188430786,0.0358614511787891
223,0.00202809902839363,0.106600023806095,-0.00440537463873625,0.0165717620402575,-0.0406153611838818,0.0910937041044235
224,0.035994928330183,0.187889412045479,0.0142898680642247,0.028984222561121,-0.0204086937010288,0.128934040665627
225,0.043419074267149,0.222356468439102,0.0217677634209394,0.0339295640587807,-0.0136886304244399,0.138195350766182
226,0.0260622836649418,0.213458642363548,0.0329167731106281,0.045646645128727,-0.0184717588126659,0.12426545470953
227,-0.000288959010504186,0.177593424916267,0.0553842075169086,0.0693758577108383,-0.0225431714206934,0.0971878170967102
228,-0.0199172981083393,0.124345175921917,0.0811640024185181,0.100285105407238,-0.0203185174614191,0.0701874941587448
229,-0.0339667685329914,0.0792884305119514,0.0881476104259491,0.113196469843388,-0.0242407601326704,0.0501201748847961
230,-0.050033014267683,0.0629542171955109,0.0631952658295631,0.0817504972219467,-0.0389605611562729,0.0307883713394403
231,-0.06365155428648,0.0513983853161335,0.0181752182543278,0.0156540907919407,-0.0495996549725533,0.00238237576559186
232,-0.0666208863258362,0.0149940848350525,-0.0287472940981388,-0.0476660989224911,-0.0551173388957977,-0.0354382582008839
233,-0.0528723821043968,-0.0278665516525507,-0.0548191703855991,-0.0693917870521545,-0.0588355585932732,-0.0615983009338379
234,-0.0217044800519943,-0.0472892075777054,-0.0408811196684837,-0.0362171120941639,-0.0491780266165733,-0.0562466233968735
235,0.0177458059042692,-0.0468306243419647,0.00132632185705006,0.0269719157367945,-0.0260832812637091,-0.0311199370771647
236,0.052363358438015,-0.0371808297932148,0.0459344312548637,0.0846149474382401,-0.00029792173882015,-0.0072971903719008
237,0.068911224603653,-0.0187518540769815,0.0759724080562592,0.114642240107059,0.0203855037689209,0.00961199030280113
238,0.0623924732208252,0.00783243775367737,0.0822711288928986,0.109996736049652,0.025141017511487,0.0227800086140633
239,0.0416996255517006,0.0440431162714958,0.0660429373383522,0.0788448005914688,0.0144554870203137,0.039543304592371
240,0.012797249481082,0.089228942990303,0.0298614911735058,0.0290598683059216,-0.00257708039134741,0.0598895065486431
241,-0.0227338522672653,0.134642288088799,-0.0234877876937389,-0.034847691655159,-0.0268588718026876,0.0743981897830963
242,-0.0535331033170223,0.166098281741142,-0.0803523138165474,-0.0952377021312714,-0.0598625428974628,0.082514151930809
243,-0.069635771214962,0.169407144188881,-0.130137756466866,-0.136787429451942,-0.10103103518486,0.0781895965337753
244,-0.0780753046274185,0.142207890748978,-0.169137790799141,-0.162657871842384,-0.145099878311157,0.0393074713647366
245,-0.0901287496089935,0.0903666615486145,-0.18483492732048,-0.175887256860733,-0.173092350363731,-0.0353499874472618
246,-0.0931067317724228,0.0251996126025915,-0.166598334908485,-0.165562674403191,-0.168140023946762,-0.107473842799664
247,-0.0684667155146599,-0.0198074206709862,-0.11811751127243,-0.120382204651833,-0.129434794187546,-0.127055138349533
248,-0.0355792455375195,-0.00860047992318869,-0.0509156435728073,-0.0494157932698727,-0.0702435523271561,-0.0810820162296295
249,-0.024122841656208,0.0492700412869453,0.0190263595432043,0.0200978796929121,-0.0115740159526467,-0.00442306092008948
250,-0.0313379876315594,0.103168837726116,0.0737705454230309,0.0664926394820213,0.0265595875680447,0.0637992173433304
251,-0.0466329492628574,0.116504579782486,0.096706435084343,0.0834487304091454,0.0287485495209694,0.101735204458237
252,-0.071284756064415,0.0902238190174103,0.0800400823354721,0.0725700110197067,-0.00603679707273841,0.0996880680322647
253,-0.102071575820446,0.0436425395309925,0.0366187207400799,0.0451921559870243,-0.053977906703949,0.065443754196167
254,-0.118672087788582,0.00499576237052679,-0.000978726078756154,0.024018032476306,-0.0759415850043297,0.0267924480140209
255,-0.0990888550877571,0.00160098460037261,-0.00471256440505385,0.0246359799057245,-0.0506909899413586,0.0147052202373743
256,-0.0538624636828899,0.0325850620865822,0.0164676308631897,0.0357131659984589,-0.00225593615323305,0.0302030518651009
257,-0.0173268839716911,0.066363200545311,0.0267290379852057,0.0323754400014877,0.0272422153502703,0.044346496462822
258,-0.0113046616315842,0.0722563341259956,0.00783440098166466,0.00497034564614296,0.0196432434022427,0.0371246412396431
259,-0.0366587564349175,0.0448797233402729,-0.0309301055967808,-0.0376090109348297,-0.0172325130552053,0.00899728946387768
260,-0.0740051195025444,0.00574039900675416,-0.0687042027711868,-0.0757495164871216,-0.0601866729557514,-0.0276153441518545
261,-0.0908683761954308,-0.0142161902040243,-0.0881382003426552,-0.0921276211738586,-0.083210751414299,-0.0529679842293262
262,-0.0752009525895119,-0.00638342602178454,-0.0946396291255951,-0.0930723249912262,-0.0823204517364502,-0.0593782663345337
263,-0.0486808978021145,0.0130890710279346,-0.103430591523647,-0.0983570218086243,-0.0761673972010612,-0.0534268692135811
264,-0.0343901142477989,0.031793586909771,-0.109767273068428,-0.108740441501141,-0.0727369636297226,-0.0308946669101715
265,-0.0364334471523762,0.0488658063113689,-0.108263924717903,-0.116398923099041,-0.0667559653520584,0.0079939616844058
266,-0.0504961125552654,0.0692128837108612,-0.114928387105465,-0.131452456116676,-0.0656832307577133,0.0368630848824978
267,-0.0795296728610992,0.0782128497958183,-0.145728826522827,-0.169005393981934,-0.0873198807239532,0.0267117507755756
268,-0.123018942773342,0.0439196154475212,-0.187318965792656,-0.215215459465981,-0.130816921591759,-0.0292109865695238
269,-0.151696339249611,-0.0171833429485559,-0.194113180041313,-0.219410330057144,-0.161058709025383,-0.0921727493405342
270,-0.136459335684776,-0.0523089878261089,-0.136951863765717,-0.150632008910179,-0.145290389657021,-0.105541378259659
271,-0.0884278193116188,-0.0442313738167286,-0.0378911569714546,-0.0390642136335373,-0.0892877206206322,-0.0624776557087898
272,-0.0388022102415562,-0.00795252248644829,0.0594562403857708,0.0625740513205528,-0.0185739174485207,0.00300669763237238
273,-0.00924527738243341,0.0316906906664371,0.119770891964436,0.119627401232719,0.0451532602310181,0.0622555874288082
274,-0.00447580497711897,0.0497204251587391,0.129797905683517,0.12568487226963,0.0868654623627663,0.0951315611600876
275,-0.0113879255950451,0.0464711077511311,0.114093601703644,0.106272988021374,0.10578379034996,0.097010150551796
276,-0.0140842758119106,0.0390821136534214,0.102030992507935,0.0889090523123741,0.107813693583012,0.0853968560695648
277,-0.0060718092136085,0.0318439491093159,0.083689883351326,0.0686082690954208,0.0881729796528816,0.0704506784677505
278,0.0123526742681861,0.0238093715161085,0.0393189564347267,0.0267496611922979,0.0523580387234688,0.0465040542185307
279,0.0265265647321939,0.0179928280413151,-0.0279462821781635,-0.0430830456316471,0.0157419126480818,0.00712410965934396
280,0.0150859747081995,0.0188084077090025,-0.0923988074064255,-0.119759418070316,-0.0215202365070581,-0.0375868044793606
281,-0.0175338294357061,0.0350602455437183,-0.117601230740547,-0.158047810196877,-0.0520648173987865,-0.0535244569182396
282,-0.0423045046627522,0.059915691614151,-0.0914502590894699,-0.133588522672653,-0.0548666790127754,-0.0226302500814199
283,-0.0365275032818317,0.0692875906825066,-0.0315392315387726,-0.0600958615541458,-0.0207158699631691,0.0367131642997265
284,0.00143049063626677,0.0612406581640244,0.0374291576445103,0.0284087341278791,0.0410439185798168,0.0967965498566628
285,0.0479261130094528,0.0532737635076046,0.0843635201454163,0.0877838954329491,0.102514453232288,0.126800209283829
286,0.064761720597744,0.0445283129811287,0.0829699113965034,0.0855721309781075,0.127925187349319,0.105419538915157
287,0.0356803275644779,0.0206098239868879,0.0385267212986946,0.0297838188707829,0.100369565188885,0.0448663532733917
288,-0.0122549245133996,-0.0133541915565729,-0.0113348346203566,-0.0311240814626217,0.0422419533133507,-0.018500791862607
289,-0.042772613465786,-0.0385189838707447,-0.0322214402258396,-0.0549295134842396,-0.00609359331429005,-0.053423099219799
290,-0.0500099025666714,-0.0481294468045235,-0.0248451381921768,-0.0442540198564529,-0.0284593980759382,-0.0546679385006428
291,-0.0539353229105473,-0.0449086725711823,-0.0131477974355221,-0.0264831576496363,-0.0358163453638554,-0.0413448587059975
292,-0.0664583519101143,-0.0322267115116119,-0.00904560554772615,-0.0161834880709648,-0.0367018952965736,-0.0330640003085136
293,-0.0722192898392677,-0.0104832937940955,-0.00267716706730425,-0.00857724249362946,-0.0269213318824768,-0.0253536459058523
294,-0.0565816350281239,0.0222374834120274,0.0172412469983101,0.00497415568679571,-0.00311546237207949,-0.000901806110050529
295,-0.0291426200419664,0.0608136542141438,0.0448759645223618,0.0200168434530497,0.0317614749073982,0.0350383669137955
296,-0.0113381687551737,0.0998051464557648,0.0565702579915524,0.0148663371801376,0.0637770742177963,0.059656597673893
297,-0.0191769283264875,0.13660392165184,0.0275223664939404,-0.0279905777424574,0.0647639706730843,0.0617280937731266
298,-0.051653977483511,0.150035664439201,-0.0442081615328789,-0.0987377092242241,0.0195155367255211,0.0433661825954914
299,-0.0867022797465324,0.117057017982006,-0.121788702905178,-0.158119425177574,-0.0402340516448021,0.0157387051731348
300,-0.0971632227301598,0.0555209219455719,-0.153561025857925,-0.165447697043419,-0.0652309507131577,-0.00798761285841465
301,-0.0829811319708824,0.00224961177445948,-0.125649720430374,-0.119175642728806,-0.048127569258213,-0.0229144804179668
302,-0.0632585361599922,-0.0342257805168629,-0.0682867392897606,-0.0541043840348721,-0.0113534666597843,-0.0250063128769398
303,-0.0459838323295116,-0.056396521627903,-0.0197774786502123,-0.00632086908444762,0.0272682383656502,-0.0125285657122731
304,-0.0393952503800392,-0.0646571442484856,-0.00126175803598017,0.00888094864785671,0.0477932207286358,-0.00157648348249495
305,-0.0483911074697971,-0.0712834149599075,-0.0028150980360806,0.00693225767463446,0.0401467606425285,-0.00442432519048452
306,-0.0593171194195747,-0.0759172290563583,-0.00767053198069334,0.00306652020663023,0.0179468281567097,-0.0137171717360616
307,-0.0560986548662186,-0.0679605379700661,-0.0200244802981615,-0.0108063332736492,-0.00251324917189777,-0.021236278116703
308,-0.0353279635310173,-0.0484779626131058,-0.0357953310012817,-0.0291020460426807,-0.0162899643182755,-0.012120028026402
309,-0.0204460043460131,-0.0263609532266855,-0.0399059318006039,-0.0379730388522148,-0.0329259224236012,0.0179226975888014
310,-0.0380039550364017,-0.0145933069288731,-0.0325503423810005,-0.0381918288767338,-0.059972520917654,0.0420207194983959
311,-0.0693327113986015,-0.0159109234809875,-0.0108695961534977,-0.0213782489299774,-0.0712121278047562,0.0472160391509533
312,-0.0723625794053078,-0.0212260764092207,0.0295212622731924,0.0180331021547318,-0.0359566323459148,0.0481289625167847
313,-0.0368583090603352,-0.0183419063687325,0.0747323483228683,0.0631162971258163,0.0290830209851265,0.0579028613865376
314,0.00919173657894135,0.000597655598539859,0.109853066504002,0.0980003401637077,0.087184838950634,0.0794517248868942
315,0.0375057570636272,0.0281770564615726,0.126699030399323,0.1146210283041,0.122581228613853,0.0989436060190201
316,0.0468282662332058,0.0522196553647518,0.121241331100464,0.106742613017559,0.133614271879196,0.106183007359505
317,0.0462343730032444,0.0719427540898323,0.0980957746505737,0.0756735280156136,0.123726047575474,0.111461162567139
318,0.0313830375671387,0.0865247249603271,0.0590560398995876,0.0232966747134924,0.0939286574721336,0.106426030397415
319,0.000175200751982629,0.0860354080796242,0.0105090280994773,-0.039375938475132,0.0526911020278931,0.0747913345694542
320,-0.0311242323368788,0.0636780858039856,-0.0269126854836941,-0.0833942741155624,0.0264090169221163,0.0352050475776196
321,-0.0491158217191696,0.0189187340438366,-0.0484925657510757,-0.0987981781363487,0.0237955637276173,0.00185999763198197
322,-0.0556192323565483,-0.0381073318421841,-0.0647498965263367,-0.102770499885082,0.0264358911663294,-0.0321914851665497
323,-0.0529282353818417,-0.0843639299273491,-0.0729591995477676,-0.10188515484333,0.0243478585034609,-0.0583785437047482
324,-0.0427515767514706,-0.101400755345821,-0.0642511025071144,-0.0901097655296326,0.0226815119385719,-0.0620554573833942
325,-0.0351384542882442,-0.0887397527694702,-0.0411813519895077,-0.0711972340941429,0.0264328252524138,-0.0442754365503788
326,-0.0350226126611233,-0.0581400915980339,-0.015330009162426,-0.0546245574951172,0.035784799605608,-0.0160078164190054
327,-0.0374552384018898,-0.0192517228424549,0.00343997939489782,-0.0455763787031174,0.0427341870963573,0.0139543870463967
328,-0.0441841594874859,0.0184767507016659,0.00821385625749826,-0.0459307357668877,0.0339667052030563,0.0433248542249203
329,-0.0587286725640297,0.0404916368424892,-0.00773395504802465,-0.0582669824361801,0.00601038848981261,0.0618389174342155
330,-0.0718291252851486,0.0374721549451351,-0.0466070175170898,-0.0904344692826271,-0.030535701662302,0.0464375652372837
331,-0.0720326825976372,0.00993175618350506,-0.0962249338626862,-0.137170806527138,-0.0604449957609177,-0.00424537435173988
332,-0.0581255108118057,-0.0349490493535995,-0.133405193686485,-0.170678526163101,-0.0752453356981277,-0.0581702627241611
333,-0.0367700234055519,-0.0821993723511696,-0.142338246107101,-0.168740972876549,-0.0751153081655502,-0.0865111127495766
334,-0.0138223636895418,-0.110028654336929,-0.117178380489349,-0.126273110508919,-0.0559027157723904,-0.0817798674106598
335,0.0071185976266861,-0.0998070612549782,-0.0633913949131966,-0.0593088194727898,-0.0168344136327505,-0.049214631319046
336,0.0175392553210258,-0.0562668144702911,-0.00738120405003428,-0.00727370101958513,0.0235541258007288,-0.00737886037677526
337,0.00619280664250255,-0.0187492966651917,0.0202064625918865,0.0057037528604269,0.0412833951413631,0.0175927765667439
338,-0.0218129437416792,-0.0120196361094713,0.0197768118232489,-0.00210771709680557,0.0354539453983307,0.0221542026847601
339,-0.0385034680366516,-0.00655826041474938,0.020600687712431,-3.91062276321463E-05,0.0351358838379383,0.0231023877859116
340,-0.0250119734555483,0.0181047655642033,0.0359034091234207,0.0172561425715685,0.057501420378685,0.0230573732405901
341,0.0083466898649931,0.0374637953937054,0.053658589720726,0.0344075374305248,0.0834913775324821,0.015415795147419
342,0.038262814283371,0.0332294180989265,0.0654337629675865,0.0424803122878075,0.0929811522364616,0.00776628078892827
343,0.046158991754055,0.0146501259878278,0.0692683905363083,0.043419174849987,0.0827196314930916,0.0133642069995403
344,0.031692523509264,0.000594901794102043,0.0641206130385399,0.0398783348500729,0.0600077286362648,0.0333018787205219
345,0.0117337545379996,-0.00108059495687485,0.0523476079106331,0.0293044950813055,0.041155744343996,0.056381955742836
346,-0.00570113305002451,0.00479852873831987,0.0360323637723923,0.00744668208062649,0.0316436253488064,0.0682660341262817
347,-0.0276492852717638,0.0116525134071708,0.0176975596696138,-0.0205141920596361,0.0189919862896204,0.0616713352501392
348,-0.0524997562170029,0.0139415580779314,0.00451859226450324,-0.0422183759510517,0.0019155804766342,0.0438889749348164
349,-0.0677610859274864,0.0183418374508619,0.00347639969550073,-0.0502003058791161,-0.00290758302435279,0.0336017310619354
350,-0.0743722319602966,0.0267091523855925,0.00496132578700781,-0.0540543012320995,0.00371173163875937,0.0392340868711472
351,-0.0888140648603439,0.0181881599128246,-0.0150550408288836,-0.0767767578363419,-0.00883406866341829,0.0365156531333923
352,-0.105535969138145,-0.0179353356361389,-0.0578421168029308,-0.115218639373779,-0.0486183278262615,-0.000865212350618094
353,-0.0938908234238625,-0.0699110552668571,-0.0955259054899216,-0.13722051680088,-0.0738929510116577,-0.0583451688289642
354,-0.0450023338198662,-0.114587552845478,-0.104380287230015,-0.124679520726204,-0.0534986406564713,-0.0996103584766388
355,0.0189706459641457,-0.122703820466995,-0.0755388662219048,-0.0783901214599609,-0.000246452778810635,-0.0986531227827072
356,0.0695637390017509,-0.0948125272989273,-0.0260274820029736,-0.0232010036706924,0.0528462715446949,-0.0656317546963692
357,0.0843542888760567,-0.0711249783635139,-0.000675795832648873,-0.00551405036821961,0.0678621083498001,-0.0488919578492641
358,0.0616014860570431,-0.0730402246117592,-0.0163731556385756,-0.0325485579669476,0.0366357676684856,-0.0692645609378815
359,0.0289029497653246,-0.0708455070853233,-0.0324650630354881,-0.0587362088263035,-0.00154650409240276,-0.0839927494525909
360,0.0155679285526276,-0.0336744450032711,-0.0116893518716097,-0.0498139597475529,-0.00915939081460238,-0.0519665703177452
361,0.0235261861234903,0.022485913708806,0.0304994005709887,-0.0149435764178634,0.0140717020258307,0.0147233176976442
362,0.0367047600448132,0.0621344186365604,0.0618109703063965,0.0200453661382198,0.0467112697660923,0.0795876085758209
363,0.0474947951734066,0.0757616981863976,0.0779310017824173,0.0463175252079964,0.0707704797387123,0.119879819452763
364,0.0532685294747353,0.0683666244149208,0.0853896737098694,0.0650056302547455,0.080485038459301,0.130812704563141
365,0.0461049787700176,0.0392791591584682,0.0776440054178238,0.0654376372694969,0.0788756161928177,0.118035919964314
366,0.0305107533931732,0.0012235053582117,0.0531262010335922,0.041090190410614,0.0721189901232719,0.0913186445832253
367,0.0167073700577021,-0.0257560722529888,0.0248907934874296,0.00354714482091367,0.0633128061890602,0.0571306943893433
368,0.00100850267335773,-0.0391726419329643,0.00153456488624215,-0.0334527976810932,0.0521941781044006,0.0214928798377514
369,-0.0218095183372498,-0.0376814566552639,-0.0190927758812904,-0.0635881945490837,0.0363472476601601,-0.00502321822568774
370,-0.0494782142341137,-0.0215316656976938,-0.0479680709540844,-0.0950531512498856,0.00703531038016081,-0.0255074892193079
371,-0.0719227492809296,-0.0147722130641341,-0.088146910071373,-0.132904767990112,-0.0347763188183308,-0.0573458783328533
372,-0.0687586218118668,-0.03037697263062,-0.107494354248047,-0.144875109195709,-0.0594746209681034,-0.090625561773777
373,-0.0329076610505581,-0.0395939461886883,-0.0749432072043419,-0.103967435657978,-0.0433504246175289,-0.0927596092224121
374,0.0112806940451264,-0.0133489975705743,-0.00891820061951876,-0.0386159606277943,-0.00176920520607382,-0.0606293715536594
375,0.0420059114694595,0.0360637530684471,0.053786363452673,0.0158319268375635,0.0417904034256935,-0.015486472286284
376,0.0646399855613709,0.0776829198002815,0.0987711027264595,0.0589919984340668,0.0803226232528687,0.0339747481048107
377,0.0853433310985565,0.100395075976849,0.127148032188416,0.0960797667503357,0.111416079103947,0.083719439804554
378,0.0960827097296715,0.100563570857048,0.140055373311043,0.116019979119301,0.132002979516983,0.119202703237534
379,0.0886411815881729,0.0674749836325645,0.131289139389992,0.103108376264572,0.133144095540047,0.122918829321861
380,0.0667093545198441,0.00561463134363294,0.09996148198843,0.0654625818133354,0.110297873616219,0.0946227833628654
381,0.0403315722942352,-0.0580143295228481,0.0609389878809452,0.03029297105968,0.0751618966460228,0.0623133629560471
382,0.0154783185571432,-0.0943821147084236,0.0308463461697102,0.00900043733417988,0.0406828336417675,0.0495578087866306
383,-0.00127589656040072,-0.093084380030632,0.0197242386639118,-0.00147314683999866,0.015491102822125,0.0453791432082653
384,-0.00777544965967536,-0.0674522742629051,0.021525714546442,-0.00979362335056067,0.000921954691875726,0.0260786022990942
385,-0.00884647760540247,-0.0474260412156582,0.0141862686723471,-0.0289876349270344,-0.0142526309937239,-0.0126025872305036
386,-0.00321294413879514,-0.0457654930651188,-0.00847930647432804,-0.0562787428498268,-0.0324868187308311,-0.0451063960790634
387,0.00649965507909656,-0.0304639283567667,-0.0333900041878223,-0.0787660479545593,-0.041211761534214,-0.0432456284761429
388,0.00013945261889603,0.0260346829891205,-0.067640908062458,-0.109067887067795,-0.0485972501337528,-0.0225497186183929
389,-0.0339913927018642,0.0906897634267807,-0.119647048413754,-0.157240718603134,-0.0722061023116112,-0.0211473070085049
390,-0.0678941607475281,0.112033918499947,-0.153668314218521,-0.184582650661469,-0.0894038081169128,-0.0388155318796635
391,-0.053833793848753,0.0880318507552147,-0.125098496675491,-0.146357968449593,-0.0552408993244171,-0.0416613966226578
392,0.0194259490817785,0.049418143928051,-0.0368958823382854,-0.047826673835516,0.0382723622024059,-0.0111180953681469
393,0.1052231118083,0.0142386388033628,0.0651085153222084,0.0622500889003277,0.142280176281929,0.0370315089821815
394,0.156241700053215,-0.0119013953953981,0.145656630396843,0.144714191555977,0.205112770199776,0.0855328962206841
395,0.168661028146744,-0.0264228153973818,0.19724252820015,0.194679364562035,0.218307912349701,0.13476499915123
396,0.155167445540428,-0.0336446575820446,0.212644651532173,0.210385799407959,0.191827967762947,0.17097295820713
397,0.123164132237434,-0.0381940789520741,0.19141036272049,0.187692731618881,0.13849501311779,0.167425841093063
398,0.0760289207100868,-0.0390894114971161,0.153898507356644,0.139154672622681,0.0809554159641266,0.122485734522343
399,0.0239008385688066,-0.0350317806005478,0.119916826486588,0.0852357149124146,0.0424701832234859,0.0645017921924591
400,-0.0152947921305895,-0.0241026766598225,0.0848104432225227,0.0323866754770279,0.0266032237559557,0.0233927797526121
401,-0.0352619215846062,-0.00597693538293242,0.0309040211141109,-0.0246996413916349,0.0147712267935276,0.00377409113571048
402,-0.0376674085855484,0.0164293795824051,-0.0386343859136105,-0.0828433781862259,-0.00478508695960045,-0.00403261231258512
403,-0.0270683038979769,0.0454481318593025,-0.0999123826622963,-0.130513355135918,-0.0330085158348084,-0.000680337310768664
404,-0.0248135179281235,0.0713390782475472,-0.139257490634918,-0.162541583180428,-0.0746272504329681,0.00350360968150198
405,-0.0442903153598309,0.0666905120015144,-0.148340448737144,-0.170602321624756,-0.109268672764301,-0.00969602167606354
406,-0.0625007078051567,0.0275050308555365,-0.114425987005234,-0.138670966029167,-0.0978914573788643,-0.0295389741659164
407,-0.0489344336092472,-0.0172915700823069,-0.0470455773174763,-0.0706783011555672,-0.0422000586986542,-0.0323249362409115
408,-0.00556451175361872,-0.0365964658558369,0.0227218922227621,0.00510922726243734,0.0200309455394745,-0.0136165069416165
409,0.0383532494306564,-0.026066679507494,0.0713920593261719,0.0631907060742378,0.0624546073377132,0.016604196280241
410,0.0652549639344215,-0.00351624144241214,0.09892188757658,0.0976529195904732,0.0881823226809502,0.0487492568790913
411,0.0805866345763206,0.0170951448380947,0.119069457054138,0.116517014801502,0.114528320729733,0.0791756957769394
412,0.0898272469639778,0.0223046038299799,0.132940247654915,0.123594485223293,0.143396064639091,0.102531306445599
413,0.0927070751786232,0.00824171397835016,0.130546703934669,0.115981012582779,0.158834978938103,0.112718649208546
414,0.0892528221011162,-0.00560142192989588,0.109772078692913,0.0957041084766388,0.149257481098175,0.110688611865044
415,0.0749666318297386,-0.00822142139077187,0.0701973289251328,0.0609473213553429,0.110389314591885,0.0946055501699448
416,0.0409199297428131,-0.0148155046626925,0.00954827573150396,0.00356390443630517,0.0386393740773201,0.0568358935415745
417,-0.00430658739060164,-0.0270844642072916,-0.0542413368821144,-0.0604075044393539,-0.0455298610031605,0.00541867408901453
418,-0.0265857726335526,-0.0163257140666246,-0.0896183177828789,-0.0967838540673256,-0.0963095873594284,-0.0327160805463791
419,-0.0124792065471411,0.0224278662353754,-0.0906704440712929,-0.0979187563061714,-0.096572145819664,-0.042961698025465
420,0.00252058519981802,0.0494300238788128,-0.0804007425904274,-0.0878656953573227,-0.078010268509388,-0.0367877148091793
421,-0.013260898180306,0.0357625335454941,-0.0736333131790161,-0.0841578394174576,-0.0725591257214546,-0.0261251535266638
422,-0.0428137332201004,0.00736885564401746,-0.0619291476905346,-0.073936365544796,-0.0737316459417343,-0.00692266132682562
423,-0.0596863068640232,0.00262975529767573,-0.0420764796435833,-0.0490784458816051,-0.0648746117949486,0.0187375526875257
424,-0.0629004612565041,0.0141995046287775,-0.022044038400054,-0.0287399273365736,-0.0446804650127888,0.0316140800714493
425,-0.0510302223265171,0.0141058685258031,-0.00301165832206607,-0.0239151064306498,-0.0104744117707014,0.0212752781808376
426,-0.0209725480526686,-0.006273721344769,0.00733069702982903,-0.0305930897593498,0.0301654208451509,-0.00443996768444777
427,0.00921277329325676,-0.0306014120578766,-0.000237569256569259,-0.0422727391123772,0.0536384284496307,-0.029005853459239
428,0.0263405963778496,-0.040133036673069,-0.00950506795197725,-0.0410015322268009,0.0582133941352367,-0.0300657879561186
429,0.0449163913726807,-0.0394396111369133,3.76365534293654E-07,-0.014535897411406,0.063250832259655,-0.000949166424106807
430,0.0717693492770195,-0.0354263857007027,0.0259157065302134,0.0251273680478334,0.0767116546630859,0.0382826402783394
431,0.0848752036690712,-0.0217584259808064,0.054631631821394,0.056991808116436,0.0886184126138687,0.0678628161549568
432,0.069231890141964,-0.00422195438295603,0.0724340081214905,0.0661834627389908,0.0829581618309021,0.0811203122138977
433,0.0374874547123909,0.00331632001325488,0.0702136531472206,0.0523527003824711,0.0551104955375195,0.0782895013689995
434,0.00894242897629738,0.00497806537896395,0.0469285547733307,0.0235305204987526,0.0160832051187754,0.0609964653849602
435,-0.00069833017187193,0.0148721402511001,0.00847912207245827,-0.014686037786305,-0.0171771608293056,0.0356618762016296
436,0.00879819691181183,0.037669163197279,-0.0307868123054504,-0.0507584884762764,-0.0333670936524868,0.0194341111928225
437,0.0131763825193048,0.0597492568194866,-0.0558333285152912,-0.0695630759000778,-0.0373774096369743,0.0171667076647282
438,-0.00235897116363049,0.0641971230506897,-0.0578459799289703,-0.0652213618159294,-0.0377609357237816,0.0179176349192858
439,-0.0252765137702227,0.0546318851411343,-0.0362190455198288,-0.0422979444265366,-0.0313100032508373,0.0160697884857655
440,-0.0400841571390629,0.0421249866485596,-0.00544611038640141,-0.0123199634253979,-0.0159500613808632,0.0087753888219595
441,-0.0400692746043205,0.0263555999845266,0.0189566612243652,0.0162550732493401,0.00436327420175076,0.00141459447331727
442,-0.0237783007323742,0.00721902120858431,0.0376298278570175,0.0405853316187859,0.0299838352948427,0.00724818091839552
443,0.00128689676057547,-0.0118972593918443,0.0512651763856411,0.0519761219620705,0.0567522831261158,0.0221578888595104
444,0.0225285608321428,-0.0327895060181618,0.0499496459960938,0.041819553822279,0.0695127919316292,0.0297080893069506
445,0.0343559049069881,-0.0592217743396759,0.0304195210337639,0.0156680475920439,0.0599101260304451,0.0227621551603079
446,0.0365498960018158,-0.0866952612996101,0.00557164987549186,-0.0138484369963408,0.0355646535754204,0.00461184978485107
447,0.0239399243146181,-0.0972699448466301,-0.0141070866957307,-0.0427353568375111,0.00370025471784174,-0.0156875047832727
448,-0.00814643781632185,-0.0785615518689156,-0.038717195391655,-0.0782905071973801,-0.0380188673734665,-0.0377225913107395
449,-0.0509109310805798,-0.0490543507039547,-0.0776656791567802,-0.120097860693932,-0.0838580802083015,-0.0677540376782417
450,-0.0808533355593681,-0.0337310247123241,-0.110453329980373,-0.146346092224121,-0.106772735714912,-0.0877996385097504
451,-0.0801063030958176,-0.026947233825922,-0.107179746031761,-0.136139556765556,-0.0833262354135513,-0.0734094828367233
452,-0.0547321178019047,-0.00907065253704786,-0.0644278898835182,-0.0920045971870422,-0.0236524920910597,-0.0340959690511227
453,-0.0146959694102407,0.0212872922420502,-0.00902840308845043,-0.0386819429695606,0.0380622297525406,0.00268874643370509
454,0.0308726485818625,0.0407490953803062,0.0213137529790401,-0.0093102715909481,0.0652859061956406,0.0111451772972941
455,0.0573663227260113,0.028485968708992,0.0144151914864779,-0.012521174736321,0.0434643477201462,-0.0157327391207218
456,0.0495321452617645,-0.00217715441249311,-0.00408658059313893,-0.02052041888237,-0.00229592877440155,-0.0453969649970531
457,0.0287913270294666,-0.0148910293355584,-0.000162021518917754,-0.00223248940892518,-0.028783280402422,-0.0352793186903
458,0.0254142917692661,0.00863323360681534,0.0357124581933022,0.0425508283078671,-0.0137145398184657,0.0196784902364016
459,0.0392414890229702,0.0507307723164558,0.0808876529335976,0.0851468145847321,0.024574663490057,0.087208092212677
460,0.0517314188182354,0.0884275212883949,0.109773874282837,0.101833119988441,0.0514989048242569,0.139056891202927
461,0.0488193221390247,0.118260949850082,0.114568747580051,0.0888922661542892,0.0505550093948841,0.167475119233131
462,0.0241184253245592,0.129072785377502,0.0909403860569,0.0488362722098827,0.0193184148520231,0.161709442734718
463,-0.0105254715308547,0.0931620597839355,0.0354490540921688,-0.00969156250357628,-0.034176230430603,0.109113655984402
464,-0.033167690038681,0.0136376013979316,-0.0295137707144022,-0.0588243752717972,-0.078169010579586,0.0310930199921131
465,-0.0337158888578415,-0.0615049004554749,-0.0619092099368572,-0.0669847428798676,-0.0790426284074783,-0.0226712096482515
466,-0.01657759770751,-0.0894071608781815,-0.0454419068992138,-0.0333407483994961,-0.0395450741052628,-0.0259269084781408
467,0.00459209550172091,-0.073605865240097,-0.00216655805706978,0.0140958447009325,0.00965037755668163,0.00439218990504742
468,0.0145513713359833,-0.0474336631596088,0.0358276255428791,0.0468069575726986,0.0405227951705456,0.0364916622638702
469,0.0110791996121407,-0.0256455074995756,0.0585021153092384,0.0589184463024139,0.0483231768012047,0.0605083554983139
470,0.00444896752014756,-0.000477930152555928,0.0715021565556526,0.0590429157018662,0.0477268733084202,0.0797462314367294
471,0.00344741973094642,0.0269758924841881,0.0708165690302849,0.047522995620966,0.0515355505049229,0.0853230431675911
472,0.0138823073357344,0.0504852756857872,0.0564035773277283,0.0269750338047743,0.0668613761663437,0.0700015127658844
473,0.0347878895699978,0.0640522465109825,0.0363133326172829,0.00450324034318328,0.0828706175088882,0.0356182716786861
474,0.057115625590086,0.054565005004406,0.0108298873528838,-0.0206996239721775,0.0722675919532776,-0.0101719815284014
475,0.0675205364823341,0.022819334641099,-0.0166214965283871,-0.0447790734469891,0.0318580903112888,-0.0483193919062614
476,0.0553255118429661,-0.0139425853267312,-0.034622561186552,-0.0557274259626865,-0.0133763272315264,-0.0638781040906906
477,0.0308632459491491,-0.0422341525554657,-0.0354321300983429,-0.0466777272522449,-0.0402853228151798,-0.0566294193267822
478,0.0107824159786105,-0.054045919328928,-0.0205629859119654,-0.0223014503717422,-0.0438794232904911,-0.0307593550533056
479,-0.00266563170589507,-0.0465832054615021,0.00374464388005435,0.00593124609440565,-0.0325503833591938,0.00528986798599362
480,-0.00713452696800232,-0.0171357560902834,0.0346483141183853,0.0309451520442963,-0.0112362280488014,0.041243527084589
481,-0.00495882797986269,0.036226786673069,0.0563034154474735,0.0391776412725449,0.00671291956678033,0.067637674510479
482,-0.00847376976162195,0.0923042520880699,0.0412062220275402,0.0115223210304976,-0.00240004272200167,0.0746521055698395
483,-0.0194397419691086,0.112394273281097,-0.0115592731162906,-0.0454785525798798,-0.0382012538611889,0.0566044449806213
484,-0.0318654887378216,0.0869213715195656,-0.0713824555277824,-0.100299946963787,-0.0753379091620445,0.0189742110669613
485,-0.0418429858982563,0.0464113503694534,-0.104280754923821,-0.123685605823994,-0.0924453362822533,-0.0152948321774602
486,-0.0464989356696606,0.0154382465407252,-0.103883147239685,-0.113250657916069,-0.0904670804738998,-0.0339688807725906
487,-0.0486469641327858,-0.0158065389841795,-0.0912507772445679,-0.092031829059124,-0.0848598852753639,-0.0538458563387394
488,-0.0427058897912502,-0.0532332360744476,-0.0688761696219444,-0.0656552389264107,-0.0701922625303268,-0.0729418769478798
489,-0.0128521490842104,-0.0730895921587944,-0.0245169289410114,-0.0243184268474579,-0.0259121730923653,-0.0637304931879044
490,0.0348666310310364,-0.0648171976208687,0.0232410002499819,0.0167101006954908,0.0358856022357941,-0.0272282529622316
491,0.0712271109223366,-0.0439994819462299,0.0467250496149063,0.0355276726186275,0.080506257712841,0.0142460642382503
492,0.0766999423503876,-0.0196477044373751,0.0425115339457989,0.0261406302452087,0.0926069989800453,0.0447814539074898
493,0.059259906411171,0.00712392944842577,0.0172271225601435,-0.0112997498363256,0.0786779522895813,0.0492458902299404
494,0.0442377962172031,0.025267630815506,-0.0229537840932608,-0.0659059509634972,0.0534632280468941,0.0211479738354683
495,0.0435965806245804,0.0228185560554266,-0.062202911823988,-0.1078936830163,0.029971856623888,-0.0263511706143618
496,0.044384241104126,0.00816180929541588,-0.0774525254964828,-0.111833952367306,0.0150279980152845,-0.0654326677322388
497,0.0348278880119324,-0.00180792005266994,-0.0599527843296528,-0.0830258652567863,0.00811625923961401,-0.0749998986721039
498,0.0154504450038075,-0.00546700600534678,-0.0205314736813307,-0.0407777279615402,-0.00104732124600559,-0.0567581504583359
499,-0.00571903958916664,-0.00773320579901338,0.025980157777667,0.00630407501012087,-0.0172575302422047,-0.0257175713777542
500,-0.0155823435634375,-0.00463618850335479,0.0702544152736664,0.0557493679225445,-0.0279704909771681,0.00767820049077272
501,-0.0106744971126318,0.0088707460090518,0.101325020194054,0.0944985449314117,-0.0261289570480585,0.0380200706422329
502,0.00219076103530824,0.0308919847011566,0.110128782689571,0.108588039875031,-0.0183238945901394,0.061594732105732
503,0.0146087082102895,0.0508210957050323,0.0987372472882271,0.0992549732327461,-0.010086115449667,0.079165980219841
504,0.0179229192435741,0.0560134500265121,0.0731296241283417,0.0728693082928658,-0.00654213689267635,0.0882085710763931
505,0.0161005016416311,0.0527430400252342,0.0450338497757912,0.0404213778674603,-0.00661851186305285,0.0856157541275024
506,0.0247719325125217,0.0638478472828865,0.02871984988451,0.0154248308390379,0.00129364000167698,0.0787198692560196
507,0.0471649616956711,0.0913639068603516,0.023607574403286,-0.00126143475063145,0.0221183896064758,0.0719502195715904
508,0.0690497383475304,0.103348679840565,0.016648530960083,-0.0141475042328238,0.0466557592153549,0.0544142723083496
509,0.0759291127324104,0.0707680061459541,-0.00355473859235644,-0.0261868946254253,0.0573549270629883,0.0198528189212084
510,0.0652675926685333,0.00254341936670244,-0.0383844673633575,-0.0420786254107952,0.037489227950573,-0.0155342780053616
511,0.0431344769895077,-0.0602213554084301,-0.0736311599612236,-0.0590492412447929,-0.00770641351118684,-0.0326664596796036
512,0.0192601457238197,-0.083498626947403,-0.091675765812397,-0.0710185989737511,-0.0464755147695541,-0.0337600745260715
513,0.00447348924353719,-0.0709417387843132,-0.0958888530731201,-0.0859032645821571,-0.0580289475619793,-0.0389496237039566
514,-0.00432261265814304,-0.0537608563899994,-0.101982891559601,-0.115369729697704,-0.0554720312356949,-0.0689771175384521
515,-0.0169738531112671,-0.0526454001665115,-0.108845628798008,-0.151141822338104,-0.0557007193565369,-0.119907833635807
516,-0.0236873105168343,-0.0596826337277889,-0.0983481183648109,-0.163539409637451,-0.0544305853545666,-0.155778557062149
517,-0.0104275103658438,-0.0594048500061035,-0.0589960105717182,-0.128322795033455,-0.0415327437222004,-0.142362549901009
518,0.0176126807928085,-0.047400489449501,-0.00125411956105381,-0.0554961077868938,-0.0196888167411089,-0.084369957447052
519,0.0497628673911095,-0.0269255544990301,0.0571656078100204,0.0244865864515305,0.0059526851400733,-0.0145802311599255
520,0.079315148293972,-0.00245430530048907,0.102183729410172,0.0860136225819588,0.0340411700308323,0.0379512719810009
521,0.100534275174141,0.026205763220787,0.12180345505476,0.115503132343292,0.058161299675703,0.0616199821233749
522,0.114733681082726,0.0611414946615696,0.118765406310558,0.117327734827995,0.0713608115911484,0.0698568522930145
523,0.119656682014465,0.0857452377676964,0.0984087809920311,0.0987539738416672,0.0637693852186203,0.0782984346151352
524,0.10221865773201,0.0778953060507774,0.0557213872671127,0.0587464086711407,0.0247443579137325,0.0782423838973045
525,0.0576411932706833,0.0449993424117565,-0.000669205386657268,0.00470698997378349,-0.0346967540681362,0.0595295242965221
526,-0.00134105375036597,0.00968819297850132,-0.0488250628113747,-0.0449671372771263,-0.0867913290858269,0.0304752271622419
527,-0.0492751747369766,-0.0127205969765782,-0.0709930956363678,-0.0698883533477783,-0.105887293815613,0.00541012920439243
528,-0.0674327984452248,-0.0143975084647536,-0.0643579736351967,-0.0643104612827301,-0.0839551314711571,-0.0101923979818821
529,-0.0628982111811638,-0.00630438420921564,-0.0535394623875618,-0.0537082850933075,-0.0493938215076923,-0.0198349952697754
530,-0.0486541576683521,-0.00775504438206553,-0.0564878173172474,-0.0565731786191463,-0.0327632613480091,-0.0249744970351458
531,-0.0262476075440645,-0.0189694613218308,-0.0531152635812759,-0.0548060238361359,-0.0264943577349186,-0.0263842102140188
532,0.00243203341960907,-0.0285306591540575,-0.0229211114346981,-0.0324194096028805,-0.0104382075369358,-0.0266430862247944
533,0.0292976200580597,-0.0253576822578907,0.0226358212530613,0.000501313304994255,0.0158251859247684,-0.0228466354310513
534,0.0409479178488255,-0.00806355103850365,0.0552463605999947,0.0195401944220066,0.0357426889240742,-0.0171942133456469
535,0.0350802130997181,0.0104717705398798,0.0602145902812481,0.0106185395270586,0.0388502441346645,-0.0230988301336765
536,0.030520536005497,0.0190532952547073,0.0470770560204983,-0.00909707881510258,0.0305172372609377,-0.0422005876898766
537,0.0391751229763031,0.0107545834034681,0.0320041254162788,-0.0137279015034437,0.0182352103292942,-0.0591983869671822
538,0.0560142993927002,-0.0134311122819781,0.0291041787713766,0.00739788683131337,0.011277942918241,-0.0538683645427227
539,0.0743614584207535,-0.0299751423299313,0.0442255213856697,0.0471894443035126,0.0191533975303173,-0.0148989679291844
540,0.085115484893322,-0.00591223733499646,0.0619261227548122,0.0787958279252052,0.0311616323888302,0.0436520464718342
541,0.0768672227859497,0.062551237642765,0.0576793439686298,0.074509434401989,0.022958692163229,0.0913153886795044
542,0.0485570318996906,0.126844391226768,0.0235919095575809,0.033986046910286,-0.0141871841624379,0.105488292872906
543,0.0156123926863074,0.134405612945557,-0.0209785122424364,-0.011262190528214,-0.0622983798384666,0.0956105291843414
544,-0.00354451686143875,0.0932843387126923,-0.0496816821396351,-0.033174354583025,-0.0921438932418823,0.0878524705767632
545,-0.0098802512511611,0.0366938598453999,-0.0608089342713356,-0.0437198840081692,-0.0944273397326469,0.0700500160455704
546,-0.0130619294941425,-0.0247100815176964,-0.0657131001353264,-0.0614926107227802,-0.0809902027249336,0.0171337481588125
547,-0.00407447386533022,-0.0777707397937775,-0.061152245849371,-0.070870079100132,-0.0576453842222691,-0.0438855960965157
548,0.0207491759210825,-0.100070737302303,-0.0445247702300549,-0.058669026941061,-0.0299272816628218,-0.0776908248662949
549,0.0405349582433701,-0.0911541730165482,-0.029152387753129,-0.0424678102135658,-0.0108441179618239,-0.0927989557385445
550,0.0410179011523724,-0.0702729895710945,-0.0278359763324261,-0.0441172644495964,-0.00394481234252453,-0.106648027896881
551,0.0215961132198572,-0.0525754801928997,-0.0417924821376801,-0.0699254050850868,-0.00982864107936621,-0.12294914573431
552,-0.00692309159785509,-0.0388748124241829,-0.0559695139527321,-0.098599873483181,-0.0252717882394791,-0.132431373000145
553,-0.0204055681824684,-0.0132172368466854,-0.0441023223102093,-0.0922245159745216,-0.0281280782073736,-0.111514836549759
554,-0.00650159176439047,0.0308287963271141,0.000949198903981596,-0.0428579077124596,0.000672015768941492,-0.052598562091589
555,0.0278195347636938,0.0714163780212402,0.0566152483224869,0.022186454385519,0.0563609413802624,0.0192744545638561
556,0.0651969313621521,0.0907433852553368,0.0908798277378082,0.0712824836373329,0.106901228427887,0.0715722665190697
557,0.0876862332224846,0.0941067636013031,0.0865249112248421,0.0847298204898834,0.112867131829262,0.087098129093647
558,0.0890007764101028,0.0861868485808373,0.057749580591917,0.0669543445110321,0.0721747353672981,0.0719241946935654
559,0.0747731849551201,0.0630228444933891,0.0311739277094603,0.0414691120386124,0.0178714655339718,0.0458590947091579
560,0.0587253533303738,0.0330334305763245,0.0177889354526997,0.0252434872090817,-0.0195128433406353,0.0255190543830395
561,0.0484407097101212,0.0174809508025646,0.0149450022727251,0.0162986423820257,-0.0300183035433292,0.0216335896402597
562,0.0363568551838398,0.0143251260742545,0.0111383674666286,0.00203449022956192,-0.0276642218232155,0.0274475328624249
563,0.0218522548675537,-0.00123821315355599,-0.00289635010994971,-0.0199028812348843,-0.0316025726497173,0.0236758589744568
564,0.0140037685632706,-0.0305165257304907,-0.0231012869626284,-0.0397560372948647,-0.0425549745559692,0.00356134283356369
565,0.00790471956133842,-0.0464983657002449,-0.0437579415738583,-0.0565585866570473,-0.052264928817749,-0.0273440461605787
566,-0.00497791497036815,-0.0324682407081127,-0.0613665468990803,-0.0728247612714767,-0.0583224333822727,-0.0537589192390442
567,-0.0182019509375095,-0.00656042993068695,-0.0687015131115913,-0.0781930610537529,-0.0600974820554256,-0.0654682368040085
568,-0.0195990316569805,0.0028776025865227,-0.0578508861362934,-0.0626827478408813,-0.0527893342077732,-0.0695034638047218
569,-0.00644343346357346,-0.00528453243896365,-0.0276477094739676,-0.0325173512101173,-0.0307690221816301,-0.0688195005059242
570,0.00879702996462584,-0.0136157432571054,0.00565176131203771,-0.00530358217656612,-0.00404772441834211,-0.0636597126722336
571,0.0166145488619804,-0.00964509695768356,0.0200053360313177,0.00662319455295801,0.010411337018013,-0.0597580038011074
572,0.0269722063094378,0.00784624181687832,0.0177270770072937,0.00636649644002318,0.0238533169031143,-0.051276370882988
573,0.0459518618881702,0.0172606129199266,0.0071814302355051,-0.00660050148144364,0.0509847924113274,-0.0369463562965393
574,0.061052743345499,-0.00228481041267514,-0.0153266424313188,-0.0321871936321259,0.069892443716526,-0.0304232370108366
575,0.0581849291920662,-0.0345686264336109,-0.0410792641341686,-0.0497891455888748,0.0514347106218338,-0.0344892516732216
576,0.0365974642336369,-0.0520104095339775,-0.0503821596503258,-0.0433455854654312,-0.000936048745643348,-0.0402186848223209
577,0.0149008324369788,-0.042560949921608,-0.0271313712000847,-0.0127430213615298,-0.0499083362519741,-0.0313486270606518
578,0.0124073764309287,-0.0137044554576278,0.0295285154134035,0.0357947833836079,-0.0597008243203163,0.00559662003070116
579,0.0247264932841063,0.0118799032643437,0.093216672539711,0.0864326655864716,-0.0355030968785286,0.056783601641655
580,0.038654126226902,0.0286031346768141,0.135515958070755,0.123827248811722,-0.00443994672968984,0.104895576834679
581,0.0500633455812931,0.0523976273834705,0.149982154369354,0.139434888958931,0.0222538132220507,0.147567942738533
582,0.0565586350858212,0.0810059756040573,0.136916100978851,0.126124665141106,0.0403454601764679,0.163500726222992
583,0.0561306849122047,0.093100979924202,0.0992517173290253,0.0871684923768044,0.0444052331149578,0.132370427250862
584,0.0480394288897514,0.0804565027356148,0.0451575554907322,0.0335877053439617,0.0317811705172062,0.0697783604264259
585,0.0297080855816603,0.045583575963974,-0.0195012055337429,-0.0271382536739111,-0.000871024327352643,-0.00416050758212805
586,0.00308732292614877,-0.00817055813968182,-0.0806430503726006,-0.0823130905628204,-0.0440930165350437,-0.0774515569210052
587,-0.0154157849028707,-0.0655293986201286,-0.112997591495514,-0.112161353230476,-0.0689156726002693,-0.131749346852303
588,-0.00409612990915775,-0.0995378121733665,-0.102625116705894,-0.103641971945763,-0.0571003817021847,-0.150139346718788
589,0.0331509932875633,-0.0916455537080765,-0.0601456686854362,-0.0628521367907524,-0.0221842601895332,-0.125495299696922
590,0.067501574754715,-0.047847755253315,-0.0108706364408135,-0.0139187658205628,0.0141599448397756,-0.0673246532678604
591,0.0861537754535675,0.00323589728213847,0.0229959767311811,0.0215784460306168,0.0484692305326462,-0.00342647079378366
592,0.0998996496200562,0.0345294401049614,0.0325643010437489,0.0363960079848766,0.0840592086315155,0.0376985818147659
593,0.112378410995007,0.0389117859303951,0.0232506059110165,0.0312859304249287,0.104783110320568,0.0436443686485291
594,0.112742833793163,0.0251705646514893,0.0133863463997841,0.0173926781862974,0.0913101062178612,0.0275681335479021
595,0.0936770886182785,0.0165118835866451,0.0199207905679941,0.0107945846393704,0.0549389086663723,0.0140404859557748
596,0.0598809234797955,0.020817294716835,0.0382779873907566,0.0122924353927374,0.0187352448701859,0.0118590127676725
597,0.0218842606991529,0.00986067485064268,0.0497868098318577,0.0147898197174072,-0.0123638845980167,0.0234176330268383
598,-0.00929961353540421,-0.0273526329547167,0.0492574460804462,0.0209751706570387,-0.038034375756979,0.0481108464300632
599,-0.0247072633355856,-0.0655309185385704,0.0464348457753658,0.0328437983989716,-0.0492179691791534,0.0657675638794899
600,-0.0216589644551277,-0.0845122337341309,0.0463215596973896,0.0441888347268105,-0.0406425893306732,0.0602694749832153
601,-0.00641292100772262,-0.0816803798079491,0.0440656207501888,0.0477968119084835,-0.02124984562397,0.0411155745387077
602,0.0093111852183938,-0.060141310095787,0.0311072934418917,0.03789172321558,-0.00857117213308811,0.021787416189909
603,0.0183312017470598,-0.0245964527130127,0.00757117150351405,0.0149465622380376,-0.00973367318511009,0.00591636914759874
604,0.0206818263977766,0.0147896036505699,-0.0143659953027964,-0.012800638563931,-0.0143252834677696,-0.00598669331520796
605,0.0193632505834103,0.0419755391776562,-0.0247137919068336,-0.0336674302816391,-0.0127805266529322,-0.0157654341310263
606,0.0177994556725025,0.0418136082589626,-0.0209715235978365,-0.0375420227646828,-0.00722421752288938,-0.0258481744676828
607,0.019211420789361,0.0160034094005823,-0.0053308205679059,-0.0235686209052801,-0.00123205257114023,-0.0341884046792984
608,0.0240165814757347,-0.013883107341826,0.00923579465597868,-0.0050241407006979,0.00388290197588503,-0.036812886595726
609,0.0213339105248451,-0.0320361107587814,-0.00365690141916275,-0.0106771914288402,-0.00233035441488028,-0.0390016622841358
610,0.00180122058372945,-0.0450837351381779,-0.0551449172198772,-0.0575191117823124,-0.0284975115209818,-0.0580985695123672
611,-0.0185226686298847,-0.0655181854963303,-0.113335683941841,-0.117031738162041,-0.0541408360004425,-0.0948086529970169
612,-0.00901922862976789,-0.0868144035339355,-0.136052548885345,-0.143675342202187,-0.0517888590693474,-0.115581043064594
613,0.0305198300629854,-0.0896250903606415,-0.119914993643761,-0.131037071347237,-0.0289295502007008,-0.0969893708825111
614,0.0584225431084633,-0.0673364922404289,-0.0898658111691475,-0.106799013912678,-0.0112127820029855,-0.0519988089799881
615,0.0512249656021595,-0.0346748009324074,-0.0550193302333355,-0.0787874832749367,-0.000858406710904092,-0.000219038454815745
616,0.0285507626831532,-0.0121779926121235,-0.00717115588486195,-0.029839139431715,0.0188441388309002,0.0449024550616741
617,0.0112275881692767,-0.00205572182312608,0.0488516315817833,0.0372261218726635,0.0523124001920223,0.0743542835116386
618,0.00663287192583084,0.00311209540814161,0.0970952585339546,0.0949461758136749,0.0885156095027924,0.0844700559973717
619,0.0201496463268995,0.00297736073844135,0.132624283432961,0.131418913602829,0.124135851860046,0.0832384079694748
620,0.0484679341316223,0.00139472703449428,0.153856128454208,0.151223510503769,0.159318044781685,0.0873508453369141
621,0.0746050104498863,0.00163013010751456,0.147453084588051,0.146267294883728,0.173345625400543,0.0955353155732155
622,0.0777939632534981,-0.00868122652173042,0.104351326823235,0.108179643750191,0.141074657440186,0.0848874673247337
623,0.0522210896015167,-0.0322073064744473,0.042250320315361,0.0537368170917034,0.0699164494872093,0.0455556362867355
624,0.0210782159119844,-0.0471923686563969,-0.00287526566535234,0.0129058491438627,0.00262433150783181,-0.000313219206873327
625,0.00820004288107157,-0.0386243164539337,-0.0155490562319756,-0.00721623515710235,-0.0253796596080065,-0.0274780504405499
626,0.00386609672568738,-0.0199051406234503,-0.0204768907278776,-0.0301955305039883,-0.028379762545228,-0.0431078113615513
627,-0.0136309741064906,-0.0161131806671619,-0.0389983057975769,-0.0645017400383949,-0.041727926582098,-0.0670467913150787
628,-0.04075812920928,-0.0282082874327898,-0.0494899414479733,-0.0786548405885696,-0.0644114390015602,-0.0858934819698334
629,-0.0520602986216545,-0.0347301661968231,-0.0240809042006731,-0.044881958514452,-0.0674047991633415,-0.0645124092698097
630,-0.0288802739232779,-0.0259532947093248,0.0339176766574383,0.0286064855754375,-0.0325956493616104,0.00996806379407644
631,0.02122737839818,-0.00944783352315426,0.0988408848643303,0.109166920185089,0.0311850197613239,0.106584414839745
632,0.0732361227273941,0.00780245009809732,0.143060430884361,0.16151836514473,0.0942929536104202,0.174696028232574
633,0.105072990059853,0.0236317552626133,0.1509929895401,0.167430564761162,0.129750773310661,0.192021325230598
634,0.105882465839386,0.0334716476500034,0.119895108044147,0.127739459276199,0.126806885004044,0.16390460729599
635,0.0834628418087959,0.0358629561960697,0.0660166218876839,0.0638672113418579,0.0962518826127052,0.105066731572151
636,0.0578722506761551,0.0354849249124527,0.0204338859766722,0.012801674194634,0.0656906887888908,0.0401216670870781
637,0.0401705391705036,0.0287531688809395,0.00143861339893192,-0.00475052557885647,0.0526565611362457,-0.0101221054792404
638,0.0326846614480019,0.00784471072256565,0.00529224891215563,0.00352908065542579,0.0546614341437817,-0.0369277410209179
639,0.0335930399596691,-0.0227350182831287,0.0133538777008653,0.014075986109674,0.0618941001594067,-0.0444253981113434
640,0.037084449082613,-0.0485814064741135,0.00865328125655651,0.00767484772950411,0.0679986998438835,-0.0469796359539032
641,0.0408254340291023,-0.0533325485885143,-0.00429150369018316,-0.0137749463319778,0.072349026799202,-0.0479506216943264
642,0.0393329076468945,-0.0420531779527664,-0.0176345109939575,-0.0425348803400993,0.0659320056438446,-0.0438571609556675
643,0.0252578556537628,-0.043240275233984,-0.0356629937887192,-0.0724183097481728,0.0375058054924011,-0.0428776443004608
644,0.00554420799016953,-0.0614460036158562,-0.0508951433002949,-0.0859360918402672,0.00554384524002671,-0.0464630909264088
645,-0.00702871195971966,-0.0678585097193718,-0.0474504791200161,-0.0742914825677872,-0.00111653923522681,-0.0428451746702194
646,-0.00963278580456972,-0.0515731126070023,-0.031831581145525,-0.0574243776500225,0.0094632375985384,-0.0350896306335926
647,-0.00960866268724203,-0.0392866209149361,-0.0280119553208351,-0.0582912415266037,0.0102775450795889,-0.0347703844308853
648,-0.0180587936192751,-0.0462686121463776,-0.052505724132061,-0.0819642171263695,-0.00704680848866701,-0.0404563024640083
649,-0.0313918106257916,-0.0587859451770782,-0.101963065564632,-0.124452516436577,-0.0376209430396557,-0.0525135137140751
650,-0.0303272139281034,-0.0717076286673546,-0.147727653384209,-0.168113872408867,-0.0665061101317406,-0.0698759704828262
651,-0.0139426430687308,-0.0907241031527519,-0.153752118349075,-0.176301673054695,-0.0726778879761696,-0.0784421786665916
652,-0.000737030291929841,-0.105148106813431,-0.106037795543671,-0.124465838074684,-0.0507145896553993,-0.0700411945581436
653,-0.000681661360431463,-0.0986809581518173,-0.020108986645937,-0.0302225667983294,-0.0154475448653102,-0.0481701381504536
654,-0.00828580558300018,-0.0729809924960136,0.0729406401515007,0.0669477432966232,0.0181398391723633,-0.015056949108839
655,-0.00777398003265262,-0.0340292677283287,0.150565639138222,0.14337731897831,0.0523226819932461,0.0299389827996492
656,0.00540645746514201,0.0125180259346962,0.20239731669426,0.19061803817749,0.0899528190493584,0.0792582929134369
657,0.0190367382019758,0.0526880398392677,0.221885219216347,0.204095646739006,0.11884356290102,0.120902448892593
658,0.0210464894771576,0.0728700235486031,0.206064522266388,0.18327771127224,0.122037261724472,0.146184146404266
659,0.00560187082737684,0.0697635486721992,0.156613513827324,0.130737394094467,0.0914607346057892,0.142163693904877
660,-0.0202993638813496,0.0529334843158722,0.0871774479746819,0.0588674359023571,0.0405403003096581,0.106360383331776
661,-0.0460670180618763,0.0302685834467411,0.0165464822202921,-0.0152724180370569,-0.0076635954901576,0.0566688179969788
662,-0.0677427053451538,0.00354552525095642,-0.0419519618153572,-0.0790756642818451,-0.0388250350952148,0.0116602024063468
663,-0.0743045285344124,-0.0150781376287341,-0.0751246213912964,-0.116451777517796,-0.0409494303166866,-0.0155814662575722
664,-0.0523468442261219,-0.0198039691895247,-0.0795459002256393,-0.117554001510143,-0.00578425917774439,-0.0261888392269611
665,-0.00686908792704344,-0.0295551661401987,-0.0681474432349205,-0.0957256779074669,0.0523743890225887,-0.0353930480778217
666,0.0356835052371025,-0.0535766184329987,-0.0585072338581085,-0.0787886455655098,0.0895550772547722,-0.0475554727017879
667,0.0458062812685966,-0.0749921798706055,-0.0622230507433414,-0.0792638659477234,0.0690374225378037,-0.05703941360116
668,0.0247969590127468,-0.0762609988451004,-0.067143402993679,-0.0762211233377457,0.0112131871283054,-0.0556319840252399
669,0.00660069519653916,-0.0517296604812145,-0.0440121740102768,-0.0419401004910469,-0.0252287872135639,-0.02675811201334
670,0.0107668722048402,-0.0104737058281899,0.00820024870336056,0.0173921175301075,-0.0139079727232456,0.0300690531730652
671,0.0222594421356916,0.0262778792530298,0.0531680099666119,0.064519889652729,0.0195416640490294,0.081137977540493
672,0.0203295666724443,0.0373593531548977,0.0617367103695869,0.0735152587294579,0.043874304741621,0.0902306586503983
673,0.0096520846709609,0.0189508851617575,0.0452239066362381,0.055236104875803,0.0559646673500538,0.0560417398810387
674,0.010371564887464,-0.00851800013333559,0.0327353291213512,0.0357986688613892,0.0645598173141479,0.00809902511537075
675,0.0252050161361694,-0.0219314210116863,0.0313328504562378,0.0249810460954905,0.0679964870214462,-0.025512894615531
676,0.0350927673280239,-0.017253864556551,0.0270290952175856,0.0123267536982894,0.0573533847928047,-0.035726260393858
677,0.0254992470145226,-0.00533572351559997,0.0129708442837,-0.00785189960151911,0.0325672924518585,-0.0263744350522757
678,0.00926731154322624,0.00372659089043736,0.00289050652645528,-0.0196605492383242,0.00890601333230734,-0.00549633568152785
679,0.00171822775155306,0.000859848572872579,0.00651902845129371,-0.0133587373420596,-0.00639001466333866,0.01126828789711
680,0.00123885425273329,-0.0155403017997742,0.0198851712048054,0.00567360501736403,-0.0153519734740257,0.016725080087781
681,0.00437475088983774,-0.0302046202123165,0.041773185133934,0.0364872254431248,-0.0103075848892331,0.0251892767846584
682,0.0134167559444904,-0.0279788691550493,0.0733657330274582,0.0774283558130264,0.0193102397024632,0.0499611608684063
683,0.0342999957501888,-0.00446500396355987,0.112070344388485,0.117130048573017,0.0776173919439316,0.0881292521953583
684,0.0556494742631912,0.0275362264364958,0.139408335089684,0.133195817470551,0.142991200089455,0.118070490658283
685,0.053927518427372,0.0403509028255939,0.129920780658722,0.107878930866718,0.170276269316673,0.117472514510155
686,0.0275870338082314,0.0271606091409922,0.0842984020709991,0.052284300327301,0.139415726065636,0.0965536683797836
687,-0.00822147261351347,0.0120603833347559,0.0253406558185816,-0.00822570733726025,0.0714686885476112,0.076951302587986
688,-0.0404087603092194,0.0139503432437778,-0.0276737660169601,-0.0607574209570885,0.000331830844515935,0.0531483590602875
689,-0.0603465028107166,0.0226613655686378,-0.0651734620332718,-0.09830491989851,-0.0479992777109146,0.0113814519718289
690,-0.0587211735546589,0.0223259851336479,-0.0805308818817139,-0.107896596193314,-0.0593680776655674,-0.037381187081337
691,-0.0247909855097532,0.0199946239590645,-0.0690362527966499,-0.0823757871985435,-0.0318262130022049,-0.0640023723244667
692,0.0336597338318825,0.0176190957427025,-0.0414904989302158,-0.0373970940709114,0.0162301175296307,-0.0596371740102768
693,0.0889556333422661,0.0016020298935473,-0.0165942441672087,0.00306066800840199,0.0581068657338619,-0.0389379449188709
694,0.120816096663475,-0.0236278139054775,0.00179482856765389,0.0303962286561728,0.0839527547359467,-0.0149343311786652
695,0.12601974606514,-0.0403829216957092,0.0187208019196987,0.0472301468253136,0.0924963355064392,1.20569930004422E-05
696,0.109588868916035,-0.0386138670146465,0.0399962738156319,0.0610323287546635,0.0837553292512894,0.00338224903680384
697,0.0772438049316406,-0.0214899871498346,0.069032333791256,0.0783979669213295,0.0672770515084267,0.0111770872026682
698,0.0358143337070942,-0.00253426306881011,0.094850093126297,0.0920157879590988,0.0512786060571671,0.0298913884907961
699,-0.000260762200923637,0.0086179981008172,0.103904448449612,0.0916763991117477,0.0390631146728992,0.0470028892159462
700,-0.0190119370818138,0.0170529391616583,0.0977623015642166,0.0790139436721802,0.0379629172384739,0.0532592236995697
701,-0.022907767444849,0.0339632667601109,0.0817453414201736,0.0545351281762123,0.0510808452963829,0.0470544621348381
702,-0.0174815990030766,0.0597602054476738,0.0548194795846939,0.0144718084484339,0.0687152743339539,0.0342238768935204
703,-0.0105649558827281,0.0780904144048691,0.0131663978099823,-0.0396000482141972,0.0667080283164978,0.0195927079766989
704,-0.0171830523759127,0.072173610329628,-0.0409119091928005,-0.0962437242269516,0.0237065646797419,-0.00303669041022658
705,-0.0398448258638382,0.0414768382906914,-0.0879301801323891,-0.131871566176414,-0.0432447046041489,-0.0207182615995407
706,-0.0623923316597939,-0.00216491823084652,-0.104181401431561,-0.1296666264534,-0.0901826992630959,-0.00819410849362612
707,-0.0696194097399712,-0.0317360274493694,-0.0812768936157227,-0.093377448618412,-0.0872814357280731,0.0290791802108288
708,-0.058686226606369,-0.0233672056347132,-0.0262126363813877,-0.0370996333658695,-0.0350048691034317,0.067735381424427
709,-0.0378077514469624,0.00283571169711649,0.0313055850565434,0.014196015894413,0.030500503256917,0.0852228999137878
710,-0.00888499058783054,0.0152173386886716,0.0619826465845108,0.0427792966365814,0.0707714334130287,0.0691827163100243
711,0.0353199727833271,0.0236295200884342,0.0738096833229065,0.0589755102992058,0.0872911885380745,0.0349786914885044
712,0.0844797641038895,0.0405006445944309,0.0779433622956276,0.067757211625576,0.0935531035065651,0.00578336976468563
713,0.114737614989281,0.0491758100688457,0.06898183375597,0.0622929409146309,0.091446615755558,-0.0076844859868288
714,0.114010527729988,0.0405510552227497,0.0522416271269321,0.0500152669847012,0.0834435150027275,-0.00845471117645502
715,0.0875822603702545,0.0259729363024235,0.0427451133728027,0.04441237449646,0.0699574872851372,-0.0078212283551693
716,0.053559560328722,0.01949667558074,0.0504147820174694,0.0539738051593304,0.0540008507668972,-0.000758007809054106
717,0.0279358364641666,0.0253526512533426,0.0686330124735832,0.0726096779108047,0.0422892309725285,0.0244501493871212
718,0.0108616491779685,0.0404012985527515,0.0784188657999039,0.0791729837656021,0.0352858677506447,0.0529706478118896
719,-0.00842911843210459,0.0663402825593948,0.0653815641999245,0.0584223717451096,0.0271865129470825,0.0582158528268337
720,-0.0381099730730057,0.0980415865778923,0.0277825836092234,0.00997199211269617,0.00803147070109844,0.0347763374447823
721,-0.0712651163339615,0.110102251172066,-0.0175660122185946,-0.0460794344544411,-0.0234928634017706,-0.00229738326743245
722,-0.0902630984783173,0.0830250009894371,-0.0481837205588818,-0.076613612473011,-0.0534849725663662,-0.036550372838974
723,-0.0843790024518967,0.0305129177868366,-0.0553996935486794,-0.0686723217368126,-0.066206119954586,-0.0527984388172627
724,-0.0514167919754982,-0.0128559889271855,-0.0353912115097046,-0.0308911539614201,-0.0480673164129257,-0.033686138689518
725,-3.79202683689073E-05,-0.0207682494074106,0.00899264123290777,0.0218352805823088,0.00282193510793149,0.0174241755157709
726,0.0451700165867805,0.00285859475843608,0.0533002018928528,0.0665460899472237,0.0648219585418701,0.0668916776776314
727,0.0652717277407646,0.0371207036077976,0.0736788585782051,0.0850236937403679,0.115201495587826,0.0891228318214417
728,0.0620370618999004,0.0727609694004059,0.0675858780741692,0.0733206793665886,0.146878600120544,0.0849451199173927
729,0.0488867647945881,0.0976086929440498,0.041905265301466,0.0359839424490929,0.151930049061775,0.0603590235114098
730,0.0320447720587254,0.0907228291034698,7.58328606025316E-05,-0.0163525156676769,0.116224989295006,0.018558144569397
731,0.00208192970603704,0.0519489087164402,-0.0554072856903076,-0.0704397261142731,0.040405698120594,-0.0345538333058357
732,-0.0339262783527374,0.00834381580352783,-0.100878514349461,-0.103710174560547,-0.0392652377486229,-0.0784425660967827
733,-0.0513752028346062,-0.015382812358439,-0.104916356503963,-0.093038946390152,-0.080231286585331,-0.0858012661337852
734,-0.0463213808834553,-0.0269082710146904,-0.0707151517271996,-0.0465362295508385,-0.0802182033658028,-0.0591799281537533
735,-0.0297267604619265,-0.0441048853099346,-0.0240379348397255,0.00592829007655382,-0.058225691318512,-0.0239602252840996
736,-0.010390910319984,-0.0570866987109184,0.0116955460980535,0.0441071093082428,-0.0306149050593376,0.00679174531251192
737,0.00497379014268517,-0.0462016798555851,0.0203018728643656,0.0584140829741955,-0.0176005885004997,0.0273052509874105
738,0.0118284877389669,-0.0124642131850123,0.00538745382800698,0.0468348972499371,-0.0289265438914299,0.0281815696507692
739,0.00547176692634821,0.0303523633629084,-0.0177397597581148,0.0166691709309816,-0.0557809881865978,0.0112298894673586
740,-0.014167033135891,0.070379264652729,-0.0369812399148941,-0.0146283740177751,-0.0835019275546074,-0.00514775607734919
741,-0.0365096554160118,0.095400795340538,-0.0388606414198875,-0.0210092645138502,-0.0960131287574768,0.00122063094750047
742,-0.0524161867797375,0.0966674312949181,-0.0215536449104548,-8.1161480920855E-05,-0.0865908861160278,0.0310389120131731
743,-0.0594055280089378,0.0793232247233391,-0.000501812028232962,0.0206501092761755,-0.0639482364058495,0.0530882738530636
744,-0.0518563166260719,0.0558890625834465,0.0145560298115015,0.0287383161485195,-0.0336287058889866,0.0467838272452354
745,-0.0269904527813196,0.0342590995132923,0.0226907506585121,0.030760632827878,0.00413746992126107,0.0257017035037279
746,0.00679763127118349,0.0142326755449176,0.0241854395717382,0.0291631706058979,0.0420568883419037,0.0035237823612988
747,0.0361467227339745,-0.00644085602834821,0.0195693410933018,0.0224524270743132,0.0712362378835678,-0.0191356781870127
748,0.0471137762069702,-0.0270239915698767,0.00278284773230553,0.00419238023459911,0.0795965418219566,-0.0416314043104649
749,0.0354197025299072,-0.0453575924038887,-0.0269676204770803,-0.0261050872504711,0.0579597093164921,-0.0560009181499481
750,0.0164222940802574,-0.0497442781925201,-0.0475414916872978,-0.0471390634775162,0.0256930068135262,-0.0420369803905487
751,0.00633515836670995,-0.0279609225690365,-0.0436982661485672,-0.0449642911553383,0.00870048440992832,0.000321961619192734
752,0.00794391520321369,0.00747895194217563,-0.0293030235916376,-0.0316319353878498,0.00660557998344302,0.0302687548100948
753,0.0199805237352848,0.0310639832168818,-0.0180035717785358,-0.015908058732748,0.00825453456491232,0.0221229307353497
754,0.0378526411950588,0.0340140536427498,-0.00764323119074106,0.00323147489689291,0.00641167582944036,-0.00537026301026344
755,0.0474881529808044,0.0249399486929178,0.00542962178587914,0.0216573253273964,-0.00149510975461453,-0.0248435363173485
756,0.0346300266683102,0.0157247092574835,0.0167094245553017,0.0318406522274017,-0.0143231954425573,-0.0253694094717503
757,0.00289053469896317,0.0218890644609928,0.0203114878386259,0.0285852625966072,-0.0295838564634323,-0.0111209778115153
758,-0.030240697786212,0.0510558970272541,0.017131756991148,0.0143700810149312,-0.0418918840587139,0.0146068446338177
759,-0.0551054887473583,0.0779416337609291,0.00710812024772167,-0.00362060428597033,-0.0455972962081432,0.0460973717272282
760,-0.0684929117560387,0.0709686577320099,-0.0116925556212664,-0.0217135529965162,-0.0344121605157852,0.0587735995650291
761,-0.0666450187563896,0.0345927476882935,-0.0381631255149841,-0.0418980307877064,-0.010587896220386,0.0341274477541447
762,-0.0560724548995495,-0.0026135693769902,-0.0708501636981964,-0.0678030848503113,0.0054572788067162,-0.010780961252749
763,-0.0456644147634506,-0.0214678607881069,-0.0943120494484901,-0.0874218121170998,0.00251807109452784,-0.0438336133956909
764,-0.0360023342072964,-0.0256430767476559,-0.0897041186690331,-0.0820110663771629,-0.0142591139301658,-0.0565141998231411
765,-0.0295884534716606,-0.023912226781249,-0.0656406879425049,-0.0550666712224483,-0.0429580770432949,-0.0603217743337154
766,-0.0282899439334869,-0.0215670000761747,-0.0405666716396809,-0.0237550493329763,-0.0724364072084427,-0.0591778941452503
767,-0.0266368351876736,-0.0247279237955809,-0.0197268892079592,0.00321445427834988,-0.084000825881958,-0.0471872799098492
768,-0.0211333315819502,-0.0195534024387598,-0.00161508598830551,0.0264496691524982,-0.0730393305420876,-0.0177245680242777
769,-0.0138197457417846,0.00853166170418262,0.0149985058233142,0.0417970754206181,-0.0413510650396347,0.0229631401598454
770,-0.0103799570351839,0.0359979383647442,0.0227741915732622,0.0330897606909275,0.00169521383941174,0.0480045452713966
771,-0.0171340480446815,0.0381799526512623,0.00761119835078716,-0.00771714374423027,0.0293621569871902,0.039609357714653
772,-0.0279361866414547,0.0299332831054926,-0.0283238496631384,-0.0583946034312248,0.0252003557980061,0.0115290908142924
773,-0.0286060702055693,0.0295593906193972,-0.060003973543644,-0.0833646208047867,0.00315958657301962,-0.0162769872695208
774,-0.0183167010545731,0.0260629095137119,-0.0621553547680378,-0.0666471347212791,-0.0111261568963528,-0.0305652022361755
775,-0.00457544112578034,0.014200946316123,-0.0332883410155773,-0.0200787894427776,-0.0048270970582962,-0.0164620447903872
776,0.0117199784144759,0.00251903501339257,-0.00206199777312577,0.0240610595792532,0.00707285339012742,0.0158843733370304
777,0.0232954602688551,-0.0120448861271143,-0.00266905315220356,0.029892448335886,0.00207448448054492,0.0230944566428661
778,0.0118931522592902,-0.038424339145422,-0.04598543420434,-0.0175620038062334,-0.0237492453306913,-0.0244945473968983
779,-0.0224371049553156,-0.077444426715374,-0.106901437044144,-0.090785413980484,-0.064084954559803,-0.10449393093586
780,-0.056336835026741,-0.101108826696873,-0.13685242831707,-0.13110938668251,-0.0981147140264511,-0.150206819176674
781,-0.0683520510792732,-0.0760428309440613,-0.114082358777523,-0.111241571605206,-0.0967661887407303,-0.119634047150612
782,-0.0517605021595955,-0.0117573430761695,-0.065360464155674,-0.0641749650239944,-0.0639851167798042,-0.0457370616495609
783,-0.0247406773269176,0.055710282176733,-0.0309549607336521,-0.0350573770701885,-0.0411014556884766,0.0144273731857538
784,-0.019196480512619,0.101545937359333,-0.025782959535718,-0.0307911075651646,-0.0558025985956192,0.0503339655697346
785,-0.0329629518091679,0.128012239933014,-0.0250397771596909,-0.0147894946858287,-0.0831889733672142,0.0926108360290527
786,-0.0378815084695816,0.145724505186081,-0.00559214968234301,0.0353602133691311,-0.085711807012558,0.150398805737495
787,-0.0364813804626465,0.147039547562599,0.0055753574706614,0.0749491006135941,-0.0798343494534492,0.186677441000938
788,-0.0528715364634991,0.124918065965176,-0.0281994100660086,0.0490850545465946,-0.113798849284649,0.166958123445511
789,-0.093220941722393,0.0941503047943115,-0.0950141251087189,-0.0313087664544582,-0.189478322863579,0.101535253226757
790,-0.138967603445053,0.0744176506996155,-0.154268771409988,-0.114737041294575,-0.253303825855255,0.0235182214528322
791,-0.156443372368813,0.0656936317682266,-0.178406953811646,-0.161401882767677,-0.26128089427948,-0.0387770980596542
792,-0.125728264451027,0.0528010874986649,-0.157494068145752,-0.149573504924774,-0.218367621302605,-0.0598430149257183
793,-0.0625904574990273,0.0343874655663967,-0.0990460962057114,-0.0833507627248764,-0.154331550002098,-0.0296820364892483
794,0.00131683598738164,0.0274565387517214,-0.0318262204527855,-0.00022356232511811,-0.0910830646753311,0.0328336209058762
795,0.0422933958470821,0.0294468309730291,0.0101542007178068,0.055038545280695,-0.0478660240769386,0.0874036699533463
796,0.0483412519097328,0.0197666399180889,0.0106546394526958,0.0639972686767578,-0.0453464537858963,0.109934590756893
797,0.0182450488209724,0.00683787977322936,-0.0226751677691936,0.037610899657011,-0.0851614400744438,0.117206044495106
798,-0.038032591342926,0.0126834223046899,-0.0667985305190086,-0.00236135930754244,-0.15195469558239,0.125301584601402
799,-0.101614996790886,0.0329053774476051,-0.0965443626046181,-0.0349970906972885,-0.228314861655235,0.122577548027039
800,-0.153436347842216,0.0488624833524227,-0.103238202631474,-0.0511621609330177,-0.295174956321716,0.0964369922876358
801,-0.186656638979912,0.0515839941799641,-0.1004973128438,-0.0595381185412407,-0.339273184537888,0.0562403537333012
802,-0.203935235738754,0.0493033081293106,-0.104361794888973,-0.0735446140170097,-0.358625441789627,0.0227226074784994
803,-0.20623691380024,0.0548171512782574,-0.115533977746964,-0.091260552406311,-0.353168934583664,0.00744650326669216
804,-0.188670456409454,0.0616224631667137,-0.124565757811069,-0.0962872058153152,-0.324248403310776,0.00898040644824505
805,-0.145606473088264,0.0636055469512939,-0.124034754931927,-0.0803034603595734,-0.278969377279282,0.0240834783762693
806,-0.0866072624921799,0.0690503716468811,-0.116615995764732,-0.0580859519541264,-0.224413305521011,0.0482357256114483
807,-0.0288944244384766,0.0675494745373726,-0.114529177546501,-0.0542998723685741,-0.164636507630348,0.0616168268024921
808,0.0125450314953923,0.0440970249474049,-0.123767048120499,-0.0756841897964478,-0.112593717873096,0.0439051613211632
809,0.0189438983798027,0.0107359271496534,-0.135100021958351,-0.102951139211655,-0.0937061756849289,0.00794150680303574
810,-0.0108617832884192,-0.00980139058083296,-0.13139683008194,-0.108410835266113,-0.117707140743732,-0.00369210820645094
811,-0.057246845215559,-0.000487015524413437,-0.103190898895264,-0.0832396075129509,-0.165036007761955,0.0287539716809988
812,-0.108146019279957,0.0409558340907097,-0.0663995668292046,-0.0489616356790066,-0.216184213757515,0.0733018815517426
813,-0.15832431614399,0.0920973941683769,-0.0447700805962086,-0.0298488847911358,-0.261154681444168,0.0987777784466743
814,-0.19751413166523,0.12490639090538,-0.0407026074826717,-0.0271485392004251,-0.285268902778625,0.109182126820087
815,-0.213509514927864,0.127826362848282,-0.0444677732884884,-0.0299901030957699,-0.279469907283783,0.110282629728317
816,-0.201335594058037,0.103546932339668,-0.0529137402772903,-0.0347163267433643,-0.251617729663849,0.0938986539840698
817,-0.175115555524826,0.0648292228579521,-0.0709574818611145,-0.0505013018846512,-0.223318949341774,0.0567380785942078
818,-0.161461248993874,0.0238592736423016,-0.103523649275303,-0.0857575759291649,-0.21774323284626,0.00974761694669724
819,-0.169219151139259,-0.0187377873808146,-0.145902708172798,-0.131770789623261,-0.238345175981522,-0.0283149164170027
820,-0.18492180109024,-0.0521605275571346,-0.178803980350494,-0.16435806453228,-0.267657250165939,-0.0400788001716137
821,-0.188281834125519,-0.0452967956662178,-0.176781535148621,-0.158641472458839,-0.277469277381897,-0.0201183129101992
822,-0.167469039559364,0.000395119859604165,-0.140026852488518,-0.121365763247013,-0.248967632651329,0.0156395118683577
823,-0.13473853468895,0.0419001430273056,-0.103478386998177,-0.0942029431462288,-0.193589299917221,0.0420821718871593
824,-0.107970595359802,0.056657288223505,-0.0942062884569168,-0.0981471911072731,-0.140605136752129,0.0471099242568016
825,-0.0941161960363388,0.0456997789442539,-0.10954612493515,-0.116975508630276,-0.124406769871712,0.025136249139905
826,-0.0936965793371201,0.0154250431805849,-0.125519946217537,-0.123564705252647,-0.157289445400238,-0.0142511297017336
827,-0.0975830480456352,-0.00900444202125072,-0.110936477780342,-0.094151571393013,-0.202444031834602,-0.0345327593386173
828,-0.096336305141449,-0.00800440274178982,-0.0588150173425674,-0.02996383048594,-0.213328912854195,-0.00978435855358839
829,-0.0913346335291862,0.00986897014081478,0.00468539725989103,0.0380949899554253,-0.18450839817524,0.0483158342540264
830,-0.0883690118789673,0.0320432409644127,0.0471421368420124,0.0783713459968567,-0.14798529446125,0.107114791870117
831,-0.0946400016546249,0.0524588413536549,0.0525510311126709,0.0806790664792061,-0.13496495783329,0.140236228704453
832,-0.112312868237495,0.0596852600574493,0.0261909384280443,0.0521131493151188,-0.150093093514442,0.134620994329453
833,-0.13893549144268,0.0481685288250446,-0.0177068058401346,0.00290217925794423,-0.180926561355591,0.0909425690770149
834,-0.179534807801247,0.0257484409958124,-0.0743576064705849,-0.0618541985750198,-0.217844620347023,0.0208776816725731
835,-0.220533341169357,0.000272373930783942,-0.130575656890869,-0.12440837174654,-0.241941958665848,-0.0505840554833412
836,-0.220423892140388,-0.0143640004098415,-0.146916851401329,-0.14253656566143,-0.220548450946808,-0.0778550207614899
837,-0.168250530958176,-0.00206488301046193,-0.105479195713997,-0.0976240336894989,-0.152016088366508,-0.0391493439674377
838,-0.103969983756542,0.0332294702529907,-0.0405110567808151,-0.0275866910815239,-0.0742101520299912,0.0273048784583807
839,-0.0690166503190994,0.0649747252464294,0.00324950134381652,0.0157212559133768,-0.0206160638481379,0.0663335025310516
840,-0.0750250220298767,0.0646287277340889,0.00503219524398446,0.0104272356256843,-0.00737454323098063,0.0556537508964539
841,-0.107727736234665,0.0382489114999771,-0.0288961436599493,-0.0315640047192574,-0.0365756340324879,0.0176451206207275
842,-0.142527461051941,0.0149049460887909,-0.0775085315108299,-0.0855597704648972,-0.0956647619605064,-0.0115169612690806
843,-0.156248062849045,-0.00594081124290824,-0.119170792400837,-0.126156002283096,-0.162478059530258,-0.0297674126923084
844,-0.13364452123642,-0.0405490137636662,-0.129204839468002,-0.124252997338772,-0.201179549098015,-0.0486830472946167
845,-0.0860894620418549,-0.0732799395918846,-0.0931602343916893,-0.0721273794770241,-0.185633718967438,-0.0542566254734993
846,-0.042891550809145,-0.0675348490476608,-0.0265007335692644,0.000268150382908061,-0.131523534655571,-0.0314792618155479
847,-0.0260403342545033,-0.0267071016132832,0.0300368722528219,0.0476117506623268,-0.0861465409398079,0.00167533615604043
848,-0.049805723130703,-0.00263976329006255,0.0433400422334671,0.0441265814006329,-0.0888002142310143,0.00780130922794342
849,-0.100762516260147,-0.0159240383654833,0.0295460317283869,0.0136943273246288,-0.122556485235691,-0.0150481089949608
850,-0.134570807218552,-0.0322709083557129,0.0288030207157135,0.00154705031309277,-0.127144157886505,-0.0301859173923731
851,-0.124790288507938,-0.0298364795744419,0.0402476973831654,0.0120609179139137,-0.0796663612127304,-0.0239280965179205
852,-0.0870645567774773,-0.0233294274657965,0.0334367975592613,0.0147393085062504,-0.0212063007056713,-0.0109306704252958
853,-0.0586598515510559,-0.0246889684349298,0.00335112633183599,-0.00333955185487866,0.00155844981782138,0.00396912544965744
854,-0.0604823604226112,-0.0207882076501846,-0.0270794220268726,-0.0264956541359425,-0.0158885978162289,0.0236416608095169
855,-0.0850430577993393,0.00276340031996369,-0.0389873497188091,-0.0387362129986286,-0.0482453778386116,0.0425450913608074
856,-0.124810911715031,0.0388555377721787,-0.0418165996670723,-0.0501327067613602,-0.0813025832176209,0.0462007187306881
857,-0.167327746748924,0.0690491273999214,-0.0516402013599873,-0.0680053606629372,-0.110561326146126,0.0308000929653645
858,-0.180602267384529,0.0833120197057724,-0.053497277200222,-0.0635077878832817,-0.116143450140953,0.0197270680218935
859,-0.15826091170311,0.0822689607739449,-0.0386029593646526,-0.0313844308257103,-0.0989706218242645,0.0202630739659071
860,-0.124481000006199,0.0641398429870605,-0.0270871892571449,-0.00945818796753883,-0.088754266500473,0.010976567864418
861,-0.0896829515695572,0.027955949306488,-0.0268450807780027,-0.0116764055565,-0.0924245417118073,-0.00887957215309143
862,-0.0568208433687687,-0.0154683059081435,-0.0303952619433403,-0.0211608111858368,-0.0947777330875397,-0.0253144484013319
863,-0.0322640091180801,-0.0461785495281219,-0.0288577787578106,-0.0222660843282938,-0.0818744972348213,-0.0290739350020885
864,-0.0199154168367386,-0.0532364062964916,-0.0182704888284206,-0.0141752259805799,-0.0532779432833195,-0.0189719758927822
865,-0.0235124342143536,-0.0461085811257362,-0.00529454369097948,-0.00746745569631457,-0.0265777222812176,-0.00862348638474941
866,-0.0383123010396957,-0.0372076332569122,0.00664144242182374,-0.00213853060267866,-0.0136348931118846,-0.00714057683944702
867,-0.056097149848938,-0.0322073064744473,0.0173970442265272,0.00585585925728083,-0.00994380842894316,-0.0106325568631291
868,-0.0775092095136642,-0.0263615027070045,0.0208971984684467,0.00420596776530147,-0.00738151045516133,-0.0129112172871828
869,-0.103253863751888,-0.0132544981315732,0.0103761153295636,-0.022785309702158,-0.00367908575572073,-0.0194132644683123
870,-0.128158375620842,-0.0135230179876089,-0.0240645110607147,-0.0773697271943092,-0.0104195242747664,-0.052794311195612
871,-0.14374278485775,-0.0468554981052876,-0.0839205235242844,-0.139347791671753,-0.0429182648658752,-0.113060168921947
872,-0.142523646354675,-0.0863185599446297,-0.135213300585747,-0.168430685997009,-0.0921908691525459,-0.153371632099152
873,-0.124300204217434,-0.0873601734638214,-0.133984953165054,-0.138609677553177,-0.124947130680084,-0.133245766162872
874,-0.0968187972903252,-0.0384683534502983,-0.0741803348064423,-0.059297937899828,-0.116292186081409,-0.0583162903785706
875,-0.0726023986935616,0.0389328710734844,0.00932866986840963,0.033570658415556,-0.0686554908752441,0.0341285206377506
876,-0.0688187479972839,0.103669703006744,0.0621056817471981,0.0853308960795403,-0.01663713529706,0.0888365060091019
877,-0.0843277871608734,0.117072016000748,0.0574084892868996,0.069366492331028,0.00267761386930943,0.0784091800451279
878,-0.0859116315841675,0.0821183398365974,0.0206571072340012,0.0178816597908735,-0.00206656870432198,0.0375507101416588
879,-0.0588762238621712,0.0301009435206652,-0.0205078125,-0.0330211669206619,-0.00928541552275419,-0.00134084082674235
880,-0.0362142771482468,-0.0156635455787182,-0.0594837255775929,-0.0715824142098427,-0.0283088907599449,-0.0401595532894135
881,-0.0476652756333351,-0.0457640141248703,-0.0827228724956512,-0.0857465118169785,-0.0644405111670494,-0.0698686838150024
882,-0.0761379599571228,-0.0563581213355064,-0.0688893646001816,-0.0621374398469925,-0.089979387819767,-0.0690635740756989
883,-0.0874828323721886,-0.0455431006848812,-0.0134881697595119,-0.00410087499767542,-0.0766989663243294,-0.0354169681668282
884,-0.0744751840829849,-0.0240993909537792,0.0594388544559479,0.0624888688325882,-0.0345344841480255,0.00664552953094244
885,-0.0468732379376888,-0.00539031345397234,0.121873870491982,0.11491447687149,0.012682793661952,0.0353803299367428
886,-0.0149318696931005,0.0143234925344586,0.167035222053528,0.151514559984207,0.0633413568139076,0.0549423061311245
887,0.00590655626729131,0.0371854342520237,0.19145068526268,0.167648211121559,0.116695508360863,0.0675402730703354
888,0.0111588016152382,0.052260372787714,0.18457056581974,0.152856603264809,0.15755207836628,0.0644038766622543
889,0.0143134379759431,0.0494788661599159,0.139852613210678,0.105972446501255,0.166508346796036,0.0441425777971745
890,0.0185519773513079,0.0311261303722858,0.0534445643424988,0.0270894598215818,0.121439822018147,0.00899918749928474
891,-0.0002492077765055,0.0143786082044244,-0.0674885585904121,-0.077239952981472,0.0135587826371193,-0.034412931650877
892,-0.062342394143343,0.0125191127881408,-0.188051357865334,-0.176379472017288,-0.124930344521999,-0.0714748278260231
893,-0.140482529997826,0.0204038023948669,-0.254559934139252,-0.226106986403465,-0.227230325341225,-0.088176466524601
894,-0.181519746780396,0.0281421840190887,-0.232815727591515,-0.200999140739441,-0.239080846309662,-0.0780463740229607
895,-0.164025172591209,0.0266283713281155,-0.143809229135513,-0.117644466459751,-0.161595389246941,-0.0507187135517597
896,-0.100788220763206,0.00852016918361187,-0.044083833694458,-0.0233676768839359,-0.0396102629601955,-0.026652105152607
897,-0.0258906222879887,-0.0200110077857971,0.019065061584115,0.0319040566682816,0.0674495846033096,-0.0260595194995403
898,0.0129146492108703,-0.053623478859663,0.0269850883632898,0.0228616651147604,0.105599209666252,-0.0600577816367149
899,0.0101177934557199,-0.0840149521827698,0.0143108032643795,-0.012258218601346,0.082016609609127,-0.0990324392914772
900,0.0114352200180292,-0.0893929824233055,0.0395291894674301,-0.00277902255766094,0.0594199113547802,-0.0923672169446945
901,0.0404174104332924,-0.063734158873558,0.107371397316456,0.0671974420547485,0.0671085715293884,-0.0331780575215817
902,0.0718498677015305,-0.0195961873978376,0.177107363939285,0.156819522380829,0.0865448787808418,0.0443212054669857
903,0.0750582441687584,0.0259432308375835,0.215050488710403,0.219797134399414,0.09874177724123,0.102164268493652
904,0.0514443442225456,0.0589768812060356,0.213141217827797,0.236237898468971,0.0962382853031158,0.121646113693714
905,0.0244383905082941,0.0767619088292122,0.184499830007553,0.217720791697502,0.0800096243619919,0.110858149826527
906,0.00577820278704166,0.0736967623233795,0.135234221816063,0.172800779342651,0.0560734570026398,0.0794183313846588
907,-0.00966609083116055,0.0448745042085648,0.0588211677968502,0.0944377407431602,0.0264940690249205,0.0280625987797976
908,-0.030708909034729,0.00708944769576192,-0.0442348159849644,-0.0155821340158582,-0.013974379748106,-0.0285824220627546
909,-0.0659769400954247,-0.0177915785461664,-0.165171787142754,-0.145091190934181,-0.0722960233688354,-0.0767388567328453
910,-0.11220758408308,-0.030045498162508,-0.275486767292023,-0.260777980089188,-0.133868679404259,-0.123903088271618
911,-0.138783976435661,-0.04305649548769,-0.322997808456421,-0.3021639585495,-0.157560631632805,-0.161271870136261
912,-0.115526780486107,-0.0546953305602074,-0.271394431591034,-0.236351400613785,-0.1180370002985,-0.156654894351959
913,-0.0558817088603973,-0.0491828210651875,-0.131527528166771,-0.0926102250814438,-0.0319520905613899,-0.100998289883137
914,0.00386840919964015,-0.0274959467351437,0.041915275156498,0.0642482116818428,0.0642217993736267,-0.0219269301742315
915,0.046598881483078,-0.00508052529767156,0.181895405054092,0.177087843418121,0.1388169080019,0.0440782830119133
916,0.075375072658062,0.0145652247592807,0.25720027089119,0.232992798089981,0.180116817355156,0.0817879363894463
917,0.0937239527702332,0.033094871789217,0.27908718585968,0.249356299638748,0.196583554148674,0.0937071368098259
918,0.0985004603862762,0.0453841127455235,0.265943765640259,0.233926430344582,0.195786640048027,0.0835642442107201
919,0.0884334444999695,0.0453886538743973,0.221661910414696,0.185868382453918,0.170347988605499,0.0580030418932438
920,0.0612212680280209,0.0267443004995584,0.14298403263092,0.112945251166821,0.108488567173481,0.0219331700354815
921,0.0143167246133089,-0.0068728937767446,0.0456673316657543,0.0357912220060825,0.0218273717910051,-0.0222929194569588
922,-0.0418068356812,-0.0381824113428593,-0.0353122800588608,-0.0216478817164898,-0.0558229833841324,-0.0623237527906895
923,-0.0861653015017509,-0.0531090646982193,-0.0779184624552727,-0.0498919449746609,-0.10016717761755,-0.0787104815244675
924,-0.102192081511021,-0.0489706732332706,-0.0839338898658752,-0.0528060235083103,-0.104972876608372,-0.0641066059470177
925,-0.0904077962040901,-0.0335891023278236,-0.0702495574951172,-0.0407829694449902,-0.0805013626813889,-0.0308261997997761
926,-0.0632160231471062,-0.0188497789204121,-0.0564937144517899,-0.0275761373341084,-0.0456563606858253,0.00165468081831932
927,-0.0407009348273277,-0.00643577938899398,-0.056969590485096,-0.0277216024696827,-0.0138728683814406,0.0137123623862863
928,-0.0461024343967438,0.00514663849025965,-0.083962969481945,-0.0576022677123547,-0.00156455778051168,-0.00820448156446218
929,-0.0713478475809097,0.00381377525627613,-0.140633121132851,-0.11857596039772,-0.0213983058929443,-0.0621038600802422
930,-0.0736434161663055,-0.0161091946065426,-0.191787302494049,-0.173561155796051,-0.0452952720224857,-0.124016284942627
931,-0.0306982826441526,-0.0421781055629253,-0.181242167949677,-0.17247799038887,-0.0262160506099463,-0.160271197557449
932,0.0325157418847084,-0.0639384165406227,-0.100707992911339,-0.104635670781136,0.0353124216198921,-0.156267002224922
933,0.0810933485627174,-0.0770445317029953,0.0140016172081232,0.00358147732913494,0.103310108184814,-0.116111047565937
934,0.100754238665104,-0.079503245651722,0.125654682517052,0.114778183400631,0.149044275283813,-0.0562627129256725
935,0.0947755947709084,-0.0727542266249657,0.204888448119164,0.194542810320854,0.157922148704529,-0.00066474371124059
936,0.0723333433270454,-0.0584674254059792,0.23548412322998,0.226123228669167,0.132962360978127,0.0370920971035957
937,0.0383394509553909,-0.0421190075576305,0.214085265994072,0.208348020911217,0.0909162685275078,0.0517147891223431
938,0.000622805033344775,-0.0303827282041311,0.150760471820831,0.150347545742989,0.051149882376194,0.0430404543876648
939,-0.027896698564291,-0.0255391877144575,0.0623958893120289,0.0678690299391747,0.0191923789680004,0.0182064175605774
940,-0.049647219479084,-0.0380305200815201,-0.0413599647581577,-0.0277252681553364,-0.0210658833384514,-0.0260370876640081
941,-0.0775959044694901,-0.0764866024255753,-0.140304654836655,-0.118724070489407,-0.0726480185985565,-0.0906574204564095
942,-0.0988955423235893,-0.115056954324245,-0.193255737423897,-0.16807322204113,-0.0994142144918442,-0.137846544384956
943,-0.0866306275129318,-0.113961905241013,-0.177442267537117,-0.153582394123077,-0.0762770473957062,-0.124601252377033
944,-0.0491597801446915,-0.0716173723340034,-0.113815695047379,-0.0978304147720337,-0.0254461318254471,-0.0582597739994526
945,-0.0206623543053865,-0.0234390180557966,-0.0481601394712925,-0.04582329839468,0.0191182158887386,0.00908247195184231
946,-0.0133963106200099,0.000448472710559145,-0.0141761312261224,-0.02480124309659,0.0414748564362526,0.0281524900346994
947,-0.015540087595582,-0.00261354888789356,-0.0120474556460977,-0.0274658035486937,0.0408601611852646,-0.00514563173055649
948,-0.0166589170694351,-0.0196948982775211,-0.021465290337801,-0.0293141026049852,0.0289010666310787,-0.0550865903496742
949,-0.00916246417909861,-0.0365099087357521,-0.0179326198995113,-0.0098672928288579,0.0328042432665825,-0.0792055428028107
950,0.0122600048780441,-0.0444975346326828,0.0125492885708809,0.0338922180235386,0.0686791613698006,-0.0632194504141808
951,0.0384625867009163,-0.0484634973108768,0.0604708530008793,0.083822101354599,0.117213353514671,-0.0297444220632315
952,0.0499854274094105,-0.0572607852518559,0.103016525506973,0.115590140223503,0.149029329419136,-0.00310577917844057
953,0.0369840376079082,-0.0720419213175774,0.121183127164841,0.114610694348812,0.152824372053146,0.0072044269181788
954,0.00732511142268777,-0.0899791270494461,0.106017209589481,0.0826556459069252,0.13154624402523,-0.00334160542115569
955,-0.0203486308455467,-0.10010439902544,0.0676436647772789,0.0405636802315712,0.0927330926060677,-0.0237274132668972
956,-0.0341855175793171,-0.0935077220201492,0.0305538903921843,0.0117466822266579,0.0485515706241131,-0.0391006469726563
957,-0.0399695672094822,-0.0843709260225296,0.00479583954438567,-0.00425793509930372,0.00970889814198017,-0.0555912256240845
958,-0.0454963482916355,-0.0819492936134338,-0.0153237590566278,-0.0208718255162239,-0.0192331448197365,-0.0736721307039261
959,-0.0456759445369244,-0.0706082955002785,-0.0294027384370565,-0.0361181758344173,-0.0347663722932339,-0.0713091418147087
960,-0.0332012847065926,-0.0391567200422287,-0.0309168100357056,-0.0371505543589592,-0.0316472388803959,-0.037403542548418
961,-0.0104072000831366,0.00881440471857786,-0.0225388742983341,-0.0251090731471777,-0.00707543361932039,0.0109324380755425
962,0.0167202930897474,0.0536297559738159,-0.0240623336285353,-0.02247479185462,0.0287225302308798,0.0488801151514053
963,0.0331669077277184,0.0570847354829311,-0.0558668337762356,-0.050858560949564,0.0474254451692104,0.0522503703832626
964,0.0162150282412767,0.00260644685477018,-0.11249627918005,-0.104819320142269,0.0272308085113764,0.00331926648505032
965,-0.0214576367288828,-0.0690600275993347,-0.154103428125381,-0.144602179527283,-0.008017648011446,-0.0731970071792603
966,-0.0370832160115242,-0.109117016196251,-0.140074506402016,-0.129077851772308,-0.0124255027621984,-0.122330091893673
967,-0.0223486125469208,-0.121619164943695,-0.0784032642841339,-0.0640440210700035,0.0181190893054008,-0.123391255736351
968,0.0011109720217064,-0.128466799855232,-0.00726000871509314,0.0128837516531348,0.0547933243215084,-0.0939461961388588
969,0.0174995064735413,-0.131555259227753,0.0473788157105446,0.0709448158740997,0.079523392021656,-0.059609841555357
970,0.0111313629895449,-0.133734151721001,0.070387676358223,0.0866473987698555,0.0884314551949501,-0.0453427955508232
971,-0.0191520713269711,-0.136700734496117,0.0562798418104649,0.0537964515388012,0.0844094455242157,-0.0581731498241425
972,-0.0426057241857052,-0.129154831171036,0.0230055619031191,0.00394731340929866,0.0739654749631882,-0.0731699168682098
973,-0.0321567915380001,-0.103376753628254,0.00274498178623617,-0.0191672556102276,0.0624631121754646,-0.0601697266101837
974,0.00358183728531003,-0.0657957196235657,0.00911735277622938,-0.00480005796998739,0.0552129112184048,-0.0223032049834728
975,0.0373697355389595,-0.0306632686406374,0.0266276560723782,0.0225478727370501,0.054689072072506,0.0130403013899922
976,0.0501907952129841,-0.00814393348991871,0.0299419369548559,0.0333379842340946,0.051727544516325,0.026100043207407
977,0.0407404080033302,0.000686549465171993,0.0140908053144813,0.0229111034423113,0.0391527526080608,0.0199446454644203
978,0.0203347913920879,-0.00109658506698906,-0.000446700985776261,0.0105658071115613,0.0288259517401457,0.0188074056059122
979,0.000806633906904608,-0.0078184874728322,-0.0015601726481691,0.0054371184669435,0.0337387323379517,0.0329370684921741
980,-0.0187490936368704,-0.0113820116966963,-0.00144013704266399,-0.00515516381710768,0.0460279807448387,0.0362366810441017
981,-0.0448014698922634,-0.0142641020938754,-0.0111911864951253,-0.0289474464952946,0.0520166493952274,0.00861784350126982
982,-0.0633276998996735,-0.0296123716980219,-0.0198814366012812,-0.0487294010818005,0.0556264817714691,-0.029919883236289
983,-0.0542145781219006,-0.0494665950536728,-0.0143441241234541,-0.0446326248347759,0.0670342445373535,-0.0508612729609013
984,-0.0261514857411385,-0.0614251531660557,-0.0108908116817474,-0.0342776142060757,0.0733482837677002,-0.0658084005117416
985,-0.00255983811803162,-0.0766365900635719,-0.0326028279960155,-0.0479587055742741,0.0530195906758308,-0.0996452793478966
986,0.00584444170817733,-0.0892177596688271,-0.0639147683978081,-0.0754990875720978,0.0242414176464081,-0.13063471019268
987,0.00178536446765065,-0.0792725533246994,-0.0788628682494164,-0.0932932570576668,0.0190239772200584,-0.122270785272121
988,-0.00966583658009768,-0.0554743707180023,-0.083748422563076,-0.0991518869996071,0.0240687783807516,-0.080889917910099
989,-0.0264203958213329,-0.0419672392308712,-0.0856184363365173,-0.0874571055173874,0.0150226000696421,-0.0388017930090427
990,-0.034925177693367,-0.0412454009056091,-0.0639966055750847,-0.0432572402060032,0.00908003654330969,-0.00820595026016235
991,-0.0196459200233221,-0.0348646342754364,-0.0055221077054739,0.0276376716792583,0.0353942848742008,0.0192793514579535
992,0.00595831871032715,-0.0192117374390364,0.0668921917676926,0.0925697088241577,0.0862147361040115,0.0413967072963715
993,0.018023569136858,-0.00465335324406624,0.120001919567585,0.125055834650993,0.128956526517868,0.0489890910685062
994,0.0165894348174334,0.00464850105345249,0.138948068022728,0.127074614167213,0.145638346672058,0.0449425987899303
995,0.0132490415126085,0.00450264476239681,0.128269612789154,0.11442581564188,0.139073193073273,0.0338502638041973
996,0.0125597976148129,-0.00752560514956713,0.111243948340416,0.106252297759056,0.123249463737011,0.0280187539756298
997,0.0127558223903179,-0.0260956790298224,0.107134334743023,0.111930854618549,0.111329451203346,0.0516043230891228
998,0.0106665128841996,-0.040645819157362,0.107297010719776,0.117216102778912,0.108462020754814,0.0954341888427734
