,AF3,AF4,Fp1,Fp2,AF7,AF8
0,0.0532530881464481,0.0226107034832239,0.029755549505353,0.0704582631587982,0.0339675731956959,0.0824603885412216
1,0.0545634627342224,0.0272036977112293,0.0375083051621914,0.0744734033942223,0.0404616445302963,0.086702823638916
2,0.0520165339112282,0.0262633189558983,0.0402382127940655,0.0739139914512634,0.0437734089791775,0.0883137807250023
3,0.0499809421598911,0.0240678042173386,0.041827168315649,0.0713433101773262,0.0475098378956318,0.0877217575907707
4,0.0518461093306541,0.0239089000970125,0.0459411181509495,0.0703226774930954,0.0548684112727642,0.086844727396965
5,0.0560637935996056,0.0246262345463037,0.0508635677397251,0.0707630068063736,0.0634984076023102,0.0868184864521027
6,0.0602281503379345,0.0247198659926653,0.0535559169948101,0.0707639828324318,0.0692737177014351,0.0880372822284698
7,0.0642224922776222,0.0241129640489817,0.0530019998550415,0.0690329149365425,0.0704041048884392,0.0897542387247086
8,0.0675951540470123,0.0227009207010269,0.0497634261846542,0.0655466839671135,0.0675298124551773,0.0904854163527489
9,0.0680278539657593,0.0203634742647409,0.0454363375902176,0.0610134340822697,0.0618766359984875,0.0888596624135971
10,0.0648429691791534,0.0184924937784672,0.0422474034130573,0.0570117309689522,0.0558389946818352,0.0848590210080147
11,0.0612669251859188,0.019298417493701,0.0415166392922401,0.0559384077787399,0.054061584174633,0.0804632157087326
12,0.062841609120369,0.0238097570836544,0.0434210523962975,0.0591976195573807,0.0609331801533699,0.0782922580838203
13,0.0706274583935738,0.0305786021053791,0.0470546223223209,0.0654438957571983,0.0746803134679794,0.0794079601764679
14,0.0786784440279007,0.0361627824604511,0.0505448132753372,0.0713217109441757,0.0872910544276237,0.0830578804016113
15,0.0817335173487663,0.0375557951629162,0.0518129765987396,0.0742437243461609,0.0927281975746155,0.0888410955667496
16,0.0807428136467934,0.0359326563775539,0.0510639362037182,0.0760188698768616,0.0921580791473389,0.0969346091151237
17,0.0793281048536301,0.0355617441236973,0.0512336045503616,0.0800116881728172,0.0895244404673576,0.104438416659832
18,0.0778245255351067,0.0368872992694378,0.0527599677443504,0.0836474746465683,0.0848948732018471,0.105709873139858
19,0.0749452710151672,0.0373194254934788,0.0536313243210316,0.0826494246721268,0.0772510692477226,0.0998832657933235
20,0.0703875571489334,0.0357020273804665,0.0518018007278442,0.0768982842564583,0.0674317106604576,0.0927786454558373
21,0.0651663765311241,0.0320982560515404,0.0455925427377224,0.0679277405142784,0.0567820034921169,0.0907211378216743
22,0.0623286813497543,0.0279854703694582,0.0369380451738834,0.0583309046924114,0.0485360212624073,0.0936864614486694
23,0.0636128038167953,0.0266655180603266,0.031029524281621,0.0518879182636738,0.0467871576547623,0.0958405658602715
24,0.0679562538862228,0.0308937281370163,0.0314109697937965,0.0507700853049755,0.0524371489882469,0.0933783948421478
25,0.0730280950665474,0.0395161025226116,0.0360717847943306,0.0528987199068069,0.0615632496774197,0.0860282480716705
26,0.07591612637043,0.0485349111258984,0.039396520704031,0.0541491433978081,0.0680288448929787,0.075182743370533
27,0.0745008662343025,0.0545231066644192,0.0383196547627449,0.0524370595812798,0.0676039978861809,0.0640108361840248
28,0.0695179849863052,0.0559688173234463,0.0346068032085896,0.0484868921339512,0.0605736672878265,0.0557926967740059
29,0.0634515956044197,0.0533729046583176,0.0309122130274773,0.0435870848596096,0.0505369752645493,0.0514319092035294
30,0.0585647895932198,0.0495869554579258,0.0279699023813009,0.0382502302527428,0.0421349070966244,0.0502871610224247
31,0.0566710866987705,0.0481258146464825,0.0263235103338957,0.0339683592319489,0.0387077890336514,0.0530536621809006
32,0.0572094805538654,0.0492706522345543,0.025995597243309,0.0324125587940216,0.0388955734670162,0.0594522580504417
33,0.0579860471189022,0.050507627427578,0.0260205175727606,0.0331212803721428,0.0395772904157639,0.0664817169308662
34,0.0578243806958199,0.0496789067983627,0.0260733440518379,0.0343900546431541,0.0395558439195156,0.070606105029583
35,0.0571408197283745,0.0465336292982101,0.027237655594945,0.0357541441917419,0.0390697307884693,0.0700603798031807
36,0.0578870289027691,0.0433579869568348,0.0317787453532219,0.0389626286923885,0.0407802574336529,0.067437157034874
37,0.0614545606076717,0.0422223694622517,0.0404851473867893,0.0456804111599922,0.0467066131532192,0.0671203434467316
38,0.0655031800270081,0.0419584177434444,0.0496548935770988,0.0545027032494545,0.0528339445590973,0.0697074681520462
39,0.0666943117976189,0.0416124686598778,0.054232269525528,0.0619714707136154,0.0543901138007641,0.0741001069545746
40,0.0661967247724533,0.0432423911988735,0.053795151412487,0.0655544102191925,0.0528861507773399,0.0797556862235069
41,0.0656369626522064,0.047501377761364,0.0505925826728344,0.0634554028511047,0.0498750656843185,0.0832691788673401
42,0.0624218061566353,0.0514503456652164,0.0453696325421333,0.0549696981906891,0.0432742275297642,0.0809189900755882
43,0.0556096732616425,0.0534571819007397,0.0398970916867256,0.0435110367834568,0.0344757884740829,0.0743418112397194
44,0.0487927123904228,0.0551158338785172,0.0373183898627758,0.0354259312152863,0.0274780169129372,0.069127194583416
45,0.0443707183003426,0.0565666481852531,0.0378147549927235,0.0336487554013729,0.0216140523552895,0.0686227083206177
46,0.0413687601685524,0.0558026656508446,0.0387169606983662,0.0354738757014275,0.0139437010511756,0.0710718855261803
47,0.0386095084249973,0.0524384379386902,0.0378014110028744,0.0366188399493694,0.00448663532733917,0.0735052600502968
48,0.0361388511955738,0.0476965755224228,0.0342911779880524,0.0343768857419491,-0.00477784359827638,0.0754703432321548
49,0.0355957560241222,0.0430473349988461,0.0294054392725229,0.0287229921668768,-0.0111560095101595,0.0769137218594551
50,0.0393243506550789,0.0409920364618301,0.0265956427901983,0.0233703386038542,-0.0117714358493686,0.0779858455061913
51,0.0459178015589714,0.0428979136049747,0.0273869652301073,0.021890489384532,-0.00723706744611263,0.0808454677462578
52,0.0508462339639664,0.0465280115604401,0.0295608937740326,0.0232438761740923,-0.00175898219458759,0.0857362449169159
53,0.0524174347519875,0.0493891648948193,0.0315395221114159,0.0248358603566885,0.00242901290766895,0.0899251699447632
54,0.0525902658700943,0.051841426640749,0.0345408990979195,0.026309447363019,0.00618703803047538,0.0924263820052147
55,0.0535083897411823,0.0556367672979832,0.0407911092042923,0.0287031661719084,0.0110710002481937,0.0939167886972427
56,0.0554071888327599,0.0613878481090069,0.0500200279057026,0.0324984863400459,0.0181388854980469,0.0944545567035675
57,0.0564002320170403,0.0677263215184212,0.0584833547472954,0.0373963117599487,0.0255638733506203,0.0952854827046394
58,0.0544736236333847,0.0725807622075081,0.0630844905972481,0.0424748845398426,0.0298321135342121,0.0980146154761314
59,0.0504295751452446,0.0753933638334274,0.0640670955181122,0.0468040220439434,0.0305183064192533,0.102682247757912
60,0.0466923303902149,0.076586551964283,0.0619830824434757,0.0495717898011208,0.0285210441797972,0.108537793159485
61,0.044731505215168,0.076313242316246,0.0570568591356277,0.0498856753110886,0.0240133237093687,0.113101236522198
62,0.0441871397197247,0.0746277794241905,0.0514426231384277,0.0476775094866753,0.0183314383029938,0.112949445843697
63,0.0438607931137085,0.0718417465686798,0.048141710460186,0.0447194278240204,0.0134287513792515,0.108154274523258
64,0.043798241764307,0.0693030059337616,0.0488192848861218,0.0438190512359142,0.0106744151562452,0.103285558521748
65,0.0444332957267761,0.0682976692914963,0.0523874387145042,0.0456939563155174,0.0101652154698968,0.10162279009819
66,0.0456730350852013,0.0688491538167,0.0569438748061657,0.0487481914460659,0.0116298161447048,0.101102314889431
67,0.0461237505078316,0.0685915797948837,0.0596685893833637,0.0497132986783981,0.0136382104828954,0.0969377383589745
68,0.0437740236520767,0.0646822229027748,0.0566749274730682,0.0460794121026993,0.0131028024479747,0.0871467739343643
69,0.0395503826439381,0.0585070662200451,0.0485873483121395,0.0400634966790676,0.00947524048388004,0.0746734291315079
70,0.0360304489731789,0.0531514845788479,0.03984135389328,0.0344263166189194,0.00473188422620296,0.0632470920681953
71,0.0336377955973148,0.0492594614624977,0.0328233391046524,0.0286089591681957,-0.000179289112566039,0.0545518100261688
72,0.0312707908451557,0.0465019531548023,0.0276561230421066,0.0221388898789883,-0.00469896104186773,0.049427293241024
73,0.0285209212452173,0.0451149083673954,0.0245540030300617,0.0162096302956343,-0.00682851625606418,0.0489812046289444
74,0.0266626942902803,0.0457424521446228,0.0242979843169451,0.0123441983014345,-0.00408516451716423,0.052938487380743
75,0.028347397223115,0.0485080555081367,0.0271125696599483,0.01117835752666,0.00394816696643829,0.0586312301456928
76,0.0344162210822105,0.0525041036307812,0.0323578454554081,0.0122691951692104,0.0150321889668703,0.0644884631037712
77,0.0415461845695972,0.0564687997102737,0.0392897613346577,0.014780705794692,0.0265337880700827,0.0693733245134354
78,0.0449280738830566,0.0584498941898346,0.044760026037693,0.0165888555347919,0.0352328531444073,0.0696231722831726
79,0.0414726212620735,0.0561095513403416,0.0432984195649624,0.0144893312826753,0.0361753329634666,0.0628901198506355
80,0.0328197069466114,0.0502853542566299,0.0343566201627254,0.00840380322188139,0.0281775929033756,0.0516383089125156
81,0.0258595440536737,0.0461693592369556,0.0247992351651192,0.00338009931147099,0.0172942951321602,0.0418167449533939
82,0.0241820961236954,0.0460469909012318,0.01994713768363,0.00280200154520571,0.00871118530631065,0.0373575948178768
83,0.0248690415173769,0.0468604601919651,0.0190641693770885,0.00465453695505857,0.00347518362104893,0.0383886583149433
84,0.0251183249056339,0.0463920757174492,0.0196894854307175,0.00629819557070732,0.00186450511682779,0.0432986132800579
85,0.0242146775126457,0.0443504489958286,0.0195561554282904,0.0067745796404779,0.00208948785439134,0.0475798472762108
86,0.0238840766251087,0.0418447330594063,0.0184260327368975,0.00685125961899757,0.00302615482360125,0.0476862974464893
87,0.0263596903532743,0.0404821261763573,0.0176330916583538,0.00690742628648877,0.0058990134857595,0.043786782771349
88,0.0300190411508083,0.039876863360405,0.0169261358678341,0.00553878443315625,0.0097535802051425,0.0375608205795288
89,0.0323884785175323,0.0400141514837742,0.0163344070315361,0.00322201126255095,0.0127976546064019,0.0328802466392517
90,0.0326009057462215,0.0415517166256905,0.0164086241275072,0.00180117413401604,0.014643456786871,0.032040186226368
91,0.0298985689878464,0.0432198382914066,0.0163752716034651,0.00212420360185206,0.0138069493696094,0.0328407622873783
92,0.0254855044186115,0.0439085029065609,0.016228761523962,0.00530905881896615,0.00903358496725559,0.0332801006734371
93,0.0223286040127277,0.0441554933786392,0.0164254195988178,0.0104815103113651,0.00214804243296385,0.033317755907774
94,0.021887781098485,0.0442236810922623,0.015303460881114,0.0133801521733403,-0.00399759551510215,0.0340823978185654
95,0.0231528356671333,0.0429526008665562,0.0107567347586155,0.0109922951087356,-0.00898931734263897,0.0376921594142914
96,0.0249453093856573,0.0405016019940376,0.00480306800454855,0.00561829190701246,-0.0128611316904426,0.0441633313894272
97,0.0271076317876577,0.039064809679985,0.00206717103719711,0.0017218585126102,-0.0138150900602341,0.0493332482874393
98,0.0294440351426601,0.0397552214562893,0.00410174252465367,0.000876197882462293,-0.0109415147453547,0.0491502620279789
99,0.0309374611824751,0.0415009036660194,0.00842619594186544,0.00152054778300226,-0.00628507370129228,0.0426997914910316
100,0.0305536687374115,0.0417976006865501,0.0113319847732782,0.000929971633013338,-0.00377034163102508,0.0308329686522484
101,0.0292586646974087,0.0390631444752216,0.011653465218842,-0.00153147685341537,-0.00508826225996017,0.0167078115046024
102,0.0295617431402206,0.0354584902524948,0.0120372418314219,-0.00290465843863785,-0.00674957456067204,0.00605372758582234
103,0.0329664014279842,0.0342808254063129,0.0147017976269126,-0.00123248866293579,-0.00470046745613217,0.00191818503662944
104,0.0371952317655087,0.0340642742812634,0.0173350237309933,0.000690491171553731,2.21682239498477E-05,0.000982102705165744
105,0.0372093543410301,0.0298269540071487,0.0161224268376827,-0.00145867001265287,0.00299631035886705,-0.00215642713010311
106,0.03105797059834,0.0201558265835047,0.0106165809556842,-0.00857974961400032,0.00140503398142755,-0.00864976178854704
107,0.0232382901012897,0.0108062140643597,0.00493082217872143,-0.015634385868907,-0.00141800299752504,-0.0140314344316721
108,0.0196246616542339,0.00831663887947798,0.00415882607921958,-0.0164767056703568,0.000862257904373109,-0.0148052843287587
109,0.0201495941728354,0.0117360716685653,0.00819084420800209,-0.0119444467127323,0.0084133455529809,-0.0134043730795383
110,0.0214271061122417,0.0158934742212296,0.0126124667003751,-0.0071857487782836,0.0157087091356516,-0.0134040163829923
111,0.0227809678763151,0.0184325333684683,0.0144804930314422,-0.00365529418922961,0.0182497706264257,-0.0127850621938705
112,0.0257202293723822,0.02100745216012,0.014582890085876,0.00148233212530613,0.015857458114624,-0.00458373455330729
113,0.0302806850522757,0.0254534501582384,0.0154553018510342,0.00913890078663826,0.0114425625652075,0.0120395151898265
114,0.0328171923756599,0.0290016066282988,0.0165260415524244,0.014498695731163,0.00699168164283037,0.026851462200284
115,0.0312586538493633,0.0288037657737732,0.0158013980835676,0.0140076316893101,0.00378040876239538,0.0320297628641129
116,0.0282160937786102,0.0269238334149122,0.0145713035017252,0.00992336589843035,0.00259948475286365,0.028294051066041
117,0.0250320509076118,0.0246312227100134,0.0134487226605415,0.00373945129103959,0.00149137817788869,0.0173850804567337
118,0.0224128998816013,0.0216164756566286,0.0111554805189371,-0.00428207172080874,-0.000553190300706774,0.00271965726278722
119,0.0235094428062439,0.0193295329809189,0.00811714120209217,-0.0113364374265075,-0.00183518824633211,-0.00910634826868773
120,0.0293700359761715,0.0179601684212685,0.00504114152863622,-0.0155742717906833,-0.00197093980386853,-0.0152406003326178
121,0.0375165641307831,0.0167136527597904,0.0028333393856883,-0.0169219113886356,-0.000486604287289083,-0.0174505840986967
122,0.0439294278621674,0.0157750491052866,0.00284207705408335,-0.0154902040958405,0.00427332660183311,-0.0175916813313961
123,0.0445560216903687,0.0152606656774879,0.00413122121244669,-0.0132032306864858,0.010692086070776,-0.0175198055803776
124,0.0396793186664581,0.0162517037242651,0.00524862948805094,-0.0120607363060117,0.0146466493606567,-0.0172319039702415
125,0.0325036309659481,0.0177475493401289,0.00580561440438032,-0.012954156845808,0.0137456702068448,-0.0160186905413866
126,0.0248656291514635,0.016445342451334,0.00584783498197794,-0.0155444303527474,0.00902776792645454,-0.0157812759280205
127,0.0189600791782141,0.013666314072907,0.00708778202533722,-0.0164633821696043,0.00432658707723022,-0.0165215823799372
128,0.015623427927494,0.0121726086363196,0.0100133372470737,-0.0134060205891728,0.00116678921040148,-0.0164989940822124
129,0.0130179272964597,0.011011722497642,0.0123330112546682,-0.00850250944495201,-0.00220520421862602,-0.0160345453768969
130,0.0108559858053923,0.00958261825144291,0.0131403291597962,-0.00437688687816262,-0.00569276744499803,-0.0142992176115513
131,0.0109429070726037,0.00946811772882938,0.0137932254001498,-0.000921503582503647,-0.00741498963907361,-0.00860254000872374
132,0.0135863358154893,0.0111057329922915,0.0153410211205482,0.00322043895721436,-0.00720804650336504,0.000527248252183199
133,0.0154123427346349,0.0116617670282722,0.0160425063222647,0.00731122866272926,-0.0078887278214097,0.00793647393584251
134,0.0122036058455706,0.00770302210003138,0.0118980230763555,0.00773598346859217,-0.0128580424934626,0.00824611354619265
135,0.00526576023548841,0.00145781168248504,0.00379894091747701,0.0038113403134048,-0.0193953812122345,0.0024869057815522
136,-0.000173373846337199,-0.00155280192848295,-0.00201789569109678,5.47744230061653E-06,-0.0207406003028154,-0.00212072394788265
137,-0.00167160830460489,-0.000345565378665924,-0.00240479805506766,-0.0006368164322339,-0.0159855019301176,0.0003529172972776
138,0.00136775500141084,0.00324608129449189,0.00230902712792158,0.00202434766106308,-0.00859469082206488,0.00907595269382
139,0.00867458432912827,0.00776990363374352,0.0107263028621674,0.00700612692162395,8.94968252396211E-05,0.0170662198215723
140,0.0176605712622404,0.0116773638874292,0.0203714873641729,0.0122435251250863,0.0101525513455272,0.0192243997007608
141,0.025306835770607,0.0140227312222123,0.0296473167836666,0.0169889573007822,0.0200712364166975,0.0168715585023165
142,0.0295208021998405,0.0151763260364532,0.0371254459023476,0.0220382548868656,0.0263371299952269,0.0141691053286195
143,0.0295890737324953,0.0170522127300501,0.0403269901871681,0.0271492786705494,0.0259355828166008,0.0142021020874381
144,0.0267062596976757,0.0205997042357922,0.0381269864737988,0.0298515688627958,0.0196963865309954,0.016029154881835
145,0.0245042387396097,0.024686248973012,0.0334030650556087,0.0287016090005636,0.0126737924292684,0.0168362986296415
146,0.0266157314181328,0.0285487845540047,0.0308417659252882,0.0264834016561508,0.00912682246416807,0.0163855105638504
147,0.0314417779445648,0.0312591418623924,0.0313192643225193,0.0261086914688349,0.00808763690292835,0.015696695074439
148,0.0342900454998016,0.031895037740469,0.0322194471955299,0.027387410402298,0.00612852443009615,0.0156868677586317
149,0.0329245068132877,0.0305137503892183,0.0309704896062613,0.0280367117375135,0.000989113352261484,0.0164786539971828
150,0.0279156155884266,0.0275496132671833,0.0268980041146278,0.0262896120548248,-0.00726688746362925,0.0171196609735489
151,0.021844295784831,0.0244034212082624,0.0222885124385357,0.0238160118460655,-0.0160620976239443,0.0182158518582582
152,0.0186768174171448,0.0226287860423326,0.0206560641527176,0.0233883615583181,-0.0215855706483126,0.0211178995668888
153,0.0193151831626892,0.0219224914908409,0.0232938211411238,0.0248851478099823,-0.0213561560958624,0.0251208860427141
154,0.0203323382884264,0.0214870758354664,0.0279196761548519,0.026778619736433,-0.0173694901168346,0.0290964338928461
155,0.019606364890933,0.0210124347358942,0.0310175009071827,0.0281702633947134,-0.0146880345419049,0.0320615097880363
156,0.0187158435583115,0.0200963970273733,0.0313251614570618,0.0285853445529938,-0.0159259028732777,0.0327916815876961
157,0.0204050056636333,0.0193741507828236,0.0304575525224209,0.0281864237040281,-0.0191172119230032,0.0319545716047287
158,0.024126011878252,0.0185834355652332,0.028840497136116,0.025834521278739,-0.0219767466187477,0.0305994786322117
159,0.0256582889705896,0.0160461198538542,0.0249691158533096,0.0196675602346659,-0.0245088022202253,0.0295398011803627
160,0.0230726506561041,0.0127263516187668,0.0201181545853615,0.0117234298959374,-0.0259523447602987,0.0314640700817108
161,0.0185954608023167,0.0114947948604822,0.0174474343657494,0.00705093191936612,-0.0250090211629868,0.0366991050541401
162,0.0148561503738165,0.0129441749304533,0.0172896608710289,0.00709795625880361,-0.0226574912667274,0.0402220711112022
163,0.0117312176153064,0.0141516337171197,0.0159616731107235,0.00677495449781418,-0.0225923284888268,0.0368714220821857
164,0.00804844684898853,0.0126154525205493,0.0110899684950709,0.00181931199040264,-0.0271973758935928,0.0271265842020512
165,0.00556324841454625,0.0106169125065207,0.00693920208141208,-0.004387934692204,-0.0328913405537605,0.0178489722311497
166,0.00543643301352859,0.0108457272872329,0.00755967060104012,-0.00770370615646243,-0.0357525907456875,0.0146213443949819
167,0.00525900768116117,0.0116961663588881,0.0102723902091384,-0.00952005479484797,-0.0366125293076038,0.0160696692764759
168,0.00399498268961906,0.0110646160319448,0.0115301674231887,-0.0116816041991115,-0.0364115126430988,0.0191566664725542
169,0.00362475099973381,0.0101896775886416,0.011956162750721,-0.0127660920843482,-0.0341695435345173,0.0236272588372231
170,0.00514400005340576,0.0110340723767877,0.0126670664176345,-0.0116764819249511,-0.0305731911212206,0.0305318720638752
171,0.00791743025183678,0.0133548527956009,0.013010541908443,-0.0093209370970726,-0.0279945842921734,0.0400315374135971
172,0.0121359881013632,0.0166804268956184,0.0130044100806117,-0.00618147104978561,-0.0267782583832741,0.0489834733307362
173,0.0174757521599531,0.0207279957830906,0.0125843035057187,-0.00295684533193707,-0.0262962132692337,0.0521763414144516
174,0.0220228638499975,0.0240678358823061,0.0106872813776135,-0.00123368739150465,-0.0272050816565752,0.0477657243609428
175,0.0252899713814259,0.027674188837409,0.00881592649966478,0.000168803395354189,-0.0285291615873575,0.0407768115401268
176,0.0273605659604073,0.0337371230125427,0.00948421936482191,0.003644012613222,-0.0286405980587006,0.0392122827470303
177,0.0261918436735868,0.0394332222640514,0.0110275158658624,0.00753600616008043,-0.0289438143372536,0.0447685457766056
178,0.0209718309342861,0.0408249944448471,0.010823767632246,0.00872469879686832,-0.0304769519716501,0.0512108094990253
179,0.0136350439861417,0.0375666730105877,0.0084158880636096,0.00579493120312691,-0.0326782837510109,0.0514099076390266
180,0.00765738449990749,0.0316558219492435,0.00459293881431222,-0.000177341309608892,-0.0351432263851166,0.0453499145805836
181,0.00655049411579967,0.0261811707168818,0.00170746562071145,-0.00520168803632259,-0.0364315174520016,0.0405538342893124
182,0.0100355055183172,0.0227325856685638,0.00178282172419131,-0.00712833181023598,-0.0344576425850391,0.0409305468201637
183,0.0143890408799052,0.0204669442027807,0.00382332620210946,-0.00851081311702728,-0.0291165374219418,0.0414090603590012
184,0.0167637020349503,0.0186672303825617,0.00520613649860024,-0.0117442263290286,-0.0229272413998842,0.037155594676733
185,0.0163524448871613,0.0172803681343794,0.00464237201958895,-0.0157819483429194,-0.0194322485476732,0.0292327683418989
186,0.0124414945021272,0.0149512710049748,0.00175519066397101,-0.0194281060248613,-0.0221628844738007,0.0204226821660995
187,0.00559001369401813,0.0107537982985377,-0.00259332242421806,-0.0224589575082064,-0.0309597309678793,0.0137507217004895
188,-0.000562349741812795,0.00644764956086874,-0.00549402181059122,-0.0234893020242453,-0.0401363074779511,0.012572624720633
189,-0.00174987292848527,0.00486103538423777,-0.00420525204390287,-0.0207686144858599,-0.04386006295681,0.0167557019740343
190,0.0037950451951474,0.00802058074623346,0.00219978019595146,-0.0135247325524688,-0.0401455871760845,0.0227101277559996
191,0.0131022883579135,0.0151624502614141,0.0116575350984931,-0.0034378794953227,-0.0310035031288862,0.02729132771492
192,0.0198423136025667,0.0218691918998957,0.0189099237322807,0.00489933136850595,-0.0219187270849943,0.0281557086855173
193,0.0202739797532558,0.0243472959846258,0.0195218455046415,0.00819189287722111,-0.0178704187273979,0.0246398337185383
194,0.0152098713442683,0.0221235919743776,0.0130035579204559,0.00603078631684184,-0.0201244335621595,0.0185060985386372
195,0.00606606621295214,0.0153424963355064,0.000962338992394507,-0.00111589673906565,-0.0284973904490471,0.0108712399378419
196,-0.0052947192452848,0.00620319740846753,-0.0127114318311214,-0.0102478312328458,-0.0401578471064568,0.00301422527991235
197,-0.0141398785635829,-2.40645749727264E-05,-0.0215420816093683,-0.0159981604665518,-0.0478120073676109,-0.00237154494971037
198,-0.0167740732431412,-0.00156383507419378,-0.0229305829852819,-0.0165932197123766,-0.0473629720509052,-0.00491766491904855
199,-0.0133905522525311,-0.00176385079976171,-0.0206210818141699,-0.0150124086067081,-0.0413048565387726,-0.00608267448842525
200,-0.00597328506410122,-0.00265668169595301,-0.0180323142558336,-0.0131360553205013,-0.0331258736550808,-0.0043321643024683
201,0.00162378908134997,-0.00379333342425525,-0.0159229077398777,-0.0114479782059789,-0.0265507977455854,0.00196170667186379
202,0.00658265734091401,-0.00461998907849193,-0.0136409709230065,-0.0107579659670591,-0.0237487312406302,0.0094950832426548
203,0.0110764559358358,-0.00350028113462031,-0.00841859076172113,-0.00945659633725882,-0.0213331710547209,0.0145742781460285
204,0.0153539022430778,-0.00118245568592101,-0.00101543543860316,-0.00707970140501857,-0.0173890925943851,0.0159610994160175
205,0.0155418226495385,-0.000777031178586185,0.00317524466663599,-0.00525912502780557,-0.0156008610501885,0.0154923032969236
206,0.01197459269315,-0.00132424803450704,0.00232571549713612,-0.00295280874706805,-0.0173616390675306,0.0177115108817816
207,0.00797636900097132,-0.000717028102371842,-0.00178036629222333,-0.000465634657302871,-0.0200492814183235,0.0229287296533585
208,0.00515985721722245,8.37782863527536E-06,-0.00720116496086121,-0.000928710564039648,-0.0217087920755148,0.0264785811305046
209,0.00464783376082778,0.000374007766367868,-0.0108464015647769,-0.00423408811911941,-0.0215449687093496,0.0248741004616022
210,0.00621878448873758,0.00129707728046924,-0.0106347184628248,-0.00742114661261439,-0.0202188566327095,0.017958352342248
211,0.00850547663867474,0.00332394219003618,-0.00661686155945063,-0.00786368642002344,-0.0190176293253899,0.00869394186884165
212,0.0116232875734568,0.00758718978613615,0.00104284286499023,-0.00349077605642378,-0.0169668458402157,0.00264490046538413
213,0.0140191465616226,0.012237474322319,0.00868742726743221,0.00372526911087334,-0.0147302821278572,0.002377470722422
214,0.0120772272348404,0.0119950156658888,0.0108763976022601,0.00818154588341713,-0.0158812422305346,0.00395507086068392
215,0.00679706363007426,0.00620107026770711,0.00798074807971716,0.0078879501670599,-0.019635884091258,0.00354957999661565
216,0.00374271301552653,2.03272848011693E-05,0.00424535432830453,0.00553971109911799,-0.0211571548134089,0.00276401010341942
217,0.00545208435505629,-0.00249226600863039,0.00168058113195002,0.00377205107361078,-0.018913496285677,0.00386503012850881
218,0.0100227911025286,-0.00110114889685065,0.000556034152396023,0.00408484553918242,-0.0147175183519721,0.00599263794720173
219,0.0157885048538446,0.00321772042661905,0.00212451443076134,0.00738408230245113,-0.00947447214275599,0.00805144477635622
220,0.021839702501893,0.00933502521365881,0.00756238261237741,0.0127776274457574,-0.00246903370134532,0.00992056913673878
221,0.0241658333688974,0.0131866149604321,0.0128045976161957,0.015489149838686,0.00399591540917754,0.00946241151541471
222,0.0173582322895527,0.00915224850177765,0.00917339697480202,0.00920019671320915,0.00323738413862884,0.0029711751267314
223,0.00375523278489709,-0.000955607567448169,-0.00484543899074197,-0.00419963616877794,-0.00616762507706881,-0.00752042839303613
224,-0.00789177790284157,-0.00916693266481161,-0.0213504023849964,-0.0149746108800173,-0.0172254908829927,-0.0141370641067624
225,-0.0118709160014987,-0.011724254116416,-0.0329706184566021,-0.0169927291572094,-0.0226086415350437,-0.0112152127549052
226,-0.00849310588091612,-0.00996959302574396,-0.0373322144150734,-0.0118543142452836,-0.0217008590698242,-4.86869794258382E-06
227,-0.00293322186917067,-0.00667595630511642,-0.0359925217926502,-0.0054655191488564,-0.0208332315087318,0.0115788960829377
228,0.000228319593588822,-0.00441306782886386,-0.0321292653679848,-0.00242147967219353,-0.0247966721653938,0.0159248467534781
229,0.0015056460397318,-0.00435637542977929,-0.0283658895641565,-0.00347098102793098,-0.0322525426745415,0.0112634040415287
230,0.00338584464043379,-0.00566449156031013,-0.0260590985417366,-0.00694945408031344,-0.0396450981497765,0.000921916973311454
231,0.00510717043653131,-0.00716138537973166,-0.0257959999144077,-0.0111113106831908,-0.0443758480250835,-0.00952502153813839
232,0.00374696869403124,-0.00961163640022278,-0.0276508871465921,-0.0161612164229155,-0.046452708542347,-0.0166138261556625
233,-0.000341721606673673,-0.0126912361010909,-0.029837716370821,-0.0215646401047707,-0.0467001795768738,-0.0197436027228832
234,-0.00503243692219257,-0.014748097397387,-0.0306884609162807,-0.0255869291722775,-0.0453808829188347,-0.0202015936374664
235,-0.00973474327474833,-0.0157994944602251,-0.0307370778173208,-0.0279536936432123,-0.0436614081263542,-0.0196712985634804
236,-0.0126716885715723,-0.0146980313584208,-0.0290303975343704,-0.0273783467710018,-0.0409818962216377,-0.0171805303543806
237,-0.0121314516291022,-0.0102971745654941,-0.0248421616852283,-0.0229823347181082,-0.0368004478514194,-0.0120048793032765
238,-0.0107371881604195,-0.00613459758460522,-0.0219735167920589,-0.0185040552169085,-0.0347565561532974,-0.00686122942715883
239,-0.0122991530224681,-0.00679145567119122,-0.0236558653414249,-0.0183404926210642,-0.036655105650425,-0.004444919526577
240,-0.0169305950403214,-0.0118972323834896,-0.0284659508615732,-0.0224626921117306,-0.0390348508954048,-0.00544535042718053
241,-0.0222944766283035,-0.0175882484763861,-0.0336589775979519,-0.0280593112111092,-0.0394203960895538,-0.00994221400469542
242,-0.0268371272832155,-0.02212137542665,-0.0381958074867725,-0.0332649014890194,-0.0391212031245232,-0.0171992219984531
243,-0.0286422036588192,-0.0249215494841337,-0.0411149449646473,-0.0361441671848297,-0.038223497569561,-0.0221732668578625
244,-0.0258756820112467,-0.0246090814471245,-0.0415167324244976,-0.0345281921327114,-0.0352781638503075,-0.0183575432747602
245,-0.0208381116390228,-0.0222051348537207,-0.0408149808645248,-0.0297221597284079,-0.0316014066338539,-0.00856383703649044
246,-0.0181454308331013,-0.0207733642309904,-0.0411387011408806,-0.0267538130283356,-0.028873423114419,-0.00387145089916885
247,-0.0194253772497177,-0.0215225908905268,-0.0429322011768818,-0.0292825195938349,-0.0268203373998404,-0.0100637059658766
248,-0.0221944823861122,-0.0222746822983027,-0.0438932999968529,-0.034980371594429,-0.0255320351570845,-0.0226017516106367
249,-0.0241465419530869,-0.0216302406042814,-0.0421763770282269,-0.0396843440830708,-0.026686143130064,-0.0349936261773109
250,-0.0263015422970057,-0.0219324268400669,-0.0403067320585251,-0.0430737100541592,-0.032211996614933,-0.0455697625875473
251,-0.0298544242978096,-0.0245141368359327,-0.040970217436552,-0.0456616468727589,-0.0408414267003536,-0.0545288361608982
252,-0.0351239591836929,-0.029009060934186,-0.044801976531744,-0.0482726022601128,-0.0490743778645992,-0.0626832246780396
253,-0.0427812151610851,-0.0365196876227856,-0.0525737069547176,-0.0544211603701115,-0.055773138999939,-0.0720933750271797
254,-0.049418430775404,-0.0449927859008312,-0.0611220262944698,-0.062994047999382,-0.0593471862375736,-0.0797278508543968
255,-0.0485557205975056,-0.0488379634916782,-0.0649065971374512,-0.067061148583889,-0.0573708862066269,-0.0798873752355576
256,-0.0373581387102604,-0.0453537404537201,-0.061622079461813,-0.0626684501767159,-0.049743078649044,-0.0724051892757416
257,-0.0202516093850136,-0.037305373698473,-0.0530188828706741,-0.0522354952991009,-0.0379870235919952,-0.0619203671813011
258,-0.00721731595695019,-0.0304682664573193,-0.044740691781044,-0.0421490035951138,-0.0262181591242552,-0.0544106811285019
259,-0.00429596146568656,-0.0274677537381649,-0.0407806746661663,-0.0364123247563839,-0.0190812610089779,-0.0525392591953278
260,-0.00934411585330963,-0.0268813464790583,-0.040236983448267,-0.0343725867569447,-0.0176041442900896,-0.0545897223055363
261,-0.0171102471649647,-0.0273088961839676,-0.040642611682415,-0.0342080146074295,-0.0194858908653259,-0.057483971118927
262,-0.0232934951782227,-0.0277748126536608,-0.0400833822786808,-0.034552875906229,-0.0215376615524292,-0.0592341423034668
263,-0.0257853418588638,-0.0268283765763044,-0.0379279218614101,-0.0338095277547836,-0.0217829681932926,-0.0586225278675556
264,-0.0253319945186377,-0.0247987769544125,-0.0356651768088341,-0.0314603708684444,-0.0210894681513309,-0.0537605844438076
265,-0.0245677791535854,-0.0241753756999969,-0.0355904027819633,-0.0297361277043819,-0.0212870668619871,-0.0447052270174026
266,-0.0234042126685381,-0.0245950929820538,-0.0366779714822769,-0.0294234286993742,-0.0210969466716051,-0.0332999937236309
267,-0.0191181097179651,-0.0229272413998842,-0.0350730940699577,-0.0279319602996111,-0.0185233801603317,-0.0220452416688204
268,-0.0123119605705142,-0.01949224434793,-0.0298165064305067,-0.0241747740656137,-0.0150128835812211,-0.0158566106110811
269,-0.00596348894760013,-0.0168403219431639,-0.023457445204258,-0.0194006953388453,-0.0127369174733758,-0.0179256647825241
270,-0.00116253213491291,-0.0155311040580273,-0.0184865165501833,-0.0151838148012757,-0.0119242714717984,-0.0254033897072077
271,0.00342237274162471,-0.0146332066506147,-0.0153214354068041,-0.0128752626478672,-0.0115492716431618,-0.0333387181162834
272,0.00929464213550091,-0.0127175794914365,-0.0130361672490835,-0.0125130526721478,-0.0107128992676735,-0.0385666601359844
273,0.0154332369565964,-0.00914587453007698,-0.0112857893109322,-0.0129008898511529,-0.00970720499753952,-0.0396543219685555
274,0.0180056039243937,-0.00638375384733081,-0.0115462662652135,-0.0145450234413147,-0.011044641956687,-0.0389958173036575
275,0.0143062835559249,-0.00740485917776823,-0.0150826023891568,-0.0192622691392899,-0.016683442518115,-0.0407467260956764
276,0.00831322185695171,-0.00947559252381325,-0.0182482320815325,-0.0245395842939615,-0.0216605067253113,-0.0436472855508327
277,0.00576710514724255,-0.00843387469649315,-0.0168449711054564,-0.0258670449256897,-0.0197611059993505,-0.0438582487404346
278,0.00706012547016144,-0.00487501965835691,-0.0119363749399781,-0.022637952119112,-0.0113861048594117,-0.040536854416132
279,0.0103590060025454,-0.000379911158233881,-0.0057229595258832,-0.0162347722798586,0.000746857898775488,-0.0333932340145111
280,0.0132733257487416,0.00302964798174798,-0.000180001647095196,-0.00943747907876968,0.012465032748878,-0.0240943375974894
281,0.0137545466423035,0.0029666181653738,0.00311545561999083,-0.00548457773402333,0.0191124230623245,-0.0183348916471004
282,0.0124577339738607,0.00012916445848532,0.00475648650899529,-0.00457939878106117,0.0193891376256943,-0.0198629815131426
283,0.0111606223508716,-0.00276952842250466,0.00499148247763515,-0.00533658638596535,0.0140050947666168,-0.0262183286249638
284,0.0120111024007201,-0.00324296741746366,0.00383142102509737,-0.00657769944518805,0.00695921294391155,-0.0313970521092415
285,0.015397097915411,-0.00126155524048954,0.00128776242490858,-0.0085010165348649,0.0032083704136312,-0.0329305566847324
286,0.0181704349815845,0.000110272965684999,-0.00407999521121383,-0.0127295153215528,0.00200359500013292,-0.0344427265226841
287,0.0191707201302052,-0.000422506127506495,-0.0112448465079069,-0.0180668160319328,0.00102075387258083,-0.0379566103219986
288,0.0208077076822519,-0.000744182209018618,-0.0164376012980938,-0.0211256593465805,0.00133488571736962,-0.0410548523068428
289,0.023037277162075,0.000108471278508659,-0.0177965946495533,-0.020667776465416,0.00332592939957976,-0.0424647331237793
290,0.0240461323410273,0.00224572280421853,-0.0144887017086148,-0.0161747857928276,0.00614371290430427,-0.0411470830440521
291,0.0240175556391478,0.00640106294304132,-0.00705565139651299,-0.00867855176329613,0.00929121300578117,-0.0352593138813972
292,0.0239389799535275,0.0123103242367506,0.00149864004924893,-0.00213502417318523,0.0117361024022102,-0.0262469444423914
293,0.0250790324062109,0.0197187960147858,0.00969501305371523,0.00205200770869851,0.0140307825058699,-0.0174446403980255
294,0.0266847964376211,0.0263451598584652,0.0163138806819916,0.00420203758403659,0.0165033303201199,-0.012107533402741
295,0.0261393003165722,0.0280604846775532,0.0189696494489908,0.00299556506797671,0.0174460485577583,-0.0121186748147011
296,0.0243735909461975,0.0253787096589804,0.0185867920517921,-0.000886231428012252,0.0177536904811859,-0.0164142958819866
297,0.0241510774940252,0.0218728240579367,0.0177873391658068,-0.00501810712739825,0.0196947325021029,-0.0234439168125391
298,0.0242832619696856,0.0178694799542427,0.0156250763684511,-0.00945136696100235,0.021236214786768,-0.0320484563708305
299,0.0222424007952213,0.0124137746170163,0.0103035271167755,-0.0150718158110976,0.0196382366120815,-0.0393752828240395
300,0.0196258872747421,0.00749304238706827,0.00421034684404731,-0.0203175973147154,0.0175700280815363,-0.0419548265635967
301,0.0205940250307322,0.00611938163638115,0.00177779886871576,-0.0228278804570436,0.0195831302553415,-0.0398549176752567
302,0.0271647907793522,0.00964022148400545,0.00571588659659028,-0.0205828361213207,0.0274344477802515,-0.035211693495512
303,0.0358886793255806,0.0163047090172768,0.0146180437877774,-0.013257478363812,0.0380717031657696,-0.0292826797813177
304,0.0410954207181931,0.0220668166875839,0.0232338160276413,-0.00418412126600742,0.0448559336364269,-0.0224871933460236
305,0.0411742106080055,0.0242231711745262,0.0273754224181175,0.00261785672046244,0.0445246770977974,-0.0151018742471933
306,0.0393559150397778,0.0237003210932016,0.0281340163201094,0.00673721125349402,0.0412785969674587,-0.00885235238820314
307,0.039693545550108,0.0232016034424305,0.0295469705015421,0.0101502621546388,0.040824431926012,-0.00507666915655136
308,0.0428071655333042,0.0234224796295166,0.0329394042491913,0.013578936457634,0.042881328612566,-0.00260457559488714
309,0.0470059625804424,0.0235338918864727,0.0366726703941822,0.0167259145528078,0.0443822219967842,0.000332123308908194
310,0.0504486337304115,0.0224873311817646,0.0381774939596653,0.0185007806867361,0.0438147000968456,0.00377914193086326
311,0.0521219298243523,0.0205903854221106,0.0362208932638168,0.017747538164258,0.0409310534596443,0.00639457488432527
312,0.0528869852423668,0.0210371352732182,0.0334248058497906,0.0159713085740805,0.0380189828574657,0.00722507387399673
313,0.0547464564442635,0.0256934743374586,0.0330798476934433,0.015301707200706,0.0386650748550892,0.00573995616286993
314,0.0591269433498383,0.0320296697318554,0.0348253771662712,0.0152361737564206,0.0432186312973499,0.00141864211764187
315,0.0650216713547707,0.0365483276546001,0.036432784050703,0.0148112000897527,0.0480306185781956,-0.00473134266212583
316,0.0711181461811066,0.0396645851433277,0.0383738726377487,0.0162478182464838,0.0511853359639645,-0.00859975442290306
317,0.0748010203242302,0.0415395312011242,0.0405081696808338,0.0196594819426537,0.052462961524725,-0.00837545841932297
318,0.070920392870903,0.0380675047636032,0.0382597893476486,0.0186339765787125,0.0492556691169739,-0.00827747583389282
319,0.0605109110474586,0.0296661835163832,0.0309991016983986,0.0110234683379531,0.0426817610859871,-0.00990709476172924
320,0.0528086796402931,0.0233149472624063,0.0260272603482008,0.00388332642614841,0.0405716858804226,-0.00923326518386602
321,0.0536736473441124,0.0230435896664858,0.0292061194777489,0.0032246527262032,0.047875102609396,-0.00448161736130714
322,0.0583909265697002,0.0259782690554857,0.0377097688615322,0.00819870363920927,0.0593853332102299,0.00148522201925516
323,0.0603951886296272,0.02909698151052,0.0453089810907841,0.0161471851170063,0.0661661252379417,0.00809631776064634
324,0.0596619956195354,0.0340157076716423,0.0492322631180286,0.0258430857211351,0.0646471753716469,0.0184963922947645
325,0.0585360489785671,0.0415933579206467,0.0492390431463718,0.0346324630081654,0.0568544007837772,0.0320476889610291
326,0.0573391914367676,0.0489519350230694,0.0461018867790699,0.0390208177268505,0.0465801209211349,0.044087115675211
327,0.0553319156169891,0.0528119206428528,0.0408468879759312,0.0378271974623203,0.0360197387635708,0.0505463071167469
328,0.0525839515030384,0.0527393482625484,0.0348841473460197,0.0328841842710972,0.026941355317831,0.0498576164245605
329,0.0495416782796383,0.0510129071772099,0.0301599912345409,0.0272438284009695,0.022228704765439,0.0441391281783581
330,0.0460724756121635,0.0491207242012024,0.027288256213069,0.0224784705787897,0.0219066496938467,0.0370721444487572
331,0.0423322208225727,0.0467983856797218,0.025535861030221,0.0181957166641951,0.0220527872443199,0.0305291004478931
332,0.0383583642542362,0.0429777391254902,0.0233866311609745,0.0127146523445845,0.0190615952014923,0.0240125339478254
333,0.0347468294203281,0.0377626046538353,0.0207629837095737,0.00593694159761071,0.0136014716699719,0.0173101760447025
334,0.0334812961518765,0.0337206460535526,0.0198135748505592,0.00103588053025305,0.00898788869380951,0.0122817093506455
335,0.0355581417679787,0.0324923992156982,0.0217018611729145,0.000749392958823591,0.00684015545994043,0.0108785573393106
336,0.0395025014877319,0.0331702269613743,0.0256525743752718,0.00469311699271202,0.00755894416943192,0.0130447633564472
337,0.0413529016077518,0.033437579870224,0.0289023388177156,0.00889130961149931,0.00998174306005239,0.015544350259006
338,0.03891571611166,0.0321918539702892,0.0297889821231365,0.00977359805256128,0.0116009237244725,0.0151268541812897
339,0.0348270237445831,0.0313633717596531,0.0297573022544384,0.00843507051467896,0.0110265985131264,0.0125974183902144
340,0.0304700694978237,0.0307077392935753,0.0276545230299234,0.00485870754346251,0.00655312370508909,0.00834881141781807
341,0.0242752563208342,0.0272567495703697,0.0207160767167807,-0.00321022048592567,-0.00249032815918326,0.00184578285552561
342,0.0183644145727158,0.0231129787862301,0.0123115107417107,-0.0120420847088099,-0.012312681414187,-0.00192277284804732
343,0.0166733507066965,0.0230232421308756,0.00784459244459867,-0.0159145276993513,-0.0187969207763672,0.00172263954300433
344,0.0182326883077621,0.0265245344489813,0.007306810002774,-0.015729358419776,-0.0226478446274996,0.00991561356931925
345,0.0199971739202738,0.0306009128689766,0.00869894679635763,-0.0142819918692112,-0.0265955589711666,0.0182869676500559
346,0.0206649117171764,0.0333640985190868,0.0104144494980574,-0.0129562262445688,-0.0322573482990265,0.0244702361524105
347,0.0197004582732916,0.0329172015190125,0.0101225841790438,-0.0143029531463981,-0.0400721989572048,0.0269895736128092
348,0.0186646524816751,0.0296652372926474,0.00813956931233406,-0.0184052418917418,-0.0470735132694244,0.0271553155034781
349,0.0187881458550692,0.0257794596254826,0.00644779438152909,-0.0224081724882126,-0.0504462122917175,0.0266911033540964
350,0.0183704700320959,0.0224240683019161,0.00597673514857888,-0.0247466657310724,-0.0509590096771717,0.0262946598231792
351,0.0162899773567915,0.0202148221433163,0.00747531186789274,-0.026012172922492,-0.049220584332943,0.0277892984449863
352,0.0133354291319847,0.0185769814997911,0.0101965125650167,-0.0278475172817707,-0.0463903695344925,0.0317743048071861
353,0.0125845829024911,0.0179368574172258,0.0139887519180775,-0.0296956934034824,-0.0435423254966736,0.0365636870265007
354,0.01606191881001,0.0203493293374777,0.0198400262743235,-0.0295172818005085,-0.0397351868450642,0.0396482571959496
355,0.02053277567029,0.0254044942557812,0.0254312139004469,-0.0274783466011286,-0.0357751958072186,0.0391682460904121
356,0.0234982203692198,0.031548235565424,0.0285189915448427,-0.0243188962340355,-0.0330230034887791,0.0361633561551571
357,0.0273346062749624,0.0388253070414066,0.0306937899440527,-0.0201174076646566,-0.0304545294493437,0.0332039855420589
358,0.0336201936006546,0.0460093803703785,0.0327766910195351,-0.0165372639894485,-0.0275730453431606,0.0310174096375704
359,0.0400888845324516,0.0502136647701263,0.0334012769162655,-0.0153487510979176,-0.0254903119057417,0.0288246776908636
360,0.0425004288554192,0.0501661859452724,0.0315855406224728,-0.0159214623272419,-0.0260149352252483,0.0264189634472132
361,0.0381980016827583,0.0470770411193371,0.0277859624475241,-0.0168687757104635,-0.0300042666494846,0.0242281872779131
362,0.0283647552132607,0.042235903441906,0.0231544356793165,-0.0188584141433239,-0.0366560406982899,0.0217444431036711
363,0.0165328551083803,0.0360786691308022,0.0186310317367315,-0.0233462508767843,-0.0447827242314816,0.0183671154081821
364,0.0064217378385365,0.0301647558808327,0.0154474247246981,-0.0290472973138094,-0.0525600910186768,0.01550233643502
365,0.000329413422150537,0.027426864951849,0.0145515110343695,-0.0327224209904671,-0.0581189468502998,0.0152777284383774
366,-0.00222046277485788,0.0283717196434736,0.0148400794714689,-0.033819705247879,-0.0611346513032913,0.0167233720421791
367,-0.00287874392233789,0.0302380416542292,0.0148182343691587,-0.0343958958983421,-0.0616391897201538,0.0170957241207361
368,-0.00213382579386234,0.0316718854010105,0.0150967696681619,-0.034622997045517,-0.0591878928244114,0.0166835188865662
369,-0.000429655512562022,0.033577486872673,0.0171068646013737,-0.0329308733344078,-0.0544803887605667,0.0175858251750469
370,0.00128237553872168,0.0364960879087448,0.021161787211895,-0.0285428892821074,-0.0495558716356754,0.0206523928791285
371,0.00154588639270514,0.0385467298328877,0.0245971009135246,-0.0233071204274893,-0.047169141471386,0.0251093599945307
372,-0.000337475445121527,0.0372656881809235,0.0240919310599566,-0.0199058298021555,-0.0483703128993511,0.0299500152468681
373,-0.00293431407772005,0.0330338068306446,0.0198530443012714,-0.0187787842005491,-0.0514017380774021,0.0339006707072258
374,-0.00439090048894286,0.0280844736844301,0.0147474994882941,-0.0189893748611212,-0.05366225913167,0.0349684990942478
375,-0.00313644739799201,0.0245272759348154,0.0120675042271614,-0.0188718698918819,-0.0524185560643673,0.032798133790493
376,0.00180629605893046,0.0229935720562935,0.0130900973454118,-0.0178029723465443,-0.0465412512421608,0.0286654494702816
377,0.00851658452302217,0.0212865397334099,0.0145686222240329,-0.0181329101324081,-0.039235346019268,0.0226080492138863
378,0.0133573124185205,0.0171938873827457,0.0125950109213591,-0.0211919192224741,-0.0353630743920803,0.0159003939479589
379,0.0158016495406628,0.0129851186648011,0.00909835379570723,-0.0239323806017637,-0.0344320759177208,0.0143542001023889
380,0.0164717379957438,0.0118186119943857,0.00738248554989696,-0.0238193236291409,-0.0328665375709534,0.0200812611728907
381,0.0142043866217136,0.0126907862722874,0.00648891646414995,-0.022452300414443,-0.030809972435236,0.0272461716085672
382,0.00969068985432386,0.0129135195165873,0.00507586263120174,-0.0224570408463478,-0.0296816304326057,0.0300471913069487
383,0.0055975541472435,0.0108259245753288,0.0029447868000716,-0.0252176467329264,-0.0292713362723589,0.0257015470415354
384,0.00335761485621333,0.00734225194901228,0.00064167968230322,-0.0291533842682838,-0.0291354637593031,0.0158482287079096
385,0.00204058364033699,0.00486143911257386,-0.000605854846071452,-0.0312683284282684,-0.0301334783434868,0.00548609998077154
386,0.0012635518796742,0.00515570677816868,0.000271265860646963,-0.0303243901580572,-0.0321655385196209,-0.00228691985830665
387,0.0028308208566159,0.009266740642488,0.00415577832609415,-0.0261192545294762,-0.0326706692576408,-0.00639874022454023
388,0.00590371526777744,0.0148917892947793,0.00889083370566368,-0.0209025498479605,-0.0316874906420708,-0.00799696892499924
389,0.00666317064315081,0.0172404851764441,0.0104592870920897,-0.0189989674836397,-0.0322884321212769,-0.0103457067161798
390,0.00424806121736765,0.0148319015279412,0.00901060737669468,-0.0217159017920494,-0.035099308937788,-0.0145678017288446
391,0.000465040764538571,0.0106928888708353,0.00741306645795703,-0.0268140137195587,-0.0382158793509007,-0.0182736460119486
392,-0.00510045606642962,0.00726854149252176,0.00552162667736411,-0.032306857407093,-0.0409284308552742,-0.0200290288776159
393,-0.01265530847013,0.00463424995541573,0.00218948442488909,-0.0361804850399494,-0.0428884960711002,-0.0200912170112133
394,-0.0194637533277273,0.00251569529064,-0.00158350111451,-0.0366003699600697,-0.0427119545638561,-0.0188089311122894
395,-0.0240504629909992,-0.000217129389056936,-0.00554138887673616,-0.0352793894708157,-0.0405897051095963,-0.0183839984238148
396,-0.0285554192960262,-0.00584207102656364,-0.0117702251300216,-0.0363876260817051,-0.0398452877998352,-0.0218839943408966
397,-0.0342223420739174,-0.0143956644460559,-0.0203194078058004,-0.0411336049437523,-0.0418620780110359,-0.0291288644075394
398,-0.0391466245055199,-0.0229401886463165,-0.0274250060319901,-0.0463792644441128,-0.0435044802725315,-0.0364556200802326
399,-0.0423042997717857,-0.029694240540266,-0.0299181751906872,-0.0492551811039448,-0.0432190746068954,-0.0407252050936222
400,-0.0439153350889683,-0.0343856327235699,-0.0275124311447144,-0.0491040572524071,-0.0427407845854759,-0.0402660928666592
401,-0.0441997796297073,-0.0368500202894211,-0.0231459867209196,-0.0461423061788082,-0.0444386936724186,-0.0345050394535065
402,-0.0438515804708004,-0.0373805873095989,-0.0207220353186131,-0.0414803549647331,-0.0495816804468632,-0.0254190918058157
403,-0.0432290397584438,-0.0369528196752071,-0.0219530202448368,-0.0383679904043674,-0.0570884644985199,-0.018115570768714
404,-0.0415953956544399,-0.0366887897253037,-0.0266963578760624,-0.0404264815151691,-0.0644672960042953,-0.0182898417115211
405,-0.0383140929043293,-0.0362696573138237,-0.0332841947674751,-0.0470686890184879,-0.0693410262465477,-0.0266095642000437
406,-0.0349394716322422,-0.0348283387720585,-0.0389500744640827,-0.053919930011034,-0.0708771273493767,-0.0367279797792435
407,-0.0349088497459888,-0.0337882228195667,-0.0426105558872223,-0.0581132657825947,-0.0704928860068321,-0.0423544570803642
408,-0.0403925217688084,-0.0358863472938538,-0.0453520007431507,-0.0603136494755745,-0.06999172270298,-0.0438714250922203
409,-0.0476461611688137,-0.0390211045742035,-0.0454436242580414,-0.0595801323652267,-0.0676848888397217,-0.0420828983187675
410,-0.0509564355015755,-0.0383082404732704,-0.0403309315443039,-0.0536839887499809,-0.0615056157112122,-0.0363773107528687
411,-0.0509027652442455,-0.0349563732743263,-0.0337178409099579,-0.0456870906054974,-0.0551091097295284,-0.0311603434383869
412,-0.0506733991205692,-0.0327319540083408,-0.0304511450231075,-0.0401585474610329,-0.0526833198964596,-0.0308406371623278
413,-0.0491008721292019,-0.0305862538516521,-0.0289588198065758,-0.0365695357322693,-0.0527274534106255,-0.033366471529007
414,-0.0433409139513969,-0.0261108987033367,-0.0259397774934769,-0.0329415798187256,-0.0516062900424004,-0.0349030904471874
415,-0.0352402292191982,-0.0210306793451309,-0.022582832723856,-0.0304333940148354,-0.0483598783612251,-0.0361024476587772
416,-0.0291283316910267,-0.0180647280067205,-0.0207651536911726,-0.0299117360264063,-0.0437317341566086,-0.0389118120074272
417,-0.0264202281832695,-0.0163779966533184,-0.0192864499986172,-0.0295424964278936,-0.0381521433591843,-0.0412398315966129
418,-0.0260484870523214,-0.0140134086832404,-0.0167708862572908,-0.0276397969573736,-0.0324047468602657,-0.0391002260148525
419,-0.0260887295007706,-0.0108302030712366,-0.0129053415730596,-0.0237094573676586,-0.0273127127438784,-0.0315280891954899
420,-0.0257673989981413,-0.00796241220086813,-0.00804087147116661,-0.0187586136162281,-0.0236715525388718,-0.0221020244061947
421,-0.0258421618491411,-0.00616588117554784,-0.00317223928868771,-0.0150045100599527,-0.0216988995671272,-0.0151464603841305
422,-0.0272327847778797,-0.00574979092925787,0.000277607352472842,-0.01388471852988,-0.0208257008343935,-0.0126730976626277
423,-0.030739214271307,-0.00721440184861422,0.0010509496787563,-0.0147338882088661,-0.021251954138279,-0.013856552541256
424,-0.0347184538841248,-0.00906644482165575,0.0014070930192247,-0.0139647610485554,-0.0212145429104567,-0.0139699308201671
425,-0.0362138710916042,-0.00873759016394615,0.00455074617639184,-0.00934206508100033,-0.0180035941302776,-0.00904799439013004
426,-0.0352112464606762,-0.00713063264265656,0.00815797597169876,-0.00432031136006117,-0.0132216140627861,-0.00196406315080822
427,-0.0335403792560101,-0.00722835259512067,0.00795566570013762,-0.00345258414745331,-0.00940883345901966,0.00210756924934685
428,-0.032410703599453,-0.00943104922771454,0.00353632774204016,-0.00704442756250501,-0.00665594590827823,0.00245276908390224
429,-0.0325085632503033,-0.0122417425736785,-0.00275148614309728,-0.0121810790151358,-0.0055213226005435,0.00088911218335852
430,-0.0325417667627335,-0.0138441864401102,-0.00768031179904938,-0.0155787756666541,-0.0053359717130661,-0.00165006564930081
431,-0.0292836036533117,-0.0123782446607947,-0.00880681630223989,-0.0155976703390479,-0.00308780674822629,-0.00423995312303305
432,-0.022770082578063,-0.00929200928658247,-0.00753544876351953,-0.0142456758767366,0.000761931412853301,-0.0068976990878582
433,-0.0167381446808577,-0.00824122596532106,-0.0069653382524848,-0.0151609070599079,0.0030513999518007,-0.011744000017643
434,-0.0131883807480335,-0.00961898174136877,-0.00722281448543072,-0.0186072681099176,0.00348538346588612,-0.0184959452599287
435,-0.0123527981340885,-0.0117028141394258,-0.00754779577255249,-0.0225099511444569,0.00284568453207612,-0.024339010939002
436,-0.0155081693083048,-0.0145550910383463,-0.00946933683007956,-0.0268948208540678,0.000649548368528485,-0.0298241768032312
437,-0.0216486025601625,-0.0179074797779322,-0.012819311581552,-0.0313801504671574,-0.00108965102117509,-0.035998348146677
438,-0.0266567450016737,-0.0196848213672638,-0.0141692701727152,-0.0331753827631474,0.000698374176863581,-0.0398457162082195
439,-0.0290010198950768,-0.0191304627805948,-0.0125917047262192,-0.0316793359816074,0.00429336214438081,-0.0391813479363918
440,-0.0299964994192123,-0.01745312102139,-0.0106241200119257,-0.0293650906533003,0.00648095645010471,-0.0361543856561184
441,-0.0296390634030104,-0.015658525750041,-0.00986533518880606,-0.0278274416923523,0.0071151633746922,-0.0338919721543789
442,-0.0267158579081297,-0.0135366339236498,-0.0100447740405798,-0.0266413707286119,0.00659509096294641,-0.0333766378462315
443,-0.0212959740310907,-0.0111152045428753,-0.0114072887226939,-0.0258510801941156,0.00391099182888865,-0.0345458574593067
444,-0.0148150539025664,-0.0100433388724923,-0.0149335423484445,-0.02675911039114,-0.00155789067503065,-0.0379414334893227
445,-0.00873029232025146,-0.0120585421100259,-0.0197262931615114,-0.0294850990176201,-0.00814488809555769,-0.0418367609381676
446,-0.00530701875686646,-0.0169323068112135,-0.0233210157603025,-0.032197218388319,-0.0134220775216818,-0.0402430444955826
447,-0.00762933725491166,-0.0228042732924223,-0.0247310511767864,-0.0338416248559952,-0.0165327861905098,-0.030059952288866
448,-0.0145890824496746,-0.0256616193801165,-0.0232377368956804,-0.0336441732943058,-0.0163413397967815,-0.0154757890850306
449,-0.0214325431734324,-0.0224795509129763,-0.0182219482958317,-0.0308410432189703,-0.0118124550208449,-0.00359532935544848
450,-0.0263749491423368,-0.0167202819138765,-0.0119840549305081,-0.027952503412962,-0.00531827146187425,-0.000731849810108542
451,-0.0304257217794657,-0.0131830833852291,-0.00724337622523308,-0.0279414746910334,-0.000808404991403222,-0.00820762943476439
452,-0.0341219827532768,-0.0120069002732635,-0.00458104349672794,-0.0305313281714916,7.26738580851816E-05,-0.0208816546946764
453,-0.0363708436489105,-0.0108853857964277,-0.00300735956989229,-0.0329646691679955,-0.000459357921499759,-0.0310013014823198
454,-0.0361666716635227,-0.00892443675547838,-0.00152857846114784,-0.032707042992115,-2.21563586819684E-05,-0.0340418741106987
455,-0.0347413383424282,-0.00789852812886238,-0.000386631785659119,-0.0304936598986387,0.00020552464411594,-0.0327982716262341
456,-0.0324735268950462,-0.00836862437427044,0.00181136513128877,-0.027193320915103,0.000283431902062148,-0.031439270824194
457,-0.0290269907563925,-0.00934766046702862,0.00612361868843436,-0.0227435939013958,0.00177212385460734,-0.0303274039179087
458,-0.0264094974845648,-0.011696427129209,0.00879757665097713,-0.0196762420237064,0.00256144790910184,-0.0299498923122883
459,-0.0261150170117617,-0.0163666624575853,0.00665120594203472,-0.0204858686774969,0.000197246117750183,-0.0315650403499603
460,-0.0259161256253719,-0.0216778498142958,0.00213738181628287,-0.023965971544385,-0.00332709983922541,-0.0344550870358944
461,-0.0224769376218319,-0.0249369163066149,-0.00114724191371351,-0.0271805673837662,-0.00456454232335091,-0.0363616123795509
462,-0.0170522946864367,-0.0265006814152002,-0.0040492401458323,-0.0292611736804247,-0.00423937942832708,-0.0362217798829079
463,-0.0133297760039568,-0.027855820953846,-0.00795345287770033,-0.0303659066557884,-0.00458541605621576,-0.0343172959983349
464,-0.0111370803788304,-0.0275376848876476,-0.00959076918661594,-0.0289844684302807,-0.00398633675649762,-0.0296859182417393
465,-0.00866320542991161,-0.0247248522937298,-0.00687339482828975,-0.0249980688095093,-0.00136731448583305,-0.0222342927008867
466,-0.00605318183079362,-0.0213054958730936,-0.00269724405370653,-0.0209205448627472,0.00146186084020883,-0.0144155779853463
467,-0.004232426173985,-0.0188856832683086,0.00014401861699298,-0.0179941542446613,0.00452930713072419,-0.00785770453512669
468,-0.00288550183176994,-0.0173707157373428,0.00175566261168569,-0.0150528131052852,0.00888594798743725,-0.00341073190793395
469,-2.56887869909406E-05,-0.0156414471566677,0.00375176942907274,-0.0112012624740601,0.0138994501903653,-0.00260593625716865
470,0.00425772229209542,-0.0148658119142056,0.00615190993994474,-0.00888474658131599,0.0175083950161934,-0.0068825320340693
471,0.00697340583428741,-0.0168919749557972,0.00733745796605945,-0.0109424078837037,0.0182309560477734,-0.0153792863711715
472,0.00719512673094869,-0.0194555781781673,0.00767488637939096,-0.0156312361359596,0.0174093190580606,-0.023497749119997
473,0.00763610703870654,-0.0194016899913549,0.0092899389564991,-0.0195360612124205,0.0169405974447727,-0.0270647034049034
474,0.0110300872474909,-0.016325555741787,0.0134618133306503,-0.0213678441941738,0.0169563852250576,-0.026033341884613
475,0.0149452919140458,-0.0127317886799574,0.0185917019844055,-0.0225841924548149,0.0158692374825478,-0.0243950672447681
476,0.0129974568262696,-0.0131985796615481,0.0196444075554609,-0.0274079199880362,0.0108168609440327,-0.0272099319845438
477,0.00421659415587783,-0.0179616082459688,0.0146365379914641,-0.0364804565906525,0.00293560908176005,-0.0331200808286667
478,-0.00380487320944667,-0.0201882757246494,0.00968171376734972,-0.0427482612431049,-1.03124921224662E-05,-0.0345394425094128
479,-0.00469686603173614,-0.0152412541210651,0.0104443514719605,-0.0410502478480339,0.00611084001138806,-0.0284695997834206
480,0.000448817881988361,-0.00571008352562785,0.015427359379828,-0.0334665812551975,0.0163317378610373,-0.0198941677808762
481,0.00789785664528608,0.0038238565903157,0.0212251059710979,-0.0233871266245842,0.0254163276404142,-0.0139859784394503
482,0.0147189544513822,0.0101945213973522,0.0254354178905487,-0.013728428632021,0.03177709877491,-0.0115636652335525
483,0.0185884479433298,0.0119913341477513,0.0260239169001579,-0.0076293908059597,0.0335985757410526,-0.0117655964568257
484,0.0191249139606953,0.0103613985702395,0.0235248375684023,-0.00615199469029903,0.0299482513219118,-0.0135971959680319
485,0.0185617581009865,0.00835158117115498,0.0207522474229336,-0.00745612662285566,0.0243451818823814,-0.015491459518671
486,0.0192557182163,0.00780130038037896,0.0191436372697353,-0.00899096298962832,0.0212108436971903,-0.0157719291746616
487,0.022004934027791,0.00820304080843925,0.0178735051304102,-0.00960535183548927,0.0216233469545841,-0.0139721594750881
488,0.0265697091817856,0.00885301642119884,0.0164200365543365,-0.00898727402091026,0.0254523754119873,-0.0111439516767859
489,0.0315948538482189,0.00957590248435736,0.0161507204174995,-0.00696761533617973,0.032646618783474,-0.00809754431247711
490,0.0345819965004921,0.0100009394809604,0.0181681644171476,-0.004714444745332,0.0406677052378654,-0.00604406045749784
491,0.0337522141635418,0.0104981772601604,0.021309120580554,-0.00340762035921216,0.0445079393684864,-0.00606310646981001
492,0.0297051109373569,0.0123313637450337,0.023935230448842,-0.00245755375362933,0.0415737368166447,-0.00717677222564816
493,0.0251679867506027,0.0160926394164562,0.0259998869150877,-0.000928486697375774,0.0343550145626068,-0.00838415138423443
494,0.0228433255106211,0.0208626762032509,0.027870150282979,0.00142345170024782,0.027200423181057,-0.00993187632411718
495,0.0228405110538006,0.0248749833554029,0.0292292106896639,0.0037179421633482,0.0227330029010773,-0.012705116532743
496,0.0235887318849564,0.028200775384903,0.0301036294549704,0.00525541044771671,0.0210602898150682,-0.0155524918809533
497,0.0230711922049522,0.0317197144031525,0.0296769514679909,0.0059983404353261,0.019825940951705,-0.0148825943470001
498,0.0197571590542793,0.0345723927021027,0.0268445536494255,0.00562617275863886,0.0169776808470488,-0.00953197758644819
499,0.0147853828966618,0.0364803299307823,0.0228018499910831,0.00477128336206079,0.0128885610029101,-0.00177432002965361
500,0.0106158666312695,0.0376993417739868,0.0191299691796303,0.00432630907744169,0.00864605139940977,0.00564451701939106
501,0.00856897421181202,0.0372755192220211,0.0171019714325666,0.00480418093502522,0.00583862327039242,0.0115646068006754
502,0.00884452741593122,0.0345159731805325,0.0176464151591063,0.00683018704876304,0.00565759977325797,0.0161973517388105
503,0.0115026356652379,0.0305865276604891,0.019473921507597,0.00981951411813498,0.00742672616615891,0.019137991592288
504,0.0152124697342515,0.0273780357092619,0.0203559156507254,0.0117253018543124,0.00929158460348845,0.0189445298165083
505,0.0163186248391867,0.0252125784754753,0.018875977024436,0.0104371504858136,0.00920147076249123,0.0145958820357919
506,0.01308115106076,0.0236082319170237,0.014545182697475,0.00616299035027623,0.00623847031965852,0.00821230933070183
507,0.00750725483521819,0.0225438568741083,0.00834699533879757,0.00179044692777097,0.00118271296378225,0.00441144965589046
508,0.00284029729664326,0.0224604848772287,0.00348554132506251,0.000116275899927132,-0.0030279082711786,0.00609814235940576
509,0.00114061031490564,0.0235265400260687,0.00309457955881953,0.00170559308025986,-0.00289698550477624,0.0116403177380562
510,0.00171470362693071,0.0244757775217295,0.00683328276500106,0.00474985223263502,0.00205775746144354,0.0160324797034264
511,0.00241191708482802,0.023225300014019,0.0114757586270571,0.00652242451906204,0.00903796683996916,0.0165406875312328
512,0.00229888525791466,0.018992030993104,0.0143792778253555,0.00592026161029935,0.0149555634707212,0.0145708462223411
513,0.00260298955254257,0.0137809291481972,0.0159421805292368,0.00462817493826151,0.019453439861536,0.0116568682715297
514,0.00413634767755866,0.00957175437361002,0.0169586669653654,0.00402553007006645,0.023217748850584,0.00706869177520275
515,0.00697625568136573,0.00653346115723252,0.0166416820138693,0.00429896451532841,0.026635168120265,0.000639120466075838
516,0.011955700814724,0.00486643984913826,0.0151715083047748,0.00672092009335756,0.0310674868524075,-0.00442296545952559
517,0.0170285794883966,0.00317113683559,0.0126838190481067,0.0104280570521951,0.0354286134243011,-0.00613359920680523
518,0.0174916088581085,-0.00122751377057284,0.00778759783133864,0.0109728612005711,0.035430908203125,-0.00760566536337137
519,0.012746443040669,-0.00814751908183098,0.000434147572377697,0.00694851251319051,0.0294413659721613,-0.0115224663168192
520,0.00632230192422867,-0.0149579886347055,-0.00750295072793961,0.00191741390153766,0.0203021485358477,-0.016844293102622
521,0.000481317547382787,-0.0193087942898273,-0.0139407841488719,-0.00133030430879444,0.0113185672089458,-0.0218276288360357
522,-0.00382178951986134,-0.0194005537778139,-0.0162581820040941,-0.00171580770984292,0.00410094019025564,-0.0239038821309805
523,-0.00610909052193165,-0.0151521442458034,-0.0140643445774913,0.00116757012438029,-0.00163393246475607,-0.0205655209720135
524,-0.00732044130563736,-0.0092269740998745,-0.0115336384624243,0.0053436541929841,-0.0070037473924458,-0.0114952716976404
525,-0.00781172700226307,-0.00369138503447175,-0.0112381959334016,0.009105384349823,-0.00997555162757635,0.00208341702818871
526,-0.00819322653114796,1.52402735693613E-05,-0.0124485548585653,0.0118841426447034,-0.00831871200352907,0.0144373215734959
527,-0.00948559679090977,0.000720157171599567,-0.0140695348381996,0.0133035136386752,-0.00409552827477455,0.01860261708498
528,-0.00974330771714449,0.000472779473057017,-0.0138628492131829,0.0146920559927821,0.000547949108295143,0.0150317093357444
529,-0.0067139700986445,0.00239279586821795,-0.0105869267135859,0.017236752435565,0.0053119407966733,0.00874983705580235
530,-0.0021467749029398,0.00629645492881536,-0.00695965625345707,0.0193511340767145,0.00842852517962456,0.00227228971198201
531,0.000881034007761627,0.00823748111724854,-0.00725128501653671,0.017886171117425,0.00715451454743743,-0.00545093137770891
532,0.000821775232907385,0.00404731184244156,-0.0133919548243284,0.0108144981786609,0.00136746466159821,-0.0163524821400642
533,-0.00376717653125525,-0.00683695916086435,-0.0247005596756935,-0.00178141461219639,-0.0069885328412056,-0.0304439123719931
534,-0.0111428406089544,-0.0191154535859823,-0.0362946130335331,-0.0154536077752709,-0.0134605132043362,-0.043423417955637
535,-0.0164026655256748,-0.0263337399810553,-0.0415774583816528,-0.0235893949866295,-0.0131352972239256,-0.049001157283783
536,-0.0175411868840456,-0.0271961111575365,-0.0390625260770321,-0.0233672875910997,-0.00729587534442544,-0.044761274009943
537,-0.0147556653246284,-0.0228375550359488,-0.0306753851473331,-0.0150245176628232,-0.00052933709230274,-0.0325388312339783
538,-0.00914496742188931,-0.0147908721119165,-0.0190573204308748,-0.00168022827710956,0.00523189920932055,-0.0169333461672068
539,-0.00356894871219993,-0.00636081537231803,-0.00807155482470989,0.0105228805914521,0.0101911379024386,-0.00469448789954185
540,0.000320854771416634,-0.000473850726848468,-0.000566871836781502,0.0179524198174477,0.0149354077875614,6.30911163170822E-05
541,0.00298582180403173,0.00220056739635766,0.00303016020916402,0.0212637484073639,0.0191378146409988,-0.00153410213533789
542,0.0049321404658258,0.00208601099438965,0.00341300689615309,0.021951450034976,0.0213035140186548,-0.00615356117486954
543,0.00698484154418111,0.000296050973702222,0.00199713581241667,0.0214131586253643,0.0212141014635563,-0.00993972364813089
544,0.00974036660045385,-0.0016136288177222,0.00046115493751131,0.0213574916124344,0.0199987757951021,-0.0102423531934619
545,0.0115343071520329,-0.00289539573714137,-0.000548421870917082,0.0226911120116711,0.0172143392264843,-0.00751155940815806
546,0.00967966765165329,-0.00418680533766747,-0.00184914597775787,0.0241196919232607,0.0119451936334372,-0.00377959874458611
547,0.00437854463234544,-0.00645214784890413,-0.00434953114017844,0.023958956822753,0.00618089456111193,-0.000329392496496439
548,-0.00162108556833118,-0.00995937548577785,-0.00837914925068617,0.0219944827258587,0.00266980798915029,0.00127811613492668
549,-0.00540169607847929,-0.0133478036150336,-0.0131282340735197,0.0191738642752171,0.00260798167437315,-0.000660312944091856
550,-0.00505052972584963,-0.0140229482203722,-0.0153675684705377,0.0177585110068321,0.00685208290815353,-0.00513602374121547
551,-0.00307988608255982,-0.0126119358465075,-0.014268004335463,0.0178191065788269,0.0126740168780088,-0.0107838753610849
552,-0.00279127969406545,-0.0117337107658386,-0.0120656797662377,0.0171993635594845,0.0159408058971167,-0.0159586984664202
553,-0.0035012923181057,-0.0118565773591399,-0.00949615240097046,0.015441014431417,0.0165553130209446,-0.018285671249032
554,-0.0052666375413537,-0.0139076011255383,-0.00783390551805496,0.011998244561255,0.0147302374243736,-0.0205222554504871
555,-0.00812455732375383,-0.0187365207821131,-0.00773736089468002,0.00646898429840803,0.0116972988471389,-0.027351463213563
556,-0.00884641800075769,-0.0235210042446852,-0.00656403275206685,0.00166767870541662,0.0125848110765219,-0.0368363596498966
557,-0.0065246275626123,-0.0249698404222727,-0.00304714776575565,0.000860101950820535,0.0195811409503222,-0.0434583872556686
558,-0.0051950067281723,-0.0249325726181269,-0.000312661373754963,0.00286096287891269,0.0280380994081497,-0.0467424839735031
559,-0.00826824828982353,-0.0279744658619165,-0.00194590957835317,0.00338131282478571,0.0321218818426132,-0.050992950797081
560,-0.0129812052473426,-0.0329201146960258,-0.00675497995689511,0.000982547411695123,0.0309939198195934,-0.0564453266561031
561,-0.0135345961898565,-0.0339004807174206,-0.010312408208847,-0.0018458318663761,0.028518533334136,-0.0576796345412731
562,-0.00928070396184921,-0.0293713249266148,-0.0106582539156079,-0.00277134915813804,0.0274448022246361,-0.052473857998848
563,-0.00404594372957945,-0.0226481705904007,-0.00893251318484545,-0.00132376793771982,0.0272247865796089,-0.0437708832323551
564,-0.000558136031031609,-0.0172090921550989,-0.00686134351417422,0.00193264672998339,0.0269827805459499,-0.0340314917266369
565,0.000983504229225218,-0.0146481953561306,-0.0052921655587852,0.00650194892659783,0.0266614686697721,-0.0242562051862478
566,0.00270967837423086,-0.0136784827336669,-0.00325749139301479,0.0122761260718107,0.0272859297692776,-0.0164047684520483
567,0.00601175893098116,-0.012506359256804,-1.15333859866951E-05,0.0177094582468271,0.0295738689601421,-0.014031270518899
568,0.0084966029971838,-0.0119538782164454,0.00193221832159907,0.0198955181986094,0.0308740306645632,-0.0186332128942013
569,0.0075508076697588,-0.0132046472281218,0.000119559597806074,0.0178662370890379,0.0290038790553808,-0.0272725485265255
570,0.00447324803099036,-0.0146760875359178,-0.00358760682865977,0.0142785413190722,0.026591531932354,-0.0354311838746071
571,0.00041081354720518,-0.0157441701740026,-0.007681202609092,0.011035330593586,0.0247911363840103,-0.0417647920548916
572,-0.00607106322422624,-0.0176610313355923,-0.0130495512858033,0.00704510463401675,0.0218996312469244,-0.0481221303343773
573,-0.0139615014195442,-0.0190416630357504,-0.0179969947785139,0.00265515246428549,0.0205501262098551,-0.0542376860976219
574,-0.0195233002305031,-0.0179533436894417,-0.0192251037806273,0.000120090764539782,0.0248236265033484,-0.0573647022247314
575,-0.0209925547242165,-0.015247218310833,-0.0161648392677307,0.00117849255912006,0.0327223986387253,-0.0553293637931347
576,-0.0203060731291771,-0.0138794621452689,-0.0118919545784593,0.005577995441854,0.0380009710788727,-0.0486788041889668
577,-0.0197565760463476,-0.0155374016612768,-0.00972977932542562,0.0105334492400289,0.0373717360198498,-0.0413022637367249
578,-0.0191132910549641,-0.0186758637428284,-0.00976283196359873,0.0134360566735268,0.0325383134186268,-0.0365168154239655
579,-0.0169476568698883,-0.0208246577531099,-0.0102929966524243,0.0145287280902267,0.0269385650753975,-0.0337625779211521
580,-0.0132376337423921,-0.0213923938572407,-0.010646597482264,0.0148428026586771,0.0231311190873384,-0.0323245897889137
581,-0.00929364282637835,-0.0210569091141224,-0.010488617233932,0.0147263808175921,0.0227037966251373,-0.0334940180182457
582,-0.00589682813733816,-0.0195878259837627,-0.0089234346523881,0.0151313561946154,0.0254315976053476,-0.0367159061133862
583,-0.00387247838079929,-0.0174770839512348,-0.00618504965677857,0.016404639929533,0.0282593369483948,-0.0381048209965229
584,-0.00373615650460124,-0.0159941371530294,-0.00377280591055751,0.0182600785046816,0.028428228572011,-0.0330148376524448
585,-0.00409487821161747,-0.0151979466900229,-0.00277721625752747,0.0207762680947781,0.0261981133371592,-0.0224024318158627
586,-0.00480748619884253,-0.0159720629453659,-0.00415096152573824,0.0225709993392229,0.0226141605526209,-0.0148372510448098
587,-0.00921435095369816,-0.0211179088801146,-0.0104822441935539,0.0200841464102268,0.0172491110861301,-0.0185077358037233
588,-0.018548721447587,-0.0309397466480732,-0.0231453813612461,0.0121747320517898,0.0109859360381961,-0.0337173864245415
589,-0.0300291068851948,-0.0424834080040455,-0.0394550450146198,0.00202657957561314,0.00557881873100996,-0.0539978109300137
590,-0.0392299257218838,-0.0516693219542503,-0.0535672232508659,-0.00605483027175069,0.00263554300181568,-0.0708425492048264
591,-0.0409314259886742,-0.0537071563303471,-0.0585657544434071,-0.00855314917862415,0.0060326480306685,-0.0783716291189194
592,-0.0337995514273643,-0.0476143732666969,-0.0529823750257492,-0.00573893031105399,0.0165290795266628,-0.077883705496788
593,-0.0220636576414108,-0.0375072993338108,-0.0423123873770237,-0.00130325776990503,0.0286216177046299,-0.0745032876729965
594,-0.0106486082077026,-0.0275277309119701,-0.0320786349475384,0.00213295058347285,0.0372134745121002,-0.070013552904129
595,-0.00294422591105103,-0.0202490296214819,-0.0250740926712751,0.00374782900325954,0.0405134260654449,-0.0637195259332657
596,-0.00190109084360301,-0.0180604532361031,-0.0233016218990088,0.00312985247001052,0.037171695381403,-0.0569486431777477
597,-0.00740636372938752,-0.021084813401103,-0.0265522859990597,0.00144172657746822,0.0276721809059381,-0.0515756085515022
598,-0.0152504332363606,-0.0268514808267355,-0.0322155132889748,0.000514215789735317,0.0153919635340571,-0.0482440404593945
599,-0.0220976192504168,-0.0331614203751087,-0.0380134172737598,-0.000376527517801151,0.00337461079470813,-0.0470816306769848
600,-0.0263425055891275,-0.0377523861825466,-0.0415126234292984,-0.00216320040635765,-0.00508411834016442,-0.0465217158198357
601,-0.0268027912825346,-0.0382967926561832,-0.0409849435091019,-0.00337607902474701,-0.00702954223379493,-0.0449638366699219
602,-0.0241553615778685,-0.0346153080463409,-0.0371472164988518,-0.00279185059480369,-0.00253273453563452,-0.0417102724313736
603,-0.0209319330751896,-0.0291989333927631,-0.0320946052670479,-0.00121094728820026,0.0063062384724617,-0.0362502783536911
604,-0.0196745954453945,-0.0257208850234747,-0.0280509702861309,-0.000531325698830187,0.0165637843310833,-0.0317268371582031
605,-0.0196068603545427,-0.0257680751383305,-0.0249695647507906,-0.00145372922997922,0.026025116443634,-0.0327225513756275
606,-0.0186743829399347,-0.0282166115939617,-0.0216747969388962,-0.00307308719493449,0.0323299691081047,-0.0394243486225605
607,-0.0182487629354,-0.0321484804153442,-0.0197479389607906,-0.00499157328158617,0.0330153629183769,-0.0490321107208729
608,-0.0203417409211397,-0.0370455123484135,-0.0211208276450634,-0.00739660626277328,0.0299854967743158,-0.0582752302289009
609,-0.0250775367021561,-0.0424552708864212,-0.0256937518715858,-0.0110736861824989,0.0259280148893595,-0.065245233476162
610,-0.0296224318444729,-0.0471756495535374,-0.0315606296062469,-0.0162843801081181,0.020759092643857,-0.0695151016116142
611,-0.0306195672601461,-0.0489599034190178,-0.0357491932809353,-0.0209345500916243,0.0148589788004756,-0.0703523010015488
612,-0.0297300517559052,-0.0475225448608398,-0.0371005572378635,-0.0232577882707119,0.00864936877042055,-0.0686656907200813
613,-0.0298365671187639,-0.0447464808821678,-0.037064041942358,-0.024496778845787,0.0020838170312345,-0.0670162811875343
614,-0.0308366026729345,-0.0431511364877224,-0.038743007928133,-0.0274499114602804,-0.00489694532006979,-0.0664774626493454
615,-0.0321381315588951,-0.0448425374925137,-0.0450053587555885,-0.0334829315543175,-0.0129937762394547,-0.0674741640686989
616,-0.0328395329415798,-0.047874066978693,-0.0540576353669167,-0.0401039347052574,-0.0211352054029703,-0.0694335475564003
617,-0.0311623197048903,-0.04737788438797,-0.0601143650710583,-0.0431098230183125,-0.0255363676697016,-0.0684866681694984
618,-0.02812216617167,-0.0437790639698505,-0.0612735413014889,-0.0424852557480335,-0.0248764604330063,-0.0634365081787109
619,-0.0254195723682642,-0.0403588116168976,-0.0586578883230686,-0.0400329977273941,-0.0199044588953257,-0.0576290152966976
620,-0.0214394498616457,-0.0366152264177799,-0.0522102080285549,-0.0355605259537697,-0.0114525472745299,-0.0530959852039814
621,-0.0149686699733138,-0.0312994122505188,-0.0432665534317493,-0.0292413737624884,-0.00290303817018867,-0.0505134537816048
622,-0.00804379675537348,-0.025617016479373,-0.034882303327322,-0.0226206332445145,0.00214038835838437,-0.0501385554671288
623,-0.00371843622997403,-0.0226427614688873,-0.0292665474116802,-0.0180154293775558,0.00366441253572702,-0.0513163805007935
624,-0.00217822357080877,-0.0236242283135653,-0.0255404822528362,-0.0159894339740276,0.00572118302807212,-0.0527945049107075
625,-0.00238134851679206,-0.0273037571460009,-0.0222455691546202,-0.01575892791152,0.0105833020061255,-0.0542930029332638
626,-0.00483347941190004,-0.0323602929711342,-0.0198100060224533,-0.0167857799679041,0.0158204641193151,-0.0557726174592972
627,-0.00888624973595142,-0.0360430218279362,-0.0176122672855854,-0.0165399685502052,0.0203471388667822,-0.0547441430389881
628,-0.0133238974958658,-0.0357315205037594,-0.0151305068284273,-0.0127742644399405,0.0239554140716791,-0.0496498942375183
629,-0.0187119524925947,-0.0331392325460911,-0.0145213166251779,-0.00756249437108636,0.0234453864395618,-0.0422362126410007
630,-0.024609487503767,-0.0318234153091908,-0.0174650885164738,-0.00489338859915733,0.0164165291935205,-0.0337777696549892
631,-0.0266528427600861,-0.0310334898531437,-0.0218924414366484,-0.0050241332501173,0.00615451205521822,-0.0238110795617104
632,-0.0214539524167776,-0.0275220144540071,-0.0249898452311754,-0.00503181898966432,-0.00206345249898732,-0.0147642958909273
633,-0.0125334905460477,-0.0233568828552961,-0.0274195801466703,-0.00450221309438348,-0.00788299646228552,-0.0126922074705362
634,-0.00319755682721734,-0.0215896721929312,-0.0286836083978415,-0.00298386043868959,-0.0112762730568647,-0.0178083498030901
635,0.00635120645165443,-0.0204381719231606,-0.0265886690467596,0.000945370818953961,-0.00967056304216385,-0.0244640372693539
636,0.0125780869275332,-0.0192445125430822,-0.0232990849763155,0.00429411232471466,-0.00493515888229012,-0.0306410882622004
637,0.0135362278670073,-0.0187853798270226,-0.0210782792419195,0.00444751884788275,-0.0011597485281527,-0.0362497568130493
638,0.0127827664837241,-0.0170422419905663,-0.017841262742877,0.00457741040736437,0.00186762784142047,-0.0391525253653526
639,0.0122468676418066,-0.0131238074973226,-0.0128835514187813,0.00705516245216131,0.00527971051633358,-0.0381434746086597
640,0.0108066517859697,-0.00921617913991213,-0.00899110361933708,0.0100432364270091,0.00758869480341673,-0.0345522239804268
641,0.00827072001993656,-0.00605323631316423,-0.0079781599342823,0.0122508946806192,0.00743636209517717,-0.030576704069972
642,0.00447270041331649,-0.00433765258640051,-0.0107954069972038,0.012545321136713,0.00491229398176074,-0.0296276528388262
643,-0.000243987262365408,-0.00595340877771378,-0.0174490921199322,0.00960421748459339,0.00201835203915834,-0.0334852263331413
644,-0.00233261683024466,-0.00865456089377403,-0.023728359490633,0.0066194087266922,0.00307613587938249,-0.036295972764492
645,0.000463146425317973,-0.00859540514647961,-0.0255121607333422,0.00769881857559085,0.00969089660793543,-0.0303692389279604
646,0.00517214462161064,-0.006524458527565,-0.0234530251473188,0.0118188839405775,0.0185485072433949,-0.0172572825103998
647,0.0078048650175333,-0.0052018747664988,-0.0194829814136028,0.0165058095008135,0.0253065470606089,-0.00421183835715055
648,0.00706833600997925,-0.00570767978206277,-0.0149716036394238,0.0209168586879969,0.0264932755380869,0.00521266926079988
649,0.00450913142412901,-0.00693362904712558,-0.0114604374393821,0.0247378293424845,0.0214896928519011,0.01127012912184
650,0.00222275126725435,-0.00672377645969391,-0.00973138958215714,0.027744660153985,0.0124991051852703,0.0144056519493461
651,0.00135547167155892,-0.00405222875997424,-0.00909144151955843,0.0299472026526928,0.00236647971905768,0.0131740421056747
652,0.00246856990270317,0.000590562471188605,-0.00836778525263071,0.0314948335289955,-0.00484376028180122,0.00579342944547534
653,0.00385374762117863,0.00458818813785911,-0.00910226069390774,0.0303584337234497,-0.00784227065742016,-0.00726955104619265
654,0.00326276547275484,0.00500387838110328,-0.0138465911149979,0.0244521331042051,-0.0101653942838311,-0.0214242320507765
655,0.00193967029917985,0.00282765389420092,-0.0206527188420296,0.0165827218443155,-0.0133025487884879,-0.0286816544830799
656,0.00355315138585866,0.00240680552087724,-0.0243413969874382,0.0127876866608858,-0.0148897832259536,-0.024994932115078
657,0.00968201458454132,0.00570172723382711,-0.0229553394019604,0.0157170742750168,-0.0142255797982216,-0.0143845370039344
658,0.0184137895703316,0.0105934469029307,-0.0183996986597776,0.0223858412355185,-0.0126637266948819,-0.00355558726005256
659,0.0260545816272497,0.0155805768445134,-0.0123391831293702,0.0293093547224998,-0.00994422938674688,0.00302572338841856
660,0.0293807908892632,0.0207776799798012,-0.00556446984410286,0.0352275818586349,-0.00549598969519138,0.00312008010223508
661,0.0285244192928076,0.02579147182405,0.00187480368185788,0.0399829521775246,-0.00026635269750841,-0.00192093790974468
662,0.0257929097861052,0.0288309957832098,0.0095406100153923,0.0435333214700222,0.00490929326042533,-0.00724605657160282
663,0.023019827902317,0.0285122282803059,0.0160707868635654,0.0463458858430386,0.0103515852242708,-0.00949932541698217
664,0.0197052527219057,0.0255114119499922,0.0194255765527487,0.0486196577548981,0.0143129555508494,-0.00980042386800051
665,0.0148255387321115,0.0215999688953161,0.0179320834577084,0.0494368821382523,0.0131133534014225,-0.0102437874302268
666,0.0120012229308486,0.020506052300334,0.0148476548492908,0.0502411983907223,0.00819932483136654,-0.0087463241070509
667,0.0157826151698828,0.0252788793295622,0.0155443605035543,0.0544210486114025,0.00545449741184711,-0.00209273328073323
668,0.0245078708976507,0.0336316451430321,0.0196637623012066,0.0626876652240753,0.00712203606963158,0.0081240851432085
669,0.0322247706353664,0.0402837991714478,0.022475004196167,0.0713050961494446,0.0102772917598486,0.0179281011223793
670,0.0356168001890183,0.0422737188637257,0.0218201130628586,0.0753017216920853,0.0127148553729057,0.0255499389022589
671,0.0368470922112465,0.0418089590966702,0.0200763456523418,0.0745018124580383,0.0166563522070646,0.0326235964894295
672,0.0388400293886662,0.0437865145504475,0.0198957622051239,0.0725305825471878,0.0235963854938746,0.041906800121069
673,0.0414047352969646,0.0497056916356087,0.0216965563595295,0.07161845266819,0.0311359819024801,0.0521292649209499
674,0.0437337458133698,0.0567705556750298,0.0254993122071028,0.0724726170301437,0.0387903675436974,0.0583291463553905
675,0.0453245937824249,0.0617041513323784,0.0310088954865932,0.0748196765780449,0.0483439639210701,0.0581712834537029
676,0.045368280261755,0.0626577585935593,0.0364885218441486,0.0769159197807312,0.0579671338200569,0.0533049628138542
677,0.0439481548964977,0.0599545277655125,0.0397022776305676,0.0771124511957169,0.0629346892237663,0.0465066321194172
678,0.0407439060509205,0.0545745752751827,0.0384305417537689,0.0738733261823654,0.0596688352525234,0.0383847467601299
679,0.0350501127541065,0.0473117008805275,0.0329185128211975,0.0668155252933502,0.04863490909338,0.0273447092622519
680,0.0283889956772327,0.0406944118440151,0.0276272390037775,0.0592555999755859,0.0354723781347275,0.0158424451947212
681,0.025042038410902,0.0384402722120285,0.0276905689388514,0.0563097633421421,0.028057249262929,0.0105109037831426
682,0.0280088353902102,0.041338138282299,0.0333271883428097,0.0596532225608826,0.029956391081214,0.0126765538007021
683,0.0348475612699986,0.0458121001720428,0.0396845750510693,0.0665896236896515,0.0380342863500118,0.0173857361078262
684,0.0408699624240398,0.0484116487205029,0.0435329638421535,0.074278250336647,0.0472166389226913,0.0214475560933352
685,0.0433448404073715,0.0481941439211369,0.0444138832390308,0.0808591395616531,0.0529509112238884,0.0248632226139307
686,0.0427375100553036,0.0464750751852989,0.0428078398108482,0.0852695554494858,0.0534243322908878,0.0293116308748722
687,0.0411236211657524,0.0449431501328945,0.0404484085738659,0.0865698680281639,0.0504025928676128,0.0359819382429123
688,0.0392008125782013,0.0429373644292355,0.0387172773480415,0.0831560641527176,0.0456365719437599,0.0428481809794903
689,0.036714181303978,0.0392476916313171,0.0377536080777645,0.0752168595790863,0.0403021797537804,0.0467749498784542
690,0.0334360934793949,0.0340551622211933,0.0361804217100143,0.0650846138596535,0.0363181568682194,0.0459184236824512
691,0.0292947571724653,0.0277701523154974,0.0316533334553242,0.0549567043781281,0.0346395298838615,0.0410175025463104
692,0.0249762609601021,0.0213875826448202,0.0240152161568403,0.0467457808554173,0.033466525375843,0.0365006886422634
693,0.0218193288892508,0.0173639860004187,0.0163542907685041,0.0425915382802486,0.0305183660238981,0.0374785549938679
694,0.0216350276023149,0.0178779624402523,0.0125106675550342,0.0437982715666294,0.0266286469995975,0.0448830835521221
695,0.0247349385172129,0.0218413099646568,0.0129412934184074,0.0485451482236385,0.0231584534049034,0.0529064387083054
696,0.028230108320713,0.0254396628588438,0.0142034729942679,0.0524158589541912,0.0188861005008221,0.0533736348152161
697,0.0296553261578083,0.0267998576164246,0.0146929258480668,0.0530913807451725,0.0142441373318434,0.0454323589801788
698,0.0303004179149866,0.0271048694849014,0.0164102390408516,0.0521196387708187,0.0126138404011726,0.0362784303724766
699,0.0320547483861446,0.0277330726385117,0.0207076501101255,0.0515337027609348,0.0152479391545057,0.0316981226205826
700,0.0328138284385204,0.0278137475252151,0.0246973782777786,0.0503632128238678,0.0181068126112223,0.0308716017752886
701,0.0294361338019371,0.0249628927558661,0.0244589447975159,0.0465702377259731,0.0167564675211906,0.0315064787864685
702,0.0240489449352026,0.0196713358163834,0.0214780643582344,0.0414402671158314,0.0128512699157,0.0343560501933098
703,0.022973969578743,0.0159849114716053,0.0206696167588234,0.0386497862637043,0.0120217436924577,0.0393941961228848
704,0.029488567262888,0.0164538286626339,0.0238109938800335,0.0405987091362476,0.0177758913487196,0.0440070070326328
705,0.0397439375519753,0.018737468868494,0.0281484387814999,0.0460327342152596,0.0284797288477421,0.045923262834549
706,0.0484116561710835,0.0186720713973045,0.0307654403150082,0.0506704822182655,0.0402311496436596,0.0441533587872982
707,0.0535918846726418,0.0141739677637815,0.0310639720410109,0.050873227417469,0.049621369689703,0.039310097694397
708,0.0551518388092518,0.00727611361071467,0.0305746700614691,0.0474883764982224,0.0537642203271389,0.0352093689143658
709,0.053129505366087,0.00256511196494102,0.0313313193619251,0.0441368147730827,0.0513963252305985,0.0357200279831886
710,0.0459750778973103,-0.000495515239890665,0.0315723344683647,0.0404466651380062,0.0421873442828655,0.0385712161660194
711,0.0343007445335388,-0.00507781561464071,0.0291978642344475,0.0350370593369007,0.0289202220737934,0.0398260354995728
712,0.0234850626438856,-0.00934320501983166,0.0261824075132608,0.0309856776148081,0.0181280057877302,0.0406732261180878
713,0.017750421538949,-0.0102538354694843,0.0254588406533003,0.0315236374735832,0.0143492557108402,0.0440265834331512
714,0.0162239857017994,-0.00890610925853252,0.0277634430676699,0.0352584756910801,0.0170524660497904,0.0487472340464592
715,0.0158616509288549,-0.00792230013757944,0.0308380220085382,0.0377437025308609,0.0220308396965265,0.0520095080137253
716,0.0157734490931034,-0.00715863704681396,0.0323008745908737,0.0366473384201527,0.0257798861712217,0.054213859140873
717,0.0148105956614017,-0.00705039454624057,0.0300825294107199,0.0311672128736973,0.0260131247341633,0.0537675023078918
718,0.0109135266393423,-0.00951284542679787,0.0225175395607948,0.0207337252795696,0.0211105328053236,0.0461422465741634
719,0.0049083735793829,-0.0142270289361477,0.0112028447911143,0.00697378721088171,0.0126875666901469,0.0314687490463257
720,-0.000778857036493719,-0.0199365820735693,-0.000880857405718416,-0.00752372434362769,0.00435241917148232,0.0145015586167574
721,-0.00257330620661378,-0.0240581091493368,-0.0100824320688844,-0.0186930373311043,0.000969581014942378,0.00192012952174991
722,0.00261294771917164,-0.0234390050172806,-0.0127686280757189,-0.0225682575255632,0.00606361171230674,-0.000916659424547106
723,0.0118165872991085,-0.0199031792581081,-0.0102636534720659,-0.0209866631776094,0.0168791338801384,0.0043134861625731
724,0.0202782731503248,-0.0170938894152641,-0.00549111887812614,-0.0175984818488359,0.02854691632092,0.0121861072257161
725,0.0268945917487144,-0.0151501689106226,0.00122351269237697,-0.0124962525442243,0.0377930551767349,0.0208347868174315
726,0.0312022473663092,-0.0132499914616346,0.00860115885734558,-0.00607781717553735,0.0421453304588795,0.0306489672511816
727,0.0325000137090683,-0.0115551883354783,0.0145304072648287,-0.000807261269073933,0.04157629981637,0.0400535799562931
728,0.0319244526326656,-0.0102391242980957,0.0185868199914694,0.00235828734003007,0.0383712686598301,0.0460513234138489
729,0.0317944698035717,-0.00896491948515177,0.021804740652442,0.00509193446487188,0.0351088792085648,0.0474726893007755
730,0.0322330258786678,-0.00771164428442717,0.0246204752475023,0.00835057627409697,0.0326761156320572,0.0452448725700378
731,0.0326855517923832,-0.0052831987850368,0.0274007804691792,0.012379270978272,0.0315747335553169,0.0420115329325199
732,0.033326581120491,-0.000718426366802305,0.0305565632879734,0.016911443322897,0.0321344956755638,0.0406117327511311
733,0.0338781140744686,0.00497627956792712,0.0337590016424656,0.0205473527312279,0.0344310402870178,0.0424423366785049
734,0.0341022461652756,0.0107635650783777,0.0369748137891293,0.0228079967200756,0.0391409285366535,0.0467520691454411
735,0.0325629636645317,0.0134360054507852,0.0382173620164394,0.0222123861312866,0.0434813722968102,0.0487066991627216
736,0.0298377312719822,0.0102498857304454,0.0357734225690365,0.0175065603107214,0.0443483330309391,0.0450621172785759
737,0.0297333281487226,0.00427759904414415,0.032455287873745,0.0117684239521623,0.0438844487071037,0.0392713695764542
738,0.0322891436517239,-0.000447505066404119,0.0303940940648317,0.00815303903073072,0.0435361042618752,0.035943940281868
739,0.0343595631420612,-0.0027540260925889,0.02872409299016,0.00671141548082232,0.0418305620551109,0.0368305146694183
740,0.0342605598270893,-0.00278304400853813,0.0267042685300112,0.00634258333593607,0.0382429175078869,0.040165338665247
741,0.0297899264842272,-0.00363134103827178,0.0223634541034698,0.00440276740118861,0.0314900614321232,0.0413619317114353
742,0.0209701098501682,-0.00699253706261516,0.015700239688158,7.89396653999574E-05,0.0216216165572405,0.0398890897631645
743,0.0127888200804591,-0.00929382257163525,0.0110802846029401,-0.00326883001253009,0.0128888543695211,0.0394568592309952
744,0.00846636760979891,-0.00905076507478952,0.0101193794980645,-0.00336205051280558,0.00795568153262138,0.0395122170448303
745,0.00783374719321728,-0.00721461558714509,0.0117274317890406,-7.50188919482753E-05,0.00709318183362484,0.037250105291605
746,0.00970794167369604,-0.00380602735094726,0.0162000525742769,0.00488767214119434,0.0106967212632298,0.0328070670366287
747,0.00927963014692068,-0.0034539399202913,0.0199295561760664,0.00535686127841473,0.0145796425640583,0.0252212192863226
748,0.0024885784368962,-0.0117579651996493,0.0170964524149895,-0.0029007475823164,0.0132106496021152,0.0143107566982508
749,-0.00644420832395554,-0.0243618357926607,0.00994494557380676,-0.014328520745039,0.0093676308169961,0.00623885449022055
750,-0.0110668838024139,-0.031925193965435,0.00548743456602097,-0.0204906463623047,0.00908989273011684,0.00602687988430262
751,-0.011075465939939,-0.0313849933445454,0.00645877188071609,-0.0195456687361002,0.0129239577800035,0.0103096989914775
752,-0.00962917786091566,-0.0265978462994099,0.0108564123511314,-0.0149715477600694,0.0176099762320518,0.013031248934567
753,-0.00807560700923204,-0.0224862974137068,0.0145192798227072,-0.0101812640205026,0.0202495977282524,0.0121449381113052
754,-0.006044443231076,-0.0206717792898417,0.0145814530551434,-0.00641122832894325,0.0199041683226824,0.00921696238219738
755,-0.00390154565684497,-0.0202757995575666,0.0115357637405396,-0.00389575213193893,0.0171681251376867,0.00591687951236963
756,-0.00177100696600974,-0.0191455744206905,0.00823600217700005,-0.00205992930568755,0.0144766634330153,0.00325167388655245
757,0.000975143862888217,-0.0152839748188853,0.00686972122639418,-0.000382184516638517,0.014519514515996,0.00171426229644567
758,0.00323837879113853,-0.0105099715292454,0.00601591216400266,-0.000442508899141103,0.0162446964532137,-3.88455409847666E-05
759,0.00251445989124477,-0.0088228452950716,0.00284750387072563,-0.00370116648264229,0.016542162746191,-0.00258433795534074
760,-0.00286823906935751,-0.0124075021594763,-0.00378908263519406,-0.00968479085713625,0.013457328081131,-0.0043024392798543
761,-0.0107554662972689,-0.0197820123285055,-0.011890048161149,-0.0160698834806681,0.0071832537651062,-0.00456221448257566
762,-0.0151548245921731,-0.0259691011160612,-0.016561072319746,-0.018985154107213,0.0011727383825928,-0.00322465924546123
763,-0.0133899794891477,-0.0272052194923162,-0.0154947666451335,-0.0169600751250982,-0.00137928535696119,0.000716094917152077
764,-0.00938783399760723,-0.0244705304503441,-0.0119346426799893,-0.0128989312797785,-0.00207165325991809,0.00551367597654462
765,-0.00708463927730918,-0.0208335854113102,-0.00922857504338026,-0.0099475895985961,-0.00369883794337511,0.00707176700234413
766,-0.00634115375578403,-0.0176610350608826,-0.00711118848994374,-0.00862922798842192,-0.00516921421512961,0.00458626262843609
767,-0.00652146013453603,-0.0156150683760643,-0.00529453996568918,-0.00871967524290085,-0.00493344245478511,0.000515840074513108
768,-0.00829714071005583,-0.0163451917469502,-0.00497855292633176,-0.0107222888618708,-0.00395930279046297,-0.00343813793733716
769,-0.0118362735956907,-0.0206953454762697,-0.00634925626218319,-0.0145212477073073,-0.00317791313864291,-0.00677810655906796
770,-0.0163361597806215,-0.0271824337542057,-0.00872176792472601,-0.0183647684752941,-0.00356339337304235,-0.00922561064362526
771,-0.0209537353366613,-0.0328778438270092,-0.0118372421711683,-0.0211563054472208,-0.0068967854604125,-0.0113810179755092
772,-0.0257242806255817,-0.0363485105335712,-0.0158709045499563,-0.0241142902523279,-0.0140180075541139,-0.0138913849368691
773,-0.0306996963918209,-0.0390328541398048,-0.0206920243799686,-0.0283255595713854,-0.0239696707576513,-0.0168827157467604
774,-0.0339614674448967,-0.0421743057668209,-0.0243198629468679,-0.0323860570788383,-0.0334725342690945,-0.0199198834598064
775,-0.0333635583519936,-0.0447855852544308,-0.0241535883396864,-0.0339449346065521,-0.0379623398184776,-0.021743880584836
776,-0.029688635841012,-0.0448295287787914,-0.0192128662019968,-0.0321137607097626,-0.0345260947942734,-0.021247087046504
777,-0.0262727178633213,-0.041867733001709,-0.0110698947682977,-0.028447175398469,-0.0246625766158104,-0.0180198829621077
778,-0.0265619494020939,-0.0388140603899956,-0.00483713485300541,-0.0265194457024336,-0.0145455226302147,-0.0123899066820741
779,-0.0305766128003597,-0.0378423929214478,-0.00426630116999149,-0.0278177093714476,-0.008890425786376,-0.00551004847511649
780,-0.0348428636789322,-0.0373984575271606,-0.00725789368152618,-0.0297740511596203,-0.00774882221594453,0.00091331108706072
781,-0.0358580090105534,-0.0355759970843792,-0.00983280222862959,-0.0291080363094807,-0.00961711816489697,0.00716506689786911
782,-0.0322385169565678,-0.0325315818190575,-0.0103106657043099,-0.0246243420988321,-0.0132417976856232,0.015175411477685
783,-0.0261374395340681,-0.0301163960248232,-0.0099046491086483,-0.018186068162322,-0.0186767354607582,0.0236820094287395
784,-0.0205271672457457,-0.0286562629044056,-0.00951047614216805,-0.0123171908780932,-0.0246217735111713,0.0294169373810291
785,-0.0168156065046787,-0.0260047633200884,-0.00840722396969795,-0.00778779992833734,-0.0274534933269024,0.0301279239356518
786,-0.0160217974334955,-0.0210198312997818,-0.00652208412066102,-0.00410336256027222,-0.0254116356372833,0.0254159830510616
787,-0.0188485831022263,-0.015332174487412,-0.00471763359382749,-0.00116391130723059,-0.0205577258020639,0.017635291442275
788,-0.025082815438509,-0.012403198517859,-0.00442609749734402,-0.000434520363342017,-0.0172316189855337,0.00961978640407324
789,-0.0320711210370064,-0.0138095617294312,-0.00597707461565733,-0.00217793439514935,-0.017852159217,0.00296312244608998
790,-0.0350686796009541,-0.0161896422505379,-0.00651139300316572,-0.00252537056803703,-0.0204801093786955,-0.000491242622956634
791,-0.031653705984354,-0.0149540323764086,-0.00303094810806215,0.00277570448815823,-0.0215696152299643,0.00166617427021265
792,-0.0250158458948135,-0.0116567388176918,0.00154500466305763,0.0105983251705766,-0.0207844395190477,0.0082172742113471
793,-0.0195336975157261,-0.0114674409851432,0.0019701044075191,0.0136475283652544,-0.0194624997675419,0.0149924112483859
794,-0.01655706577003,-0.0154305342584848,-0.00218412908725441,0.00987011101096869,-0.0173489227890968,0.0193568207323551
795,-0.0156782697886229,-0.0203164853155613,-0.0082343053072691,0.00241964333690703,-0.0139549858868122,0.0211311765015125
796,-0.0157177001237869,-0.0227532163262367,-0.0131177064031363,-0.00421438459306955,-0.00951211713254452,0.0230278391391039
797,-0.0161712784320116,-0.0226470064371824,-0.0146779017522931,-0.0072456649504602,-0.00571399694308639,0.0276279095560312
798,-0.0178310964256525,-0.0225191600620747,-0.0139000592753291,-0.00794088747352362,-0.0053019761107862,0.0325397700071335
799,-0.0209310278296471,-0.0235625430941582,-0.0131635870784521,-0.0091846976429224,-0.00851390697062016,0.0329303033649921
800,-0.0254161693155766,-0.0248573683202267,-0.0132969534024596,-0.0119750155135989,-0.0126134622842073,0.0284813661128283
801,-0.031572163105011,-0.0257143639028072,-0.014031570404768,-0.0154719017446041,-0.0160811096429825,0.0245536006987095
802,-0.0373910926282406,-0.025137186050415,-0.013850562274456,-0.0172576438635588,-0.0184695702046156,0.0268482137471437
803,-0.0404503084719181,-0.022724162787199,-0.0117188803851604,-0.0161661449819803,-0.0191858429461718,0.0344222076237202
804,-0.0409314632415771,-0.0201895479112864,-0.00876547303050756,-0.0133407264947891,-0.018811896443367,0.0417135916650295
805,-0.0391240529716015,-0.0177830439060926,-0.0054782684892416,-0.00845502410084009,-0.0178944654762745,0.0463617220520973
806,-0.0353648066520691,-0.0148538146167994,-0.00189525890164077,-0.00190339691471308,-0.0172112695872784,0.0478665046393871
807,-0.0321394093334675,-0.0134893134236336,0.00038090898306109,0.00212798872962594,-0.0187430512160063,0.0436600223183632
808,-0.0318818390369415,-0.015276794321835,0.000233956016018055,0.000722844037227333,-0.0225187875330448,0.0332364328205585
809,-0.0339964553713799,-0.0187782775610685,-0.00216239341534674,-0.00429439917206764,-0.0257140286266804,0.0214239452034235
810,-0.0378945022821426,-0.0240256600081921,-0.00837064813822508,-0.0111074326559901,-0.0273905787616968,0.0120392376556993
811,-0.0437937341630459,-0.0316949747502804,-0.0186618119478226,-0.0189686063677073,-0.0277726780623198,0.00515940459445119
812,-0.0489558055996895,-0.0382068529725075,-0.0275344550609589,-0.0243687815964222,-0.0247468035668135,0.00209339405409992
813,-0.0504360944032669,-0.0398316979408264,-0.0298621971160173,-0.0241850614547729,-0.0174994040280581,0.00413997052237391
814,-0.0485137216746807,-0.0365767702460289,-0.0264131315052509,-0.0195049177855253,-0.00887504871934652,0.00971798226237297
815,-0.0450483188033104,-0.0304545350372791,-0.0211271699517965,-0.0142040271311998,-0.00318460073322058,0.0157664846628904
816,-0.041351031512022,-0.024384930729866,-0.0168810971081257,-0.0116023011505604,-0.00284510012716055,0.0203878171741962
817,-0.0375289730727673,-0.0206356476992369,-0.0143255069851875,-0.0115939816460013,-0.00689139775931835,0.0251207742840052
818,-0.0327392071485519,-0.0192139334976673,-0.0127628901973367,-0.0118147060275078,-0.0123783489689231,0.0312908105552197
819,-0.026086512953043,-0.0180853679776192,-0.0105944760143757,-0.00990593992173672,-0.0160567183047533,0.0376663133502007
820,-0.0191968120634556,-0.0159712210297585,-0.00721359951421618,-0.00530542666092515,-0.0168573297560215,0.0444080196321011
821,-0.0161614287644625,-0.0138165792450309,-0.00427857507020235,-0.000287419883534312,-0.0161911360919476,0.0524004362523556
822,-0.0189354717731476,-0.0123598640784621,-0.00292196800000966,0.00265969312749803,-0.0148669509217143,0.0590038150548935
823,-0.0255831591784954,-0.0112544810399413,-0.00214042887091637,0.00296072522178292,-0.0128233367577195,0.0594671256840229
824,-0.0323978923261166,-0.00978438835591078,-0.000624814128968865,0.00187992793507874,-0.0101410141214728,0.052383478730917
825,-0.0366130135953426,-0.00837941560894251,0.000880707346368581,0.000669932749588043,-0.0070733455941081,0.0400948710739613
826,-0.0379298813641071,-0.00888494402170181,0.000445722951553762,-0.00128556229174137,-0.00463460152968764,0.0256245527416468
827,-0.0363386683166027,-0.010679766535759,-0.00102448964025825,-0.003448277246207,-0.00244151591323316,0.0133960545063019
828,-0.0315844938158989,-0.0105263227596879,-0.00049917510477826,-0.00307733076624572,0.00164381205104291,0.00827576499432325
829,-0.0257670693099499,-0.0082898736000061,0.00201929267495871,-2.7023419534089E-05,0.00688191410154104,0.010346264578402
830,-0.0217558182775974,-0.00697150826454163,0.00374140776693821,0.00344839668832719,0.00998516660183668,0.015574443154037
831,-0.020003903657198,-0.00764593156054616,0.00348230707459152,0.00625945255160332,0.00997627060860395,0.0206489264965057
832,-0.0195649899542332,-0.00952299684286118,0.00181178620550781,0.00798943266272545,0.0079649705439806,0.0236160233616829
833,-0.019258376210928,-0.0112627428025007,7.8540004324168E-05,0.00915383361279964,0.00580632919445634,0.0245100799947977
834,-0.0191449038684368,-0.0118257505819201,-0.000890781520865858,0.0104055376723409,0.00512782204896212,0.0251357741653919
835,-0.0210289433598518,-0.0117812482640147,-0.00178699567914009,0.0107670649886131,0.00476924423128366,0.0263778194785118
836,-0.0246965400874615,-0.0112735070288181,-0.00231053587049246,0.0105165932327509,0.00273779965937138,0.0289990548044443
837,-0.0277028866112232,-0.00929133035242558,-0.00135347992181778,0.0121193304657936,-0.000331031420500949,0.0345040820538998
838,-0.0285740699619055,-0.00562875624746084,0.00118181155994534,0.0160475224256516,-0.00212058913893998,0.0423219427466393
839,-0.0286121685057878,-0.00187784153968096,0.00392309995368123,0.0187809746712446,-0.00257191224955022,0.0496472977101803
840,-0.0306093450635672,8.48226409289055E-05,0.00460276287049055,0.0171140320599079,-0.00457234075292945,0.0563200898468494
841,-0.0354396104812622,-0.00025741700665094,0.00249474821612239,0.0119293844327331,-0.0100534167140722,0.0647570788860321
842,-0.0421528182923794,-0.00369675178080797,-0.00152983772568405,0.00548275280743837,-0.0181907154619694,0.0719200521707535
843,-0.04795803129673,-0.009096410125494,-0.00477439723908901,0.000542237656190991,-0.0246925298124552,0.071757547557354
844,-0.0487263053655624,-0.0117494845762849,-0.00335406675003469,0.00062524143140763,-0.0242769494652748,0.0650176405906677
845,-0.0430561415851116,-0.00884569156914949,0.00323982839472592,0.00585480686277151,-0.0163347721099854,0.0569068267941475
846,-0.0340670682489872,-0.00239791884087026,0.0108378268778324,0.0117355920374393,-0.00579946208745241,0.0504736378788948
847,-0.0258028917014599,0.00338578666560352,0.0148372370749712,0.0143579943105578,0.00172532140277326,0.0461545884609222
848,-0.0182750392705202,0.00769053306430578,0.0158036909997463,0.0157446768134832,0.00624580029398203,0.0455478839576244
849,-0.0103360489010811,0.012047971598804,0.017310967668891,0.0193355660885572,0.0109457867220044,0.0510681085288525
850,-0.00263788388110697,0.0147580532357097,0.0194476805627346,0.0237155649811029,0.0157571658492088,0.0605319701135159
851,0.00588722666725516,0.0146817341446877,0.020966550335288,0.0270251948386431,0.0203373767435551,0.0688831582665443
852,0.0159114990383387,0.0136788999661803,0.0226381737738848,0.0297080650925636,0.0262060835957527,0.0726777315139771
853,0.0239599924534559,0.0129662500694394,0.0248907022178173,0.0315868519246578,0.0315791741013527,0.0707541182637215
854,0.0253429710865021,0.0124053740873933,0.0262125227600336,0.0314194932579994,0.0316746234893799,0.0646002739667892
855,0.0190509054809809,0.0111954165622592,0.0250787064433098,0.0283569637686014,0.0253566950559616,0.0566247403621674
856,0.00788851082324982,0.00821830984205008,0.0212635863572359,0.0226892624050379,0.0154142556712031,0.0482077114284039
857,-0.00449404492974281,0.00369282439351082,0.0151664195582271,0.0160251036286354,0.00429613003507257,0.0409693717956543
858,-0.0142503576353192,0.000946001440752298,0.00945608224719763,0.0119766425341368,-0.00500503554940224,0.038303904235363
859,-0.0193210393190384,0.00255063315853477,0.00760485138744116,0.0130241746082902,-0.00976749137043953,0.0410446226596832
860,-0.0201601758599281,0.00757648842409253,0.00999720580875874,0.0179550368338823,-0.0105253010988235,0.0457147471606731
861,-0.0170038118958473,0.0141076995059848,0.0150396209210157,0.0249444227665663,-0.00873731728643179,0.0504783987998962
862,-0.0109598347917199,0.0196564514189959,0.0202488526701927,0.0324828326702118,-0.00587646989151835,0.0556995235383511
863,-0.00619365321472287,0.0211837608367205,0.0219903439283371,0.0370789431035519,-0.00476697506383061,0.0597209483385086
864,-0.00565977487713099,0.0175931863486767,0.0186385735869408,0.0354036279022694,-0.00580104533582926,0.0608723759651184
865,-0.00682417256757617,0.0119507620111108,0.0139082483947277,0.0300952792167664,-0.00461125280708075,0.0622053742408752
866,-0.00563688576221466,0.00890860240906477,0.0124731091782451,0.0270759779959917,0.00105554738547653,0.0669028833508492
867,-0.00169450254179537,0.00946397334337235,0.0136635042726994,0.0271067395806313,0.00664855446666479,0.0713138058781624
868,0.00303538492880762,0.0112928552553058,0.0143538033589721,0.0271835904568434,0.00783912837505341,0.0699780657887459
869,0.00776310218498111,0.0134357055649161,0.0149951223284006,0.0271743312478065,0.00695824483409524,0.0645201727747917
870,0.0133283035829663,0.0168531481176615,0.0184904523193836,0.0291474387049675,0.00822621770203114,0.0623322799801826
871,0.018810210749507,0.0198150370270014,0.0230800826102495,0.0319912321865559,0.0103220203891397,0.0656706839799881
872,0.0208944603800774,0.0180581361055374,0.0228219963610172,0.0317051857709885,0.00902642216533422,0.067705899477005
873,0.0195836424827576,0.0122582772746682,0.0167654920369387,0.0277887638658285,0.00474240491166711,0.0631199479103088
874,0.0186404306441545,0.00857144687324762,0.00975509267300367,0.024444367736578,0.00156070140656084,0.0548243671655655
875,0.0188054889440537,0.0100365774706006,0.00541873555630445,0.0245074760168791,0.00116613751742989,0.0486215725541115
876,0.0189459957182407,0.0153962578624487,0.00468603055924177,0.0279951840639114,0.00356706837192178,0.0485098548233509
877,0.0199460033327341,0.0221906509250402,0.00647401949390769,0.0334071256220341,0.00817132461816072,0.0536272525787354
878,0.0222663804888725,0.0269623398780823,0.00779034337028861,0.0377753488719463,0.0119740767404437,0.0587798990309238
879,0.0255534667521715,0.0290621221065521,0.00822913739830256,0.0406239181756973,0.0136562837287784,0.0616530627012253
880,0.028265118598938,0.0296515319496393,0.00907168537378311,0.0426693595945835,0.0133839389309287,0.0623086616396904
881,0.0277162566781044,0.0280234385281801,0.00915294699370861,0.0429957881569862,0.010181313380599,0.0603577271103859
882,0.0238878671079874,0.0245756655931473,0.00811896566301584,0.0419276505708694,0.00573262711986899,0.057312399148941
883,0.0193793494254351,0.0218768566846848,0.00777823012322187,0.0406169667840004,0.00355720613151789,0.0539676249027252
884,0.0155984777957201,0.0209446139633656,0.00861643441021442,0.039635393768549,0.00393164437264204,0.0495726466178894
885,0.0125394845381379,0.020637433975935,0.0100531401112676,0.0394905731081963,0.005419313441962,0.0456293784081936
886,0.00955488719046116,0.0196335073560476,0.0112093137577176,0.0391986817121506,0.00703589338809252,0.0439946576952934
887,0.00604667700827122,0.0176585782319307,0.0112456548959017,0.0375898443162441,0.00821274425834417,0.0445404313504696
888,0.00314021273516119,0.0153181739151478,0.0110055012628436,0.0357750132679939,0.010279550217092,0.0466298796236515
889,0.00244582979939878,0.0127160297706723,0.0112130902707577,0.0347514040768147,0.0137779358774424,0.0494292564690113
890,0.004445587284863,0.0108467852696776,0.0117916604503989,0.0342194773256779,0.0166124422103167,0.0526440590620041
891,0.00801252387464046,0.0114699099212885,0.01292491145432,0.0336148738861084,0.0169103052467108,0.0560778304934502
892,0.0108973123133183,0.014773896895349,0.0141282556578517,0.0323133543133736,0.0145149640738964,0.0574384368956089
893,0.011743419803679,0.0192856471985579,0.0147985825315118,0.0301308408379555,0.010901615023613,0.0544423088431358
894,0.0105080539360642,0.0226784013211727,0.015228059142828,0.0274940114468336,0.00762421078979969,0.0493518859148026
895,0.0077539486810565,0.0235886070877314,0.0163497421890497,0.0252785682678223,0.00535310013219714,0.0465672798454762
896,0.00467382930219173,0.0221178587526083,0.0178676471114159,0.0235976595431566,0.00454181153327227,0.0461116768419743
897,0.00276660383678973,0.0193894505500793,0.0184475556015968,0.0221401005983353,0.00564975710585713,0.0449420735239983
898,0.0033813021145761,0.0177244991064072,0.0192449446767569,0.0224466416984797,0.00923708360642195,0.041590865701437
899,0.00672073755413294,0.018571687862277,0.0217703264206648,0.0258163865655661,0.0145990280434489,0.0358529165387154
900,0.0117798084393144,0.0216385927051306,0.0246024709194899,0.0307329222559929,0.0200220365077257,0.0277942139655352
901,0.0171298161149025,0.0256007649004459,0.0259022954851389,0.0342186614871025,0.0249275639653206,0.0186781380325556
902,0.0213283523917198,0.0284637305885553,0.0258043948560953,0.0349563509225845,0.0291892290115356,0.0117792030796409
903,0.0224989969283342,0.0277724843472242,0.0240932032465935,0.0327533036470413,0.0309206824749708,0.00831986125558615
904,0.0179323125630617,0.0216023288667202,0.0189243219792843,0.0263538751751184,0.0274410396814346,0.00484964111819863
905,0.00882075075060129,0.0132697420194745,0.012026728130877,0.0180097427219152,0.0205590911209583,0.000937778444495052
906,0.00101066729985178,0.00908281467854977,0.00813172943890095,0.0129847647622228,0.0158832725137472,0.000595471879933029
907,-0.00138109119143337,0.0110337110236287,0.00949900038540363,0.0136252734810114,0.0168847162276506,0.00510259717702866
908,0.00185637432150543,0.0178257543593645,0.0161599330604076,0.0198060516268015,0.0232855174690485,0.0129537796601653
909,0.00733106816187501,0.0257585011422634,0.0247972682118416,0.0286827571690083,0.0306924413889647,0.0214966889470816
910,0.0121198911219835,0.0302908476442099,0.0304191056638956,0.0361493192613125,0.035102553665638,0.0279362294822931
911,0.0175536964088678,0.0313594378530979,0.0328244380652905,0.0410353913903236,0.0377117991447449,0.0321838334202766
912,0.0238157641142607,0.031248863786459,0.0349046848714352,0.0430448986589909,0.0405650474131107,0.0359868481755257
913,0.0278454013168812,0.0311252195388079,0.0376976877450943,0.0417317785322666,0.0441598780453205,0.0407255999743938
914,0.0285685192793608,0.0325551591813564,0.040627334266901,0.0387174598872662,0.0485593527555466,0.0464077219367027
915,0.0266789887100458,0.0356835760176182,0.0420872457325459,0.0349878072738647,0.0509615503251553,0.0493095181882381
916,0.0225570984184742,0.0383908897638321,0.0410505682229996,0.0299241114407778,0.0481973923742771,0.0442646034061909
917,0.0175511036068201,0.0392126142978668,0.0383456200361252,0.0238051414489746,0.0417235866189003,0.0304055269807577
918,0.0125311492010951,0.0374173559248447,0.0341040641069412,0.0171880722045898,0.03419503942132,0.0115652987733483
919,0.00765121495351195,0.0335694365203381,0.0284131858497858,0.0108780832961202,0.0264618154615164,-0.00622132793068886
920,0.00450825272127986,0.0299520287662745,0.0227631013840437,0.00625990657135844,0.0195219293236732,-0.0180312786251307
921,0.00399396475404501,0.0275150872766972,0.0176613591611385,0.00372469006106257,0.0138837592676282,-0.0224503241479397
922,0.00522466050460935,0.0253486335277557,0.0133449723944068,0.00308405933901668,0.00955863483250141,-0.0211121905595064
923,0.00792247988283634,0.022523183375597,0.0108280032873154,0.00433406606316566,0.00775723904371262,-0.0178816914558411
924,0.0120114283636212,0.0179248601198196,0.0095787663012743,0.00598219688981771,0.00923481769859791,-0.0166029091924429
925,0.0168869271874428,0.0118592502549291,0.00810616184026003,0.00628433935344219,0.0129415486007929,-0.0179838966578245
926,0.0215680301189423,0.00703215831890702,0.00589689426124096,0.00555224623531103,0.0162588488310575,-0.019470090046525
927,0.0246488898992538,0.0047530117444694,0.00340662873350084,0.00415578950196505,0.0165559649467468,-0.0192432068288326
928,0.0251328330487013,0.00368668022565544,0.00159569969400764,0.00202608853578568,0.0132821248844266,-0.0191261935979128
929,0.0233425460755825,0.00366640533320606,0.00186348252464086,0.00125870166812092,0.00920819398015738,-0.0203207265585661
930,0.0208246670663357,0.00582301756367087,0.00509097753092647,0.00441443966701627,0.00917274039238691,-0.0215131305158138
931,0.0185452494770288,0.00870256219059229,0.00983756314963102,0.0104820923879743,0.0138243949040771,-0.0225425381213427
932,0.0167748555541039,0.00963275413960218,0.0139465583488345,0.0161936581134796,0.0191579312086105,-0.0228864084929228
933,0.0151161411777139,0.00731359561905265,0.0153708877041936,0.0183883458375931,0.0218176376074553,-0.0212488286197186
934,0.0122068002820015,0.00140605086926371,0.0113802393898368,0.0153392236679792,0.0202362202107906,-0.0190567597746849
935,0.00810518860816956,-0.00626845844089985,0.00214646244421601,0.00903841387480497,0.0148663595318794,-0.0194906461983919
936,0.00492198299616575,-0.0118087315931916,-0.00750442873686552,0.0032806156668812,0.00858936924487352,-0.023879986256361
937,0.0056048990227282,-0.0109026106074452,-0.0114959944039583,0.000902620085980743,0.00617945846170187,-0.0296034924685955
938,0.0102667780593038,-0.00339717860333622,-0.00913729891180992,0.0014870201703161,0.00847637094557285,-0.034807525575161
939,0.0156806390732527,0.00545155117288232,-0.0047720312140882,0.00206054444424808,0.0110349003225565,-0.0406889468431473
940,0.0197401866316795,0.0123056657612324,0.0001397677406203,0.00261371373198926,0.012022296898067,-0.0455145798623562
941,0.020882984623313,0.0165283773094416,0.00520096812397242,0.00429245224222541,0.0116861099377275,-0.0463393852114677
942,0.018854483962059,0.0182997863739729,0.00908105727285147,0.00669734505936503,0.0107347732409835,-0.0432902872562408
943,0.0155590884387493,0.0192272327840328,0.0116520263254642,0.00929207168519497,0.0105360178276896,-0.0382263846695423
944,0.0111675094813108,0.0186315458267927,0.0112927611917257,0.010162721388042,0.00920888409018517,-0.0343225263059139
945,0.00539675820618868,0.0147165935486555,0.0066876276396215,0.00811706483364105,0.00479495897889137,-0.0337862595915794
946,0.000487177952891216,0.00906582642346621,7.92033606558107E-05,0.00502721173688769,-0.000564338406547904,-0.0355602316558361
947,-0.00257630436681211,0.00317290471866727,-0.006988275796175,0.00143361045047641,-0.0055532194674015,-0.0390978679060936
948,-0.00563021190464497,-0.00349096022546291,-0.014865486882627,-0.00398341659456491,-0.011558135971427,-0.0452234819531441
949,-0.00876786466687918,-0.00963259674608707,-0.0214339662343264,-0.009672611951828,-0.0173234846442938,-0.0515541844069958
950,-0.00967423897236586,-0.0121692167595029,-0.0226843282580376,-0.0119453947991133,-0.0193500444293022,-0.0530964359641075
951,-0.00805583223700523,-0.00995985604822636,-0.0179425496608019,-0.0100355399772525,-0.0177904926240444,-0.0491160415112972
952,-0.00700271129608154,-0.00560605013743043,-0.0117614166811109,-0.00751116732135415,-0.016674542799592,-0.0450927205383778
953,-0.00817827321588993,-0.00218399777077138,-0.00818264577537775,-0.00671323388814926,-0.0182326603680849,-0.0433767549693584
954,-0.0098711559548974,-0.000456440087873489,-0.00681338272988796,-0.00587410666048527,-0.0208100918680429,-0.0398272834718227
955,-0.0116134854033589,-0.000746951554901898,-0.00659437384456396,-0.00375153427012265,-0.0229440405964851,-0.0339265912771225
956,-0.0149042727425694,-0.00380760012194514,-0.00775080127641559,-0.00172445795033127,-0.0252396985888481,-0.0310920942574739
957,-0.0196535494178534,-0.008674381300807,-0.00959813594818115,-0.00102230266202241,-0.0279660038650036,-0.0339129641652107
958,-0.0248299334198236,-0.0128878802061081,-0.0110809616744518,-0.00206437963061035,-0.0310188625007868,-0.0400147698819637
959,-0.030208446085453,-0.0153506770730019,-0.0121905086562037,-0.00530546484515071,-0.0348909683525562,-0.0467699207365513
960,-0.0351618677377701,-0.0167767442762852,-0.0120212463662028,-0.00944976974278688,-0.0390016809105873,-0.0516995899379253
961,-0.0384079776704311,-0.0181300081312656,-0.00983742903918028,-0.0119498493149877,-0.0418199487030506,-0.0520397648215294
962,-0.0385467410087585,-0.0192410424351692,-0.0073340842500329,-0.012266194447875,-0.0424580834805965,-0.0464223362505436
963,-0.0347148142755032,-0.0179666448384523,-0.00555873522534966,-0.0105717517435551,-0.0398718453943729,-0.0347974747419357
964,-0.0307413376867771,-0.0150718586519361,-0.00616198079660535,-0.00866300333291292,-0.0361425839364529,-0.0232705920934677
965,-0.033872939646244,-0.017270527780056,-0.0140218297019601,-0.0122544877231121,-0.0380287282168865,-0.0233663283288479
966,-0.0438152737915516,-0.0266683772206306,-0.0287071261554956,-0.0225076731294394,-0.0455138869583607,-0.0378094017505646
967,-0.0509811080992222,-0.0356157831847668,-0.0408082492649555,-0.03172842040658,-0.0485338605940342,-0.056900080293417
968,-0.0499429553747177,-0.0386618748307228,-0.0445481762290001,-0.0349871963262558,-0.0428573414683342,-0.0707161948084831
969,-0.0439433045685291,-0.0374832898378372,-0.0427593216300011,-0.0345272570848465,-0.0338778421282768,-0.0758466273546219
970,-0.0366460867226124,-0.0337275043129921,-0.0387222096323967,-0.0322666093707085,-0.0259576942771673,-0.0730152800679207
971,-0.0310645643621683,-0.0287230107933283,-0.0344021804630756,-0.0296500753611326,-0.0215793754905462,-0.0674386397004128
972,-0.0303242411464453,-0.0252074059098959,-0.0315512828528881,-0.0285168699920177,-0.0225946400314569,-0.0654390752315521
973,-0.0338946431875229,-0.0237490944564343,-0.0296359993517399,-0.0277121160179377,-0.0277224592864513,-0.0666386261582375
974,-0.0390844158828259,-0.023544043302536,-0.0275227930396795,-0.0255796741694212,-0.0344463139772415,-0.0674037635326386
975,-0.0443980135023594,-0.0252955984324217,-0.025783708319068,-0.0232268553227186,-0.0416929759085178,-0.0673842057585716
976,-0.0487324148416519,-0.029153186827898,-0.0253245607018471,-0.0225631557404995,-0.0492358952760696,-0.0678895339369774
977,-0.0508464239537716,-0.0325033478438854,-0.0255834180861712,-0.023502167314291,-0.0556208081543446,-0.0682222470641136
978,-0.0502920411527157,-0.0321416556835175,-0.0244901310652494,-0.023571215569973,-0.0576873682439327,-0.065631739795208
979,-0.0480259954929352,-0.0280774738639593,-0.0206806976348162,-0.0208546984940767,-0.053635623306036,-0.0602245666086674
980,-0.0463128015398979,-0.024106377735734,-0.0156321208924055,-0.0173061955720186,-0.0460596941411495,-0.0566673204302788
981,-0.0463154315948486,-0.0235301535576582,-0.0115252202376723,-0.0160180479288101,-0.0391248688101768,-0.0569194853305817
982,-0.0468838885426521,-0.0259323325008154,-0.00830555241554976,-0.016265869140625,-0.0340914763510227,-0.0573371835052967
983,-0.0462006404995918,-0.0284355338662863,-0.0048159877769649,-0.014941206201911,-0.0294518209993839,-0.054617702960968
984,-0.0423396565020084,-0.027603866532445,-0.000371581962099299,-0.0106393983587623,-0.0231332443654537,-0.0484083890914917
985,-0.0358515530824661,-0.0230921190232039,0.00396484369412065,-0.00576672656461596,-0.0158647131174803,-0.0409869588911533
