,AF3,AF4,Fp1,Fp2,AF7,AF8
0,-0.0367437936365604,0.00579631328582764,0.00260659167543054,0.00853134039789438,-0.00870872102677822,0.0212729144841433
1,-0.0327044129371643,0.00878740102052689,0.00429932540282607,0.00688449619337916,-0.00305670290254056,0.0153185762465
2,-0.0274472143501043,0.00849134009331465,0.00422495929524302,0.00138400099240243,0.00133231119252741,0.00440211687237024
3,-0.0228374060243368,0.0050695613026619,0.00300541473552585,-0.00471810903400183,0.00311239762231708,-0.00303321843966842
4,-0.020473625510931,0.00186555122490972,0.00267923250794411,-0.00712424796074629,0.00244225305505097,-0.00380598241463304
5,-0.0217625815421343,0.000321588653605431,0.00260374019853771,-0.00672962842509151,-3.88843764085323E-05,-0.00235268194228411
6,-0.026506831869483,2.15424352063565E-05,0.000715297472197562,-0.00753032695502043,-0.00295386044308543,-0.00311288703233004
7,-0.0330866128206253,0.000621963816229254,-0.00383825297467411,-0.0112015474587679,-0.00633594766259193,-0.00716536026448011
8,-0.0387078486382961,0.00227092672139406,-0.00986488536000252,-0.0156496651470661,-0.0109932776540518,-0.0116951419040561
9,-0.0407148748636246,0.00551709858700633,-0.0150245688855648,-0.0179445464164019,-0.016001857817173,-0.0138451857492328
10,-0.0390487760305405,0.0105354646220803,-0.017886258661747,-0.017575366422534,-0.019092807546258,-0.01525151822716
11,-0.0355216041207314,0.0175489541143179,-0.0187364928424358,-0.0156562123447657,-0.0187597572803497,-0.0171752143651247
12,-0.0328607484698296,0.0243527013808489,-0.019399156793952,-0.0141137447208166,-0.01693195104599,-0.0183030907064676
13,-0.0331523865461349,0.0262163523584604,-0.0211064051836729,-0.0142988152801991,-0.0164931956678629,-0.017135052010417
14,-0.034733172506094,0.0229761935770512,-0.0227325707674026,-0.0151705406606197,-0.0167874321341515,-0.0127375172451139
15,-0.0340373292565346,0.0191570222377777,-0.0223823264241219,-0.0146117862313986,-0.0149380145594478,-0.00618217093870044
16,-0.0310177076607943,0.0168094672262669,-0.0204219799488783,-0.0116521045565605,-0.0110510559752584,0.000166107798577286
17,-0.0271683391183615,0.0158468876034021,-0.0177117269486189,-0.00609672022983432,-0.00666001532226801,0.00680697755888104
18,-0.0241375993937254,0.014424697495997,-0.0154239879921079,-0.000341707753250375,-0.00208437605760992,0.0134960385039449
19,-0.0241189654916525,0.00957085564732552,-0.0157266166061163,0.0019755547400564,0.00294806668534875,0.0151506075635552
20,-0.0254499446600676,0.00356782577000558,-0.0172614678740501,0.00192686531227082,0.0106318630278111,0.0100886868312955
21,-0.0245225559920073,0.00156482134480029,-0.0165965929627419,0.00213014124892652,0.0208943597972393,0.00260882917791605
22,-0.0213873796164989,0.00406314851716161,-0.0135395536199212,0.00174444459844381,0.0283572860062122,-0.0049500921741128
23,-0.0192495156079531,0.00793501362204552,-0.0105707133188844,-0.000454864697530866,0.0273313242942095,-0.0128155127167702
24,-0.0191323254257441,0.0116053335368633,-0.00904777366667986,-0.00266719306819141,0.0171297825872898,-0.0186224039644003
25,-0.0177240539342165,0.0147984400391579,-0.00864014122635126,-0.00286586605943739,0.00249405833892524,-0.0194168351590633
26,-0.0133173866197467,0.0161805171519518,-0.00921816192567348,-0.00205002794973552,-0.0106352316215634,-0.0154982572421432
27,-0.0102204559370875,0.0149311264976859,-0.0111980428919196,-0.00252764415927231,-0.0198294892907143,-0.00973708741366863
28,-0.0130558516830206,0.012019332498312,-0.0141554903239012,-0.00459061935544014,-0.0260647796094418,-0.00520775793120265
29,-0.0203976240009069,0.00862525403499603,-0.0162306390702724,-0.00642022723332047,-0.0297267399728298,-0.0027029390912503
30,-0.0277337152510881,0.00493945367634296,-0.016620023176074,-0.00731383450329304,-0.0309286676347256,-0.00154712982475758
31,-0.0344428382813931,-0.000194640015251935,-0.0181487556546927,-0.00955842528492212,-0.0326672941446304,-0.00267178844660521
32,-0.041349433362484,-0.00612168898805976,-0.0221756491810083,-0.0138224381953478,-0.0362464971840382,-0.00613609235733747
33,-0.0455236434936523,-0.00870983581990004,-0.0245850160717964,-0.0164641514420509,-0.0375405475497246,-0.00893264543265104
34,-0.0454047881066799,-0.00651820097118616,-0.0231915917247534,-0.0157701335847378,-0.0342485122382641,-0.00852635316550732
35,-0.0436126589775085,-0.0028497064486146,-0.02061752602458,-0.0135756330564618,-0.0296930093318224,-0.00304821948520839
36,-0.0426518023014069,-0.00110864988528192,-0.0194782819598913,-0.0115972515195608,-0.0282367132604122,0.00615874817594886
37,-0.0428514294326305,-0.00231907819397748,-0.0209342855960131,-0.0109963696449995,-0.0308536663651466,0.0121989017352462
38,-0.0430413708090782,-0.00538783147931099,-0.0244136210530996,-0.0117766968905926,-0.0342004559934139,0.0110033452510834
39,-0.0420006178319454,-0.00886652525514364,-0.0276231970638037,-0.0122229093685746,-0.0348613671958447,0.00448277546092868
40,-0.0390065051615238,-0.0118110356852412,-0.0282646305859089,-0.0104331616312265,-0.0322253033518791,-0.00369832455180585
41,-0.0351949743926525,-0.0147331794723868,-0.0268740933388472,-0.00861621461808681,-0.0276843160390854,-0.0119976010173559
42,-0.0341198109090328,-0.0196307376027107,-0.0268867369741201,-0.012029729783535,-0.0244886223226786,-0.0223910808563232
43,-0.0375465974211693,-0.0264996737241745,-0.0300138313323259,-0.0210913978517056,-0.0252661760896444,-0.0355780869722366
44,-0.0431850142776966,-0.0331644304096699,-0.0347085520625114,-0.0317852348089218,-0.0291763804852962,-0.0490152761340141
45,-0.0478519760072231,-0.0381259769201279,-0.0392823442816734,-0.0410446263849735,-0.0342058017849922,-0.058484423905611
46,-0.0492421723902225,-0.0400987304747105,-0.0422302074730396,-0.046656422317028,-0.0388476774096489,-0.0589603558182716
47,-0.0459698364138603,-0.0375046469271183,-0.0413997508585453,-0.0464422032237053,-0.0407631397247314,-0.0476367399096489
48,-0.0405511930584908,-0.0326649434864521,-0.0372805595397949,-0.0418322198092937,-0.0400166660547256,-0.0295459982007742
49,-0.0377601943910122,-0.0310300569981337,-0.0332014039158821,-0.0378411300480366,-0.0394923463463783,-0.0165110919624567
50,-0.0388605147600174,-0.0339943841099739,-0.0313598439097404,-0.037303376942873,-0.0400426276028156,-0.0153945405036211
51,-0.0417602732777596,-0.039200808852911,-0.0319184847176075,-0.0392747521400452,-0.0410531051456928,-0.0237281229346991
52,-0.0435030162334442,-0.0444973446428776,-0.0338813103735447,-0.0415008440613747,-0.0423003807663918,-0.0355324819684029
53,-0.0426015965640545,-0.0490186549723148,-0.0369467511773109,-0.0436738096177578,-0.0444134511053562,-0.0450015068054199
54,-0.0401258617639542,-0.0536797977983952,-0.0422787070274353,-0.0478369779884815,-0.0489730797708035,-0.0501168183982372
55,-0.0388460606336594,-0.0596194602549076,-0.0502302460372448,-0.0543929226696491,-0.0558578819036484,-0.0536419972777367
56,-0.0403502881526947,-0.0647113844752312,-0.0576334409415722,-0.0588272102177143,-0.0601712055504322,-0.0556540973484516
57,-0.043560579419136,-0.0650425851345062,-0.0604112893342972,-0.0567337162792683,-0.0571456253528595,-0.0522863082587719
58,-0.0480281636118889,-0.0604534223675728,-0.0586664080619812,-0.0514543652534485,-0.0501912087202072,-0.0447197258472443
59,-0.0534142889082432,-0.0537851564586163,-0.054288811981678,-0.048850242048502,-0.0457868129014969,-0.0390671081840992
60,-0.0573236718773842,-0.0464945584535599,-0.0476527772843838,-0.0486818104982376,-0.0451292842626572,-0.0384304858744144
61,-0.0579772628843784,-0.039098747074604,-0.0399192422628403,-0.0474944710731506,-0.0467120707035065,-0.0408327169716358
62,-0.0561710596084595,-0.0333189107477665,-0.0339702926576138,-0.0448851548135281,-0.0498135909438133,-0.0428735762834549
63,-0.0537408478558064,-0.0312480665743351,-0.0320890173316002,-0.0433802753686905,-0.0536081865429878,-0.0435883738100529
64,-0.0512949712574482,-0.0328381732106209,-0.0337940491735935,-0.0440303385257721,-0.0566844567656517,-0.0437080934643745
65,-0.0491710528731346,-0.0361307337880135,-0.0371626242995262,-0.0457911789417267,-0.0587132684886456,-0.0435422696173191
66,-0.0499025918543339,-0.041182529181242,-0.0419247709214687,-0.0487638376653194,-0.0617642141878605,-0.0435358434915543
67,-0.05464256554842,-0.0484863296151161,-0.047231700271368,-0.0522017516195774,-0.0661647468805313,-0.0440395548939705
68,-0.0600379183888435,-0.0551020987331867,-0.0494482479989529,-0.0529036074876785,-0.0680676773190498,-0.0444078519940376
69,-0.0637673810124397,-0.0588150136172771,-0.0474310517311096,-0.0508388243615627,-0.0654533952474594,-0.0428810454905033
70,-0.0666963160037994,-0.0610717236995697,-0.0445837117731571,-0.0500167049467564,-0.0613560527563095,-0.0368441417813301
71,-0.0683014020323753,-0.0624317452311516,-0.042577002197504,-0.051953449845314,-0.0586421154439449,-0.0263992957770824
72,-0.0676768645644188,-0.0621845610439777,-0.0408902205526829,-0.0554930754005909,-0.0571051277220249,-0.0180097855627537
73,-0.0657278448343277,-0.0613808445632458,-0.0410634391009808,-0.0607188753783703,-0.0561107471585274,-0.0191897768527269
74,-0.0632242932915688,-0.0617271028459072,-0.0447494126856327,-0.0675637647509575,-0.0564339570701122,-0.031421035528183
75,-0.0604224242269993,-0.0644786581397057,-0.0501624308526516,-0.0739186257123947,-0.0584705024957657,-0.0497626028954983
76,-0.0567791052162647,-0.0685398876667023,-0.0534030646085739,-0.0768128857016563,-0.0607058890163898,-0.0658970177173615
77,-0.0517868995666504,-0.0703229084610939,-0.0528565980494022,-0.0743547976016998,-0.0625279620289803,-0.07313122600317
78,-0.0473488196730614,-0.0681037753820419,-0.0497732423245907,-0.0670589208602905,-0.0650720298290253,-0.0708205699920654
79,-0.0455951876938343,-0.0625168457627296,-0.0458361804485321,-0.0579944960772991,-0.0682156011462212,-0.0638716369867325
80,-0.0462402924895287,-0.0551617108285427,-0.0429972298443317,-0.0515211075544357,-0.0706493481993675,-0.0582742504775524
81,-0.0495831966400146,-0.0501295104622841,-0.0441801585257053,-0.0517359152436256,-0.0734725072979927,-0.0583928152918816
82,-0.0563899278640747,-0.0507236421108246,-0.0505656264722347,-0.0593320205807686,-0.0785628408193588,-0.0647319778800011
83,-0.0639721006155014,-0.0548115521669388,-0.0582566857337952,-0.0694059655070305,-0.0835314765572548,-0.0723042637109756
84,-0.0684612914919853,-0.0579532645642757,-0.0612757056951523,-0.0754670351743698,-0.0847392976284027,-0.0756989344954491
85,-0.0686668008565903,-0.058037742972374,-0.0579293519258499,-0.0746979936957359,-0.0826032012701035,-0.0743321627378464
86,-0.0661343038082123,-0.0560989230871201,-0.0518562905490398,-0.0690145418047905,-0.0798544436693192,-0.0712299644947052
87,-0.0627680793404579,-0.0540751516819,-0.0464274398982525,-0.0622062683105469,-0.076580323278904,-0.0683696642518044
88,-0.0584268420934677,-0.052622027695179,-0.0420769713819027,-0.0568950511515141,-0.0700723379850388,-0.0637471824884415
89,-0.051812618970871,-0.0506208762526512,-0.0382644832134247,-0.0530035309493542,-0.0588849186897278,-0.0532837025821209
90,-0.0438414327800274,-0.0476247183978558,-0.0354523472487926,-0.0496232323348522,-0.0462141595780849,-0.0374127179384232
91,-0.03731494769454,-0.0452954173088074,-0.034417986869812,-0.0473957248032093,-0.037665918469429,-0.023301225155592
92,-0.0336458198726177,-0.0444791279733181,-0.0340173803269863,-0.0464785248041153,-0.034852147102356,-0.0175569001585245
93,-0.0326360873878002,-0.0453291200101376,-0.0334875285625458,-0.0461121797561646,-0.0359196849167347,-0.0216687824577093
94,-0.032657403498888,-0.0479940958321095,-0.0333628170192242,-0.0458065047860146,-0.0393844358623028,-0.0324583575129509
95,-0.0319723002612591,-0.0524636544287205,-0.0339170880615711,-0.0460427217185497,-0.0449450202286243,-0.0450015924870968
96,-0.0297334361821413,-0.0571563057601452,-0.0343836769461632,-0.0465758070349693,-0.0513223856687546,-0.0550040379166603
97,-0.0258708335459232,-0.0585423223674297,-0.0332240350544453,-0.0449364818632603,-0.0555271841585636,-0.0584272593259811
98,-0.0220552515238523,-0.056137427687645,-0.0312385149300098,-0.0404290966689587,-0.056935116648674,-0.0543864816427231
99,-0.019587766379118,-0.0524364821612835,-0.0311224889010191,-0.0362092815339565,-0.0574605204164982,-0.0472241118550301
100,-0.0179289318621159,-0.0486684255301952,-0.0331105403602123,-0.0357027687132359,-0.0574298165738583,-0.0419868193566799
101,-0.0171384308487177,-0.045709565281868,-0.0353675074875355,-0.0392311811447144,-0.0562552586197853,-0.0406734235584736
102,-0.016846327111125,-0.0432383306324482,-0.0356866829097271,-0.0431177914142609,-0.0537317171692848,-0.0420274250209332
103,-0.014531034976244,-0.0383738726377487,-0.0316253863275051,-0.0425326861441135,-0.04889777302742,-0.0426029302179813
104,-0.0106976004317403,-0.0322834886610508,-0.025068573653698,-0.0384580790996552,-0.0433608628809452,-0.041731346398592
105,-0.00831072591245174,-0.0291041750460863,-0.020207729190588,-0.0357768312096596,-0.0393722802400589,-0.0409149155020714
106,-0.00790808163583279,-0.0295280329883099,-0.0176580417901278,-0.0362455248832703,-0.0359475240111351,-0.0403576903045177
107,-0.00932461116462946,-0.0328081101179123,-0.0169689189642668,-0.0390548035502434,-0.0324575044214725,-0.0402066819369793
108,-0.0113582089543343,-0.0378806442022324,-0.0181096717715263,-0.0424536466598511,-0.0301791597157717,-0.0398379974067211
109,-0.0102642877027392,-0.0419481061398983,-0.019105352461338,-0.0437848195433617,-0.0295672528445721,-0.0383729711174965
110,-0.00421390775591135,-0.0418513976037502,-0.0170858148485422,-0.040837436914444,-0.0285690855234861,-0.0367794632911682
111,0.00217439699918032,-0.039047583937645,-0.013473772443831,-0.0356576256453991,-0.0266941506415606,-0.0385535545647144
112,0.00370540446601808,-0.0379817597568035,-0.0112067246809602,-0.0327120050787926,-0.0254810955375433,-0.0452925749123096
113,0.00101141270715743,-0.0393571145832539,-0.009665347635746,-0.0330287665128708,-0.0250699799507856,-0.0525424852967262
114,-0.00376412272453308,-0.0427210740745068,-0.0100057208910584,-0.0363009832799435,-0.0269413888454437,-0.0559051223099232
115,-0.0104831494390965,-0.0496374666690826,-0.0160964224487543,-0.0433257333934307,-0.0340794958174229,-0.0562182441353798
116,-0.0179138425737619,-0.0591789968311787,-0.0264555439352989,-0.0518144369125366,-0.0444439761340618,-0.0551477633416653
117,-0.0228295754641294,-0.0668560415506363,-0.0345713347196579,-0.0564329624176025,-0.0510781146585941,-0.0522528551518917
118,-0.0221128091216087,-0.0681474804878235,-0.0356288887560368,-0.0530753880739212,-0.048502404242754,-0.0465879328548908
119,-0.0152758881449699,-0.0619709640741348,-0.0293969195336103,-0.0418169051408768,-0.0371481068432331,-0.0391709432005882
120,-0.00577829172834754,-0.0520775951445103,-0.0205171480774879,-0.0280432384461164,-0.0238363537937403,-0.0334362983703613
121,0.0042585227638483,-0.0413434281945229,-0.0126725807785988,-0.015736062079668,-0.0130816837772727,-0.0293314214795828
122,0.0141313225030899,-0.0309734884649515,-0.00685421284288168,-0.0061935274861753,-0.005211282055825,-0.0242818202823401
123,0.0220365021377802,-0.0234188288450241,-0.00425218231976032,-0.00212919944897294,-0.00185947504360229,-0.0190351288765669
124,0.0283743757754564,-0.0186061207205057,-0.00348634459078312,-0.00313865207135677,-0.00164581253193319,-0.0142867341637611
125,0.0324230939149857,-0.0149858901277184,-0.00269986595958471,-0.00567295169457793,-0.000553215853869915,-0.00956297945231199
126,0.0306152980774641,-0.0133901294320822,-0.00305753806605935,-0.0083460034802556,0.00112134765367955,-0.00751921907067299
127,0.0224855020642281,-0.0149415256455541,-0.00567452702671289,-0.0116883562877774,-4.67815734737087E-05,-0.01151033770293
128,0.0119915530085564,-0.0184590816497803,-0.00927929300814867,-0.0157376173883677,-0.00538672506809235,-0.0205223057419062
129,0.00385834975168109,-0.0211695414036512,-0.0109116956591606,-0.0189088992774487,-0.012380987405777,-0.0299657452851534
130,0.00047379027819261,-0.0215315949171782,-0.00865514576435089,-0.0192087832838297,-0.017687788233161,-0.0361651815474033
131,0.00180163607001305,-0.0203880947083235,-0.00368350371718407,-0.0163944400846958,-0.0205935332924128,-0.0387649349868298
132,0.00727888429537416,-0.0194719806313515,0.0012060843873769,-0.0123014226555824,-0.0223819073289633,-0.03939139097929
133,0.0153322378173471,-0.0199655834585428,0.00384919648058712,-0.0094091072678566,-0.0236512944102287,-0.0385416150093079
134,0.0228044092655182,-0.0214612986892462,0.00351365213282406,-0.00854785740375519,-0.0232337433844805,-0.0338604599237442
135,0.026068639010191,-0.0243540797382593,-0.000453096843557432,-0.0100057730451226,-0.0215133558958769,-0.0241407137364149
136,0.0251146480441093,-0.0288119334727526,-0.00604205392301083,-0.0123648466542363,-0.0191190298646688,-0.0115569457411766
137,0.0234066676348448,-0.0327632315456867,-0.00865754578262568,-0.0130400285124779,-0.0152873601764441,-0.00126519438344985
138,0.0213488880544901,-0.0358415022492409,-0.00838848296552897,-0.0139810368418694,-0.0125214392319322,0.000853229954373091
139,0.0184284467250109,-0.0373146124184132,-0.00798386987298727,-0.0168900340795517,-0.013072413392365,-0.00463615776970983
140,0.0165980625897646,-0.0339652895927429,-0.00715027889236808,-0.0183731019496918,-0.0150684146210551,-0.0105026429519057
141,0.0161701906472445,-0.0261153057217598,-0.0053043756633997,-0.0165730770677328,-0.0168517027050257,-0.0120374420657754
142,0.0154198743402958,-0.0185990408062935,-0.00369080901145935,-0.0136728892102838,-0.018205838277936,-0.0109017929062247
143,0.0142214894294739,-0.0144536877050996,-0.002792191458866,-0.0115747665986419,-0.0184622835367918,-0.0102479206398129
144,0.0136090675368905,-0.0129848131909966,-0.0022804937325418,-0.0116140013560653,-0.017309008166194,-0.0126748364418745
145,0.0144887994974852,-0.011937053874135,-0.00199107639491558,-0.0142480004578829,-0.0145306466147304,-0.0184280816465616
146,0.0161854792386293,-0.0116463974118233,-0.00315331923775375,-0.0195598006248474,-0.0114026414230466,-0.0261736046522856
147,0.016652699559927,-0.0155110545456409,-0.00799880176782608,-0.0284068658947945,-0.0126176560297608,-0.0365237183868885
148,0.0170708242803812,-0.022795682772994,-0.0145974801853299,-0.038279227912426,-0.0198438819497824,-0.0473347194492817
149,0.0207062177360058,-0.0279757753014565,-0.0174863059073687,-0.0435618571937084,-0.0279555320739746,-0.0522813126444817
150,0.028011092916131,-0.0272140819579363,-0.0141435470432043,-0.0412138812243938,-0.0304550528526306,-0.0481537058949471
151,0.0354396179318428,-0.0222419667989016,-0.00752607919275761,-0.0341821759939194,-0.0259085055440664,-0.0388528294861317
152,0.0382890328764915,-0.0179790556430817,-0.00204147049225867,-0.0275154486298561,-0.018941406160593,-0.0291722491383553
153,0.0368204191327095,-0.0151749141514301,0.00271467817947268,-0.0215658005326986,-0.0126568898558617,-0.0188541058450937
154,0.0356925390660763,-0.010725793428719,0.00928932800889015,-0.0145969046279788,-0.00588866090402007,-0.00797681882977486
155,0.0359917990863323,-0.00531593849882483,0.015479413792491,-0.00803779158741236,7.09446030668914E-05,0.00033537665149197
156,0.0356725417077541,-0.00190132146235555,0.018553115427494,-0.00324734067544341,0.00322320242412388,0.00598758971318603
157,0.0343514606356621,-0.000492277438752353,0.0197514034807682,0.000767554505728185,0.00487008644267917,0.0113701997324824
158,0.0328969582915306,0.000572178221773356,0.0209511425346136,0.00461823167279363,0.00637116422876716,0.0169611517339945
159,0.0322483666241169,0.00248994282446802,0.0227582398802042,0.00766496919095516,0.00803515035659075,0.0218135397881269
160,0.0325694605708122,0.00507349334657192,0.0248414780944586,0.00868268217891455,0.00929587241262197,0.0250570829957724
161,0.0335212461650372,0.00717488490045071,0.0266555715352297,0.006962850689888,0.00909823831170797,0.0260208528488874
162,0.0352607183158398,0.00790764205157757,0.02794249355793,0.00355417560786009,0.00814397633075714,0.0231473930180073
163,0.0388313159346581,0.00776486843824387,0.0293309688568115,0.0011543589644134,0.00936578214168549,0.0161049701273441
164,0.0447871759533882,0.00825221370905638,0.0317717492580414,0.00172255223151296,0.0146142421290278,0.00741161126643419
165,0.0509081333875656,0.00943136587738991,0.0340587757527828,0.00414427043870091,0.0213080514222384,-0.000467200501589105
166,0.0540983602404594,0.00998135842382908,0.0338036492466927,0.00609763106331229,0.0247503165155649,-0.00645841099321842
167,0.0538657568395138,0.00951706059277058,0.0311111360788345,0.0074328244663775,0.0234667807817459,-0.0096744354814291
168,0.0506450720131397,0.00746724894270301,0.0266477987170219,0.00774067919701338,0.0179320611059666,-0.00993093196302652
169,0.0450738854706287,0.00344781228341162,0.0204158276319504,0.00512493308633566,0.00917060673236847,-0.00821984279900789
170,0.0397848859429359,-0.000334984069922939,0.0142366252839565,0.000287484901491553,0.000961943995207548,-0.00554107688367367
171,0.0369685329496861,-0.00186209159437567,0.0100820530205965,-0.00365636637434363,-0.00384641485288739,-0.00235252361744642
172,0.0368790067732334,-0.00101819855626673,0.00880090706050396,-0.00373109336942434,-0.00509616313502193,0.00285462010651827
173,0.0396616086363792,0.00182339793536812,0.010770826600492,0.00113343575503677,-0.0028068907558918,0.0132740726694465
174,0.0451030023396015,0.00513490987941623,0.0148769048973918,0.00841807574033737,0.0018326147692278,0.027436938136816
175,0.0507482215762138,0.00564201595261693,0.0177057534456253,0.0132527127861977,0.00571220926940441,0.0358846820890903
176,0.054762851446867,0.00225917110219598,0.0176081098616123,0.0137159842997789,0.00785495992749929,0.0315819047391415
177,0.0576085597276688,-0.00172638252843171,0.0167229138314724,0.0120862359181046,0.0103113632649183,0.0179257318377495
178,0.0575543418526649,-0.00377963995561004,0.0147914793342352,0.00924776587635279,0.0118620917201042,0.00170917133800685
179,0.0523041486740112,-0.0041646845638752,0.00941076129674912,0.0047350306995213,0.00881779007613659,-0.0120765902101994
180,0.0432279668748379,-0.00389916030690074,0.00210939557291567,8.34689199109562E-05,0.0015720467781648,-0.019562616944313
181,0.0349371694028378,-0.00230660825036466,-0.00142648350447416,-0.00174570502713323,-0.00399674056097865,-0.0178621467202902
182,0.0310986582189798,0.00206705532036722,0.00203838641755283,0.000709922169335186,-0.00337948650121689,-0.00741041777655482
183,0.0306716002523899,0.00704474048689008,0.00867746025323868,0.00497371982783079,0.000635872303973883,0.00536224292591214
184,0.0309942606836557,0.0092842411249876,0.0130515731871128,0.00704556936398149,0.00451127113774419,0.0130390720441937
185,0.031022846698761,0.00878132507205009,0.0136309638619423,0.00586095172911882,0.00818553380668163,0.0142657980322838
186,0.0310840271413326,0.00781990587711334,0.0123278703540564,0.00367129663936794,0.0118282372131944,0.0129912467673421
187,0.0308970678597689,0.00680095469579101,0.0106030134484172,0.00143584294710308,0.014399872161448,0.0120988832786679
188,0.0297133103013039,0.00445922836661339,0.00818637665361166,-0.00191298290155828,0.015075147151947,0.0115791456773877
189,0.0282754506915808,0.00163007830269635,0.00592260202392936,-0.00553754763677716,0.0148927941918373,0.0109072960913181
190,0.0273362658917904,0.000295984704280272,0.00535619212314487,-0.00705026043578982,0.014378453604877,0.00944092404097319
191,0.0262368451803923,0.000798916618805379,0.00613535800948739,-0.0055071534588933,0.0122681241482496,0.00791177805513144
192,0.0245074909180403,0.00261107459664345,0.00689517194405198,-0.00175027817022055,0.00884821079671383,0.0092863654717803
193,0.0220697484910488,0.00478985160589218,0.00644609145820141,0.00151799817103893,0.00527012860402465,0.0142883127555251
194,0.0201942604035139,0.00665033794939518,0.00463101314380765,0.00169999827630818,0.00233007012866437,0.0197191927582026
195,0.0225564278662205,0.0100691998377442,0.00396625278517604,0.000208193596336059,0.00273915869183838,0.0231090150773525
196,0.0288049057126045,0.0158279407769442,0.00583617109805346,-0.000921321159694344,0.00727247912436724,0.0234220307320356
197,0.0336742885410786,0.0217085536569357,0.00831129588186741,-0.00211289315484464,0.0122255152091384,0.0205605365335941
198,0.0343531258404255,0.0254285521805286,0.00968116335570812,-0.00385395251214504,0.0143955452367663,0.0161591954529285
199,0.0313481315970421,0.0249073784798384,0.00933298747986555,-0.00624505477026105,0.0134512856602669,0.0123591423034668
200,0.0257472433149815,0.0195744540542364,0.00670468714088202,-0.0094032809138298,0.0102137476205826,0.0113159576430917
201,0.0203608516603708,0.013112903572619,0.00269601074978709,-0.0124386055395007,0.00678515993058681,0.0131809180602431
202,0.0191602241247892,0.0109466901049018,0.00024056677648332,-0.013535862788558,0.00582639360800385,0.0151099562644959
203,0.0219431072473526,0.0130396084859967,0.000261061417404562,-0.0128010669723153,0.00668944092467427,0.0139013715088367
204,0.0250054001808167,0.014542025513947,0.000517986889462918,-0.0121216522529721,0.00595932826399803,0.00850864965468645
205,0.0263090692460537,0.0123415039852262,-0.000800460169557482,-0.0121126621961594,0.00181593140587211,0.000848905881866813
206,0.0254548769444227,0.00715322466567159,-0.00310876476578414,-0.0121575305238366,-0.00354718556627631,-0.0063877715729177
207,0.0230577327311039,0.00320266745984554,-0.00323837040923536,-0.0108010033145547,-0.00435502594336867,-0.0111203696578741
208,0.0208447650074959,0.00411478197202086,0.0010740680154413,-0.00702723953872919,0.00201666727662086,-0.0118841696530581
209,0.0188827309757471,0.00806662067770958,0.00712220370769501,-0.00275615160353482,0.00979600474238396,-0.0089190062135458
210,0.0154727064073086,0.0103057064116001,0.010375564917922,-0.000860637868754566,0.0118857380002737,-0.00343541288748384
211,0.0119463615119457,0.00987705588340759,0.0106417573988438,-0.00081969186430797,0.00844979751855135,0.00450374512001872
212,0.012179421260953,0.0105874529108405,0.0118312342092395,0.000924407213460654,0.0051985839381814,0.0153465457260609
213,0.0142906010150909,0.0126650109887123,0.0141194304451346,0.0043541444465518,0.00425349827855825,0.0251932162791491
214,0.0116227492690086,0.0108612533658743,0.0121387057006359,0.0053565688431263,0.0017702269833535,0.0275962613523006
215,0.0028497742023319,0.00343474512919784,0.00297722453251481,0.00221773516386747,-0.00472033582627773,0.0217630993574858
216,-0.00726626487448812,-0.00554702570661902,-0.0104457121342421,-0.00398467155173421,-0.0134743023663759,0.0122731551527977
217,-0.0139705827459693,-0.0110957659780979,-0.0226920545101166,-0.0109075242653489,-0.0216980595141649,0.00372785655781627
218,-0.0142898187041283,-0.00958283245563507,-0.0284678861498833,-0.0143457045778632,-0.0263111460953951,-0.000704757403582335
219,-0.00824038125574589,-0.00127774034626782,-0.0259174443781376,-0.0119546083733439,-0.0252679754048586,9.10776507225819E-05
220,0.000196807959582657,0.00878589972853661,-0.0181712973862886,-0.00629209680482745,-0.0202443189918995,0.00520940823480487
221,0.00664176512509584,0.0156841371208429,-0.0102153718471527,-0.00156112294644117,-0.0150501010939479,0.0133443605154753
222,0.00987971574068069,0.0186329763382673,-0.00540728028863668,0.000762235838919878,-0.0113466791808605,0.0227980632334948
223,0.0120696891099215,0.0199798215180635,-0.00309479725547135,0.00267701456323266,-0.0072278780862689,0.0306684598326683
224,0.0152085972949862,0.0209133215248585,-0.00100475980434567,0.00585474399849772,-0.00177782133687288,0.0331576466560364
225,0.0184719823300838,0.0201137121766806,0.000836600142065436,0.0088397953659296,0.00269396672956645,0.027579789981246
226,0.019498510286212,0.0162437204271555,0.000760399212595075,0.00818402972072363,0.00427784351631999,0.0143012767657638
227,0.0181660521775484,0.0108958398923278,-0.00140691292472184,0.00322988093830645,0.00438741967082024,-0.000839709944557399
228,0.0174725092947483,0.00780507316812873,-0.00365316006354988,-0.00229074526578188,0.00639344239607453,-0.00966631714254618
229,0.0192085783928633,0.00866600032895803,-0.00411115679889917,-0.00522673223167658,0.0116038713604212,-0.00970752816647291
230,0.0220822524279356,0.012082320638001,-0.00220140442252159,-0.00513176945969462,0.0172987058758736,-0.00362984579987824
231,0.0223440658301115,0.0134855248034,-0.000899657607078552,-0.00514795212075114,0.0172570049762726,0.00335571728646755
232,0.0203459486365318,0.0113215036690235,-0.00185523007530719,-0.00680482387542725,0.0105939162895083,0.00757321296259761
233,0.022915692999959,0.0119703393429518,0.000351207825588062,-0.00483479676768184,0.00606615096330643,0.0119293509051204
234,0.0293969046324492,0.0171558111906052,0.00663719372823834,0.00128261302597821,0.00754714990034699,0.0181206036359072
235,0.0315939784049988,0.0207902770489454,0.0105683784931898,0.00500268908217549,0.0103277815505862,0.0223567206412554
236,0.0289206989109516,0.022330466657877,0.0113052213564515,0.00593619141727686,0.0129388980567455,0.0235676132142544
237,0.0258751641958952,0.0249016880989075,0.012102359905839,0.00825510825961828,0.0162906143814325,0.0238093584775925
238,0.0232689287513494,0.0274954326450825,0.0131237423047423,0.0122972736135125,0.0193947721272707,0.0228630695492029
239,0.0207496043294668,0.0294043738394976,0.0146844824776053,0.0164338499307632,0.022634282708168,0.0202868115156889
240,0.019316166639328,0.0322776511311531,0.0185269732028246,0.019922386854887,0.0269073210656643,0.0183091275393963
241,0.0189651418477297,0.035263042896986,0.0239271689206362,0.0218986570835114,0.0307152196764946,0.018879160284996
242,0.0183519385755062,0.035539522767067,0.028018144890666,0.0214466694742441,0.0320505164563656,0.0219269376248121
243,0.0173606239259243,0.0330461524426937,0.029266856610775,0.0191218070685863,0.0307785905897617,0.0268251448869705
244,0.0159497857093811,0.0286193247884512,0.0267802178859711,0.0156121179461479,0.0263890773057938,0.0300820637494326
245,0.0133926663547754,0.0220017973333597,0.020327840000391,0.0109617952257395,0.0178202781826258,0.0268848519772291
246,0.0111397365108132,0.0149084916338325,0.0125566618517041,0.00648810807615519,0.00702754128724337,0.017722113057971
247,0.0115059092640877,0.0102798938751221,0.00692481501027942,0.00407723942771554,-0.00169709138572216,0.00702150398865342
248,0.0138228898867965,0.00834341812878847,0.00431708106771111,0.00327320164069533,-0.00508282287046313,-0.00332910753786564
249,0.015140300616622,0.00694867875427008,0.00330779817886651,0.0019085246603936,-0.00267543666996062,-0.0139582557603717
250,0.0134302992373705,0.00475838733837008,0.00264963484369218,-0.000854185782372952,0.00241865450516343,-0.0233853533864021
251,0.00961391068994999,0.00288387481123209,0.00301769212819636,-0.00383109482936561,0.00638045929372311,-0.0291234534233809
252,0.00613609096035361,0.00242985738441348,0.0043759006075561,-0.00605273619294167,0.00769094051793218,-0.0315790437161922
253,0.00375337735749781,0.00183833914343268,0.00360272102989256,-0.00859089847654104,0.00607032142579556,-0.0323381163179874
254,0.0022900179028511,0.000693313253577799,-0.000594736484345049,-0.0117048555985093,0.00313779478892684,-0.0308664031326771
255,0.00207302463240922,0.00144190213177353,-0.0059325834736228,-0.013294761069119,0.00118516886141151,-0.0264704283326864
256,0.00267255213111639,0.00448334915563464,-0.0110878320410848,-0.0127847250550985,-0.000113604059151839,-0.0208891071379185
257,0.00237003341317177,0.00666557438671589,-0.016649404540658,-0.0126774944365025,-0.00236443080939353,-0.0154776554554701
258,0.000853755918797106,0.00667721079662442,-0.0216944254934788,-0.0138672729954124,-0.00510393781587482,-0.00886739231646061
259,0.000847115356009454,0.00738152442499995,-0.0229884497821331,-0.0134260272607207,-0.00592866586521268,-0.000136907983687706
260,0.00377355422824621,0.00948795489966869,-0.0200115330517292,-0.00989341735839844,-0.00489391107112169,0.00916766095906496
261,0.00830512493848801,0.0100660249590874,-0.0158465765416622,-0.00460184598341584,-0.00404231902211905,0.0176808293908834
262,0.0145466737449169,0.00900005083531141,-0.0115136262029409,0.00203001010231674,-0.00288445083424449,0.0255074258893728
263,0.021853256970644,0.00861164275556803,-0.00615116627886891,0.00843393243849278,-4.1150335164275E-05,0.0314020253717899
264,0.0270119924098253,0.00982834585011005,-0.000315836165100336,0.0113078700378537,0.00375738437287509,0.0322175212204456
265,0.0283642113208771,0.0116487331688404,0.00392137095332146,0.009270204231143,0.00609370833262801,0.0254322439432144
266,0.0273557621985674,0.0128916539251804,0.00590448314324021,0.00403173547238112,0.00612787017598748,0.0117155415937305
267,0.0265481006354094,0.0142273958772421,0.00821633171290159,-0.000902388477697968,0.00696871057152748,-0.00288115977309644
268,0.0256566628813744,0.0152724487707019,0.0116194374859333,-0.00394210265949368,0.0119688222184777,-0.0115717984735966
269,0.0225091222673655,0.0135182365775108,0.0138129219412804,-0.00604599714279175,0.0204726867377758,-0.014493178576231
270,0.017785781994462,0.00890224520117044,0.0143503658473492,-0.00694781308993697,0.0280433874577284,-0.015341286547482
271,0.0140676917508245,0.0045883459970355,0.0147687504068017,-0.00502980127930641,0.0302646420896053,-0.0153883332386613
272,0.0120657570660114,0.00244421884417534,0.0152203412726521,-0.00141510996036232,0.0255907699465752,-0.0161114223301411
273,0.0107193011790514,0.00168536859564483,0.0145172215998173,0.00028680867399089,0.0155757172033191,-0.019342016428709
274,0.0100598884746432,0.00230587832629681,0.0134327970445156,-0.000546734663657844,0.00501468405127525,-0.022525230422616
275,0.0110542988404632,0.00566189037635922,0.0146060017868876,-0.00073531991802156,-0.00108876300510019,-0.0207530576735735
276,0.0123925767838955,0.010548428632319,0.0174952633678913,0.000308154470985755,-0.00261866534128785,-0.0149477869272232
277,0.0104485079646111,0.0126827107742429,0.0169874746352434,-0.000986963859759271,-0.00478710187599063,-0.011575429700315
278,0.00410554837435484,0.00983816850930452,0.0101419119164348,-0.00583926634863019,-0.0116000091657043,-0.0130809023976326
279,-0.00314686470665038,0.00469327624887228,0.000664092018269002,-0.0111631872132421,-0.0202360656112432,-0.0149552822113037
280,-0.00729470886290073,0.00147140142507851,-0.00599131314083934,-0.0136758424341679,-0.0251805149018765,-0.0114516485482454
281,-0.00797989871352911,0.000791228958405554,-0.00861658528447151,-0.0134089952334762,-0.0254402048885822,-0.00309439469128847
282,-0.0079460209235549,-0.000309426861349493,-0.00942146964371204,-0.0132315261289477,-0.0246188640594482,0.00296971225179732
283,-0.00828265398740768,-0.00284129683859646,-0.0099909994751215,-0.0146330818533897,-0.0245213713496923,0.00224537053145468
284,-0.00830652751028538,-0.00555757666006684,-0.0110987070947886,-0.0170665048062801,-0.0237250700592995,-0.00463774893432856
285,-0.00839313305914402,-0.00774485757574439,-0.0128679173067212,-0.0191110633313656,-0.0214340388774872,-0.0145821170881391
286,-0.00844056252390146,-0.0085445549339056,-0.0134772965684533,-0.0192812532186508,-0.01722820289433,-0.0219695288687944
287,-0.00894662830978632,-0.00914913322776556,-0.0125045431777835,-0.0192327443510294,-0.0115142352879047,-0.0239669512957335
288,-0.0108120646327734,-0.0114111434668303,-0.0113138929009438,-0.0211682338267565,-0.0056946761906147,-0.022476689890027
289,-0.0123081607744098,-0.013746022246778,-0.00931717455387115,-0.0235468540340662,-9.17641227715649E-05,-0.0196862053126097
290,-0.0112384893000126,-0.0138784013688564,-0.00603298749774694,-0.0238774120807648,0.00486482959240675,-0.0172804184257984
291,-0.00688340468332171,-0.0117424884811044,-0.00313422596082091,-0.021560026332736,0.00826948136091232,-0.0157556664198637
292,-0.00155068701133132,-0.0104085691273212,-0.0035458100028336,-0.0191001389175653,0.00868104584515095,-0.0146168768405914
293,0.000608909584116191,-0.0126697337254882,-0.00860271882265806,-0.0197023320943117,0.00451776618137956,-0.0144302826374769
294,-0.00058396504027769,-0.0157017186284065,-0.0150975119322538,-0.022005457431078,-0.00235514715313911,-0.0147323906421661
295,-0.00161521299742162,-0.0144027583301067,-0.0183235239237547,-0.0217795707285404,-0.00682468106970191,-0.0130079416558146
296,-0.000318806007271633,-0.00794046930968761,-0.0164784733206034,-0.0178047493100166,-0.00601956155151129,-0.00877279136329889
297,0.00239653745666146,0.000387285370379686,-0.0109486179426312,-0.0122366258874536,-0.00192484899889678,-0.00356177426874638
298,0.00393107021227479,0.00707833329215646,-0.00498155225068331,-0.0076501821167767,0.00165845348965377,0.00172882212791592
299,0.00326547166332603,0.0111552216112614,-0.00119922833982855,-0.00555422902107239,0.00333342235535383,0.00569264125078917
300,0.00270977383479476,0.0141957877203822,0.000243350208620541,-0.00522536877542734,0.00450493162497878,0.00674421200528741
301,0.00316955172456801,0.0162622276693583,-0.000589320727158338,-0.00581808760762215,0.004451225977391,0.00503013841807842
302,0.00270800455473363,0.015487203374505,-0.00363515177741647,-0.00816212128847837,0.000579710293095559,0.00205352646298707
303,0.00136042223311961,0.0122206341475248,-0.00705209979787469,-0.0120368311181664,-0.00574925541877747,-0.00129736238159239
304,0.00107517093420029,0.00905914232134819,-0.00846138317137957,-0.0151146491989493,-0.0101240295916796,-0.00467095011845231
305,0.00214766245335341,0.00753512885421515,-0.00748638436198235,-0.0160138141363859,-0.0104653183370829,-0.00736150611191988
306,0.00353143410757184,0.00751738017424941,-0.00590009288862348,-0.0155518390238285,-0.00806416012346745,-0.00823234766721725
307,0.00602325238287449,0.00991129782050848,-0.00395587645471096,-0.0132499607279897,-0.00369043182581663,-0.00578237418085337
308,0.00997494999319315,0.0139623880386353,-0.00135472358670086,-0.00888690259307623,0.00204203836619854,-0.00217010639607906
309,0.0128597114235163,0.0155978230759501,0.000114751601358876,-0.00574921304360032,0.00639012735337019,-0.00175127759575844
310,0.0119681311771274,0.0119935730472207,-0.00197448604740202,-0.00716548413038254,0.00573104806244373,-0.00405592611059546
311,0.00659348675981164,0.00352089921943843,-0.00873084180057049,-0.0130157256498933,-0.00137655076105148,-0.00603624247014523
312,-0.000510039972141385,-0.00622003618627787,-0.0173120833933353,-0.0199391338974237,-0.0108582377433777,-0.00646488927304745
313,-0.00560774793848395,-0.0134388851001859,-0.0230755675584078,-0.0245906841009855,-0.01689438149333,-0.00486820982769132
314,-0.00733907474204898,-0.0169163718819618,-0.0238733738660812,-0.0255995094776154,-0.0166769400238991,-0.00140254362486303
315,-0.0065887188538909,-0.0170357245951891,-0.0213460642844439,-0.0240882113575935,-0.0113015193492174,0.00108224898576736
316,-0.00466081267222762,-0.0144164608791471,-0.0189289562404156,-0.0222999043762684,-0.00475375261157751,-0.000724212441127747
317,-0.00213537295348942,-0.00982651114463806,-0.0182896498590708,-0.021168889477849,-0.000441744341515005,-0.00671565439552069
318,0.000642490747850388,-0.00459366850554943,-0.0190074630081654,-0.0208343733102083,0.000320815073791891,-0.0142971416935325
319,0.00312823383137584,0.000197853980353102,-0.0203180257230997,-0.0209733564406633,-0.00225294986739755,-0.0199500042945147
320,0.00460288813337684,0.00363841000944376,-0.0221135411411524,-0.0211628638207912,-0.00757284555584192,-0.0205078013241291
321,0.00530247716233134,0.00456214370205998,-0.0243783853948116,-0.0217739716172218,-0.0150278015062213,-0.0161564536392689
322,0.00478694634512067,0.00160408765077591,-0.0272664409130812,-0.0234520565718412,-0.0236502140760422,-0.0104995938017964
323,0.00128304155077785,-0.00489452807232738,-0.030771154910326,-0.025396715849638,-0.0318988487124443,-0.00648917257785797
324,-0.00493251765146852,-0.011836969293654,-0.0341124795377254,-0.0261106006801128,-0.0380936004221439,-0.004194725304842
325,-0.0117351394146681,-0.0164382103830576,-0.0365821160376072,-0.0256742797791958,-0.0417032465338707,-0.00301553588360548
326,-0.0176943074911833,-0.0185256656259298,-0.0381966084241867,-0.0254758782684803,-0.0442444905638695,-0.00409111799672246
327,-0.0219513047486544,-0.0190813839435577,-0.0391835011541843,-0.0262797717005014,-0.0469268076121807,-0.00774539634585381
328,-0.0235220808535814,-0.0189482737332582,-0.0394335575401783,-0.0273211430758238,-0.0481603741645813,-0.0123170083388686
329,-0.0218882206827402,-0.0187067668884993,-0.0382379330694675,-0.0269802957773209,-0.0461161732673645,-0.0158774368464947
330,-0.0198508538305759,-0.0204588528722525,-0.0370768941938877,-0.025645462796092,-0.0435604490339756,-0.0180437155067921
331,-0.0203368421643972,-0.0253292880952358,-0.0378340370953083,-0.0239855274558067,-0.043405506759882,-0.0193433072417974
332,-0.0205656010657549,-0.0283740386366844,-0.0368573479354382,-0.0192885957658291,-0.0420243181288242,-0.0179670806974173
333,-0.0178941898047924,-0.0259432960301638,-0.0310234427452087,-0.0116003351286054,-0.0360597558319569,-0.0138406325131655
334,-0.0129387564957142,-0.0205403976142406,-0.0221204310655594,-0.00444409064948559,-0.0258781332522631,-0.00984721351414919
335,-0.00667837075889111,-0.0151666719466448,-0.0129195991903543,0.000994757632724941,-0.0130847310647368,-0.00703457370400429
336,-7.93572253314778E-05,-0.0106598045676947,-0.00574066489934921,0.00523401331156492,-0.000773615145590156,-0.0047429776750505
337,0.00606839405372739,-0.00671059591695666,-0.00143340940121561,0.00907642394304276,0.00882683880627155,-0.00239002425223589
338,0.00981382373720407,-0.00385019951499999,0.000213407605770044,0.0124454814940691,0.0141643900424242,0.000295084377285093
339,0.0104822795838118,-0.00205391854979098,0.000642390572465956,0.015227428637445,0.0146461836993694,0.00469790259376168
340,0.00852352473884821,-0.00190716027282178,0.000182681484147906,0.0165702905505896,0.0105516258627176,0.00951987225562334
341,0.00268012518063188,-0.00605278695002198,-0.00403923681005836,0.013588996604085,0.00148036063183099,0.00960567500442266
342,-0.00490109529346228,-0.0122185377404094,-0.0107788471505046,0.00840470194816589,-0.00884770136326551,0.00635839812457561
343,-0.00956028886139393,-0.0148245692253113,-0.0145845338702202,0.00721600418910384,-0.0149649977684021,0.00666910037398338
344,-0.00928555149585009,-0.0128176538273692,-0.0128452386707067,0.0117380311712623,-0.0159045681357384,0.0132384737953544
345,-0.00412180786952376,-0.00854411628097296,-0.00547493388876319,0.0198545195162296,-0.0121318269520998,0.0239273104816675
346,0.00304539152421057,-0.00464288052171469,0.00543038686737418,0.0281723793596029,-0.00386235839687288,0.0325384624302387
347,0.00696271331980824,-0.00358267105184495,0.0145586673170328,0.0326264649629593,0.00586197711527348,0.0326444394886494
348,0.00603277096524835,-0.00580407166853547,0.01808494143188,0.0316000282764435,0.0130881052464247,0.0259268637746572
349,0.00411037122830749,-0.00808278471231461,0.0179018657654524,0.0277318935841322,0.018251821398735,0.0217184592038393
350,0.00279254908673465,-0.00831983238458633,0.0166951846331358,0.0239395573735237,0.0224229134619236,0.0234154351055622
351,0.00026284801424481,-0.00767361605539918,0.0142318522557616,0.0210731942206621,0.0234830342233181,0.0244065187871456
352,-0.00359350768849254,-0.00702864117920399,0.0102564422413707,0.0195091404020786,0.0205795131623745,0.0196517817676067
353,-0.00802648533135653,-0.00719387223944068,0.00632441323250532,0.0192269552499056,0.0155007820576429,0.0107244979590178
354,-0.0119355544447899,-0.00804648734629154,0.00572746386751533,0.0207996498793364,0.0113344136625528,0.00268813339062035
355,-0.0145527133718133,-0.00877341907471418,0.00884862244129181,0.023283988237381,0.00998529139906168,-0.00210689450614154
356,-0.016191229224205,-0.00998504832386971,0.0112376287579536,0.0228941347450018,0.0101345758885145,-0.00605940213426948
357,-0.0158518552780151,-0.0112236700952053,0.0109590189531446,0.0189510248601437,0.0110585857182741,-0.0102323312312365
358,-0.0133189680054784,-0.0119005022570491,0.00980684254318476,0.0138372173532844,0.0133718848228455,-0.0130837671458721
359,-0.00995287019759417,-0.0124290538951755,0.00917482189834118,0.00984736066311598,0.0169333666563034,-0.011022774502635
360,-0.00574427004903555,-0.0114915510639548,0.010198081843555,0.00990793760865927,0.0216725710779428,-9.14392603590386E-06
361,-0.00146383547689766,-0.00839690491557121,0.0126608666032553,0.014174778945744,0.0255555473268032,0.0164431221783161
362,0.000202101015020162,-0.00505683803930879,0.0144005455076694,0.0188639629632235,0.0249175056815147,0.0292856637388468
363,-0.00190488167572767,-0.00277175870724022,0.0143874501809478,0.021453658118844,0.0196620337665081,0.0343838147819042
364,-0.00702561298385262,-0.00236996472813189,0.0122934551909566,0.0210473407059908,0.0116652688011527,0.0314489603042603
365,-0.0136456293985248,-0.00451248278841376,0.00779829174280167,0.0170886311680079,0.00221456657163799,0.0209345407783985
366,-0.0191215816885233,-0.00710817752406001,0.00320305163040757,0.0122292507439852,-0.00561701692640781,0.0085618207231164
367,-0.0222045499831438,-0.00804604683071375,0.00100555515382439,0.0102794030681252,-0.00994797050952911,0.00232889410108328
368,-0.0225353688001633,-0.00655507622286677,0.00219351006671786,0.0126717975363135,-0.0106235258281231,0.00444134138524532
369,-0.019852077588439,-0.00279763853177428,0.00614383351057768,0.0172793511301279,-0.00716462498530746,0.0100324116647244
370,-0.015187494456768,0.00170947785954922,0.0105125829577446,0.0206194631755352,-0.000429022329626605,0.0135126933455467
371,-0.00919670797884464,0.00557314231991768,0.0141849322244525,0.0219128672033548,0.00745577272027731,0.013615982607007
372,-0.00335060921497643,0.00685845082625747,0.0165834259241819,0.0212531536817551,0.0131448227912188,0.0108489915728569
373,0.000806352181825787,0.00538921542465687,0.0176306013017893,0.0191968809813261,0.0152351204305887,0.00650137336924672
374,0.00391494063660502,0.00453475257381797,0.0194020252674818,0.018194705247879,0.0163142159581184,0.00314761395566165
375,0.00666726334020495,0.0069590425118804,0.0235426798462868,0.0198381114751101,0.0178066994994879,0.0029571708291769
376,0.00761484447866678,0.0105504710227251,0.028215516358614,0.021756149828434,0.0172935109585524,0.00481400964781642
377,0.00519756134599447,0.0111157447099686,0.0300562493503094,0.0203215219080448,0.0131060555577278,0.00533230928704143
378,0.000622128834947944,0.00797212496399879,0.0280741713941097,0.01572360470891,0.00721936812624335,0.00479976367205381
379,-0.00291447248309851,0.00388339883647859,0.0237506423145533,0.0112360827624798,0.00359870889224112,0.00760516664013267
380,-0.00248267455026507,0.00169722572900355,0.0191583540290594,0.009392399340868,0.00608335202559829,0.0163794346153736
381,0.00204213685356081,0.00172483606729656,0.0157405305653811,0.0101614724844694,0.0140487188473344,0.0274655744433403
382,0.00653309701010585,0.00155218690633774,0.0129494788125157,0.0114053534343839,0.0206275973469019,0.0329668968915939
383,0.00612682430073619,-0.00144000165164471,0.00865960773080587,0.0103676943108439,0.0194259807467461,0.0277558118104935
384,0.00103392580058426,-0.00688332924619317,0.00275790854357183,0.00652101542800665,0.011495971120894,0.0139218298718333
385,-0.00454663019627333,-0.01232098788023,-0.00297407549805939,0.00222134892828763,0.00224440754391253,-0.00158417655620724
386,-0.00831474363803864,-0.0174097698181868,-0.00855439901351929,-0.000783474533818662,-0.00594377843663096,-0.0137525778263807
387,-0.0104573704302311,-0.0218627136200666,-0.0134142469614744,-0.0012726120185107,-0.0120497392490506,-0.0206687711179256
388,-0.0123325418680906,-0.0235495958477259,-0.0148357274010777,0.00162390049081296,-0.0135813411325216,-0.0220147222280502
389,-0.0156088089570403,-0.0219268258661032,-0.0118659790605307,0.00606923876330256,-0.0101111549884081,-0.0209898352622986
390,-0.0201501026749611,-0.0185200870037079,-0.00647914921864867,0.00943361222743988,-0.0042340406216681,-0.0211372766643763
391,-0.024645883589983,-0.0152746606618166,-0.00206845952197909,0.0107754347845912,0.000784255447797477,-0.0224743764847517
392,-0.0290694180876017,-0.0138242365792394,-0.00163934100419283,0.00954611320048571,0.00177381339017302,-0.0239791925996542
393,-0.0334570519626141,-0.0146416146308184,-0.00535891484469175,0.00522646307945251,-0.00268682511523366,-0.0247137602418661
394,-0.0355164594948292,-0.0162235721945763,-0.00970865041017532,1.96979499378358E-06,-0.00932640396058559,-0.0226941052824259
395,-0.0349330939352512,-0.0179399531334639,-0.0121967550367117,-0.00343722500838339,-0.0144968954846263,-0.0175347588956356
396,-0.0334315150976181,-0.0194964446127415,-0.0124073401093483,-0.00432274723425508,-0.0170442648231983,-0.0103648360818625
397,-0.0310725308954716,-0.0191874876618385,-0.00996915157884359,-0.00301854382269084,-0.0167658198624849,-0.0015763301635161
398,-0.0285326950252056,-0.017364390194416,-0.00667538400739431,-0.00150136824231595,-0.0156735554337502,0.00700119836255908
399,-0.0263538677245378,-0.0155144855380058,-0.00446899980306625,-0.00112517725210637,-0.0151274958625436,0.0120598366484046
400,-0.0246147885918617,-0.0142809841781855,-0.00333257974125445,-0.0016292535001412,-0.014491580426693,0.0117209926247597
401,-0.0257542803883553,-0.0152707835659385,-0.00444445852190256,-0.00391040230169892,-0.0147956544533372,0.0051504853181541
402,-0.0314080230891705,-0.0195880215615034,-0.00931945256888866,-0.00924605131149292,-0.0175760723650455,-0.00702703697606921
403,-0.0381577499210835,-0.0243572648614645,-0.0154543062672019,-0.0158362854272127,-0.021000986918807,-0.0205998346209526
404,-0.0417960770428181,-0.0255118794739246,-0.0191197823733091,-0.0202161259949207,-0.0218507032841444,-0.0308630187064409
405,-0.041418831795454,-0.0216641910374165,-0.0187143478542566,-0.0199021250009537,-0.0182738490402699,-0.0347457379102707
406,-0.0392726585268974,-0.0159120503813028,-0.0152301425114274,-0.0158669538795948,-0.0120529141277075,-0.0322520360350609
407,-0.0376939550042152,-0.0134223131462932,-0.0121629377827048,-0.0119312694296241,-0.00773882493376732,-0.0279361177235842
408,-0.0342789888381958,-0.0133362635970116,-0.0099692540243268,-0.00798072572797537,-0.0052952622063458,-0.0244837999343872
409,-0.0273130722343922,-0.0116364564746618,-0.00716264173388481,-0.00211929529905319,-0.0024932415690273,-0.0216724332422018
410,-0.0208366811275482,-0.00979343894869089,-0.00665894523262978,0.00225743115879595,-0.00145358371082693,-0.0215832851827145
411,-0.0166937634348869,-0.0104753859341145,-0.0103646162897348,0.00261987210251391,-0.00360329868271947,-0.0239154100418091
412,-0.0131286708638072,-0.0120422840118408,-0.0152221191674471,0.00227360450662673,-0.00658414931967855,-0.0248895343393087
413,-0.0129229268059134,-0.0128541896119714,-0.0201455969363451,0.0021060248836875,-0.00965343974530697,-0.0245155487209558
414,-0.0196620486676693,-0.013449034653604,-0.0263105016201735,-0.000565860769711435,-0.0137675730511546,-0.0237445291131735
415,-0.0307159554213285,-0.0145298102870584,-0.0325259231030941,-0.00573185458779335,-0.0184648800641298,-0.0208908673375845
416,-0.0410433709621429,-0.0162509214133024,-0.0365358144044876,-0.0111288726329803,-0.0224256999790668,-0.0158386137336493
417,-0.0486796721816063,-0.0184699241071939,-0.0378467999398708,-0.0153489531949162,-0.0254180766642094,-0.0101790148764849
418,-0.0551588498055935,-0.0218620337545872,-0.0378477238118649,-0.0187545698136091,-0.0292742811143398,-0.00530657963827252
419,-0.0615226775407791,-0.02638746984303,-0.0370839238166809,-0.0209526065737009,-0.0344418734312058,-0.00239063450135291
420,-0.0669035166501999,-0.0300775226205587,-0.0350880138576031,-0.0203385818749666,-0.0391651652753353,-0.00240783672779799
421,-0.0703752115368843,-0.0311487186700106,-0.0323976874351501,-0.0172654129564762,-0.0428902953863144,-0.00602744007483125
422,-0.0716704577207565,-0.0297511722892523,-0.0300190392881632,-0.0144906444475055,-0.0461071133613586,-0.0130970505997539
423,-0.0702482983469963,-0.026775024831295,-0.0274363625794649,-0.0134333344176412,-0.0472422689199448,-0.0217681601643562
424,-0.0661823600530624,-0.0228079743683338,-0.023852439597249,-0.0128134191036224,-0.0444993823766708,-0.0292142350226641
425,-0.0621762573719025,-0.0196177698671818,-0.0207622088491917,-0.0119828544557095,-0.0396703816950321,-0.0339068658649921
426,-0.0597029775381088,-0.0178929213434458,-0.0183616299182177,-0.0104637304320931,-0.0334994457662106,-0.034812405705452
427,-0.057633001357317,-0.016397837549448,-0.0147136701270938,-0.00773627450689673,-0.0247444696724415,-0.0317130535840988
428,-0.0550064146518707,-0.0148019390180707,-0.00954113062471151,-0.00475541362538934,-0.0147473011165857,-0.0270623173564672
429,-0.0509753748774529,-0.0138081032782793,-0.00467307027429342,-0.00262350798584521,-0.00624431716278195,-0.0250865388661623
430,-0.0464369021356106,-0.015181859023869,-0.00378905632533133,-0.00288573326542974,-0.00238797604106367,-0.0289407670497894
431,-0.0427617356181145,-0.0193026829510927,-0.00779849896207452,-0.00565300695598125,-0.00372374174185097,-0.0365938581526279
432,-0.0381968095898628,-0.0222205482423306,-0.0107561573386192,-0.00694069359451532,-0.00502912234514952,-0.0408196300268173
433,-0.031768973916769,-0.0206048190593719,-0.00786633975803852,-0.00394922215491533,-0.00231485860422254,-0.0369127131998539
434,-0.026554187759757,-0.016215868294239,-0.00204418622888625,0.00096220092382282,0.00171058671548963,-0.0282091293483973
435,-0.025861244648695,-0.0125712938606739,0.00137410394381732,0.00445289583876729,0.00251479307189584,-0.0212370082736015
436,-0.0298609789460897,-0.0114819891750813,0.000104856939287856,0.00543106812983751,-0.00119286368135363,-0.0195136275142431
437,-0.0357219688594341,-0.0121603822335601,-0.00435473257675767,0.00425018090754747,-0.00696934014558792,-0.0225294884294271
438,-0.0402107983827591,-0.0125655177980661,-0.00892200879752636,0.00169153907336295,-0.0111564248800278,-0.0277694463729858
439,-0.0416773445904255,-0.0115487687289715,-0.0117408605292439,-0.000465510238427669,-0.0120984809473157,-0.0322111546993256
440,-0.0397621020674706,-0.00921996589750052,-0.0133883794769645,-0.000393217022065073,-0.0111532667651773,-0.0326977632939816
441,-0.0351541712880135,-0.00715340487658978,-0.0159112717956305,0.0010796096175909,-0.0111725721508265,-0.0283881276845932
442,-0.0293548684567213,-0.0075483787804842,-0.0199504774063826,0.00128077971749008,-0.0138739394024014,-0.021601963788271
443,-0.0228991471230984,-0.0101879769936204,-0.0230531264096498,-0.00022160388471093,-0.017850786447525,-0.0137567901983857
444,-0.0163760017603636,-0.0120345633476973,-0.0220157690346241,-0.00135880592279136,-0.0198059286922216,-0.00534137012436986
445,-0.013378769159317,-0.0113612646237016,-0.0173056647181511,-0.00173704884946346,-0.0191191975027323,0.000267573079327121
446,-0.0168046019971371,-0.00997694674879313,-0.0123445577919483,-0.00336616300046444,-0.0181432031095028,-0.000283947127172723
447,-0.0249176062643528,-0.0104762893170118,-0.00988575257360935,-0.0073602725751698,-0.0185815095901489,-0.0059591312892735
448,-0.0345712415874004,-0.0135432360693812,-0.0112979672849178,-0.0125509537756443,-0.0209978520870209,-0.0134494537487626
449,-0.0427287332713604,-0.0168425235897303,-0.015011353418231,-0.0160956084728241,-0.0237596463412046,-0.0196819454431534
450,-0.0459007956087589,-0.0168327130377293,-0.0171826276928186,-0.0157421864569187,-0.02362303994596,-0.022502489387989
451,-0.0433788113296032,-0.0128969065845013,-0.0161740314215422,-0.0124727599322796,-0.0194757506251335,-0.0219834223389626
452,-0.0377113781869411,-0.00673466688022017,-0.0128733972087502,-0.00811628438532352,-0.0122046321630478,-0.0179916899651289
453,-0.0311290547251701,0.000287718838080764,-0.00830959714949131,-0.00232937908731401,-0.00363387516699731,-0.00948531553149223
454,-0.0252402760088444,0.00642875442281365,-0.00374350068159401,0.00468958355486393,0.00366793666034937,0.000695202441420406
455,-0.0218920893967152,0.00944776460528374,-0.0011095468653366,0.0102842673659325,0.00842088926583529,0.0076479441486299
456,-0.0214487817138433,0.00926156342029572,-0.00123410276137292,0.0124443182721734,0.0111904786899686,0.00956641510128975
457,-0.0233708824962378,0.0065112286247313,-0.00375625840388238,0.0103010972961783,0.0113202892243862,0.00526645313948393
458,-0.0270692761987448,0.000933619274292141,-0.00818545371294022,0.00391409080475569,0.00705742603167892,-0.00548427226021886
459,-0.0305050294846296,-0.00520335650071502,-0.0124660721048713,-0.00346588948741555,-0.00020417504129,-0.0180189795792103
460,-0.0315072052180767,-0.00783557910472155,-0.013525390997529,-0.00756432255730033,-0.00599922798573971,-0.026144877076149
461,-0.02950095012784,-0.0051148240454495,-0.0103344665840268,-0.00660652108490467,-0.00681013287976384,-0.026999332010746
462,-0.0261660274118185,0.000528936856426299,-0.00570293795317411,-0.00246542529202998,-0.0038052957970649,-0.0222520679235458
463,-0.0236939564347267,0.00467296876013279,-0.00331395678222179,0.00121636502444744,-0.000913289841264486,-0.0152548784390092
464,-0.0219801366329193,0.00535460887476802,-0.00391700072214007,0.00235878629609942,2.64918726315955E-05,-0.00815491378307343
465,-0.0201843939721584,0.0030677542090416,-0.00689288042485714,0.000834026490338147,-0.0016540422802791,-0.0030539259314537
466,-0.017441637814045,7.22877230145969E-05,-0.0102144274860621,-0.0013071148423478,-0.00506710447371006,-0.00113746291026473
467,-0.0141037218272686,-0.00180880911648273,-0.0116299213841558,-0.00235731923021376,-0.00823557749390602,-0.00124790100380778
468,-0.0131241474300623,-0.00381831405684352,-0.0124586932361126,-0.00394308613613248,-0.0115196360275149,-0.00159690785221756
469,-0.0153130954131484,-0.00686745205894113,-0.014249961823225,-0.007363460958004,-0.0149396024644375,-0.00175379309803247
470,-0.0189974289387465,-0.010854484513402,-0.0169479548931122,-0.0121767725795507,-0.0179342087358236,-0.00341659085825086
471,-0.0230656526982784,-0.0157193262130022,-0.0201276764273643,-0.0173207893967628,-0.0209542643278837,-0.0065227672457695
472,-0.0249932687729597,-0.0184812396764755,-0.0208394601941109,-0.0191027689725161,-0.0220151655375957,-0.00719148945063353
473,-0.0227371230721474,-0.0155002782121301,-0.0167603846639395,-0.0143707934767008,-0.0187842398881912,-0.00339399999938905
474,-0.0187574233859777,-0.00799638964235783,-0.0107903014868498,-0.00581967923790216,-0.0135050844401121,0.00197373819537461
475,-0.0163955148309469,-0.00096853356808424,-0.00678981048986316,0.000869438867084682,-0.00927979126572609,0.00432228250429034
476,-0.0150834862142801,0.00271713035181165,-0.00439046276733279,0.0034297367092222,-0.00489614252001047,0.00231341342441738
477,-0.0116885229945183,0.00455230660736561,-0.000829348748084158,0.00433318875730038,0.0017148134065792,-0.000926434528082609
478,-0.00596060464158654,0.00642130570486188,0.004053327254951,0.00590892694890499,0.00833159778267145,-0.00268739927560091
479,-0.00256843282841146,0.00746538117527962,0.00725887855514884,0.00661941338330507,0.0113524729385972,-0.00423578266054392
480,-0.00484308088198304,0.00613790284842253,0.00682005425915122,0.00421889871358871,0.00954336579889059,-0.00738388998433948
481,-0.00989008508622646,0.00382468570023775,0.00446619233116508,0.000236337931710295,0.00376254320144653,-0.00958449393510818
482,-0.012776292860508,0.0037314286455512,0.00430139899253845,-0.00153279944788665,-0.00281998119316995,-0.00592629332095385
483,-0.012700499035418,0.00577011238783598,0.00750624435022473,-0.000240712965023704,-0.00748364813625813,0.00310150603763759
484,-0.0117026409134269,0.0071143195964396,0.0104575837031007,0.00211349548771977,-0.0106412516906857,0.0107998810708523
485,-0.0104953497648239,0.00675512384623289,0.00988920964300632,0.00458318274468184,-0.01337187923491,0.0127937290817499
486,-0.00850336253643036,0.00642647780478001,0.00616828352212906,0.00742656551301479,-0.0152592556551099,0.0109553029760718
487,-0.00624268548563123,0.00747655564919114,0.000436091620940715,0.00942238420248032,-0.016430189833045,0.00821716897189617
488,-0.006022107321769,0.00779443606734276,-0.00778590887784958,0.00750114303082228,-0.0189102292060852,0.00532226031646132
489,-0.0086360415443778,0.0054324553348124,-0.0171832535415888,0.00135153974406421,-0.0226029790937901,0.00383767927996814
490,-0.0119450390338898,0.00219868612475693,-0.0238036271184683,-0.0050973822362721,-0.0250079166144133,0.00542695028707385
491,-0.0124994907528162,0.00129685516003519,-0.0244525130838156,-0.0072870752774179,-0.0246895309537649,0.0112821971997619
492,-0.00890923198312521,0.00293894298374653,-0.0197235085070133,-0.00426932889968157,-0.0221276693046093,0.0203625857830048
493,-0.00467015849426389,0.003575085895136,-0.014303264208138,-0.000376547453925014,-0.0200922228395939,0.0256407018750906
494,-0.00312882848083973,0.00196921895258129,-0.011276020668447,0.000883714004885405,-0.0200857874006033,0.0224890224635601
495,-0.00267331139184535,0.00169316970277578,-0.00918272417038679,0.000924620078876615,-0.0194397121667862,0.0141069544479251
496,-0.00186561048030853,0.0045080529525876,-0.0068905190564692,0.000881829182617366,-0.0170996971428394,0.00443829596042633
497,-0.00234429491683841,0.00767494272440672,-0.00532030547037721,3.06633887703356E-06,-0.0154236778616905,-0.00479949126020074
498,-0.00328683643601835,0.0099397711455822,-0.00289807445369661,0.000332889234414324,-0.0122026186436415,-0.0109852328896523
499,-0.00268161692656577,0.0109457606449723,0.0018426674650982,0.0034350526984781,-0.00377102429047227,-0.0132716130465269
500,-0.00159618014004081,0.00880551803857088,0.00606816960498691,0.00658929347991943,0.00602626707404852,-0.0141445361077785
501,-0.000799786008428782,0.00382877769879997,0.00664141774177551,0.00684121670201421,0.010857192799449,-0.0145763391628861
502,0.00196395954117179,-0.000431831809692085,0.00434332434087992,0.00450438586995006,0.010198662057519,-0.012481345795095
503,0.00808121357113123,-0.000629042449872941,0.00238407636061311,0.00273773609660566,0.00730700558051467,-0.00653634639456868
504,0.0138422893360257,0.00121121504344046,0.00136752740945667,0.00276807765476406,0.00273760757409036,-6.95106500643305E-05
505,0.0158860608935356,0.00123490043915808,0.000720132724381983,0.00350746116600931,-0.00303081283345819,0.00481991562992334
506,0.0142545560374856,-0.00133800937328488,-0.000428831728640944,0.00308049656450748,-0.00825215317308903,0.00901287142187357
507,0.00894731283187866,-0.00622213585302234,-0.00434873253107071,-0.000439789379015565,-0.0136480238288641,0.0111336791887879
508,0.00247769337147474,-0.0108143873512745,-0.00932304747402668,-0.00473783165216446,-0.0181381180882454,0.0119546409696341
509,-0.000687168794684112,-0.0111661050468683,-0.010392839089036,-0.00516693526878953,-0.0182422008365393,0.0145985782146454
510,-0.00062098354101181,-0.00785163324326277,-0.0075881970115006,-0.00183742411900312,-0.0154064865782857,0.0173771288245916
511,-0.000583662476856261,-0.00500765908509493,-0.00554274534806609,0.00103877892252058,-0.0144561883062124,0.0165704451501369
512,-0.000714662193786353,-0.00426970096305013,-0.00605407822877169,0.00158298888709396,-0.0165441352874041,0.0124113280326128
513,0.00101552880369127,-0.00432618567720056,-0.00742009608075023,0.000543932896107435,-0.0198178738355637,0.00659602833911777
514,0.00563561217859387,-0.00266720284707844,-0.00702934199944139,-0.000409988278988749,-0.0216227807104588,0.000923708663322032
515,0.0124324262142181,0.00258569326251745,-0.00345734553411603,0.000597670266870409,-0.0206858441233635,-0.00234537338837981
516,0.0184658244252205,0.00964527949690819,0.000722294847946614,0.00269102538004518,-0.0189588349312544,-0.0036335620097816
517,0.0212349407374859,0.0150502594187856,0.00191991333849728,0.00315134972333908,-0.0174417234957218,-0.00518152210861444
518,0.0205422155559063,0.0171057526022196,-0.00015414999506902,0.000582997803576291,-0.0143397189676762,-0.00763354357331991
519,0.0170875620096922,0.0155831845477223,-0.00396565580740571,-0.00445811031386256,-0.00872095581144094,-0.00955047365278006
520,0.0123087428510189,0.0112089347094297,-0.00817949045449495,-0.0101076969876885,-0.00296653271652758,-0.00857636611908674
521,0.00874439347535372,0.00640924042090774,-0.0109607595950365,-0.0138659672811627,-0.000405281170969829,-0.00328527949750423
522,0.00731011060997844,0.00298715592361987,-0.0118263680487871,-0.0147522250190377,-0.00174374727066606,0.00419889809563756
523,0.00504138087853789,-0.00101849541533738,-0.013753610663116,-0.0153121650218964,-0.0068348734639585,0.00770380487665534
524,-0.000333428150042892,-0.00711032375693321,-0.0180940739810467,-0.0173491332679987,-0.0154764940962195,0.00445514637976885
525,-0.00552423810586333,-0.0118913324549794,-0.0209807250648737,-0.0173431467264891,-0.0242005679756403,0.000922133796848357
526,-0.00476452754810452,-0.0103286700323224,-0.0173603221774101,-0.0102087343111634,-0.0271362159401178,0.00405892124399543
527,0.00224487716332078,-0.00285603059455752,-0.00729016680270433,0.00167673674877733,-0.0226543452590704,0.0101298755034804
528,0.00959744770079851,0.0039891479536891,0.0032063068356365,0.0089761558920145,-0.0157510284334421,0.00943861622363329
529,0.0146383102983236,0.00715383887290955,0.0105066820979118,0.00924533698707819,-0.00986331235617399,0.000763834861572832
530,0.0184225793927908,0.00815769378095865,0.0146846100687981,0.00744109228253365,-0.00509435823187232,-0.00900286715477705
531,0.0212029200047255,0.00791632197797298,0.0157082807272673,0.00631215842440724,-0.00172068562824279,-0.0147400470450521
532,0.025304714217782,0.00800805911421776,0.0155271599069238,0.00715053919702768,0.00184319366235286,-0.0151132652536035
533,0.0320855639874935,0.00986040662974119,0.0160337071865797,0.00983782671391964,0.00637642946094275,-0.0122456606477499
534,0.0367993339896202,0.0125471940264106,0.0156775899231434,0.0107650347054005,0.00848331954330206,-0.010296075604856
535,0.0348871164023876,0.0147612197324634,0.0131241548806429,0.0078738322481513,0.00589663861319423,-0.0104988599196076
536,0.0293248109519482,0.0169676393270493,0.0106358705088496,0.0043911375105381,0.00159192376304418,-0.0102412113919854
537,0.0259229000657797,0.0192790888249874,0.010042660869658,0.00317551847547293,-0.000962711288593709,-0.00876291655004025
538,0.0259434822946787,0.0207076296210289,0.0100591080263257,0.00339485751464963,-0.00117079238407314,-0.0074727120809257
539,0.0272778868675232,0.0209573283791542,0.00940541550517082,0.00393866701051593,0.000345397682394832,-0.00539172440767288
540,0.0282275788486004,0.020373547449708,0.0082123652100563,0.00510036153718829,0.00182767165824771,-0.000931390037294477
541,0.0275516286492348,0.0197183806449175,0.0065815607085824,0.00755635788664222,0.00127698702272028,0.00517508527263999
542,0.0236074216663837,0.0189198460429907,0.00411363504827023,0.0105783576145768,-0.00177801388781518,0.012218514457345
543,0.0158677082508802,0.0160325411707163,0.000732465472538024,0.0118296146392822,-0.00799376145005226,0.0194927137345076
544,0.00674193957820535,0.0104913618415594,-0.00228993175551295,0.0102590955793858,-0.0167803727090359,0.0237280447036028
545,-0.000490077596623451,0.00491893431171775,-0.00332958204671741,0.00802954193204641,-0.02458855509758,0.0227206517010927
546,-0.00456220703199506,0.00133518455550075,-0.00318600935861468,0.00783398747444153,-0.029455753043294,0.0195718184113503
547,-0.00535942334681749,-0.000343169085681438,-0.00404183194041252,0.00946460850536823,-0.032273780554533,0.0187178626656532
548,-0.00350789958611131,-0.000797759101260453,-0.00661868322640657,0.0105175729840994,-0.034390714019537,0.0190401151776314
549,-6.18281919742003E-05,0.00010498092888156,-0.00887824688106775,0.0107247028499842,-0.0349840149283409,0.0166351124644279
550,0.00411814963445067,0.0028142505325377,-0.00776343606412411,0.0121647492051125,-0.0316250622272491,0.0106166638433933
551,0.00718041183426976,0.00560597889125347,-0.00431864336133003,0.014340185560286,-0.0254525858908892,0.00104288745205849
552,0.00778001314029098,0.00653860764577985,-0.00247721839696169,0.014136360026896,-0.019866231828928,-0.0109938997775316
553,0.00612405594438314,0.00586496386677027,-0.00396416336297989,0.00975030194967985,-0.0166561063379049,-0.0223189275711775
554,0.00328923878259957,0.0049140015617013,-0.00773846311494708,0.00263324729166925,-0.0162590574473143,-0.0300040245056152
555,0.00223448779433966,0.00580324092879891,-0.0105175925418735,-0.00274811731651425,-0.0164696350693703,-0.03114396892488
556,0.00483677489683032,0.00919490773230791,-0.010011781938374,-0.00325287110172212,-0.0148194842040539,-0.0253399331122637
557,0.00879020430147648,0.0117058204486966,-0.00870063807815313,-0.0013159952359274,-0.0128451092168689,-0.0180527213960886
558,0.0123565681278706,0.0105897514149547,-0.00900798570364714,-0.000373022397980094,-0.0116238361224532,-0.0133997853845358
559,0.0168140791356564,0.00833936501294374,-0.00847225543111563,0.000639672391116619,-0.00731487991288304,-0.00799484550952911
560,0.0213892385363579,0.00850421283394098,-0.0049644373357296,0.00351314200088382,0.00276197819039226,0.000682466721627861
561,0.0212930906563997,0.00960902869701386,-0.00170869030989707,0.00579561293125153,0.0126906763762236,0.00670385826379061
562,0.0149148982018232,0.00866733584553003,-0.00166975893080235,0.00520854396745563,0.0146015994250774,0.00467012077569962
563,0.00753746554255486,0.00678961211815476,-0.00327047612518072,0.00393717456609011,0.00783037394285202,-0.00227404036559165
564,0.00391922937706113,0.00511855958029628,-0.00550806103274226,0.00354083837009966,-0.00437360210344195,-0.00903747882694006
565,0.00413624849170446,0.00301034259609878,-0.00908032897859812,0.00353960227221251,-0.0186031721532345,-0.0134321516379714
566,0.00605510454624891,0.00185739260632545,-0.0130047127604485,0.00466365367174149,-0.0307826213538647,-0.0149433575570583
567,0.00600848905742168,0.00220510386861861,-0.0167538095265627,0.00556857138872147,-0.0387699045240879,-0.0156564209610224
568,0.00124735583085567,0.000831082812510431,-0.0219214111566544,0.00221692770719528,-0.0438747629523277,-0.0195025019347668
569,-0.00578448316082358,-0.00318628223612905,-0.0277111399918795,-0.00511688785627484,-0.0462538748979568,-0.0267885345965624
570,-0.00961167365312576,-0.00536016328260303,-0.029791709035635,-0.0109418658539653,-0.0441078543663025,-0.0326619371771812
571,-0.00824103690683842,-0.00293478509411216,-0.0257241055369377,-0.0120810782536864,-0.0383254252374172,-0.03339459374547
572,-0.00455961050465703,0.0010055381571874,-0.018035214394331,-0.0102817872539163,-0.0314726009964943,-0.0297507010400295
573,-0.000892934389412403,0.0038793480489403,-0.0102899083867669,-0.00661967415362597,-0.0234325937926769,-0.0228333342820406
574,0.00152789638377726,0.00503057381138206,-0.00482244929298759,-0.00204482162371278,-0.0147180324420333,-0.0150751136243343
575,0.000370508729247376,0.00292658107355237,-0.00366502511315048,0.000260431988863274,-0.00914586149156094,-0.0110468519851565
576,-0.00312401773408055,-0.000265003443928435,-0.00491568678990006,0.000814176455605775,-0.00712851108983159,-0.0097045823931694
577,-0.00534798763692379,-0.000640195910818875,-0.00467486632987857,0.00231034960597754,-0.0063206572085619,-0.00626897206529975
578,-0.00720994872972369,-0.000302196625852957,-0.00354548706673086,0.00303283729590476,-0.00819594226777554,-0.000399865122744814
579,-0.0111469607800245,-0.00310227414593101,-0.00381980743259192,0.000359058525646105,-0.0144315687939525,0.00437123421579599
580,-0.015030468814075,-0.00698804995045066,-0.00441136350855231,-0.00380444130860269,-0.0215791929513216,0.00450281146913767
581,-0.0155179593712091,-0.00785347353667021,-0.00301368650980294,-0.00621104566380382,-0.0243088155984879,-0.000934875046368688
582,-0.0130055556073785,-0.00593494437634945,-0.00030912272632122,-0.00710801128298044,-0.0213334262371063,-0.00981159694492817
583,-0.00895696971565485,-0.00385997467674315,0.0012386596063152,-0.00774383032694459,-0.0160201862454414,-0.0180473104119301
584,-0.00429573049768806,-0.0034242095425725,0.000263507390627638,-0.00865508988499641,-0.0125169260427356,-0.0226881224662066
585,-0.000701391021721065,-0.00497089512646198,-0.00272602285258472,-0.010675678960979,-0.0122597683221102,-0.0250105075538158
586,0.00119489582721144,-0.00734253413975239,-0.00601145764812827,-0.0132530014961958,-0.0140733849257231,-0.0277294591069222
587,0.00237476453185081,-0.00895161181688309,-0.00829387176781893,-0.0145151279866695,-0.0161537304520607,-0.0308601707220078
588,0.0032977657392621,-0.0093894749879837,-0.0096871592104435,-0.0141837019473314,-0.0176166947931051,-0.0327444784343243
589,0.00300663197413087,-0.0103644691407681,-0.0115727782249451,-0.0143880462273955,-0.0193004254251719,-0.0332580804824829
590,0.000412315916037187,-0.0135312303900719,-0.0146789290010929,-0.0168897248804569,-0.0220604594796896,-0.0340648852288723
591,-0.00346479238942266,-0.01716123893857,-0.0172655787318945,-0.0201893243938684,-0.0241790004074574,-0.0347978509962559
592,-0.00632692500948906,-0.0183590352535248,-0.0174769032746553,-0.0210375115275383,-0.0235369857400656,-0.0326509103178978
593,-0.00793918315321207,-0.0174759272485971,-0.0160740111023188,-0.0186061821877956,-0.0206104815006256,-0.026650020852685
594,-0.0098678981885314,-0.0166296642273664,-0.0148262092843652,-0.0148608116433024,-0.0171655043959618,-0.0187316052615643
595,-0.0130007294937968,-0.0169016309082508,-0.0147832222282887,-0.012277863919735,-0.0152456862851977,-0.0129040600731969
596,-0.0165225323289633,-0.0178632251918316,-0.015342921949923,-0.0117062041535974,-0.015172841027379,-0.0116162681952119
597,-0.0186026711016893,-0.0173682980239391,-0.0146699277684093,-0.0115559287369251,-0.0146485297009349,-0.0124481981620193
598,-0.0192175339907408,-0.0146694406867027,-0.0128964371979237,-0.0110745579004288,-0.013437588699162,-0.0138164758682251
599,-0.0207779742777348,-0.0128472037613392,-0.0126523254439235,-0.0121040847152472,-0.0150178344920278,-0.0177152510732412
600,-0.0237864963710308,-0.0137285925447941,-0.0147934788838029,-0.0142711801454425,-0.0209014173597097,-0.0230592731386423
601,-0.0257071387022734,-0.0155445039272308,-0.0172126796096563,-0.0141341425478458,-0.0282800290733576,-0.0259074606001377
602,-0.0243936665356159,-0.0166832804679871,-0.0180627722293139,-0.010274370200932,-0.0337208770215511,-0.0245707146823406
603,-0.0196865629404783,-0.0168425440788269,-0.017078060656786,-0.00416270969435573,-0.0349343121051788,-0.018794534727931
604,-0.0134882992133498,-0.0168637651950121,-0.0156536232680082,0.001969053177163,-0.0318196006119251,-0.00895294453948736
605,-0.00885180570185184,-0.0179305151104927,-0.0154788186773658,0.00581100676208735,-0.0273901596665382,0.00309614976868033
606,-0.00890711229294539,-0.02128547988832,-0.0177731700241566,0.00409878697246313,-0.0261339098215103,0.0114311156794429
607,-0.0150325056165457,-0.0280961319804192,-0.0234477035701275,-0.00501622818410397,-0.0301425717771053,0.00782142579555511
608,-0.0235242452472448,-0.0355615615844727,-0.0300842002034187,-0.0171456821262836,-0.0353656224906445,-0.00695984810590744
609,-0.0271577816456556,-0.0378862172365189,-0.0326207503676414,-0.0246493574231863,-0.0354388244450092,-0.0217398628592491
610,-0.0217835456132889,-0.0342187955975533,-0.0292597655206919,-0.0248610209673643,-0.0288950372487307,-0.0276950690895319
611,-0.00928536430001259,-0.0283915512263775,-0.0216020066291094,-0.0202379170805216,-0.0180149879306555,-0.02468416467309
612,0.00418228516355157,-0.0228111501783133,-0.0116627663373947,-0.0133400298655033,-0.00572355277836323,-0.0169953238219023
613,0.0127161853015423,-0.0185004882514477,-0.00285041821189225,-0.00630931882187724,0.00394358253106475,-0.00952045153826475
614,0.0162079222500324,-0.0154486894607544,0.00171050324570388,-0.00106666167266667,0.00901204440742731,-0.0061905556358397
615,0.0186612214893103,-0.0113448332995176,0.00276716891676188,0.00243649538606405,0.0118655115365982,-0.00688020000234246
616,0.0199206583201885,-0.00602830247953534,0.00199789763428271,0.00440303375944495,0.013505706563592,-0.00973535794764757
617,0.0160367134958506,-0.00357818068005145,-0.000853684497997165,0.00314857275225222,0.0114114517346025,-0.0147385895252228
618,0.00724623445421457,-0.00588038470596075,-0.00510830711573362,-0.0013954535825178,0.00533120194450021,-0.0207340214401484
619,-0.00251306779682636,-0.0108257504180074,-0.00890813581645489,-0.00645387871190906,-0.00247084931470454,-0.0249971076846123
620,-0.0108595797792077,-0.0164442397654057,-0.0120209343731403,-0.00988232344388962,-0.0109760444611311,-0.0252173785120249
621,-0.0161903202533722,-0.0209637954831123,-0.0150447394698858,-0.0112335113808513,-0.0195308532565832,-0.0210746489465237
622,-0.0175794381648302,-0.0231730509549379,-0.0178670007735491,-0.0113852452486753,-0.0272685419768095,-0.0163077879697084
623,-0.0162007603794336,-0.0237070377916098,-0.0193573143333197,-0.0110611002892256,-0.0330082438886166,-0.0137811051681638
624,-0.0128937503322959,-0.0226545594632626,-0.0170684587210417,-0.00852365419268608,-0.0339743494987488,-0.0104191899299622
625,-0.00769084552302957,-0.0196233112365007,-0.00990944821387529,-0.00227670115418732,-0.0284064915031195,-0.00390878599137068
626,-0.00116935430560261,-0.0151332812383771,-0.000361450249329209,0.00602311780676246,-0.0181769039481878,0.00277071329765022
627,0.0053961118683219,-0.00980493053793907,0.00724133383482695,0.0128215067088604,-0.00766641180962324,0.00643499149009585
628,0.0108820404857397,-0.00475718779489398,0.0103672696277499,0.015137167647481,-0.000690940069034696,0.0065218722447753
629,0.0156402345746756,-0.00153990625403821,0.0103649003431201,0.0135744698345661,0.00236104847863317,0.00440261838957667
630,0.0201246626675129,-0.000385753606678918,0.0096230311319232,0.0114489253610373,0.00347894988954067,0.00184118433389813
631,0.0237713716924191,-0.00029134497162886,0.0093905171379447,0.010800601914525,0.00582285551354289,-0.000544372072909027
632,0.0273711867630482,0.000774616957642138,0.011596099473536,0.0123994341120124,0.01333615090698,-0.00138409994542599
633,0.0319018103182316,0.00422549108043313,0.0165246240794659,0.0157087799161673,0.0250080171972513,0.000914475240278989
634,0.0358225628733635,0.00781164038926363,0.0206384174525738,0.0178263764828444,0.0343317538499832,0.00508408155292273
635,0.0375245288014412,0.00824532099068165,0.0209519471973181,0.0163644347339869,0.0369641967117786,0.0089486064389348
636,0.0379623696208,0.00571160623803735,0.0177191440016031,0.0125825423747301,0.0330666080117226,0.0123988371342421
637,0.0399821363389492,0.00285352114588022,0.0132544199004769,0.00972971506416798,0.02542794495821,0.0155059089884162
638,0.044789046049118,0.000992243294604123,0.00948285963386297,0.00864044763147831,0.0173888429999352,0.0167711451649666
639,0.0505185052752495,-2.1727917555836E-05,0.00661019328981638,0.00814333651214838,0.0108057642355561,0.0156554598361254
640,0.054355576634407,-0.000861127453390509,0.00349737075157464,0.00705080013722181,0.00501721724867821,0.0132234869524837
641,0.0552411451935768,-0.00183742691297084,-4.90727943542879E-05,0.00490712421014905,-0.00033886669552885,0.0116368234157562
642,0.0550610609352589,-0.00123190134763718,-0.00192745204549283,0.00330956233665347,-0.00270908907987177,0.0122578917071223
643,0.0544990785419941,0.000968282751273364,-0.00213449564762414,0.00231592706404626,-0.0018127195071429,0.0113988788798451
644,0.0518477410078049,0.00127757468726486,-0.00307462294586003,-0.000404385704314336,-0.00107496627606452,0.00464886007830501
645,0.0479817502200603,-0.00137380114756525,-0.00431815953925252,-0.00435206992551684,-0.00108846090734005,-0.0065154037438333
646,0.0467938296496868,-0.00436364952474833,-0.00377284293062985,-0.00668611377477646,0.000883652712218463,-0.0173301361501217
647,0.0512739978730679,-0.00540695805102587,-0.00110467814374715,-0.00575078511610627,0.00579517800360918,-0.0237394142895937
648,0.0593246333301067,-0.00487058516591787,0.00232643540948629,-0.00216855551116169,0.0109791839495301,-0.0251923725008965
649,0.064727671444416,-0.00443047098815441,0.00438285991549492,0.00195529288612306,0.0133463591337204,-0.0243971236050129
650,0.0650984421372414,-0.00352477049455047,0.00435157911852002,0.00526462076231837,0.0131979659199715,-0.0220417361706495
651,0.0625349581241608,-0.00105059950146824,0.00329224904999137,0.00693248864263296,0.0125939715653658,-0.0173236653208733
652,0.0575598850846291,0.00109293218702078,0.00173827691469342,0.00634112302213907,0.0117685040459037,-0.0112417535856366
653,0.0501884929835796,0.00093163934070617,-8.87825517565943E-05,0.00510049983859062,0.0101263746619225,-0.00562278088182211
654,0.0422653779387474,-0.000548790849279612,-0.00128566392231733,0.0054299607872963,0.00842906255275011,-0.00289793591946363
655,0.0359508469700813,-0.00105913984589279,-0.000518024142365903,0.00730515969917178,0.00825421046465635,-0.00334027269855142
656,0.0307872258126736,-0.00148702668957412,0.00128796487115324,0.00787691399455071,0.00819558184593916,-0.00531280925497413
657,0.0247301869094372,-0.00489693414419889,0.00132612744346261,0.00471249176189303,0.00478285597637296,-0.00878427643328905
658,0.0196184888482094,-0.00930186454206705,0.000680844706948847,0.000664215884171426,-0.000392074318369851,-0.0122753214091063
659,0.0182016137987375,-0.0107249831780791,0.00181859149597585,-0.000558676372747868,-0.00292073679156601,-0.0139920003712177
660,0.0187900997698307,-0.0100880740210414,0.0035531863104552,0.000153745568240993,-0.00135902618058026,-0.0156678520143032
661,0.0186819415539503,-0.00994475279003382,0.00443512108176947,0.000690387445501983,0.00445389421656728,-0.0188316125422716
662,0.0177840273827314,-0.0102121625095606,0.00523031922057271,0.000902643951121718,0.0143841151148081,-0.0219535958021879
663,0.0172254201024771,-0.010003331117332,0.00660749897360802,0.00112147943582386,0.0256922990083694,-0.0230399370193481
664,0.0186609718948603,-0.0082579767331481,0.00956055242568254,0.00250101950950921,0.0351539552211761,-0.0193887557834387
665,0.0229297168552876,-0.00412339577451348,0.01486702170223,0.00656247045844793,0.0417785570025444,-0.00894647929817438
666,0.028089314699173,0.000871889002155513,0.0199752375483513,0.012013740837574,0.0442226603627205,0.00419885572046041
667,0.0324687995016575,0.0059149949811399,0.0227077584713697,0.0175453890115023,0.0419200100004673,0.0141748962923884
668,0.0357132479548454,0.0112020028755069,0.0231977142393589,0.0226993821561337,0.0367906801402569,0.0183278191834688
669,0.0364200174808502,0.0144256986677647,0.020776703953743,0.0249201711267233,0.0306299943476915,0.0155635187402368
670,0.0343720316886902,0.0141014261171222,0.0158853586763144,0.0235865339636803,0.0251947678625584,0.00935599207878113
671,0.0316223911941051,0.0119919758290052,0.0105632953345776,0.0218194629997015,0.0215424429625273,0.00712534273043275
672,0.0284497737884521,0.00867915246635675,0.00485523045063019,0.0200345627963543,0.0176561120897532,0.0109378127381206
673,0.0233954153954983,0.00274685956537724,-0.00206170231103897,0.0149474749341607,0.0109679065644741,0.0148803228512406
674,0.0181506406515837,-0.00405131885781884,-0.00770133500918746,0.00718789687380195,0.00289099127985537,0.0145269297063351
675,0.0178705397993326,-0.0064797424711287,-0.00828581675887108,0.00205397815443575,-0.00191428838297725,0.0119050955399871
676,0.0254765190184116,-0.00252216961234808,-0.00472433771938086,0.00175492407288402,-0.000991515931673348,0.00853965803980827
677,0.0376549400389194,0.0045393630862236,-0.000917706696782261,0.00388713763095438,0.00426675844937563,0.00304020917974412
678,0.0470936745405197,0.0107258195057511,0.00115086406003684,0.00571275874972343,0.010741762816906,-0.00446415087208152
679,0.048843041062355,0.0140134617686272,0.000892232055775821,0.00613981112837791,0.0146274790167809,-0.0125191630795598
680,0.0443987585604191,0.0148892840370536,-0.000756160006858408,0.00638410588726401,0.0144814122468233,-0.0193039085716009
681,0.0379003323614597,0.0149687835946679,-0.00138700276147574,0.00845985859632492,0.0120667926967144,-0.0223135128617287
682,0.030999792739749,0.0140063688158989,-0.000373249757103622,0.0117852194234729,0.00930697191506624,-0.0208480414003134
683,0.0233857072889805,0.0100705437362194,0.000611357332672924,0.0131363216787577,0.0072665186598897,-0.017683794721961
684,0.0163453761488199,0.00379804405383766,0.000724293815437704,0.0111853461712599,0.00579882599413395,-0.0150752412155271
685,0.0132218627259135,-0.000492194492835552,0.000716455571819097,0.00836230721324682,0.00323313102126122,-0.0109266927465796
686,0.0151106929406524,-0.000519093533512205,0.00107630016282201,0.00665592448785901,-0.0013379892334342,-0.00381206790916622
687,0.0204718131572008,0.00235762330703437,0.0026495021302253,0.00695864064618945,-0.00488286232575774,0.00426480500027537
688,0.0257990546524525,0.00474239373579621,0.00443488685414195,0.00875147711485624,-0.00510357599705458,0.00923531781882048
689,0.0276166312396526,0.00437891436740756,0.00439276546239853,0.00995772890746593,-0.00355484988540411,0.00829319097101688
690,0.0265118945389986,0.00282110483385623,0.00393167603760958,0.0103419767692685,-0.00122375029604882,0.00509691005572677
691,0.0241921711713076,0.000960270292125642,0.00464058760553598,0.00993348006159067,0.000911618117243052,0.00410591484978795
692,0.0216694381088018,-0.000777019769884646,0.00642174202948809,0.00857029482722282,0.00157958886120468,0.00513386400416493
693,0.0198899712413549,-0.00109829381108284,0.00862439628690481,0.00708885351195931,0.00115377199836075,0.00567853730171919
694,0.0183767434209585,-0.000764867174439132,0.00984510965645313,0.00585697032511234,0.000367690023267642,0.00363728636875749
695,0.0152657302096486,-0.00224957917816937,0.00800997577607632,0.00367420352995396,-0.00201416993513703,-0.00103331706486642
696,0.0102715715765953,-0.00653967121616006,0.00243088393472135,-0.000682345940731466,-0.00673048757016659,-0.0066486825235188
697,0.00727658206596971,-0.0104446476325393,-0.00311267399229109,-0.0045566507615149,-0.00978832133114338,-0.0103055210784078
698,0.00946798641234636,-0.0108074322342873,-0.00432633794844151,-0.00467449193820357,-0.00771970208734274,-0.0104228090494871
699,0.0156675912439823,-0.00831802748143673,-0.000822730187792331,-0.00149202242027968,-0.00214469712227583,-0.00728354509919882
700,0.0223456285893917,-0.00535119185224175,0.00473175849765539,0.00279303803108633,0.00313454098068178,-0.00253501604311168
701,0.0258130393922329,-0.00419957516714931,0.00885432027280331,0.00562937511131167,0.00549613265320659,0.000580304767936468
702,0.0264015085995197,-0.004632658790797,0.010662853717804,0.00642877118662,0.00656593684107065,0.00246841553598642
703,0.0268594548106194,-0.00542957615107298,0.0108393440023065,0.00596487615257502,0.00866470206528902,0.00647252006456256
704,0.0294250473380089,-0.00643581943586469,0.0100855967029929,0.00433559855446219,0.0115597490221262,0.0120799830183387
705,0.0358826778829098,-0.00646725483238697,0.00955007039010525,0.00237039872445166,0.0150778368115425,0.0150054898113012
706,0.0435414649546146,-0.00413281284272671,0.009106052108109,0.00104385253507644,0.0184235386550426,0.0119235245510936
707,0.0467487461864948,9.13935000426136E-05,0.00781438034027815,0.000671665125992149,0.020017821341753,0.00389208225533366
708,0.0437448844313622,0.00394048821181059,0.00543297408148646,0.00128806359134614,0.020127035677433,-0.00421932199969888
709,0.0375796630978584,0.00581449829041958,0.0027763620018959,0.00229094875976443,0.0201723277568817,-0.00783227570354939
710,0.030613262206316,0.00534869125112891,0.000553221441805363,0.00170329108368605,0.0185048226267099,-0.00757216662168503
711,0.0231777001172304,0.00266560446470976,-0.00155774177983403,-0.00162374449428171,0.0121566001325846,-0.00762111786752939
712,0.0176057685166597,4.27946288255043E-05,-0.00283255451358855,-0.00541333295404911,0.00346222217194736,-0.00908724218606949
713,0.0165414791554213,0.000566438480746001,-0.00149213732220232,-0.00648289592936635,-0.0020716548897326,-0.00974707491695881
714,0.0189503710716963,0.00415292335674167,0.00217695278115571,-0.00435274606570601,-0.00257000629790127,-0.00885739549994469
715,0.0218583252280951,0.00804163888096809,0.00574611406773329,-0.00149978545960039,0.000160306357429363,-0.00804490689188242
716,0.024026894941926,0.0106926215812564,0.00801906548440456,-0.000169474995345809,0.00501746730878949,-0.00789832696318626
717,0.0246145781129599,0.011333298869431,0.00846036057919264,-0.00155065627768636,0.0107673592865467,-0.0079739224165678
718,0.0208224132657051,0.00751338806003332,0.00464029889553785,-0.0071374592371285,0.0124120786786079,-0.00763224577531219
719,0.0111336568370461,-0.00218754005618393,-0.00456393696367741,-0.01673105917871,0.0062167034484446,-0.00582347344607115
720,-0.00219364766962826,-0.0158128999173641,-0.0164544302970171,-0.0282029174268246,-0.00502081774175167,-0.00500183086842299
721,-0.013750372454524,-0.0278766211122274,-0.0258544515818357,-0.0376415699720383,-0.0147350607439876,-0.00804965943098068
722,-0.0184211768209934,-0.0319471322000027,-0.0281223002821207,-0.0406160652637482,-0.0173551756888628,-0.0131190959364176
723,-0.0153799224644899,-0.026372168213129,-0.0226937625557184,-0.0366344749927521,-0.0120238661766052,-0.0171792041510344
724,-0.00794251170009375,-0.0159243866801262,-0.0137259038165212,-0.0296191703528166,-0.00372001156210899,-0.0189944934099913
725,-0.000206107695703395,-0.00666680699214339,-0.00655197352170944,-0.0239566881209612,0.00124609505292028,-0.0189590882509947
726,0.00557686807587743,-0.000655222043860704,-0.00331302685663104,-0.0209929887205362,0.00109546456951648,-0.0178885702043772
727,0.00796307530254126,0.00233101705089211,-0.00319308112375438,-0.0198587477207184,-0.00232876231893897,-0.0172020439058542
728,0.00684464210644364,0.00263217627070844,-0.00443637603893876,-0.0191119145601988,-0.00639555556699634,-0.0185759272426367
729,0.00402822252362967,0.00146957137621939,-0.00584564590826631,-0.0178831238299608,-0.00927274487912655,-0.021757522597909
730,0.00158636714331806,0.000375914067262784,-0.00694882590323687,-0.0168075151741505,-0.0107512548565865,-0.0248300824314356
731,0.00042465902515687,-0.00114267144817859,-0.00833797175437212,-0.0176040921360254,-0.0117887230589986,-0.0270802062004805
732,0.000979645061306655,-0.00458664400503039,-0.0105652064085007,-0.0210186205804348,-0.0120293805375695,-0.029618177562952
733,0.00310997921042144,-0.0092008700594306,-0.0119927180930972,-0.0255074743181467,-0.00970953702926636,-0.0331543870270252
734,0.00441380916163325,-0.0129202203825116,-0.0119906812906265,-0.0289640743285418,-0.00670533161610365,-0.0365161187946796
735,0.00309789716266096,-0.0140353534370661,-0.0120707172900438,-0.0297249462455511,-0.00648233760148287,-0.036502581089735
736,0.000322434556437656,-0.0116262417286634,-0.0119579117745161,-0.0267070606350899,-0.00767410965636373,-0.0302036143839359
737,-0.00214807991869748,-0.00622249441221356,-0.009776771068573,-0.020439688116312,-0.00663574272766709,-0.0196388121694326
738,-0.00440593669191003,-0.000121172008221038,-0.0057520130649209,-0.0133736943826079,-0.00395195838063955,-0.0102632716298103
739,-0.00710807368159294,0.00424472382292151,-0.0021332751493901,-0.00831680279225111,-0.00265588727779686,-0.00456465035676956
740,-0.00997394882142544,0.0053586084395647,-0.000760820985306054,-0.00691496999934316,-0.00317419250495732,-0.00282744574360549
741,-0.0126152141019702,0.00278446194715798,-0.00198189192451537,-0.00859858468174934,-0.00410047639161348,-0.00514123262837529
742,-0.0141061535105109,-0.00155153661035001,-0.00465343706309795,-0.0112757477909327,-0.00430605700239539,-0.00988845527172089
743,-0.0131301311776042,-0.00446070078760386,-0.00657319370657206,-0.0132336355745792,-0.00330007914453745,-0.0138729773461819
744,-0.00963960122317076,-0.00385571084916592,-0.00576127180829644,-0.0135483918711543,-0.0011645844206214,-0.014195891097188
745,-0.00562765868380666,-0.000118914089398459,-0.00265325885266066,-0.0124334692955017,0.00126509508118033,-0.011475938372314
746,-0.00358526036143303,0.00446242280304432,0.000333154923282564,-0.0105848256498575,0.00287061417475343,-0.00913059338927269
747,-0.0030404357239604,0.00864691287279129,0.00239882012829185,-0.00744353653863072,0.00460034888237715,-0.00848756637424231
748,-0.00278646289370954,0.0105027770623565,0.00305877160280943,-0.00345311127603054,0.00718363048508763,-0.00894065760076046
749,-0.00310264597646892,0.0075751319527626,0.00114968954585493,-0.000647503882646561,0.00967038702219725,-0.00890822801738977
750,-0.00327461608685553,0.00227590464055538,-0.0018482101149857,0.000396681774873286,0.0123511552810669,-0.00524360686540604
751,-0.00275642145425081,-0.00113785627763718,-0.00377466855570674,0.000273719051619992,0.0151298707351089,0.00373739725910127
752,-0.00207746005617082,-0.00127695011906326,-0.00436703162267804,-6.45813706796616E-05,0.0171424448490143,0.0149086713790894
753,-0.0013370196102187,0.00200777943246067,-0.00373282330110669,0.000410508160712197,0.0184385441243649,0.0215075872838497
754,0.000355917814886197,0.00858411844819784,-0.000856677419506013,0.00261122523806989,0.0198266301304102,0.0201810542494059
755,0.00286968634463847,0.0156748425215483,0.00408748490735888,0.00593422818928957,0.0215278826653957,0.0130411740392447
756,0.00447509996592999,0.018812645226717,0.00795929692685604,0.00775002455338836,0.0222822185605764,0.00359461270272732
757,0.00390283646993339,0.016399547457695,0.00740972068160772,0.00603345734998584,0.0197585243731737,-0.00501244887709618
758,0.00209095771424472,0.0111476257443428,0.0026448757853359,0.0017314899014309,0.0129492916166782,-0.0105516910552979
759,0.00315039721317589,0.00811258982867002,-0.00185435195453465,-0.00104775791987777,0.00560823502019048,-0.0107565652579069
760,0.0089082969352603,0.00883150938898325,-0.00345191918313503,8.71455704327673E-05,0.00217687850818038,-0.00538749853149056
761,0.0149928778409958,0.00985554046928883,-0.00439165811985731,0.00271517783403397,0.00220045214518905,0.000807865813840181
762,0.0179378483444452,0.0104158390313387,-0.00534762348979712,0.00499013066291809,0.00418540928512812,0.00426725065335631
763,0.0180938392877579,0.0129043888300657,-0.00435708882287145,0.00736277736723423,0.00786757096648216,0.0059621836990118
764,0.0148880891501904,0.0161799713969231,-0.00269545754417777,0.00806195475161076,0.0107657760381699,0.00577823258936405
765,0.00753764295950532,0.0167543478310108,-0.00436131516471505,0.00469772890210152,0.00967940874397755,0.00186716869939119
766,-0.00191818503662944,0.0134146325290203,-0.01088488381356,-0.00208587292581797,0.00430176360532641,-0.00566984619945288
767,-0.0094669284299016,0.00797762721776962,-0.0194975007325411,-0.00852262228727341,-0.00218745064921677,-0.0135232657194138
768,-0.0122127532958984,0.00368332955986261,-0.0257422961294651,-0.0100556137040257,-0.00499195279553533,-0.0163170956075192
769,-0.0107905520126224,0.00231584883295,-0.027633298188448,-0.00651647336781025,-0.00268411473371089,-0.0107420347630978
770,-0.00632069259881973,0.00461228610947728,-0.0248971860855818,-0.000649225024972111,0.0030471293721348,0.00108973600436002
771,0.000571281358134001,0.0100665716454387,-0.018220067024231,0.00581809459254146,0.0103823849931359,0.013106263242662
772,0.00610888144001365,0.0141966277733445,-0.0120745832100511,0.00948730669915676,0.0157157946377993,0.0190497543662786
773,0.00743240630254149,0.0141318626701832,-0.01004852168262,0.00805471185594797,0.0168169382959604,0.017536997795105
774,0.00536454794928432,0.0117114568129182,-0.0114157218486071,0.00370182748883963,0.0145922396332026,0.0115178292617202
775,0.000348654051776975,0.00751248607411981,-0.0155980614945292,-0.00157575344201177,0.00926769711077213,0.00265692989341915
776,-0.00625569233670831,0.00171669700648636,-0.0216856952756643,-0.00638396805152297,0.00266507500782609,-0.00748277548700571
777,-0.0108105819672346,-0.00317246769554913,-0.0265313778072596,-0.00864991452544928,-0.000479093025205657,-0.0159093588590622
778,-0.0112849604338408,-0.00541755696758628,-0.0283601861447096,-0.0083981417119503,0.0013158789370209,-0.0201681889593601
779,-0.00895158853381872,-0.00552471913397312,-0.0286178588867188,-0.00729886395856738,0.00412002019584179,-0.0191054921597242
780,-0.0067021306604147,-0.00525918230414391,-0.0295355878770351,-0.00655056955292821,0.00376320234499872,-0.0123934177681804
781,-0.00520650111138821,-0.00484233116731048,-0.0305981710553169,-0.00540044624358416,0.00118411716539413,-0.000561498280148953
782,-0.00234808563254774,-0.00254133436828852,-0.0289021022617817,-0.00189881515689194,0.000897481921128929,0.0113837858662009
783,0.00246597966179252,0.00102337531279773,-0.0250082295387983,0.00283434288576245,0.00390999298542738,0.0159371979534626
784,0.00807346310466528,0.00374023616313934,-0.0223938915878534,0.00577572267502546,0.00745288329198956,0.0119033139199018
785,0.011932740919292,0.00480230059474707,-0.0222018007189035,0.00567731121554971,0.00935286097228527,0.00326956389471889
786,0.0119269583374262,0.00449777999892831,-0.0229907017201185,0.00324233714491129,0.00956119876354933,-0.0064861373975873
787,0.00978390127420425,0.00350751006044447,-0.0237393882125616,0.000246260402491316,0.00865942984819412,-0.0151011776179075
788,0.00769546069204807,0.00156513322144747,-0.025239510461688,-0.00147664919495583,0.0062169898301363,-0.0216636471450329
789,0.00622828211635351,-0.000228574630455114,-0.0268008708953857,-0.000129871754324995,0.00315458024851978,-0.0243112705647945
790,0.0048404335975647,-0.000114102673251182,-0.0270262882113457,0.0036721236538142,0.000674855895340443,-0.0221207514405251
791,0.00247170054353774,0.00116580945905298,-0.0260605998337269,0.00747561175376177,-0.0017254693666473,-0.0178674794733524
792,-0.000182939955266193,0.00303162098862231,-0.0236614774912596,0.0102007267996669,-0.00357120623812079,-0.0146520519629121
793,-0.00223774439655244,0.00556526053696871,-0.0204558111727238,0.0107263131067157,-0.00401098513975739,-0.0143056316301227
794,-0.00450364034622908,0.00749730179086328,-0.0182236023247242,0.00821657944470644,-0.00351514224894345,-0.0154649168252945
795,-0.00834411755204201,0.00676814280450344,-0.0181030966341496,0.0030970573425293,-0.00346721685491502,-0.0140783339738846
796,-0.0123134860768914,0.00397590082138777,-0.0190572142601013,-0.00216851173900068,-0.00342567428015172,-0.00779163697734475
797,-0.0114855589345098,0.00372902117669582,-0.0175746865570545,-0.00281926593743265,0.000665560248307884,0.00344564113765955
798,-0.00590926688164473,0.00735173374414444,-0.0138958590105176,0.00120154523756355,0.00910172052681446,0.0149823650717735
799,-0.0013906117528677,0.0118800289928913,-0.0114864725619555,0.0053904140368104,0.0170604195445776,0.0199745111167431
800,-0.000312132964609191,0.015861514955759,-0.00997873395681381,0.00827144738286734,0.0228736978024244,0.0171522032469511
801,-0.0015462803421542,0.0169044360518456,-0.00921860989183187,0.00913114007562399,0.0255236346274614,0.00786110665649176
802,-0.00489966850727797,0.0115250442177057,-0.0130073260515928,0.0054145404137671,0.0208723992109299,-0.00733096338808537
803,-0.0112566566094756,-9.83532590907998E-05,-0.0234531182795763,-0.00349840917624533,0.0082672955468297,-0.0249207504093647
804,-0.0185150094330311,-0.0114462543278933,-0.035458367317915,-0.0124854054301977,-0.00544668361544609,-0.0359870865941048
805,-0.0207680333405733,-0.0133020402863622,-0.0400891378521919,-0.0135500282049179,-0.012024262920022,-0.0325852371752262
806,-0.0157411098480225,-0.00414967862889171,-0.0352467745542526,-0.00572458887472749,-0.0105958115309477,-0.0179698783904314
807,-0.0085650160908699,0.00785300135612488,-0.0280340444296598,0.00286997389048338,-0.00766863953322172,-0.00390264252200723
808,-0.00461327563971281,0.0154326418414712,-0.0242144707590342,0.00595679692924023,-0.00770398788154125,0.00254709087312222
809,-0.00361685175448656,0.0190884955227375,-0.0219483841210604,0.00574260298162699,-0.00801954977214336,0.00344468979164958
810,-0.003935472574085,0.0211973693221807,-0.0189711563289166,0.00517737399786711,-0.00599250895902514,0.00147099862806499
811,-0.00445024576038122,0.0218013916164637,-0.0164682008326054,0.00335593638010323,-0.00291977170854807,-0.00306577095761895
812,-0.00285179284401238,0.0216082222759724,-0.0152497924864292,0.000277769635431468,0.000108878186438233,-0.00699975341558456
813,0.000355831667548046,0.0212740767747164,-0.0155463330447674,-0.00262072938494384,0.00196706014685333,-0.00707141263410449
814,0.000239329296164215,0.0186932478100061,-0.0187147278338671,-0.00618073018267751,0.000131714856252074,-0.00552944513037801
815,-0.00592999625951052,0.0118441069498658,-0.0251537598669529,-0.0120437396690249,-0.00540694873780012,-0.00518146203830838
816,-0.0155342444777489,0.00228878320194781,-0.0325052440166473,-0.0188671555370092,-0.0112915616482496,-0.00525623094290495
817,-0.0236981362104416,-0.00618672464042902,-0.0374808758497238,-0.0236527677625418,-0.0136777050793171,-0.00538933975622058
818,-0.0263004191219807,-0.0100644920021296,-0.0379140675067902,-0.0241580661386251,-0.00999891385436058,-0.00706369010731578
819,-0.0230405479669571,-0.00838087778538466,-0.0343045480549335,-0.0200681798160076,-0.00179857295006514,-0.0105038778856397
820,-0.0169622804969549,-0.00382572924718261,-0.0293393675237894,-0.0142827201634645,0.00684793153777719,-0.0144767705351114
821,-0.012103384360671,-0.000836250488646328,-0.0256694033741951,-0.0109851155430079,0.0131440768018365,-0.018747616559267
822,-0.0107305403798819,-0.000746905338019133,-0.0238162409514189,-0.0110886367037892,0.016660301014781,-0.0226427726447582
823,-0.0124893737956882,-0.00144418887794018,-0.0233646482229233,-0.0131679372861981,0.0171227902173996,-0.0238746982067823
824,-0.017332723364234,-0.00204422976821661,-0.0254255197942257,-0.0167329739779234,0.0123163908720016,-0.0206511542201042
825,-0.0234948117285967,-0.00271434453316033,-0.0298638753592968,-0.020505778491497,0.00317069981247187,-0.0135214934125543
826,-0.0269058886915445,-0.00352054042741656,-0.0340160690248013,-0.0219035837799311,-0.00482888473197818,-0.00538380490615964
827,-0.0261452682316303,-0.00456648832187057,-0.0357476100325584,-0.0193335097283125,-0.00791774410754442,0.000888212292920798
828,-0.0226695518940687,-0.00469928840175271,-0.0346035920083523,-0.0137935960665345,-0.00653726980090141,0.0033072023652494
829,-0.018618393689394,-0.00352648296393454,-0.0324162393808365,-0.00904915388673544,-0.00383827090263367,0.000149948085891083
830,-0.0143525814637542,-0.00163730140775442,-0.0304581355303526,-0.00703011173754931,-0.00140410580206662,-0.00683678267523646
831,-0.00902540888637304,0.00164945225697011,-0.0273080971091986,-0.00574241392314434,0.00235483492724597,-0.0115710096433759
832,-0.004758111666888,0.00567189930006862,-0.0233746897429228,-0.00420063175261021,0.00706756301224232,-0.0100082717835903
833,-0.00344917015172541,0.0085864532738924,-0.0205254666507244,-0.00270645227283239,0.0104346508160234,-0.00336074479855597
834,-0.00246305041946471,0.0115080215036869,-0.0176707170903683,0.000536636158358306,0.0133270053192973,0.00568325351923704
835,-0.000183926997124217,0.0154187958687544,-0.0137266023084521,0.00564041407778859,0.0171133540570736,0.0146368592977524
836,0.00087946723215282,0.017853107303381,-0.0108643677085638,0.00857067480683327,0.0193954259157181,0.0206818152219057
837,-0.000225181924179196,0.0177672058343887,-0.0102677559480071,0.00794716645032167,0.0184970013797283,0.0231317635625601
838,-0.000631261733360589,0.0169217698276043,-0.0100632226094604,0.00680184783414006,0.0167497582733631,0.0231536943465471
839,0.00180408009327948,0.0155781200155616,-0.00949612725526094,0.00603794865310192,0.016272809356451,0.0205249283462763
840,0.00489283073693514,0.0125365229323506,-0.0103017846122384,0.00335941254161298,0.0166514832526445,0.0150553174316883
841,0.00605722749605775,0.00909386016428471,-0.0120392506942153,-0.00109226105269045,0.0179639961570501,0.00891771353781223
842,0.00589229259639978,0.00770794460549951,-0.0120397070422769,-0.00397249963134527,0.0198351219296455,0.00418141996487975
843,0.00545917684212327,0.00861590076237917,-0.0101399142295122,-0.00321614742279053,0.0198397021740675,0.00151986617129296
844,0.00492765195667744,0.0108617981895804,-0.00814190693199635,-0.000137611335958354,0.017030356451869,0.000849127944093198
845,0.00450249575078487,0.0129016973078251,-0.00677030999213457,0.0029379790648818,0.0127558689564466,0.00113408407196403
846,0.00399883463978767,0.012784905731678,-0.00619341898709536,0.00556438649073243,0.00856495555490255,0.00112648797221482
847,0.00249715545214713,0.0098507571965456,-0.00696918740868568,0.00713335862383246,0.00535454088822007,9.46013533393852E-05
848,-0.000876779900863767,0.00467093056067824,-0.0097214225679636,0.00505786202847958,0.0031642229296267,-0.00230140774510801
849,-0.00486374832689762,-0.000985866645351052,-0.0142155503854156,-0.000691399676725268,0.00201069028116763,-0.00492360722273588
850,-0.00457378150895238,-0.00301339104771614,-0.0169558562338352,-0.00455809710547328,0.00312034948728979,-0.00408787932246923
851,0.00174692773725837,0.000206997559871525,-0.0153728174045682,-0.00330600771121681,0.00586958695203066,0.000938585144467652
852,0.00841354578733444,0.00499132135882974,-0.0118108782917261,-8.45991526148282E-05,0.00678989104926586,0.00642134482041001
853,0.0112401535734534,0.00913638900965452,-0.00742433033883572,0.00364319398067892,0.00552829774096608,0.0129765896126628
854,0.0126805761829019,0.0147899463772774,6.64924082229845E-05,0.0101856430992484,0.00600718660280108,0.0243071615695953
855,0.0163596589118242,0.0234397053718567,0.0110971862450242,0.0198878068476915,0.0110409995540977,0.0375402830541134
856,0.0226538889110088,0.0328859947621822,0.0225570164620876,0.0298315305262804,0.0198590848594904,0.0464129075407982
857,0.0283732879906893,0.0387364886701107,0.0299805831164122,0.0363469645380974,0.0284019559621811,0.0497133322060108
858,0.0306540802121162,0.0395808778703213,0.0319586433470249,0.0385245978832245,0.0329970568418503,0.0513323359191418
859,0.0300697274506092,0.0376650467514992,0.030907129868865,0.0378091968595982,0.0336183719336987,0.0521938614547253
860,0.028326066210866,0.0341947190463543,0.0290299579501152,0.034927736967802,0.0325696021318436,0.0478940233588219
861,0.026828471571207,0.0305171459913254,0.0282580349594355,0.0320761874318123,0.033511109650135,0.0385112054646015
862,0.0250337719917297,0.027338957414031,0.028175488114357,0.0308839567005634,0.0366619266569614,0.028897937387228
863,0.0217114705592394,0.0235042460262775,0.026199109852314,0.0300114117562771,0.0377147272229195,0.0215490385890007
864,0.0188949555158615,0.0198745559900999,0.0232289861887693,0.0287223402410746,0.0353140160441399,0.0166495032608509
865,0.0183293800801039,0.0172539632767439,0.0206508133560419,0.0258484706282616,0.0305977035313845,0.0127736972644925
866,0.0194253697991371,0.0149248298257589,0.0177561081945896,0.0207441784441471,0.0241862833499908,0.00893396604806185
867,0.0223707482218742,0.0143355475738645,0.015721732750535,0.0167464483529329,0.0187847800552845,0.00760882394388318
868,0.0269464757293463,0.0172517634928226,0.0159309692680836,0.0170941296964884,0.0170968640595675,0.0115703484043479
869,0.0311674252152443,0.0220213420689106,0.0166697185486555,0.0204575788229704,0.0183324534446001,0.0197999477386475
870,0.0333330929279327,0.0259289164096117,0.0155017385259271,0.0230369083583355,0.0201854463666677,0.0290618315339088
871,0.0323481336236,0.0278834085911512,0.011605329811573,0.0222454201430082,0.0212008450180292,0.0355940163135529
872,0.0265567768365145,0.0271644797176123,0.00489164004102349,0.0183595959097147,0.0201181620359421,0.035806804895401
873,0.0176193956285715,0.024625014513731,-0.00205392274074256,0.0151197835803032,0.0170297902077436,0.0306023340672255
874,0.0107294376939535,0.0225784108042717,-0.00498729525133967,0.0153081249445677,0.0141556607559323,0.0242165513336658
875,0.00772544043138623,0.020841833204031,-0.00445143738761544,0.0163213238120079,0.0125531433150172,0.01803276874125
876,0.00700017670169473,0.0186442770063877,-0.00349242705851793,0.01504529081285,0.0117713147774339,0.0123997423797846
877,0.00655842712149024,0.0169414803385735,-0.00209749862551689,0.0125506157055497,0.0117792161181569,0.00861408375203609
878,0.00517081143334508,0.0167749896645546,0.00119104154873639,0.0119990976527333,0.0133805153891444,0.00709683448076248
879,0.00313064409419894,0.0188106037676334,0.00623439345508814,0.0145278479903936,0.0162541437894106,0.00898892711848021
880,0.00104058627039194,0.0224667135626078,0.0111246509477496,0.0178771782666445,0.0172096211463213,0.0143892634660006
881,-0.00123675470240414,0.0258042309433222,0.0135737806558609,0.0192422103136778,0.0132180824875832,0.0191344060003757
882,-0.00476208794862032,0.0266945641487837,0.0116141121834517,0.0173857863992453,0.00395804224535823,0.0190386176109314
883,-0.00950999371707439,0.023204879835248,0.00461655342951417,0.0126099502667785,-0.00901999790221453,0.0152620989829302
884,-0.0114382924512029,0.0163309350609779,-0.00420622015371919,0.00799016002565622,-0.0214453488588333,0.0149939320981503
885,-0.00730764819309115,0.0106142666190863,-0.00975400768220425,0.00740455463528633,-0.0278733316808939,0.0230647660791874
886,-0.00209226575680077,0.00718058459460735,-0.0121856816112995,0.0089506609365344,-0.0286371577531099,0.0315193720161915
887,-0.00270696403458714,0.00266544241458178,-0.0156785659492016,0.00680332025513053,-0.028275215998292,0.0283307917416096
888,-0.00829490832984447,-0.00314047979190946,-0.0206623263657093,-6.63927494315431E-05,-0.0277904197573662,0.0134981209412217
889,-0.0125619089230895,-0.00582081964239478,-0.0230146609246731,-0.00629634922370315,-0.0248985327780247,-0.00151115050539374
890,-0.0122221037745476,-0.0027588929515332,-0.019911615177989,-0.00675108563154936,-0.0191093385219574,-0.0066340253688395
891,-0.00956848077476025,0.00398275861516595,-0.0129891764372587,-0.00173575757071376,-0.0124395154416561,-0.00250160787254572
892,-0.00782034080475569,0.0103083420544863,-0.00643279170617461,0.00425165286287665,-0.0065661808475852,0.0026001175865531
893,-0.00847523007541895,0.012971468269825,-0.00406822795048356,0.00653920276090503,-0.00226833904162049,0.00237296498380601
894,-0.010769946500659,0.0124375289306045,-0.00528666796162724,0.00496854912489653,0.000916645280085504,-0.00208524311892688
895,-0.0126726981252432,0.0109640704467893,-0.00675503956153989,0.00270111253485084,0.00337602896615863,-0.00658418796956539
896,-0.0133230043575168,0.00927336420863867,-0.00759866833686829,0.000729077961295843,0.00425119744613767,-0.00938798673450947
897,-0.0133178858086467,0.00769622204825282,-0.00852694548666477,-0.00215781177394092,0.00306187476962805,-0.0104785524308681
898,-0.0137382335960865,0.00698064174503088,-0.00911739096045494,-0.00553548708558083,0.000155256042489782,-0.00947056524455547
899,-0.0155474590137601,0.00704368855804205,-0.00872884877026081,-0.00754119921475649,-0.00420677475631237,-0.00654394179582596
900,-0.01980403624475,0.00640887161716819,-0.00866914354264736,-0.00835105124861002,-0.011089806444943,-0.00317553291097283
901,-0.0250426530838013,0.00510987406596541,-0.00938219670206308,-0.00844842009246349,-0.019426055252552,0.00193547434173524
902,-0.0279150810092688,0.00463384576141834,-0.0097337868064642,-0.00777763919904828,-0.0252115745097399,0.0115011483430862
903,-0.0279459413141012,0.00563599495217204,-0.00984704215079546,-0.00697656674310565,-0.026599632576108,0.0234440490603447
904,-0.0271383039653301,0.0077535193413496,-0.0100390408188105,-0.00635571032762527,-0.024542473256588,0.0309203397482634
905,-0.0272865053266287,0.0095098102465272,-0.009667600505054,-0.00629111705347896,-0.0210250802338123,0.0286218207329512
906,-0.0287692826241255,0.0101495506241918,-0.00830791518092155,-0.00678053591400385,-0.0179529171437025,0.0190787445753813
907,-0.0317100062966347,0.00927620567381382,-0.00735406437888741,-0.00776991946622729,-0.016842832788825,0.00793312676250935
908,-0.0357354618608952,0.00648144446313381,-0.00822749268263578,-0.00953013263642788,-0.017547644674778,-0.00231757271103561
909,-0.0383435040712357,0.0025942069478333,-0.00999450590461493,-0.0116380117833614,-0.0177017990499735,-0.0107969706878066
910,-0.0362779013812542,-0.000983727280981839,-0.0101681547239423,-0.0123262526467443,-0.0152199883013964,-0.0159664545208216
911,-0.0299657788127661,-0.00423310603946447,-0.00811893027275801,-0.0111438417807221,-0.0109120523557067,-0.017786568030715
912,-0.0245682653039694,-0.00959831103682518,-0.00751738902181387,-0.0122361863031983,-0.00912812817841768,-0.0206319205462933
913,-0.0228235106915236,-0.0172371976077557,-0.0110106058418751,-0.0179739780724049,-0.0122213531285524,-0.0264267586171627
914,-0.0227987300604582,-0.0225072186440229,-0.0161749217659235,-0.023912550881505,-0.016471765935421,-0.0302130971103907
915,-0.0238847266882658,-0.0229929406195879,-0.0207260493189096,-0.0267203729599714,-0.0190586615353823,-0.0287354476749897
916,-0.0255512595176697,-0.0202953889966011,-0.0233958810567856,-0.0269214734435081,-0.020277613773942,-0.0220852680504322
917,-0.0250806715339422,-0.0155062275007367,-0.0220656171441078,-0.0245062001049519,-0.018816027790308,-0.0101580042392015
918,-0.023341154679656,-0.0106533635407686,-0.0183227732777596,-0.0216028392314911,-0.0153519026935101,0.00145925884135067
919,-0.0244712140411139,-0.00847712531685829,-0.0165991187095642,-0.0221416037529707,-0.0137817319482565,0.00328107457607985
920,-0.0289715565741062,-0.0086786700412631,-0.0178201738744974,-0.0259100664407015,-0.01476333104074,-0.00605707708746195
921,-0.0338463969528675,-0.00939697585999966,-0.0197438150644302,-0.0296031441539526,-0.0159729979932308,-0.0188862923532724
922,-0.0369119122624397,-0.0103110680356622,-0.0210432112216949,-0.0318797528743744,-0.0161995403468609,-0.0284876432269812
923,-0.0392475388944149,-0.0140450578182936,-0.023530213162303,-0.0350075885653496,-0.017102712765336,-0.0356135182082653
924,-0.0432656556367874,-0.0226608943194151,-0.0292214397341013,-0.0408585406839848,-0.0215531755238771,-0.0430028885602951
925,-0.0466653779149055,-0.030734658241272,-0.0342309586703777,-0.045180507004261,-0.0268235467374325,-0.046922393143177
926,-0.0439165197312832,-0.0299034714698792,-0.0320545099675655,-0.0416909009218216,-0.0259842649102211,-0.042412206530571
927,-0.0352956876158714,-0.021015826612711,-0.0238148793578148,-0.0318830534815788,-0.0185722447931767,-0.0333742164075375
928,-0.027855172753334,-0.0124872950837016,-0.0176179092377424,-0.0237923432141542,-0.0112417591735721,-0.0274980701506138
929,-0.0261002033948898,-0.00893390644341707,-0.0169159043580294,-0.0215353965759277,-0.00811135116964579,-0.0242935102432966
930,-0.0276654846966267,-0.00876338593661785,-0.0180329084396362,-0.0223101302981377,-0.00729895895346999,-0.0185182504355907
931,-0.0288290530443192,-0.00925701390951872,-0.0185653083026409,-0.0225642397999763,-0.00610770890489221,-0.0106058260425925
932,-0.0290705356746912,-0.0098943030461669,-0.0198370069265366,-0.0222309324890375,-0.00452773831784725,-0.00464138388633728
933,-0.0291630364954472,-0.011270958930254,-0.0223763901740313,-0.0230443440377712,-0.00281007052399218,-0.00247678998857737
934,-0.0292929485440254,-0.0135004492476583,-0.0247765872627497,-0.0263645090162754,-0.00155593850649893,-0.00458779977634549
935,-0.029662411659956,-0.0167555548250675,-0.0264383517205715,-0.0327837876975536,-0.00388553855009377,-0.0115333367139101
936,-0.0297535378485918,-0.0211064666509628,-0.0282101482152939,-0.0412763953208923,-0.0114811705425382,-0.0226907320320606
937,-0.0289068166166544,-0.0253032483160496,-0.0308458730578423,-0.0492207668721676,-0.0221414174884558,-0.0342508070170879
938,-0.0277190115302801,-0.0269655529409647,-0.0337030589580536,-0.0543572120368481,-0.031991146504879,-0.0408839359879494
939,-0.0270015224814415,-0.0261630043387413,-0.0360015220940113,-0.05691909044981,-0.0383126586675644,-0.0421636030077934
940,-0.0258959736675024,-0.0254567060619593,-0.0374217219650745,-0.0578654408454895,-0.0408426374197006,-0.0421961545944214
941,-0.022220166400075,-0.0239182449877262,-0.0357486456632614,-0.0557340309023857,-0.0396779924631119,-0.0422537140548229
942,-0.0166782587766647,-0.0189195703715086,-0.0297998208552599,-0.0496813729405403,-0.0360387340188026,-0.0416274257004261
943,-0.0129141109064221,-0.0119235245510936,-0.0226648189127445,-0.042461171746254,-0.0326585806906223,-0.0414189398288727
944,-0.0132861658930779,-0.00734787387773395,-0.0189497750252485,-0.0388264581561089,-0.0315040275454521,-0.0429704934358597
945,-0.0176885556429625,-0.00834750011563301,-0.021008437499404,-0.0416778065264225,-0.0326734557747841,-0.0455358028411865
946,-0.0226202271878719,-0.0124360658228397,-0.0255006421357393,-0.0469185933470726,-0.0324316658079624,-0.0454151928424835
947,-0.0246979556977749,-0.0154054062440991,-0.027569055557251,-0.0484503842890263,-0.0277551170438528,-0.0413415357470512
948,-0.0254869218915701,-0.0177507232874632,-0.0271117370575666,-0.0466199554502964,-0.0215745680034161,-0.0371261574327946
949,-0.0276864822953939,-0.0212155729532242,-0.0261030960828066,-0.0446057096123695,-0.0180503781884909,-0.0353614427149296
950,-0.0308976713567972,-0.0243535581976175,-0.0244499500840902,-0.0420468859374523,-0.0178571417927742,-0.0329249687492847
951,-0.0328295603394508,-0.0234006475657225,-0.0201831888407469,-0.0354565344750881,-0.0184070076793432,-0.0243201721459627
952,-0.0333020575344563,-0.0179575812071562,-0.0142488172277808,-0.0254723057150841,-0.0188018456101418,-0.0113838147372007
953,-0.0340752154588699,-0.0119659611955285,-0.0102183800190687,-0.0181084759533405,-0.0211889445781708,-0.00170414103195071
954,-0.0337654165923595,-0.00667654164135456,-0.00777337793260813,-0.0156472865492105,-0.0243683625012636,0.00169312185607851
955,-0.0313741080462933,-0.00252642948180437,-0.00626704236492515,-0.0171343348920345,-0.0260913390666246,-0.0021355461794883
956,-0.0300748702138662,-0.00265743746422231,-0.00788998045027256,-0.0227320399135351,-0.0277609936892986,-0.0131771899759769
957,-0.0303080398589373,-0.00591702992096543,-0.0104356305673718,-0.0287779457867146,-0.0285844095051289,-0.0239941887557507
958,-0.0301301367580891,-0.00869390461593866,-0.0103519065305591,-0.0310483444482088,-0.0262514762580395,-0.0278890579938889
959,-0.0297061689198017,-0.0107428887858987,-0.00900537427514791,-0.0303236860781908,-0.0221058521419764,-0.0265227146446705
960,-0.0279333014041185,-0.0107716368511319,-0.00729383109137416,-0.0268668103963137,-0.0173066332936287,-0.0224102567881346
961,-0.023855097591877,-0.00796273723244667,-0.00520631670951843,-0.0210436973720789,-0.0122932624071836,-0.0183503087610006
962,-0.0198862235993147,-0.00520343659445643,-0.00413646129891276,-0.0158514771610498,-0.00871305353939533,-0.0173356086015701
963,-0.0190208125859499,-0.004649359267205,-0.00376144819892943,-0.0129667557775974,-0.00736906100064516,-0.0181480180472136
964,-0.0225506536662579,-0.00662568118423224,-0.00363149517215788,-0.013198459520936,-0.00919430144131184,-0.018721790984273
965,-0.030237752944231,-0.0120316436514258,-0.00671504717320204,-0.0180512871593237,-0.0162111166864634,-0.0190972313284874
966,-0.0397283881902695,-0.0200372785329819,-0.0143916886299849,-0.025870006531477,-0.0269118174910545,-0.019651846960187
967,-0.0467726811766624,-0.0259921178221703,-0.0218082293868065,-0.0310403555631638,-0.0351029671728611,-0.0192623194307089
968,-0.0490050539374352,-0.026797778904438,-0.0231578648090363,-0.0303243007510901,-0.0362605862319469,-0.0169595684856176
