,AF3,AF4,Fp1,Fp2,AF7,AF8
0,-0.0217418801039457,0.0499749183654785,0.0566697381436825,0.0630187094211578,0.0878248363733292,0.132339850068092
1,-0.0169918090105057,0.0496646836400032,0.0625741332769394,0.0670726969838142,0.09327382594347,0.138393387198448
2,-0.0136610949411988,0.0503881014883518,0.0690229684114456,0.0715321600437164,0.0979953408241272,0.147546082735062
3,-0.0137683693319559,0.0492779463529587,0.073665127158165,0.0735307857394218,0.102044641971588,0.15712870657444
4,-0.0156491342931986,0.0454109646379948,0.0749743804335594,0.0736274868249893,0.104010060429573,0.16269263625145
5,-0.0148125234991312,0.0404393821954727,0.0724683180451393,0.0735442191362381,0.102868989109993,0.160566821694374
6,-0.0116643738001585,0.034773726016283,0.0654206573963165,0.0718473717570305,0.0967916920781136,0.150210842490196
7,-0.0101901730522513,0.0298360232263803,0.0560220815241337,0.0681375488638878,0.0859613046050072,0.13583479821682
8,-0.0127529157325625,0.0273388493806124,0.0477371960878372,0.0629218816757202,0.0732321068644524,0.121618695557117
9,-0.0201399084180593,0.0255793686956167,0.0403018705546856,0.0544136501848698,0.0601725243031979,0.10835549980402
10,-0.029976287856698,0.0235592760145664,0.0331443287432194,0.0429394245147705,0.0488689504563808,0.0970791727304459
11,-0.0374727584421635,0.0229393485933542,0.0284400936216116,0.0334106497466564,0.0419474169611931,0.0895640179514885
12,-0.0396684296429157,0.0245405808091164,0.0285905841737986,0.030471183359623,0.0390986651182175,0.0867927521467209
13,-0.037672184407711,0.0273671187460423,0.0333170369267464,0.0339664183557034,0.0379184447228909,0.0884372144937515
14,-0.0349694229662418,0.029618127271533,0.0390916243195534,0.040002565830946,0.0371088460087776,0.0928786247968674
15,-0.0332484059035778,0.0302974786609411,0.0427126921713352,0.0450971461832523,0.0377134829759598,0.0988650470972061
16,-0.0322169773280621,0.0295734908431768,0.0439451932907104,0.0480960123240948,0.0404977388679981,0.105371445417404
17,-0.0314216576516628,0.0282652210444212,0.0443878881633282,0.0496844463050365,0.0448679327964783,0.10993504524231
18,-0.0313610173761845,0.0268107764422894,0.045173604041338,0.0503858737647533,0.0497474037110806,0.109090529382229
19,-0.0323323048651218,0.0248669050633907,0.0470482334494591,0.0505858957767487,0.0552700087428093,0.102570593357086
20,-0.0331962071359158,0.0226136818528175,0.0498634576797485,0.0511716678738594,0.0612858459353447,0.0946270823478699
21,-0.0339993983507156,0.0201747622340918,0.0500670075416565,0.0513936579227448,0.0627260282635689,0.088516503572464
22,-0.034697525203228,0.0179629325866699,0.045839250087738,0.0505833253264427,0.0560017190873623,0.0844205096364021
23,-0.0330192930996418,0.0183041114360094,0.0421060100197792,0.0509449914097786,0.04610251262784,0.0832950323820114
24,-0.029013829305768,0.0218396205455065,0.0430148132145405,0.0533903054893017,0.0388735719025135,0.0861512869596481
25,-0.0257492661476135,0.0257051084190607,0.0462026558816433,0.0563855431973934,0.0351073481142521,0.0922949388623238
26,-0.0239042341709137,0.0281317215412855,0.0480806045234203,0.0604299865663052,0.0351354479789734,0.100091233849525
27,-0.0229307990521193,0.0284493453800678,0.0471633747220039,0.0646189898252487,0.0397353284060955,0.104764185845852
28,-0.0252649802714586,0.0249943882226944,0.0425603725016117,0.0633049607276917,0.0460123009979725,0.10118556022644
29,-0.0325778760015965,0.0185379628092051,0.0345853641629219,0.0542354136705399,0.0488990843296051,0.0900838822126389
30,-0.041184164583683,0.0121846636757255,0.0258983820676804,0.0423773154616356,0.047006718814373,0.0757670998573303
31,-0.0441107265651226,0.00838681310415268,0.0206852983683348,0.0332985483109951,0.0435568392276764,0.0625714138150215
32,-0.0402416549623013,0.00645326124504209,0.0195998474955559,0.0270315762609243,0.0396646931767464,0.0533329509198666
33,-0.036062128841877,0.00423932354897261,0.0197595357894897,0.0219677966088057,0.0346370004117489,0.0502364188432693
34,-0.0343595705926418,0.00397652527317405,0.0214496850967407,0.0213212072849274,0.031966146081686,0.0547550767660141
35,-0.0330258011817932,0.00816851668059826,0.0261932350695133,0.0276683960109949,0.0345225222408772,0.0629978254437447
36,-0.0313783697783947,0.0145710716024041,0.0322172120213509,0.0377007946372032,0.0404953546822071,0.0688646659255028
37,-0.030802384018898,0.0195283051580191,0.0358238257467747,0.0452623665332794,0.0461315512657166,0.0689428374171257
38,-0.0329181887209415,0.0209147855639458,0.0349407941102982,0.0463881306350231,0.0484911613166332,0.0633490979671478
39,-0.0382733419537544,0.0179075598716736,0.0301307160407305,0.0412763394415379,0.0458836369216442,0.0554061755537987
40,-0.0452039055526257,0.0119072450324893,0.0250802151858807,0.0334269218146801,0.0387777984142303,0.0487278588116169
41,-0.0492148622870445,0.00750472443178296,0.0260059144347906,0.0286293681710958,0.0325448401272297,0.0460334718227386
42,-0.0476185344159603,0.00759209413081408,0.0334240458905697,0.0294099282473326,0.031315166503191,0.0470812655985355
43,-0.042785432189703,0.0100957425311208,0.039851438254118,0.0321167446672916,0.0325060784816742,0.0477774627506733
44,-0.0382770448923111,0.0108494907617569,0.0385944508016109,0.0320189222693443,0.0321161113679409,0.0447187349200249
45,-0.0354862734675407,0.00739466352388263,0.0296156797558069,0.0280336122959852,0.0282239429652691,0.0383122488856316
46,-0.0334797203540802,0.00209847907535732,0.0187895931303501,0.0236478392034769,0.0229599419981241,0.0322513580322266
47,-0.0307701863348484,-0.000137683455250226,0.0118515519425273,0.02326007373631,0.0215996447950602,0.0307190250605345
48,-0.0273758284747601,0.00240432750433683,0.00981290824711323,0.0273768417537212,0.0251500569283962,0.0351976007223129
49,-0.0241642873734236,0.00739728566259146,0.0113888196647167,0.0324472784996033,0.030257560312748,0.0446042641997337
50,-0.0218416824936867,0.0111598707735538,0.0147420754656196,0.0345046520233154,0.0339994579553604,0.0566201247274876
51,-0.0204075593501329,0.0124616045504808,0.018217159435153,0.0338703133165836,0.0354416854679585,0.0691208317875862
52,-0.0187052376568317,0.0127317374572158,0.0207590293139219,0.0333784595131874,0.0351722091436386,0.0782305523753166
53,-0.0149223208427429,0.0124050844460726,0.0209578275680542,0.0332779847085476,0.0330728143453598,0.0776648297905922
54,-0.00831567123532295,0.0115998685359955,0.0193036049604416,0.0333146527409554,0.0299331955611706,0.0665177628397942
55,-0.00166782224550843,0.0115023069083691,0.0180787984281778,0.0341701842844486,0.0294134430587292,0.0511359758675098
56,0.000136945600388572,0.0118752541020513,0.0179386585950851,0.0348207056522369,0.033101249486208,0.0378451310098171
57,-0.00504666985943913,0.0108319325372577,0.0181030258536339,0.03368154540658,0.0375004410743713,0.0287181027233601
58,-0.0143762417137623,0.00773534644395113,0.0183279700577259,0.0314762033522129,0.0390329211950302,0.02301992662251
59,-0.0233350023627281,0.00260569853708148,0.017193503677845,0.0281962957233191,0.0362294763326645,0.0188194382935762
60,-0.0290572661906481,-0.00395993888378143,0.0128535442054272,0.0223878268152475,0.0288523379713297,0.0151641797274351
61,-0.0305281933397055,-0.00950990989804268,0.00668493006378412,0.0152117451652884,0.0183413680642843,0.0136011904105544
62,-0.0280456393957138,-0.0121752554550767,0.0027541855815798,0.00956242252141237,0.00793290790170431,0.0155065841972828
63,-0.0224048439413309,-0.0118161495774984,0.0049249199219048,0.0081077991053462,0.0017074067145586,0.0217949394136667
64,-0.0149257201701403,-0.00951505452394485,0.0121635878458619,0.0118939494714141,0.00106962083373219,0.0327735841274261
65,-0.00770694622769952,-0.00713313324376941,0.0190703067928553,0.0190425105392933,0.00366346421651542,0.0453466698527336
66,-0.00286264927126467,-0.0058630402199924,0.022729080170393,0.0262866336852312,0.00666819280013442,0.0540090277791023
67,-0.000483671989059076,-0.00496607506647706,0.0241096578538418,0.0318770222365856,0.00965723022818565,0.0553009286522865
68,0.000838300853502005,-0.00361646851524711,0.0238372180610895,0.035032007843256,0.0135522540658712,0.0496010482311249
69,0.00253914133645594,-0.00223134295083582,0.0223731584846973,0.0345075987279415,0.0188607033342123,0.0395711995661259
70,0.00554876076057553,-0.00137990002986044,0.0208139959722757,0.0300348177552223,0.0253038704395294,0.0277803465723991
71,0.0089381942525506,-0.000982330879196525,0.0187506452202797,0.0236141160130501,0.0320784114301205,0.0164604727178812
72,0.0100155184045434,-0.000508762197569013,0.0153298387303948,0.0176738686859608,0.0371481887996197,0.00725369667634368
73,0.00808698963373899,0.000374451512470841,0.0114475470036268,0.0131690315902233,0.0383591204881668,0.000652992515824735
74,0.00632799603044987,0.00156064506154507,0.00881033297628164,0.0103424843400717,0.0367763116955757,-0.00332095171324909
75,0.00624793348833919,0.00108603935223073,0.00693727377802134,0.00779899628832936,0.0337271690368652,-0.00655834749341011
76,0.00637474423274398,-0.00293244258500636,0.00382631435059011,0.00422312179580331,0.0276520103216171,-0.0103156045079231
77,0.00766673497855663,-0.00879648607224226,-0.000434780784416944,0.00154709978960454,0.0182541441172361,-0.011930875480175
78,0.012262923642993,-0.0130034498870373,-0.00349243823438883,0.00212350580841303,0.00902494322508574,-0.00850522518157959
79,0.0179446898400784,-0.0141609106212854,-0.0041064964607358,0.00528157874941826,0.0032401483040303,0.000546182680409402
80,0.0214951820671558,-0.0136674456298351,-0.00265580764971673,0.00885625742375851,0.00153566210065037,0.0141060026362538
81,0.0228277966380119,-0.0142424535006285,-0.000219359950278886,0.0107415039092302,0.00270097190514207,0.0281410049647093
82,0.0220047570765018,-0.017340300604701,0.00196248409338295,0.00983751937747002,0.0050274976529181,0.0379075668752193
83,0.0187205746769905,-0.0212407372891903,0.00397878838703036,0.00808047316968441,0.00785509776324034,0.0424409508705139
84,0.0148399770259857,-0.0229615271091461,0.0065317889675498,0.00876360945403576,0.0117007261142135,0.0428859665989876
85,0.0132717322558165,-0.0205071270465851,0.0100619187578559,0.0126701323315501,0.0171382129192352,0.0399059616029263
86,0.0142343221232295,-0.0143860224634409,0.0137652158737183,0.0173546615988016,0.0226822104305029,0.0343404747545719
87,0.0157763380557299,-0.00777788134291768,0.0159055795520544,0.0204514618963003,0.0256743971258402,0.0273016896098852
88,0.0163793750107288,-0.00335721182636917,0.0165860746055841,0.0215428452938795,0.025682345032692,0.0197040475904942
89,0.0152433663606644,-0.00248281913809478,0.0164058860391378,0.0192431565374136,0.0233972407877445,0.0112717943266034
90,0.0134449144825339,-0.00482761999592185,0.0146304192021489,0.0127357868477702,0.0192149467766285,0.00237514590844512
91,0.0138709871098399,-0.00708179036155343,0.0111034158617258,0.00557857379317284,0.0152825992554426,-0.00369671639055014
92,0.0159230642020702,-0.00844150874763727,0.00594108644872904,0.000463671545730904,0.0137108797207475,-0.00598210375756025
93,0.0149192670360208,-0.011994231492281,-0.00049645354738459,-0.0036049010232091,0.0139904152601957,-0.00727427564561367
94,0.00908592808991671,-0.0177313238382339,-0.00608820095658302,-0.0074216746725142,0.0146359773352742,-0.0083583565428853
95,0.00277592102065682,-0.0208557024598122,-0.00755077786743641,-0.00963014550507069,0.0160486474633217,-0.00657985173165798
96,0.00113275507465005,-0.0188177321106195,-0.00407043052837253,-0.00848019775003195,0.0190644152462482,0.000640770012978464
97,0.00362211000174284,-0.0160173363983631,0.000334965297952294,-0.00524728372693062,0.0215029958635569,0.0120505383238196
98,0.00699518481269479,-0.0166830532252789,0.0023859643843025,-0.0017551340861246,0.0220623724162579,0.0237361043691635
99,0.0102333147078753,-0.0201660748571157,0.00254847086034715,0.00188031245488673,0.0221578273922205,0.0321351960301399
100,0.0141251403838396,-0.0247433073818684,0.00217562215402722,0.00513981375843287,0.0222496706992388,0.0347844623029232
101,0.0190117452293634,-0.0295573398470879,0.0029910106677562,0.00722020538523793,0.0220821015536785,0.0314057730138302
102,0.0233625657856464,-0.0343391858041286,0.00593553157523274,0.00796911306679249,0.0222686007618904,0.0246551632881165
103,0.0258586518466473,-0.0387887805700302,0.00996990967541933,0.00785971060395241,0.0236646588891745,0.0173320472240448
104,0.0284839365631342,-0.0416805408895016,0.0136140342801809,0.00814048387110233,0.0272856410592794,0.0102577451616526
105,0.0325297303497791,-0.04278963804245,0.0149274440482259,0.0088187213987112,0.0327276587486267,0.00278155179694295
106,0.0347820147871971,-0.0440019965171814,0.0122365662828088,0.00791908800601959,0.0368439294397831,-0.00635771034285426
107,0.0332686863839626,-0.0464756563305855,0.00616879062727094,0.00489017786458135,0.0373178645968437,-0.0170954614877701
108,0.0297078415751457,-0.0505878403782845,-0.00227503827773035,-0.000223118142457679,0.0336912237107754,-0.0278502367436886
109,0.0277057103812695,-0.0549852922558784,-0.0106907496228814,-0.00647369958460331,0.0275073815137148,-0.0344818569719791
110,0.0287296827882528,-0.0579726509749889,-0.016349321231246,-0.01176842674613,0.020966911688447,-0.0340328738093376
111,0.029550576582551,-0.0604234226047993,-0.019786961376667,-0.0156613327562809,0.0154504543170333,-0.0290954746305943
112,0.0282111931592226,-0.0624134503304958,-0.0210708770900965,-0.0176349580287933,0.0128483939915895,-0.0222238935530186
113,0.0265653301030397,-0.0628441870212555,-0.0189978796988726,-0.0168078541755676,0.0122782625257969,-0.0129142682999372
114,0.0275445021688938,-0.0612512491643429,-0.0141268623992801,-0.0131499180570245,0.0113349128514528,-0.0011694022687152
115,0.0320890620350838,-0.05818797275424,-0.00941427331417799,-0.00809938181191683,0.00997540168464184,0.00979467108845711
116,0.0378889515995979,-0.0550258085131645,-0.00814858917146921,-0.00431823125109077,0.00763520691543818,0.0156985875219107
117,0.0435334928333759,-0.051020223647356,-0.00958385225385427,-0.00204441510140896,0.00360518810339272,0.0156215811148286
118,0.0487851053476334,-0.0457928106188774,-0.0103443339467049,-0.000200757422135212,-0.000506504671648145,0.0110412929207087
119,0.0516893230378628,-0.0429940484464169,-0.00981730688363314,-0.000369926070561633,-0.00300741731189191,0.00250154663808644
120,0.0505524687469006,-0.0456727594137192,-0.0101315667852759,-0.00382050918415189,-0.00492223910987377,-0.00792129524052143
121,0.0459017530083656,-0.0534108281135559,-0.0128543730825186,-0.00886263232678175,-0.00839895475655794,-0.0161328446120024
122,0.0411278754472733,-0.0618502274155617,-0.0160619243979454,-0.0115073304623365,-0.0110583202913404,-0.0185454562306404
123,0.0395032465457916,-0.0660683736205101,-0.0160423219203949,-0.00856310222297907,-0.0081482008099556,-0.0146453687921166
124,0.0399436540901661,-0.0667894035577774,-0.0124405035749078,-0.00267920806072652,-0.000852269178722054,-0.010449499823153
125,0.0405108407139778,-0.0657738745212555,-0.0077898558229208,0.00138583709485829,0.00668879086151719,-0.0113796228542924
126,0.0423897765576839,-0.0623058974742889,-0.00356678618118167,0.00337378075346351,0.0134966699406505,-0.0152842085808516
127,0.0461325570940971,-0.0585427172482014,0.000236242849496193,0.00445668026804924,0.0186357833445072,-0.0188498515635729
128,0.0476858168840408,-0.0593667067587376,0.00119260954670608,0.00252530071884394,0.0183801855891943,-0.0227811206132174
129,0.043700322508812,-0.0659257769584656,-0.00375080085359514,-0.00368987862020731,0.0112496726214886,-0.0273750741034746
130,0.0383057631552219,-0.0726997405290604,-0.0113612888380885,-0.00995263271033764,0.0023509815800935,-0.029004629701376
131,0.0361554138362408,-0.0749453157186508,-0.0174140315502882,-0.0134326908737421,-0.00363452360033989,-0.0269261281937361
132,0.0352545715868473,-0.0746302679181099,-0.0226301103830338,-0.0166994202882051,-0.00766250491142273,-0.0253521390259266
133,0.0342678055167198,-0.0736004561185837,-0.0268457848578691,-0.0196993090212345,-0.0101740527898073,-0.0244288556277752
134,0.0359507463872433,-0.0704956501722336,-0.0278825610876083,-0.0190980806946754,-0.00981775298714638,-0.020630506798625
135,0.039286732673645,-0.0672235414385796,-0.027049807831645,-0.0163146201521158,-0.00922497268766165,-0.0151812145486474
136,0.040081549435854,-0.0669432878494263,-0.0266531333327293,-0.0149399973452091,-0.010812227614224,-0.0107885673642159
137,0.0374639369547367,-0.0679918825626373,-0.0250740256160498,-0.0142594231292605,-0.0104402061551809,-0.00662582973018289
138,0.0325336679816246,-0.0678467825055122,-0.0207432396709919,-0.0127698630094528,-0.00408142758533359,-0.00357217062264681
139,0.0263002943247557,-0.0673598349094391,-0.0160347055643797,-0.0115185994654894,0.00410709762945771,-0.00446440884843469
140,0.0212997067719698,-0.067962758243084,-0.01375653129071,-0.0114264832809567,0.00640519661828876,-0.00923860725015402
141,0.0209170691668987,-0.0691800191998482,-0.0138465967029333,-0.0112020391970873,0.00171923637390137,-0.0155375758185983
142,0.0244962405413389,-0.0719097256660461,-0.016413951292634,-0.0106868986040354,-0.00664674350991845,-0.0225302521139383
143,0.0289117563515902,-0.0771314352750778,-0.021111823618412,-0.0114534441381693,-0.0164133906364441,-0.0295598302036524
144,0.0327487029135227,-0.0817330330610275,-0.0247579403221607,-0.0134480223059654,-0.0248692873865366,-0.0328665934503078
145,0.0354011133313179,-0.0825626030564308,-0.0252030249685049,-0.0151174878701568,-0.0299094300717115,-0.0294850654900074
146,0.0373928584158421,-0.0803492069244385,-0.0229027587920427,-0.0150858899578452,-0.0319418869912624,-0.0223438777029514
147,0.039190486073494,-0.077979788184166,-0.0196154490113258,-0.0137854851782322,-0.0329858027398586,-0.0175573769956827
148,0.0408523418009281,-0.0766547471284866,-0.0165539719164371,-0.0116563886404037,-0.0330246947705746,-0.0166073236614466
149,0.0430896580219269,-0.0759264379739761,-0.0128539502620697,-0.00771501287817955,-0.0291597805917263,-0.0159945767372847
150,0.0466845482587814,-0.0760466232895851,-0.00676821684464812,-0.00175675004720688,-0.0205183047801256,-0.0125591084361076
151,0.0513492338359356,-0.0782231315970421,0.00123995903413743,0.00344086950644851,-0.0114210220053792,-0.00688642309978604
152,0.0538734458386898,-0.0837981402873993,0.00786666385829449,0.00329416920430958,-0.00687668612226844,-0.00354394619353116
153,0.051770992577076,-0.090749979019165,0.0121820503845811,-0.00202863058075309,-0.00542685249820352,-0.0050858510658145
154,0.04587621986866,-0.0952963009476662,0.0146159790456295,-0.00823620427399874,-0.00382577790878713,-0.00951952766627073
155,0.0367172174155712,-0.0986171588301659,0.0110780792310834,-0.0148268435150385,-0.00489293271675706,-0.0158784128725529
156,0.0268709342926741,-0.102995686233044,-0.000351191556546837,-0.0224558804184198,-0.0109003307297826,-0.0242919325828552
157,0.0220666415989399,-0.105932369828224,-0.0134735610336065,-0.0279210638254881,-0.017844470217824,-0.0320690050721169
158,0.0234552416950464,-0.105356656014919,-0.0222280360758305,-0.0293291416019201,-0.0224146656692028,-0.0362818017601967
159,0.0272135101258755,-0.102640844881535,-0.0257508661597967,-0.0284530892968178,-0.0242298450320959,-0.0364103764295578
160,0.0313761979341507,-0.0988981425762177,-0.025175029411912,-0.026545898988843,-0.0216086357831955,-0.0330740623176098
161,0.0342342779040337,-0.09608393907547,-0.0238224640488625,-0.0252102855592966,-0.0163511410355568,-0.0281734429299831
162,0.0326759032905102,-0.0970132127404213,-0.0252809077501297,-0.0271073505282402,-0.0147117543965578,-0.0245339404791594
163,0.0283794347196817,-0.100104451179504,-0.0279707387089729,-0.0313360691070557,-0.0178802143782377,-0.0234837252646685
164,0.0260807536542416,-0.101720787584782,-0.028354799374938,-0.0346658267080784,-0.0217449367046356,-0.0240441299974918
165,0.0265862755477428,-0.101455755531788,-0.0261311233043671,-0.0362040176987648,-0.0231547951698303,-0.0244997814297676
166,0.0265799388289452,-0.102029263973236,-0.0241828206926584,-0.0381644256412983,-0.022528974339366,-0.0253465175628662
167,0.0229364242404699,-0.105388253927231,-0.0257948767393827,-0.0434788949787617,-0.022225784137845,-0.0283655822277069
168,0.0169582068920136,-0.109099954366684,-0.0304332282394171,-0.0515055283904076,-0.0230272393673658,-0.0328408889472485
169,0.0130618158727884,-0.109568074345589,-0.0340436473488808,-0.0579181686043739,-0.0249989107251167,-0.036117322742939
170,0.0138560142368078,-0.106201253831387,-0.0332542471587658,-0.059413842856884,-0.0279924180358648,-0.0369187518954277
171,0.0176015626639128,-0.101332910358906,-0.0289411675184965,-0.0571337714791298,-0.0311920922249556,-0.036833543330431
172,0.0213176477700472,-0.0968339219689369,-0.0240142438560724,-0.0532028302550316,-0.0339960642158985,-0.036834679543972
173,0.0245145335793495,-0.0915280506014824,-0.0187501460313797,-0.0472021698951721,-0.0357748456299305,-0.0352324023842812
174,0.0285671912133694,-0.0844594165682793,-0.0129150059074163,-0.0400859415531158,-0.0357888080179691,-0.0312145929783583
175,0.0326967649161816,-0.0789262279868126,-0.0101506290957332,-0.0372446812689304,-0.0354460515081882,-0.0273414310067892
176,0.0332552492618561,-0.0792617276310921,-0.014802860096097,-0.0427732393145561,-0.0378037504851818,-0.0265215095132589
177,0.0297167040407658,-0.0841803625226021,-0.0242389570921659,-0.0520820803940296,-0.0418094545602798,-0.0279435757547617
178,0.0254315715283155,-0.0889420807361603,-0.0313529074192047,-0.0574233159422874,-0.0434752628207207,-0.0298491287976503
179,0.0229441672563553,-0.0913699343800545,-0.0324869230389595,-0.0566249936819077,-0.0407563224434853,-0.0314110592007637
180,0.0222466848790646,-0.091285265982151,-0.0282775834202766,-0.0514125190675259,-0.0340111330151558,-0.0310466401278973
181,0.0218399856239557,-0.0888513624668121,-0.0220658704638481,-0.0453276373445988,-0.0259133391082287,-0.0298212431371212
182,0.0199479460716248,-0.0854947865009308,-0.018583195284009,-0.0431176647543907,-0.0204036887735128,-0.0322195328772068
183,0.0141730019822717,-0.0839903801679611,-0.0212752036750317,-0.047807976603508,-0.0211072620004416,-0.0414336323738098
184,0.00395695259794593,-0.0858232825994492,-0.0293435323983431,-0.0583450645208359,-0.0285584405064583,-0.0560464821755886
185,-0.00585760595276952,-0.0887111648917198,-0.03646045550704,-0.0684535577893257,-0.0384948514401913,-0.0684969574213028
186,-0.00928177684545517,-0.0888182446360588,-0.0361721068620682,-0.0706613883376122,-0.0448584146797657,-0.0699160322546959
187,-0.00641351379454136,-0.0854489430785179,-0.0300159696489573,-0.0641530230641365,-0.0449707545340061,-0.0598746538162231
188,-0.00124988867901266,-0.0804320052266121,-0.0234853476285934,-0.0543130189180374,-0.0413870140910149,-0.0459433235228062
189,0.00401991792023182,-0.0749876275658607,-0.0183400418609381,-0.0459208153188229,-0.0380347184836864,-0.0351372323930264
190,0.00847046170383692,-0.0700246095657349,-0.0144774289801717,-0.0408355556428432,-0.0362676605582237,-0.0303138792514801
191,0.0110055524855852,-0.0666079595685005,-0.0120595525950193,-0.038505531847477,-0.0351341776549816,-0.03030058555305
192,0.0110835637897253,-0.0649372339248657,-0.0109776630997658,-0.0371700711548328,-0.0331773497164249,-0.0323270000517368
193,0.00980323366820812,-0.0633302927017212,-0.010731965303421,-0.0351459234952927,-0.0295378118753433,-0.0342960059642792
194,0.00843425560742617,-0.0615557543933392,-0.0117375291883945,-0.0328462682664394,-0.0260299555957317,-0.0353467427194119
195,0.00706499814987183,-0.0612046755850315,-0.0141262877732515,-0.0314117409288883,-0.0243180934339762,-0.0349929295480251
196,0.00588722992688417,-0.0615624450147152,-0.0153004517778754,-0.029938705265522,-0.0225406810641289,-0.0326182879507542
197,0.00562971923500299,-0.0612404868006706,-0.0135943964123726,-0.0286206752061844,-0.0189489126205444,-0.029311889782548
198,0.00663716159760952,-0.0605937279760838,-0.0101225487887859,-0.0288483537733555,-0.0142859201878309,-0.0269891805946827
199,0.00853533204644918,-0.0598426386713982,-0.00528426421806216,-0.0292012579739094,-0.0104890745133162,-0.02472810074687
200,0.0105022042989731,-0.0577736087143421,0.000491244194563478,-0.0270517859607935,-0.00839826185256243,-0.0193820986896753
201,0.0114322686567903,-0.0537678487598896,0.00485664792358875,-0.0223739594221115,-0.00665108254179358,-0.0107092652469873
202,0.0105594107881188,-0.0501743778586388,0.00449459906667471,-0.0183002520352602,-0.00560982432216406,-0.00377287692390382
203,0.00932671036571264,-0.049930278211832,-0.00206676288507879,-0.0182904936373234,-0.0080671701580286,-0.00446666451171041
204,0.0112757720053196,-0.0518435128033161,-0.0113968653604388,-0.0220230706036091,-0.0133060608059168,-0.0135432025417686
205,0.0156040135771036,-0.0528629161417484,-0.0194522198289633,-0.0269936136901379,-0.0186352785676718,-0.027601221576333
206,0.0164214558899403,-0.052998635917902,-0.0256730038672686,-0.031532309949398,-0.0241138394922018,-0.0425160974264145
207,0.0111326165497303,-0.0537261329591274,-0.0300371740013361,-0.0340043008327484,-0.0296084266155958,-0.0541193075478077
208,0.0031244894489646,-0.054645873606205,-0.031493779271841,-0.0334303453564644,-0.0323710180819035,-0.0596356801688671
209,-0.00332978274673224,-0.0553603917360306,-0.030745143070817,-0.0311080031096935,-0.0316396355628967,-0.0599636472761631
210,-0.00669573340564966,-0.0560719557106495,-0.0297148749232292,-0.0284430924803019,-0.0295636374503374,-0.0577267929911613
211,-0.00660056062042713,-0.0544036775827408,-0.0269262474030256,-0.0239606257528067,-0.0259262733161449,-0.0527009591460228
212,-0.00283474428579211,-0.0481417216360569,-0.0192829165607691,-0.0155145358294249,-0.0189658720046282,-0.042338814586401
213,0.00243121385574341,-0.03995680809021,-0.00826940685510635,-0.00533113861456513,-0.0110388780012727,-0.0275604743510485
214,0.0056611648760736,-0.0344268977642059,0.000891965755727142,0.00122683495283127,-0.00726456195116043,-0.0141160311177373
215,0.00655166432261467,-0.0323120653629303,0.0061249085702002,0.00288476003333926,-0.00759691232815385,-0.0063898409716785
216,0.00752205215394497,-0.0311078988015652,0.0108308810740709,0.00235401676036417,-0.00671352725476027,-0.00450328318402171
217,0.00908687710762024,-0.0293959323316813,0.0169750992208719,0.000323581945849583,-0.00283461925573647,-0.00635038036853075
218,0.0112163908779621,-0.0262654442340136,0.0212800782173872,-0.00300823757424951,0.00175529310945421,-0.00794956274330616
219,0.0162367541342974,-0.0201502572745085,0.0213207881897688,-0.00513434363529086,0.0070571624673903,-0.00667720520868897
220,0.0254521835595369,-0.0117248361930251,0.0179710537195206,-0.00501256762072444,0.0138023952022195,-0.0043133394792676
221,0.0358710512518883,-0.00420917337760329,0.0123503990471363,-0.00437562819570303,0.0207503139972687,-0.00348397064954042
222,0.0425043031573296,-0.000505810545291752,0.00564963603392243,-0.0050884666852653,0.0275050643831491,-0.00576448766514659
223,0.0426367223262787,-0.00137968827039003,-0.00038369491812773,-0.0074047427624464,0.0337461456656456,-0.0110342698171735
224,0.0373042598366737,-0.00548240309581161,-0.00459753721952438,-0.00952871888875961,0.0362655743956566,-0.0167254656553268
225,0.0302195176482201,-0.00966881774365902,-0.00591454515233636,-0.00903270207345486,0.03323744982481,-0.0203613545745611
226,0.0247935708612204,-0.0106136752292514,-0.00342744123190641,-0.00494990078732371,0.0272611007094383,-0.0213646460324526
227,0.021695313975215,-0.00839788001030684,0.0004073700401932,0.00116446986794472,0.019414471462369,-0.0212603844702244
228,0.0202174000442028,-0.00560805387794971,0.0019131776643917,0.0070338835939765,0.00883409939706326,-0.0208335611969233
229,0.0204346925020218,-0.00300289667211473,0.00117760372813791,0.012051691301167,-0.00215019541792572,-0.0181570742279291
230,0.0221167504787445,-0.000519384047947824,-0.000487734854687005,0.0154273370280862,-0.0106745800003409,-0.0140841649845243
231,0.0233084801584482,0.0013782090973109,-0.00249718525446951,0.0161726959049702,-0.0156297869980335,-0.0123343383893371
232,0.0217741448432207,0.00271549005992711,-0.00345060229301453,0.0155013343319297,-0.0161546096205711,-0.0124710658565164
233,0.017531493678689,0.00360470497980714,-0.00201991153880954,0.0155890211462975,-0.0124097745865583,-0.0116572296246886
234,0.0127098215743899,0.00469498243182898,0.00199608784168959,0.0179115459322929,-0.00538544962182641,-0.00849305000156164
235,0.00884762313216925,0.00726780574768782,0.00784146599471569,0.0228365268558264,0.00436241179704666,-0.00314817158505321
236,0.00547940190881491,0.0107526769861579,0.0130078932270408,0.0286200623959303,0.0153379878029227,0.000275169382803142
237,0.00134321977384388,0.0122768310829997,0.0139375729486346,0.0316369757056236,0.0238545350730419,-0.00268114730715752
238,-0.00366926519200206,0.0102483946830034,0.0100374706089497,0.0295678097754717,0.0270040910691023,-0.0105582410469651
239,-0.00920095294713974,0.00491448026150465,0.00308749126270413,0.0223949924111366,0.0237861573696136,-0.0199771467596293
240,-0.0142147559672594,-0.00153743603732437,-0.00530558032914996,0.0118207754567266,0.0141772637143731,-0.0293697882443666
241,-0.0151202064007521,-0.00376555789262056,-0.0121076079085469,0.00229199696332216,0.00186608615331352,-0.0356522463262081
242,-0.00970599520951509,0.00103152764495462,-0.0148543426766992,-0.00214918726123869,-0.00676604174077511,-0.0352309420704842
243,-0.00105430174153298,0.0092239873483777,-0.0141141759231687,-0.00152436946518719,-0.00827457197010517,-0.02790317684412
244,0.00548602966591716,0.0156961586326361,-0.0112310750409961,0.00193461345043033,-0.00416391203179955,-0.0170497372746468
245,0.0061656809411943,0.0180695466697216,-0.00845308322459459,0.00552653847262263,0.000782732269726694,-0.00843877252191305
246,0.00123752083163708,0.0173768643289804,-0.00794248282909393,0.00768940523266792,0.00346180121414363,-0.00599852856248617
247,-0.00558317499235272,0.0166221223771572,-0.00869083870202303,0.00954908132553101,0.00546525930985808,-0.00863704271614552
248,-0.0123006887733936,0.0168562382459641,-0.00927459634840488,0.0117677105590701,0.00829876028001308,-0.013372516259551
249,-0.0184247922152281,0.0177622735500336,-0.00870333984494209,0.0145838083699346,0.0123747102916241,-0.0156616438180208
250,-0.0213330294936895,0.0206160955131054,-0.00464136945083737,0.0194822754710913,0.0193532630801201,-0.0113728325814009
251,-0.0200586412101984,0.0250451695173979,0.00262072659097612,0.0251193176954985,0.0277682337909937,-0.00405726209282875
252,-0.0171239860355854,0.0284364372491837,0.00974450446665287,0.0282564200460911,0.0333378203213215,-0.00086713454220444
253,-0.0150002790614963,0.0297504998743534,0.0141814835369587,0.0285457856953144,0.0345387645065784,-0.00291775958612561
254,-0.0141854733228683,0.0299229603260756,0.0149882761761546,0.0279956385493279,0.0326896756887436,-0.005828523542732
255,-0.0134466364979744,0.0302647426724434,0.0130977183580399,0.028315857052803,0.0303483568131924,-0.00563658308237791
256,-0.0102128963917494,0.0320850200951099,0.0116321220993996,0.0308535229414701,0.0314643904566765,-0.00149075919762254
257,-0.00285206479020417,0.0359906256198883,0.0123360380530357,0.0355274602770805,0.0366882011294365,0.00407754629850388
258,0.00628652796149254,0.0404693931341171,0.0131522994488478,0.039355106651783,0.0410004407167435,0.00711068976670504
259,0.0135851614177227,0.0429563634097576,0.0120095005258918,0.0403305552899837,0.0403079986572266,0.00639148475602269
260,0.0176303628832102,0.0426695048809052,0.00928272306919098,0.0400292612612247,0.0342086404561996,0.00439770752564073
261,0.0186492148786783,0.042160090059042,0.00719514023512602,0.0405532270669937,0.0253996755927801,0.00459266733378172
262,0.0179892145097256,0.0445533394813538,0.0078067104332149,0.0418781638145447,0.0184651482850313,0.00785249006003141
263,0.0172236692160368,0.0494696125388145,0.0109972655773163,0.0428301319479942,0.0149041879922152,0.0119558162987232
264,0.0161028299480677,0.0529725477099419,0.0141751579940319,0.04185526445508,0.011558597907424,0.0146671887487173
265,0.0146804535761476,0.0527189448475838,0.0154707562178373,0.0388777479529381,0.00695442361757159,0.0166096463799477
266,0.0140292756259441,0.0505508184432983,0.0154855130240321,0.036549735814333,0.00337004195898771,0.0191143546253443
267,0.0124654583632946,0.0485221855342388,0.0131948376074433,0.0353609137237072,0.0010606178548187,0.0194131396710873
268,0.010433099232614,0.0507467426359653,0.00837113615125418,0.033278439193964,0.00058570527471602,0.0144893079996109
269,0.0122712794691324,0.0635427609086037,0.00483996886759996,0.0302640646696091,0.0056311865337193,0.00637437216937542
270,0.0177695341408253,0.0869878157973289,0.00544740399345756,0.0281478445976973,0.0179665666073561,-0.00114126759581268
271,0.0223636701703072,0.114466294646263,0.00929291546344757,0.0278046391904354,0.0349381417036057,-0.00632474245503545
272,0.023428950458765,0.13992628455162,0.0139947114512324,0.0284350011497736,0.050804004073143,-0.00902360677719116
273,0.0220641326159239,0.16108401119709,0.0184541530907154,0.0296950209885836,0.0605154037475586,-0.00916042551398277
274,0.0203098189085722,0.177178099751472,0.0220082215964794,0.031257227063179,0.0619758144021034,-0.00729112047702074
275,0.0191170573234558,0.188382461667061,0.0234475806355476,0.0323228649795055,0.0560308210551739,-0.00425571203231812
276,0.0179118793457747,0.195407524704933,0.0215348284691572,0.0322094485163689,0.0453920252621174,-0.000366312451660633
277,0.0161389485001564,0.199543416500092,0.016839986667037,0.0309803280979395,0.033778477460146,0.00498894695192575
278,0.013792079873383,0.202189534902573,0.0115021057426929,0.0292972829192877,0.023304371163249,0.0119499647989869
279,0.00977834593504667,0.202722534537315,0.00634011626243591,0.0270728282630444,0.0129065625369549,0.0180747229605913
280,0.00461652269586921,0.201929986476898,0.00260063982568681,0.0254309866577387,0.00346243497915566,0.0211688335984945
281,0.00128123688045889,0.203171372413635,0.00236938125453889,0.0270487647503614,-0.00172291649505496,0.021465890109539
282,0.00140779826324433,0.207519516348839,0.00507691828534007,0.0320830754935741,-0.00225473358295858,0.0200023073703051
283,0.00363579415716231,0.212462872266769,0.00760279875248671,0.0362520478665829,-0.000965525745414197,0.0173928756266832
284,0.00551364570856094,0.214899465441704,0.00770701328292489,0.0346724092960358,-0.000457391812233254,0.0126400161534548
285,0.00679042935371399,0.214300334453583,0.00636500446125865,0.0275001749396324,-0.000852120516356081,0.00456102937459946
286,0.00854277517646551,0.211820915341377,0.00532607221975923,0.0187594275921583,-0.00102359498851001,-0.00569686014205217
287,0.0103751551359892,0.208089083433151,0.00471762986853719,0.0114388586953282,-0.000417876552091911,-0.0150184463709593
288,0.0125582488253713,0.20586796104908,0.00647989427670836,0.008256153203547,0.00262568518519402,-0.0187402255833149
289,0.0148694021627307,0.207467705011368,0.010930054821074,0.00992510840296745,0.00817599147558212,-0.0157260093837976
290,0.0153009947389364,0.210823804140091,0.0132068060338497,0.0133914370089769,0.0127108655869961,-0.0102440174669027
291,0.0143216103315353,0.213843315839767,0.0113948583602905,0.0167116727679968,0.0144421299919486,-0.00545348227024078
292,0.0139736821874976,0.215795576572418,0.00778994476422668,0.018891703337431,0.0140826785936952,-0.00238914764486253
293,0.0146694192662835,0.215327769517899,0.00298942346125841,0.0183716118335724,0.0122175738215446,-0.00207283743657172
294,0.0157096832990646,0.211449012160301,-0.00278559909202158,0.0156669933348894,0.0104942303150892,-0.00429371045902371
295,0.0155496150255203,0.20526285469532,-0.00692559871822596,0.0129292607307434,0.0122555820271373,-0.00758707569912076
296,0.0125328982248902,0.19907945394516,-0.0077565023675561,0.0113732498139143,0.0175868328660727,-0.0105888154357672
297,0.00613411329686642,0.192615211009979,-0.00795820821076632,0.00975561048835516,0.0203547589480877,-0.013295104727149
298,-0.00121180166024715,0.185117900371552,-0.0101176854223013,0.00732602132484317,0.0170500744134188,-0.0149172814562917
299,-0.00557164940983057,0.179381117224693,-0.0127437813207507,0.00620124116539955,0.011744256131351,-0.0123384911566973
300,-0.00618814257904887,0.177773833274841,-0.013582113198936,0.00763363484293222,0.00854312442243099,-0.00548457726836205
301,-0.00540793174877763,0.179118990898132,-0.012379452586174,0.0100862253457308,0.00660369545221329,0.000841668457724154
302,-0.00617036549374461,0.180803894996643,-0.0107611762359738,0.0114439958706498,0.00238109286874533,0.00237755756825209
303,-0.00837395526468754,0.181924819946289,-0.00981507543474436,0.0116766951978207,-0.00468906946480274,0.000493421510327607
304,-0.0100514069199562,0.182073667645454,-0.00986961461603642,0.0112445950508118,-0.0124585144221783,3.6193694540998E-05
305,-0.0112807704135776,0.180163219571114,-0.011620294302702,0.0098135257139802,-0.0192065481096506,0.00337517261505127
306,-0.0114657441154122,0.177859783172607,-0.012703800573945,0.00979925040155649,-0.0214457120746374,0.0100362477824092
307,-0.00972714368253946,0.177305474877357,-0.00936876330524683,0.0138240922242403,-0.0169750060886145,0.0174735337495804
308,-0.00810039415955544,0.177046909928322,-0.00222297315485775,0.0189085528254509,-0.00910068023949862,0.021324772387743
309,-0.00768277328461409,0.175769254565239,0.00575875584036112,0.0204944591969252,-0.00162870751228184,0.0192247368395329
310,-0.00698956847190857,0.174043834209442,0.0121881617233157,0.0184741374105215,0.00357161439023912,0.0124771129339933
311,-0.0067242463119328,0.170592755079269,0.0150798382237554,0.0144519032910466,0.0037085278891027,0.00305870361626148
312,-0.00975839607417583,0.162724047899246,0.0124594271183014,0.00741641502827406,-0.00346113182604313,-0.00827628932893276
313,-0.0143845193088055,0.152573600411415,0.00450174789875746,-0.00221400801092386,-0.0144540648907423,-0.0189920011907816
314,-0.013489231467247,0.146892830729485,-0.00390755804255605,-0.00937844533473253,-0.0205647964030504,-0.0242928974330425
315,-0.00423160661011934,0.147884413599968,-0.00845410116016865,-0.0109179299324751,-0.0169961657375097,-0.0221113879233599
316,0.00796425994485617,0.151755079627037,-0.0090580340474844,-0.00823795609176159,-0.00699867913499475,-0.0135274035856128
317,0.0161541774868965,0.154584750533104,-0.00700077880173922,-0.00326021830551326,0.00334290112368762,-0.000874644902069122
318,0.0179921463131905,0.15531100332737,-0.00296303373761475,0.00289119710214436,0.0102262794971466,0.0117674274370074
319,0.0152061730623245,0.154256969690323,0.00173067825380713,0.00809081457555294,0.012787751853466,0.0194095280021429
320,0.0105429962277412,0.151379078626633,0.00446476973593235,0.0100186876952648,0.0127847082912922,0.0197128597646952
321,0.0064486600458622,0.147931486368179,0.00474087567999959,0.00958423316478729,0.0130044054239988,0.0153199536725879
322,0.00341310654766858,0.145383343100548,0.00420459639281034,0.008937600068748,0.0132888471707702,0.0103288693353534
323,-3.95864844904281E-05,0.142988294363022,0.00364739657379687,0.0081136878579855,0.0110973455011845,0.00664889207109809
324,-0.00521564902737737,0.139417544007301,0.00259525771252811,0.00631742039695382,0.00487729394808412,0.00624237023293972
325,-0.0124052288010716,0.1350457072258,6.68033462716267E-05,0.00317096337676048,-0.00466436240822077,0.0112037919461727
326,-0.0203431639820337,0.132336094975472,-0.0035949544981122,-0.000255692459177226,-0.0144678633660078,0.0192011836916208
327,-0.0268372632563114,0.132898345589638,-0.00674954662099481,-0.00202211714349687,-0.021690808236599,0.0244306623935699
328,-0.0300646591931582,0.135150223970413,-0.00748218130320311,-0.00140496110543609,-0.0252827890217304,0.0236913226544857
329,-0.0288339927792549,0.137310698628426,-0.00395855726674199,0.00175950862467289,-0.0245740450918674,0.018189299851656
330,-0.023372545838356,0.139940291643143,0.00307355052791536,0.00696264160797,-0.0196327045559883,0.0109911663457751
331,-0.0151463150978088,0.144330814480782,0.010815535672009,0.0122387139126658,-0.0121019491925836,0.00478761317208409
332,-0.00693856831640005,0.149014458060265,0.0164908822625875,0.0150450523942709,-0.00575038371607661,-0.000153374741785228
333,-0.00136814475990832,0.150834664702415,0.0180478673428297,0.014720774255693,-0.00314389122650027,-0.0047401268966496
334,0.00112564512528479,0.148452535271645,0.0154857384040952,0.013732997700572,-0.00261750025674701,-0.00792955979704857
335,0.000539539498277009,0.141852915287018,0.00998715683817863,0.0146551104262471,-0.00151738349813968,-0.00727747846394777
336,-0.00256058224476874,0.132304176688194,0.00307104224339128,0.0173325873911381,0.00254095112904906,-0.00222298456355929
337,-0.00670529063791037,0.121502570807934,-0.0046982429921627,0.0185731928795576,0.00831595622003078,0.00295152491889894
338,-0.0112453540787101,0.110216699540615,-0.0137779377400875,0.0152049716562033,0.00978307332843542,0.00272893463261426
339,-0.0137802204117179,0.101176917552948,-0.0208959709852934,0.00935644004493952,0.00691898446530104,-0.00218314514495432
340,-0.0107993967831135,0.0977359414100647,-0.0213437136262655,0.00577544374391437,0.00548115791752934,-0.00693290820345283
341,-0.00425166822969913,0.098278783261776,-0.0170344430953264,0.00458235247060657,0.00475249579176307,-0.00966059230268002
342,0.00170553417410702,0.0990100055932999,-0.0129758873954415,0.0034674471244216,0.000894617871381342,-0.010232581757009
343,0.0064814044162631,0.0995876491069794,-0.00976014323532581,0.00316712353378534,-0.00401424150913954,-0.0066517498344183
344,0.00883300229907036,0.101008966565132,-0.00603425921872258,0.00532703381031752,-0.00611783983185887,0.00137784529943019
345,0.00702147884294391,0.103209868073463,-0.00146634539123625,0.00923061277717352,-0.00468624569475651,0.0109159471467137
346,0.00234146718867123,0.104940563440323,0.00323198852129281,0.0120333107188344,-0.00209661200642586,0.0188980735838413
347,-0.00249674217775464,0.104001998901367,0.00606188457459211,0.0109744807705283,-0.00232289242558181,0.0225163474678993
348,-0.00579634588211775,0.0998308286070824,0.00558200059458613,0.00602769292891026,-0.00754917552694678,0.0199882443994284
349,-0.00751136662438512,0.0946824550628662,0.00254286546260118,-0.000305527180898935,-0.0163571313023567,0.0126515747979283
350,-0.00891748443245888,0.0907803550362587,-0.00180681084748358,-0.00598731590434909,-0.0247269310057163,0.00363665423355997
351,-0.0118326619267464,0.0878424197435379,-0.00740125775337219,-0.0107259042561054,-0.0296335015445948,-0.00535324634984136
352,-0.0142870489507914,0.0858626142144203,-0.0120988115668297,-0.0128012131899595,-0.0293787084519863,-0.0126604586839676
353,-0.0122671686112881,0.0859368443489075,-0.0126443319022655,-0.0100645050406456,-0.0230435356497765,-0.0165269076824188
354,-0.00612114835530519,0.0881523340940475,-0.00976941455155611,-0.00426332978531718,-0.0140463523566723,-0.0178954154253006
355,0.00175770383793861,0.0926804691553116,-0.0059327962808311,0.00228173844516277,-0.00780532089993358,-0.0172136351466179
356,0.00974623952060938,0.0993755012750626,-0.00177166191861033,0.0102800987660885,-0.00510120904073119,-0.0126715674996376
357,0.0159479044377804,0.105259537696838,0.00218205084092915,0.0193499904125929,-0.00372152542695403,-0.00502711161971092
358,0.0189054328948259,0.106500223278999,0.00550486007705331,0.026033453643322,-0.00243555731140077,0.00159972463734448
359,0.0184036381542683,0.102465711534023,0.00961569603532553,0.0276308078318834,-0.000299893552437425,0.00387441157363355
360,0.0156428925693035,0.0959834754467011,0.0148561503738165,0.0247288625687361,0.00302081485278904,0.00225175311788917
361,0.0116056920960546,0.0897792652249336,0.0178588721901178,0.0192320607602596,0.00495619233697653,-0.000122285127872601
362,0.00705648772418499,0.0842017531394959,0.0157761480659246,0.012238048017025,0.00267163501121104,-0.00138070725370198
363,0.00491321738809347,0.0788785070180893,0.010120116174221,0.0048945234157145,-0.00222166557796299,-0.00188442377839237
364,0.00593979330733418,0.0725445970892906,0.00325688277371228,-0.00245746900327504,-0.00723808258771896,-0.00324329943396151
365,0.0079016275703907,0.0652725398540497,-0.0026856898330152,-0.00853484682738781,-0.0112304352223873,-0.00474171526730061
366,0.0102635575458407,0.0603531934320927,-0.00525820255279541,-0.0100610582157969,-0.0125863319262862,-0.00235581281594932
367,0.0128201637417078,0.0592218637466431,-0.00472444342449307,-0.00689414190128446,-0.0111590977758169,0.00545815797522664
368,0.0150916026905179,0.0607995837926865,-0.00220333528704941,-0.00169027375523001,-0.00799765344709158,0.0161964353173971
369,0.0167575050145388,0.063132531940937,0.00180710817221552,0.00324131269007921,-0.00500523392111063,0.025471517816186
370,0.0188947170972824,0.0646790191531181,0.00689156865701079,0.00718828244134784,-0.00368467136286199,0.0307375025004148
371,0.0236806403845549,0.0655689761042595,0.0126528302207589,0.00995850935578346,-0.00268527679145336,0.0316932424902916
372,0.0299628470093012,0.0654783174395561,0.0171086378395557,0.0101130837574601,0.000407058774726465,0.0280785448849201
373,0.0341349765658379,0.0644441917538643,0.0186107065528631,0.00822113361209631,0.00756886368617415,0.022432005032897
374,0.0344829596579075,0.0634573101997375,0.0174225233495235,0.00715988548472524,0.0185792073607445,0.0176309067755938
375,0.0316886380314827,0.0622600726783276,0.0140124084427953,0.00800051633268595,0.0290567521005869,0.0132071152329445
376,0.0270727779716253,0.0602360554039478,0.0092242294922471,0.00982275698333979,0.0350965932011604,0.00893187150359154
377,0.0225221868604422,0.057702399790287,0.00534903118386865,0.0119881611317396,0.0375227145850658,0.00595034006983042
378,0.018542006611824,0.0538579374551773,0.00296648871153593,0.0127800600603223,0.0357596501708031,0.00321863428689539
379,0.0142969340085983,0.0481347739696503,0.0010700742714107,0.0106167597696185,0.0272210985422134,-0.000913015916012228
380,0.0106288911774755,0.0428582578897476,0.000906158529687673,0.0077207307331264,0.0147232702001929,-0.00465391390025616
381,0.00824617315083742,0.0406895689666271,0.00359491189010441,0.00682931952178478,0.00365984183736146,-0.00575348967686296
382,0.0059312516823411,0.0417476631700993,0.00713822850957513,0.00705640949308872,-0.00433323904871941,-0.00531701045110822
383,0.00310764391906559,0.0438153594732285,0.00824968051165342,0.00555633986368775,-0.00999022554606199,-0.00592064065858722
384,0.00191906641703099,0.0457426235079765,0.00664928322657943,0.00268940045498312,-0.0128258503973484,-0.00738969119265676
385,0.00420176004990935,0.0485594682395458,0.00559195410460234,0.00253423978574574,-0.0118183931335807,-0.00699738273397088
386,0.00812374986708164,0.0521381087601185,0.00666949898004532,0.00638486491516232,-0.00796143338084221,-0.00378489377908409
387,0.0105287851765752,0.0539873689413071,0.00724520534276962,0.0100251249969006,-0.00427417363971472,0.00137440499383956
388,0.0105210170149803,0.0523036271333694,0.00473666889593005,0.00952588114887476,-0.00293423468247056,0.00831039808690548
389,0.0082734739407897,0.0477327220141888,0.000141697018989362,0.00551933702081442,-0.00394810549914837,0.016255522146821
390,0.0043786158785224,0.0430563800036907,-0.00296834856271744,0.00196956866420805,-0.00510924914851785,0.0247954167425632
391,0.00103892851620913,0.0414953753352165,-0.00183062290307134,0.00238138739950955,-0.00317569868639112,0.0336751714348793
392,-0.000720185169484466,0.0415540263056755,0.00140583096072078,0.00467433780431747,0.00111944996751845,0.0380551964044571
393,-0.0012035173131153,0.0397243276238441,0.00395742524415255,0.00526789342984557,0.00530314259231091,0.0342439040541649
394,-0.0012110878014937,0.0363354235887527,0.00628297170624137,0.00472101708874106,0.00947816390544176,0.0255778636783361
395,-0.00255743460729718,0.0328419804573059,0.00850351806730032,0.00438274489715695,0.0135035933926702,0.018257824704051
396,-0.00567317521199584,0.0299038123339415,0.0110003380104899,0.00499913841485977,0.0168701056391001,0.0166717674583197
397,-0.0105357058346272,0.0268416088074446,0.0128966365009546,0.00591442128643394,0.0184035748243332,0.0181094408035278
398,-0.0165432076901197,0.0234049241989851,0.0116477552801371,0.00607850216329098,0.0168165806680918,0.0168558284640312
399,-0.0211570132523775,0.0212476514279842,0.00755622982978821,0.00573049113154411,0.0135630248114467,0.0117771616205573
400,-0.022785447537899,0.0201333574950695,0.00264148414134979,0.00398185709491372,0.0115057369694114,0.00394149171188474
401,-0.0212971512228251,0.0191630069166422,-0.000928580877371132,0.000938620767556131,0.0124003803357482,-0.00420532375574112
402,-0.0186748579144478,0.0180052760988474,-0.00290978164412081,-0.00213827006518841,0.0138447908684611,-0.00972320139408112
403,-0.0183184668421745,0.0152034740895033,-0.00561967771500349,-0.00503908516839147,0.0114926118403673,-0.0117710372433066
404,-0.0195571891963482,0.0113749736919999,-0.00834536924958229,-0.00592764234170318,0.00572538189589977,-0.00975048914551735
405,-0.0200196914374828,0.00825651083141565,-0.0087025435641408,-0.0036945182364434,-0.000806609867140651,-0.00460828142240644
406,-0.0219489857554436,0.00439558364450932,-0.00826856028288603,-0.00178631767630577,-0.00785152148455381,-0.000560248969122767
407,-0.0278216898441315,-0.0017047697911039,-0.00917573925107718,-0.00351475924253464,-0.0143417585641146,0.000711092201527208
408,-0.0352172292768955,-0.00802958477288485,-0.00981175526976585,-0.00747729931026697,-0.0176655948162079,0.00229737069457769
409,-0.0411310903728008,-0.0127839632332325,-0.00884698331356049,-0.0109505327418447,-0.0183076914399862,0.00539843179285526
410,-0.0448406077921391,-0.0164961367845535,-0.00727141089737415,-0.0127146383747458,-0.0181582756340504,0.00800321064889431
411,-0.0474329181015491,-0.0203618779778481,-0.00682275183498859,-0.012697427533567,-0.018528938293457,0.00791957974433899
412,-0.0512681193649769,-0.0249737426638603,-0.00970592070370913,-0.012359288521111,-0.0220439247786999,0.00436878856271505
413,-0.0556886084377766,-0.0284453779459,-0.0142010021954775,-0.0124451750889421,-0.0280546471476555,0.000174981862073764
414,-0.0564594715833664,-0.0278658159077168,-0.0148051474243402,-0.0115897925570607,-0.0307651050388813,-0.000738268834538758
415,-0.0521059855818748,-0.0237021781504154,-0.00989885721355677,-0.00935420021414757,-0.0271838083863258,0.0018681293586269
416,-0.0446215867996216,-0.0181035883724689,-0.00217019743286073,-0.00639515602961183,-0.0197601150721312,0.00602327054366469
417,-0.0352244526147842,-0.0114850020036101,0.00475421920418739,-0.00279534934088588,-0.0120127210393548,0.0105158016085625
418,-0.0265697054564953,-0.00573587045073509,0.0065597128123045,-0.000704152975231409,-0.00747086340561509,0.0127974869683385
419,-0.0220626555383205,-0.00273644109256566,0.00318146753124893,-0.00189204572234303,-0.00646906672045588,0.0123029826208949
420,-0.0209189876914024,-0.00110691948793828,0.000312395190121606,-0.00385756208561361,-0.00442827865481377,0.0122840851545334
421,-0.0216347482055426,-0.00079799146624282,0.000445452140411362,-0.00522470194846392,0.00115973211359233,0.0121552431955934
422,-0.0245256870985031,-0.0034021264873445,0.00074134866008535,-0.00758100813254714,0.00759322755038738,0.00943970121443272
423,-0.0285523887723684,-0.00820024684071541,-3.69668123312294E-05,-0.0110284192487597,0.0117640551179647,0.00544086657464504
424,-0.032244335860014,-0.0139500061050057,-0.000653363356832415,-0.0142961135134101,0.0126575818285346,0.000996684189885855
425,-0.0344765670597553,-0.019445801153779,0.000535066181328148,-0.0152527606114745,0.0110367592424154,-0.00380684365518391
426,-0.0349220968782902,-0.0239427704364061,0.00261170277372003,-0.0130606768652797,0.00689751701429486,-0.00842365436255932
427,-0.0347945541143417,-0.0281823426485062,0.00174987444188446,-0.0104110622778535,-0.000593953009229153,-0.0133875450119376
428,-0.0338162370026112,-0.0312545672059059,-0.00193430949002504,-0.00908986013382673,-0.00887307431548834,-0.016526447609067
429,-0.0302094146609306,-0.0305522084236145,-0.00350342923775315,-0.00717188278213143,-0.0132378023117781,-0.0132201127707958
430,-0.0255536045879126,-0.0265762899070978,-0.00122581247705966,-0.00374704669229686,-0.0126436678692698,-0.00442873686552048
431,-0.0249856244772673,-0.0244969837367535,0.000537643150892109,-0.0024466069880873,-0.0111249852925539,0.0023924105335027
432,-0.029861256480217,-0.0269304011017084,-4.00814351451118E-05,-0.00498849432915449,-0.0115103758871555,0.0029362216591835
433,-0.0369944162666798,-0.0314807407557964,-0.000292070937575772,-0.00854446552693844,-0.013572066091001,-0.000863182707689703
434,-0.0430870428681374,-0.0363165177404881,4.62832067569252E-05,-0.0112697035074234,-0.0167340394109488,-0.00577984238043427
435,-0.0451098270714283,-0.0418708696961403,-0.00131545192562044,-0.0140293994918466,-0.0205687209963799,-0.0103895599022508
436,-0.0413924418389797,-0.0487527921795845,-0.0051739146001637,-0.0177510604262352,-0.0250180102884769,-0.0150533644482493
437,-0.0329155959188938,-0.0549941956996918,-0.00848383083939552,-0.0202758070081472,-0.0275524985045195,-0.0184788927435875
438,-0.0231141615658998,-0.0576334521174431,-0.00772724393755198,-0.0186246950179338,-0.0252988561987877,-0.0176877435296774
439,-0.0165899004787207,-0.0574233345687389,-0.00391195714473724,-0.0142429182305932,-0.0205318480730057,-0.0135598946362734
440,-0.015449671074748,-0.0574878789484501,-0.000177068330231123,-0.0108536034822464,-0.0164064988493919,-0.0104813454672694
441,-0.0178610254079103,-0.0589674897491932,0.00150648201815784,-0.00972531363368034,-0.0132515653967857,-0.0107684852555394
442,-0.0205986276268959,-0.0609519630670547,0.000209641337278299,-0.00964011903852224,-0.0110651468858123,-0.0135097652673721
443,-0.0218817591667175,-0.0625548660755157,-0.00371783715672791,-0.00920819956809282,-0.00979267153888941,-0.0173042267560959
444,-0.0229497719556093,-0.0640453100204468,-0.00932488869875669,-0.00940830539911985,-0.00974473636597395,-0.0215752813965082
445,-0.0254632625728846,-0.0657284036278725,-0.0146821243688464,-0.0118391923606396,-0.0113280126824975,-0.0249558351933956
446,-0.0273465700447559,-0.0654689446091652,-0.0162361226975918,-0.014318872243166,-0.0124854063615203,-0.0254704002290964
447,-0.0251864548772573,-0.0608505234122276,-0.0122252441942692,-0.01323401927948,-0.0110640516504645,-0.0229903254657984
448,-0.0203064139932394,-0.054248608648777,-0.00622453819960356,-0.0101449890062213,-0.00964187737554312,-0.0199019107967615
449,-0.0159080922603607,-0.0491373613476753,-0.00242913514375687,-0.00862887687981129,-0.0105778072029352,-0.0169164538383484
450,-0.011761580593884,-0.0450159572064877,-0.000406583276344463,-0.00765988603234291,-0.0110670495778322,-0.0116918003186584
451,-0.00713885156437755,-0.0409298725426197,0.00171729782596231,-0.00506922323256731,-0.00891681760549545,-0.00413881056010723
452,-0.00229232525452971,-0.0371150784194469,0.00463104108348489,-0.00113270245492458,-0.00526046799495816,0.00304842903278768
453,0.00278533902019262,-0.0334084779024124,0.00806957390159369,0.0032756794244051,-0.00209014094434679,0.00707852421328425
454,0.00773344049230218,-0.0299779921770096,0.0113425003364682,0.007631441578269,-0.000483095616800711,0.0069801788777113
455,0.0114428382366896,-0.0280833654105663,0.0136095825582743,0.0107980137690902,-8.24898870632751E-06,0.00402772706001997
456,0.0118972938507795,-0.0297775417566299,0.012896160595119,0.0102094290778041,-0.000917658268008381,-0.00118294823914766
457,0.00869313441216946,-0.0354338698089123,0.00828837603330612,0.0043531833216548,-0.00390852754935622,-0.00834919605404139
458,0.00387629913166165,-0.0427252538502216,0.00208486896008253,-0.00478566717356443,-0.00797056686133146,-0.0155660603195429
459,-0.00120245246216655,-0.0496460124850273,-0.00326784118078649,-0.0139172384515405,-0.0112144900485873,-0.0207131057977676
460,-0.00543383089825511,-0.0547103993594646,-0.0062575857155025,-0.0198392122983933,-0.0122309438884258,-0.0215525552630425
461,-0.00813298765569925,-0.0566870085895061,-0.0058681583032012,-0.020139217376709,-0.0116243241354823,-0.016055554151535
462,-0.00843125488609076,-0.0549482777714729,-0.00198751268908381,-0.0140708414837718,-0.0099369278177619,-0.00459654070436955
463,-0.00438672304153442,-0.050180196762085,0.00347965746186674,-0.00403135735541582,-0.00706310011446476,0.00784450862556696
464,0.00295200617983937,-0.0452156513929367,0.00741789303719997,0.00478716706857085,-0.00402161525562406,0.0139716872945428
465,0.0108639327809215,-0.0412941463291645,0.0102551560848951,0.0108510693535209,0.000156807160237804,0.011989114806056
466,0.0183704420924187,-0.0370697043836117,0.0138524621725082,0.0169142205268145,0.00660376390442252,0.0072336345911026
467,0.0246338378638029,-0.0323276743292809,0.0174326878041029,0.023792615160346,0.0126759270206094,0.00503012398257852
468,0.0281849503517151,-0.0289034489542246,0.0206844750791788,0.0293294433504343,0.0151790548115969,0.00505788391456008
469,0.0289883222430944,-0.0276240333914757,0.0252473559230566,0.0322255045175552,0.01469696033746,0.0041562975384295
470,0.0274052564054728,-0.0289754047989845,0.0293856672942638,0.0313478708267212,0.0116168512031436,-0.000488908612169325
471,0.022751659154892,-0.0340560153126717,0.0286915488541126,0.0253686495125294,0.00405163643881679,-0.00940770376473665
472,0.0174126923084259,-0.0399647057056427,0.0240853037685156,0.0183074083179235,-0.00435110460966825,-0.0170399025082588
473,0.0150364628061652,-0.0435112938284874,0.0185177605599165,0.0150963654741645,-0.00804021395742893,-0.018955422565341
474,0.0154779739677906,-0.0465001538395882,0.0116988634690642,0.0137231200933456,-0.0078981900587678,-0.0184564255177975
475,0.0170323997735977,-0.0500627979636192,0.00416877493262291,0.0106512224301696,-0.00614716997370124,-0.0193088445812464
476,0.0189297795295715,-0.0513246469199657,-0.00089471583487466,0.00743595091626048,-0.0019168124999851,-0.0204717814922333
477,0.0208997335284948,-0.0477189011871815,-0.000926938315387815,0.0078338636085391,0.00573002267628908,-0.0186071079224348
478,0.0233018714934587,-0.0407041758298874,0.00352407479658723,0.0119628645479679,0.0164438597857952,-0.0117988688871264
479,0.0266376957297325,-0.0337651930749416,0.0104114068672061,0.016518872231245,0.028959596529603,-0.00114730384666473
480,0.0294085312634707,-0.0297685842961073,0.0166591070592403,0.0185292102396488,0.0389016084372997,0.00809345580637455
481,0.0296291317790747,-0.0299226436764002,0.0189599078148603,0.0176916439086199,0.0411249697208405,0.0104490863159299
482,0.0274487771093845,-0.0329539477825165,0.0170095581561327,0.0155323408544064,0.0347565189003944,0.00629274547100067
483,0.0255291387438774,-0.0351730063557625,0.0144697399809957,0.0143164340406656,0.0245086364448071,0.00118661427404732
484,0.0256627053022385,-0.0338685549795628,0.0151054337620735,0.0155263068154454,0.0161314215511084,-0.000875405385158956
485,0.0249009486287832,-0.0318048633635044,0.0169975776225328,0.016618475317955,0.00943899620324373,-0.00252239708788693
486,0.0205516405403614,-0.032832570374012,0.0161441527307034,0.0148120317608118,0.00160903646610677,-0.00659685069695115
487,0.0141467815265059,-0.0364999733865261,0.0126813193783164,0.0113593367859721,-0.00676172552630305,-0.0109161715954542
488,0.00854233931750059,-0.0408163145184517,0.00899828318506479,0.00857932772487402,-0.0130029944702983,-0.0124896410852671
489,0.00677673052996397,-0.0447727404534817,0.00667283590883017,0.00798461120575666,-0.015419190749526,-0.0100314570590854
490,0.0101343505084515,-0.0476200766861439,0.006148393265903,0.0103751262649894,-0.0145538365468383,-0.00451834313571453
491,0.0150718158110976,-0.049185436218977,0.00678606517612934,0.0139979831874371,-0.0123178046196699,0.000361173821147531
492,0.0175384134054184,-0.0496672764420509,0.00805310439318419,0.0157555267214775,-0.00933972559869289,0.00164003856480122
493,0.0171786248683929,-0.049341045320034,0.00985119119286537,0.0144550930708647,-0.00513808894902468,-0.00104983698111027
494,0.0148207014426589,-0.0491243936121464,0.0113611733540893,0.0108456360176206,-0.000530920282471925,-0.0062827249057591
495,0.0119523974135518,-0.0491413958370686,0.0119571685791016,0.0070518609136343,0.00328939547762275,-0.00959667563438416
496,0.0109986746683717,-0.048945739865303,0.011054745875299,0.00464642280712724,0.0061393310315907,-0.00786338560283184
497,0.0125687913969159,-0.0490506365895271,0.00837923027575016,0.00366013892926276,0.0085685970261693,-0.00433889217674732
498,0.0156317055225372,-0.0486517362296581,0.00667416024953127,0.00561073701828718,0.0115696024149656,-0.00153353402856737
499,0.0192007124423981,-0.0458154641091824,0.00814994890242815,0.0113469557836652,0.0148905720561743,0.00224346900358796
500,0.0225220434367657,-0.0411210283637047,0.0104856761172414,0.0171153377741575,0.0171697232872248,0.00652435421943665
501,0.0257884003221989,-0.0368412025272846,0.0110649913549423,0.0190218016505241,0.0183865763247013,0.00861742347478867
502,0.0293781701475382,-0.0349138453602791,0.00963113829493523,0.016708105802536,0.019710049033165,0.00716388737782836
503,0.0322207547724247,-0.0360713340342045,0.0068868980742991,0.0117335729300976,0.0217879023402929,0.00231005740351975
504,0.0322065427899361,-0.038943238556385,0.0040806052275002,0.00625047367066145,0.0235881675034761,-0.00473805796355009
505,0.0291124526411295,-0.0414969772100449,0.00243068463169038,0.00198901095427573,0.0234930943697691,-0.0119672268629074
506,0.0231379065662622,-0.0446427911520004,0.000105642990092747,-0.00184341438580304,0.0187144000083208,-0.0189963467419147
507,0.014789073728025,-0.0485139265656471,-0.0038302328903228,-0.00502180773764849,0.00845723040401936,-0.0244745500385761
508,0.00770048843696713,-0.0490007176995277,-0.00510570360347629,-0.00466434517875314,-0.00208358187228441,-0.0241733137518168
509,0.00432571396231651,-0.0446972250938416,-0.00152444804552943,-0.00130567816086113,-0.00860520638525486,-0.0172291919589043
510,0.00403004186227918,-0.0382770411670208,0.00491178035736084,0.00223575672134757,-0.0107526499778032,-0.00670290552079678
511,0.00631762202829123,-0.0315200574696064,0.0129332803189754,0.0056148711591959,-0.00807672645896673,0.00377959664911032
512,0.0114356148988009,-0.0244451612234116,0.0217747427523136,0.0102194473147392,-0.000876740552484989,0.011362181045115
513,0.0179390925914049,-0.0182395242154598,0.0287016630172729,0.0154082160443068,0.00748285325244069,0.0139537220820785
514,0.0231620203703642,-0.0154581451788545,0.0312409065663815,0.0179951991885901,0.0137453405186534,0.0104505904018879
515,0.027069378644228,-0.0160419307649136,0.0308777093887329,0.0169937890022993,0.0179709549993277,0.00358351669274271
516,0.0314735993742943,-0.0175499562174082,0.0307962279766798,0.0150279039517045,0.0214012265205383,-0.0014481705147773
517,0.0358835682272911,-0.0191954225301743,0.0314870327711105,0.014053943566978,0.0234350804239511,-0.0024905854370445
518,0.0383680276572704,-0.0209556072950363,0.0322714447975159,0.0142068434506655,0.0233456511050463,0.00041630951454863
519,0.0381129309535027,-0.0220316499471664,0.033007524907589,0.0152856837958097,0.0218641608953476,0.00736752431839705
520,0.0344234220683575,-0.0234329272061586,0.0317302122712135,0.0155174341052771,0.0179160833358765,0.0154859172180295
521,0.0280681066215038,-0.0263921227306128,0.0273375324904919,0.0135613596066833,0.0107938731089234,0.0201428588479757
522,0.0217127148061991,-0.0298685096204281,0.0219524782150984,0.0110067892819643,0.00344152119942009,0.0193849466741085
523,0.0180482175201178,-0.0317506827414036,0.0181686542928219,0.0101920077577233,-0.00039892116910778,0.0152128292247653
524,0.0181436836719513,-0.0313488245010376,0.0170943103730679,0.0112390611320734,0.000583623594138771,0.0104616908356547
525,0.0198242403566837,-0.031356867402792,0.0170530434697866,0.0115224374458194,0.00336028006859124,0.00452139414846897
526,0.022177305072546,-0.0337431840598583,0.0163147803395987,0.010036326944828,0.00457170465961099,-0.00321042840369046
527,0.0263318661600351,-0.0373746603727341,0.0148450043052435,0.00816518627107143,0.00397317158058286,-0.0104641476646066
528,0.0302671566605568,-0.0404699631035328,0.0127123659476638,0.00699132354930043,0.00305438437499106,-0.0146270161494613
529,0.0313206203281879,-0.041272085160017,0.0113314324989915,0.00821355637162924,0.00474311644211411,-0.01444196049124
530,0.030956594273448,-0.0386444553732872,0.0136906346306205,0.0137444334104657,0.0119268335402012,-0.0104534374549985
531,0.0320196151733398,-0.0334730297327042,0.0204455628991127,0.0220260974019766,0.0239999983459711,-0.00520837400108576
532,0.0350047685205936,-0.0283844266086817,0.0276003777980804,0.0275508146733046,0.0356698483228683,-0.00204549636691809
533,0.0377418696880341,-0.025783896446228,0.0295783597975969,0.0263885892927647,0.0411508120596409,-0.00216892268508673
534,0.0361021719872952,-0.0275126937776804,0.0237896163016558,0.0192156992852688,0.0387422107160091,-0.00521760853007436
535,0.0285415928810835,-0.0327223092317581,0.0138175990432501,0.0104489680379629,0.0308114923536778,-0.010087201371789
536,0.0195227768272161,-0.0366897061467171,0.00711030699312687,0.00588191486895084,0.0215307306498289,-0.0134331881999969
537,0.0138567490503192,-0.0374282412230968,0.00659784534946084,0.00672131171450019,0.0131545159965754,-0.0131389172747731
538,0.0112849092110991,-0.0377687551081181,0.00885007996112108,0.00865553226321936,0.00538004236295819,-0.0112807722762227
539,0.00998778361827135,-0.0385092049837112,0.0106816068291664,0.00868458673357964,-0.000890258059371263,-0.00917273107916117
540,0.00902231596410275,-0.0382095649838448,0.0109332269057631,0.0071178930811584,-0.00477737095206976,-0.00615565711632371
541,0.00764895789325237,-0.0369634181261063,0.00944612082093954,0.00525882747024298,-0.00769805209711194,-0.0028325084131211
542,0.00587437441572547,-0.0354120321571827,0.0072765382938087,0.00467498321086168,-0.0114726293832064,0.000120225042337552
543,0.00394378881901503,-0.0351923108100891,0.00453602150082588,0.00516832619905472,-0.0174087714403868,0.00253636762499809
544,0.0014572988729924,-0.0389646515250206,-0.000322968437103555,0.0038792232517153,-0.0260379407554865,0.00450221169739962
545,-0.00126980699133128,-0.0454932190477848,-0.00705889752134681,-0.000421901087975129,-0.0350533947348595,0.00686122197657824
546,-0.00183657126035541,-0.0496060028672218,-0.0122439740225673,-0.00436493568122387,-0.0391878820955753,0.0095891309902072
547,0.00177599443122745,-0.0483684316277504,-0.0129761295393109,-0.00419491669163108,-0.0354174003005028,0.0111739281564951
548,0.0093636205419898,-0.0421369522809982,-0.00881209224462509,1.27927778521553E-05,-0.0256239175796509,0.0106258578598499
549,0.0179777182638645,-0.0336816608905792,-0.00228610658086836,0.00471644010394812,-0.0146006066352129,0.00748864281922579
550,0.0239388924092054,-0.0272081326693296,0.00261343130841851,0.00721837719902396,-0.00660747708752751,0.00187886680942029
551,0.0266387388110161,-0.0251446329057217,0.0041932319290936,0.00791920255869627,-0.00227287551388144,-0.00491827167570591
552,0.0277745127677917,-0.0271540749818087,0.00303094740957022,0.00721329636871815,0.000662728329189122,-0.0120708309113979
553,0.0285553634166718,-0.031534019857645,0.000127378880279139,0.00425435369834304,0.00426442921161652,-0.019376477226615
554,0.0297424774616957,-0.0362492650747299,-0.00340179540216923,-0.00066357763716951,0.00898291263729334,-0.0253443662077188
555,0.0314519330859184,-0.0400092974305153,-0.00683324038982391,-0.00603621359914541,0.0136045720428228,-0.0281757395714521
556,0.0316208228468895,-0.0445084162056446,-0.0112549141049385,-0.0121786873787642,0.0153816509991884,-0.0291391611099243
557,0.0310168117284775,-0.0504798330366611,-0.0159124173223972,-0.0185339860618114,0.0143750850111246,-0.028948001563549
558,0.0326457992196083,-0.0549162104725838,-0.017313901335001,-0.0219766292721033,0.0134571855887771,-0.0254985298961401
559,0.0340902544558048,-0.0564885325729847,-0.0147628718987107,-0.0212703794240952,0.0123853301629424,-0.0188914500176907
560,0.0324372798204422,-0.0559561401605606,-0.00986093934625387,-0.0173207204788923,0.00962183997035027,-0.0108952587470412
561,0.0296199675649405,-0.0528369173407555,-0.00425193924456835,-0.0116023179143667,0.00672563724219799,-0.00238772155717015
562,0.0273884031921625,-0.0471725314855576,-0.000530413759406656,-0.00658827181905508,0.00526063470169902,0.00451888795942068
563,0.0246877409517765,-0.0415296591818333,-0.00116008683107793,-0.00497932406142354,0.00346796400845051,0.00723750749602914
564,0.0203867461532354,-0.0380101017653942,-0.00580754550173879,-0.00736501626670361,-0.000149712010170333,0.00601626606658101
565,0.0148616693913937,-0.0366633571684361,-0.011855773627758,-0.0121732726693153,-0.00451250746846199,0.00228823395445943
566,0.00960660818964243,-0.0374370962381363,-0.0173323899507523,-0.0173131879419088,-0.00781174004077911,-0.00318398489616811
567,0.0061667924746871,-0.0399601422250271,-0.0217301640659571,-0.0205917190760374,-0.00914617534726858,-0.0085737369954586
568,0.00556510919705033,-0.0413723774254322,-0.0242398176342249,-0.0201679170131683,-0.00815501064062119,-0.0108103835955262
569,0.00774873280897737,-0.0387347154319286,-0.023708188906312,-0.016028169542551,-0.00468896888196468,-0.00902750343084335
570,0.0109217027202249,-0.0339881740510464,-0.0212609767913818,-0.0110453693196177,-0.000446316436864436,-0.00611504213884473
571,0.0136417225003242,-0.0303859896957874,-0.0186254605650902,-0.00767531711608171,0.00232720165513456,-0.00463479105383158
572,0.0157393272966146,-0.0273789260536432,-0.015544043853879,-0.00517997983843088,0.00314450985752046,-0.00384162296541035
573,0.0164029691368341,-0.0240459516644478,-0.0121839260682464,-0.00277573429048061,0.00312360702082515,-0.00210261950269341
574,0.0138450972735882,-0.0225821547210217,-0.0105073191225529,-0.00188413891009986,0.0030414741486311,0.000375813397113234
575,0.0076273106969893,-0.0251419078558683,-0.0113377757370472,-0.00396599899977446,0.0027543380856514,0.00276328762993217
576,0.000936703814659268,-0.0300185158848763,-0.0121308201923966,-0.00729437172412872,0.00370169058442116,0.00532584590837359
577,-0.0013631220208481,-0.0330970510840416,-0.00966445449739695,-0.0065916832536459,0.00783991161733866,0.00976257119327784
578,0.00226806080900133,-0.0321570746600628,-0.00369920022785664,0.000701126409694552,0.0140933021903038,0.0161839537322521
579,0.00862553156912327,-0.0293660312891006,0.0024687999393791,0.00917526893317699,0.0185823943465948,0.0196369886398315
580,0.0149400997906923,-0.0277804080396891,0.00582133559510112,0.0125677352771163,0.0186064187437296,0.0166081395000219
581,0.0211818888783455,-0.0277275219559669,0.00654028495773673,0.0108389547094703,0.0152749447152019,0.0102652600035071
582,0.0259031634777784,-0.0292604621499777,0.00579601339995861,0.00634253537282348,0.0112910280004144,0.00401632068678737
583,0.0277629140764475,-0.0317729488015175,0.00591841246932745,0.00180710735730827,0.00957582797855139,-0.00101247860584408
584,0.0287865623831749,-0.0319907255470753,0.00991499796509743,0.000810067635029554,0.0118601694703102,-0.00286436220631003
585,0.0305775739252567,-0.0277459491044283,0.0169979706406593,0.00480415811762214,0.0164905916899443,-0.000494666222948581
586,0.031368549913168,-0.021917475387454,0.0218588560819626,0.0114132454618812,0.0194491278380156,0.00338978483341634
587,0.0299784429371357,-0.018446696922183,0.0208310764282942,0.0169939566403627,0.0181574858725071,0.00562175968661904
588,0.029251404106617,-0.0175976511090994,0.0160076506435871,0.0195493493229151,0.0139343235641718,0.00654657650738955
589,0.0308019462972879,-0.0191880278289318,0.0103388978168368,0.0181081779301167,0.00915938429534435,0.00751765165477991
590,0.0319357290863991,-0.0226566921919584,0.00560387596487999,0.0140313357114792,0.00582788186147809,0.0103064803406596
591,0.0307490900158882,-0.0247761104255915,0.00409759813919663,0.0111342612653971,0.00566719053313136,0.0171063952147961
592,0.0276329964399338,-0.0231241025030613,0.00585973216220737,0.0109046818688512,0.00802881736308336,0.0268415436148643
593,0.0228485632687807,-0.0186141990125179,0.00839532166719437,0.0117977540940046,0.0102443965151906,0.0355811156332493
594,0.0175199881196022,-0.0139770824462175,0.0112941917032003,0.0128003172576427,0.0115115232765675,0.0391923747956753
595,0.01439971011132,-0.0104886880144477,0.0168470293283463,0.0146777154877782,0.0141681833192706,0.0363470129668713
596,0.014111153781414,-0.00829841755330563,0.0244339872151613,0.0174315012991428,0.0194402746856213,0.0290652774274349
597,0.0147694163024426,-0.0077544953674078,0.0307605564594269,0.0200926903635263,0.0259155984967947,0.0211600549519062
598,0.0148834548890591,-0.00873856898397207,0.034244641661644,0.0219770893454552,0.0305570382624865,0.017116405069828
599,0.0136013794690371,-0.0117981657385826,0.0340352132916451,0.0216082520782948,0.0299816858023405,0.0178826991468668
600,0.0123266698792577,-0.0160528924316168,0.0311886314302683,0.0197918247431517,0.0253135748207569,0.0220377631485462
601,0.0138704292476177,-0.0182500798255205,0.028996454551816,0.0199989769607782,0.0207871459424496,0.0286789163947105
602,0.0183062143623829,-0.0172306187450886,0.0288428030908108,0.0226382333785295,0.0177421290427446,0.0346267484128475
603,0.0234445985406637,-0.0149764567613602,0.0295927114784718,0.025076687335968,0.0155056398361921,0.0358003154397011
604,0.0278980154544115,-0.0138690331950784,0.0296282805502415,0.025203000754118,0.0138428909704089,0.0312650427222252
605,0.031334675848484,-0.0146574033424258,0.0280216354876757,0.0226228479295969,0.0122543070465326,0.0233776103705168
606,0.0318596996366978,-0.0173879060894251,0.024102283641696,0.0177855864167213,0.00917698536068201,0.0146412681788206
607,0.0255855079740286,-0.0225899126380682,0.0172384977340698,0.0107356449589133,0.00293011334724724,0.00566173112019897
608,0.0134811392053962,-0.0278357304632664,0.0107694258913398,0.00416306825354695,-0.00364698236808181,-0.00128490105271339
609,0.00355403311550617,-0.0275762677192688,0.0115765482187271,0.00361814256757498,-0.00322955707088113,-0.00169611896853894
610,0.000971925328485668,-0.0202802084386349,0.0213643126189709,0.0105995666235685,0.00672271801158786,0.00579743320122361
611,0.0027712017763406,-0.0111697008833289,0.0341591872274876,0.0195993818342686,0.0196815878152847,0.0178880076855421
612,0.00339563726447523,-0.00634815683588386,0.0424073226749897,0.0234883930534124,0.0273602418601513,0.0292290560901165
613,0.0010349442018196,-0.00653622392565012,0.0434427671134472,0.021290298551321,0.0280260946601629,0.0362600907683373
614,-0.00246329070068896,-0.00889126025140285,0.0394175164401531,0.0165665708482265,0.0246319621801376,0.0378417335450649
615,-0.00460436614230275,-0.0124285239726305,0.0324140563607216,0.010818038135767,0.0198443941771984,0.0342537276446819
616,-0.0028194768819958,-0.0166036393493414,0.0250731110572815,0.00561369908973575,0.0175111554563046,0.0289286375045776
617,0.00199806573800743,-0.0204566512256861,0.0194822736084461,0.00248335185460746,0.0191345699131489,0.024346437305212
618,0.0048067863099277,-0.0248926989734173,0.0140970349311829,-0.000260559056187049,0.0197325851768255,0.0180701483041048
619,0.00398720661178231,-0.0297074932605028,0.0090760812163353,-0.00356750772334635,0.01675109192729,0.00917694345116615
620,0.00181753863580525,-0.0325377024710178,0.00712663726881146,-0.00679898448288441,0.0130939120426774,0.000864995585288852
621,-0.000870372634381056,-0.0321760289371014,0.00771468412131071,-0.00958704389631748,0.00992296822369099,-0.00442376919090748
622,-0.00342080160044134,-0.0285292938351631,0.00883326679468155,-0.0100461728870869,0.00685324519872665,-0.00563844526186585
623,-0.00490246992558241,-0.0233527012169361,0.00917983986437321,-0.00742383021861315,0.00396141177043319,-0.0033302849624306
624,-0.00583062181249261,-0.0204123891890049,0.00712287798523903,-0.00432803481817245,0.00102029799018055,-0.00026982493000105
625,-0.00594480568543077,-0.0210223216563463,0.00326207862235606,-0.00272215553559363,-0.00150474847760051,0.00140171300154179
626,-0.0043444181792438,-0.0242443662136793,-9.21404498512857E-05,-0.00300944340415299,-0.00301965675316751,0.000799916975665838
627,-0.00157730188220739,-0.0293658599257469,-0.00222048838622868,-0.00497593497857451,-0.00391053175553679,-0.00074774504173547
628,0.000514767307322472,-0.035474244505167,-0.00474053388461471,-0.00833512004464865,-0.00540840439498425,-0.00101526489015669
629,0.000803249480668455,-0.0400805957615376,-0.00801795441657305,-0.0122374510392547,-0.00716536026448011,-0.000482479721540585
630,-0.000910254660993814,-0.040603693574667,-0.0090776514261961,-0.0146768167614937,-0.00700326822698116,-0.000969396322034299
631,-0.00443329941481352,-0.0367060489952564,-0.00561712123453617,-0.0143820839002728,-0.00420999294146895,-0.00236629764549434
632,-0.00823478307574987,-0.029404966160655,0.000943872961215675,-0.0117224352434278,0.000209463585633785,-0.00302289379760623
633,-0.0115380361676216,-0.0219733435660601,0.00576955126598477,-0.00938071962445974,0.00436853058636189,-0.00368320709094405
634,-0.013227098621428,-0.0172545555979013,0.00625236239284277,-0.00892456993460655,0.00721768848598003,-0.0051164198666811
635,-0.0122401099652052,-0.0154570359736681,0.00315836677327752,-0.00951356533914804,0.00777247920632362,-0.00593444844707847
636,-0.0103781651705503,-0.0159951448440552,-0.0027285332325846,-0.0110475644469261,0.00528141763061285,-0.00624781381338835
637,-0.00945679936558008,-0.0171241629868746,-0.00911225657910109,-0.0128682041540742,0.00161055836360902,-0.00689087901264429
638,-0.0101614259183407,-0.0174869690090418,-0.0135176870971918,-0.0135332187637687,-0.00134829722810537,-0.00653338106349111
639,-0.0123881669715047,-0.0175674092024565,-0.0155220571905375,-0.0128073804080486,-0.00280699972063303,-0.00345962611027062
640,-0.0164987742900848,-0.0196529868990183,-0.0171474944800138,-0.0127502176910639,-0.00416523404419422,0.000198315712623298
641,-0.0221500564366579,-0.0244764070957899,-0.0205570757389069,-0.0139994472265244,-0.00859394669532776,0.00116090232040733
642,-0.025626914575696,-0.0282823070883751,-0.0250005107372999,-0.0136900655925274,-0.0155075704678893,1.82669336936669E-05
643,-0.0246399659663439,-0.0283509902656078,-0.0293640457093716,-0.0117673194035888,-0.0216851253062487,-0.00155339064076543
644,-0.020934272557497,-0.0257317647337914,-0.0324487835168839,-0.0102560659870505,-0.025219451636076,-0.00235320255160332
645,-0.0156219890341163,-0.0210557766258717,-0.0310429576784372,-0.00759863434359431,-0.024137319996953,-0.000335378863383085
646,-0.00923896674066782,-0.0145274931564927,-0.0239137019962072,-0.00201401370577514,-0.0181274637579918,0.0047129662707448
647,-0.00469525158405304,-0.00769498851150274,-0.0144495246931911,0.00517808645963669,-0.0105694178491831,0.0107149574905634
648,-0.00418798718601465,-0.00222355406731367,-0.00704431999474764,0.0117613980546594,-0.00480550387874246,0.0158254392445087
649,-0.00659726653248072,0.00107936910353601,-0.00338350608944893,0.0161133110523224,-0.0012767082080245,0.0191416330635548
650,-0.00992227252572775,0.00222563231363893,-0.00271525722928345,0.0172146260738373,0.00107529514934868,0.0199786331504583
651,-0.0128110554069281,0.00172015896532685,-0.00374758755788207,0.0147879486903548,0.00276588927954435,0.0172148235142231
652,-0.0144717767834663,0.000268850970314816,-0.0054367003031075,0.00964370928704739,0.00373178510926664,0.0106826778501272
653,-0.014946797862649,-0.0014258548617363,-0.00757333263754845,0.00343803223222494,0.00374683295376599,0.0026584651786834
654,-0.0155288185924292,-0.00365359708666801,-0.0111448485404253,-0.00297182169742882,0.00183943076990545,-0.00426435843110085
655,-0.0165706891566515,-0.00623835576698184,-0.0152348224073648,-0.00844335928559303,-0.00113146204967052,-0.00782647542655468
656,-0.0156602077186108,-0.00717627769336104,-0.0163137577474117,-0.0107694482430816,-0.00112966622691602,-0.00621199514716864
657,-0.0116127226501703,-0.00621808785945177,-0.0143031151965261,-0.0108932908624411,0.00324770994484425,-0.00185549550224096
658,-0.00541672157123685,-0.00501607730984688,-0.012345495633781,-0.0112821105867624,0.00965638551861048,0.00170973071362823
659,0.00112970941700041,-0.00508381007239223,-0.0122696198523045,-0.0122029669582844,0.0150123508647084,0.00430711219087243
660,0.00476554268971086,-0.00710622221231461,-0.0139525830745697,-0.0131429014727473,0.0170072820037603,0.00588479870930314
661,0.00449139252305031,-0.00849956553429365,-0.0145522896200418,-0.0127001916989684,0.0171233508735895,0.00583810964599252
662,0.00188730354420841,-0.00686191394925117,-0.0113940807059407,-0.0106428116559982,0.0176348201930523,0.00390911009162664
663,-0.0031047856900841,-0.00414340430870652,-0.00626803701743484,-0.00968679785728455,0.0172056779265404,0.00176765467040241
664,-0.0106527926400304,-0.00269153178669512,-0.00293475645594299,-0.0115508772432804,0.0139068271964788,0.00313830282539129
665,-0.0189741495996714,-0.00311459763906896,-0.00320587144233286,-0.015365919098258,0.00765527179464698,0.00669954344630241
666,-0.0258348062634468,-0.00523613998666406,-0.00694555882364511,-0.0195264853537083,0.000520261004567146,0.00656619668006897
667,-0.0306993816047907,-0.00860181730240583,-0.0136712286621332,-0.023618046194315,-0.00510094920173287,-0.000352513015968725
668,-0.0343086831271648,-0.0129514932632446,-0.0219603590667248,-0.0278003327548504,-0.00889582093805075,-0.0129056116566062
669,-0.035433504730463,-0.0160698555409908,-0.0271707903593779,-0.0297776274383068,-0.0102668404579163,-0.0261873193085194
670,-0.0330616682767868,-0.0158847328275442,-0.026225458830595,-0.0273168608546257,-0.00930300354957581,-0.0349469371140003
671,-0.0298815239220858,-0.014558045193553,-0.0226842649281025,-0.0218367520719767,-0.00872581358999014,-0.0382462702691555
672,-0.0291558019816875,-0.015000781044364,-0.0215249508619308,-0.0162084270268679,-0.0108177559450269,-0.0384582914412022
673,-0.0310448445379734,-0.0167399533092976,-0.0234709307551384,-0.0120446691289544,-0.0154185658320785,-0.0369425900280476
674,-0.0328118912875652,-0.0177680980414152,-0.0252976454794407,-0.00966572482138872,-0.019893454387784,-0.0330224297940731
675,-0.0337528213858604,-0.0190075151622295,-0.0258235782384872,-0.0103587778285146,-0.0234701838344336,-0.0284898299723864
676,-0.0361355543136597,-0.022333886474371,-0.027957733720541,-0.0146899754181504,-0.0278338305652142,-0.0267075151205063
677,-0.039059966802597,-0.0254980120807886,-0.0315308347344399,-0.0186876840889454,-0.0305445399135351,-0.0259461496025324
678,-0.0386608392000198,-0.0249618496745825,-0.0323805063962936,-0.017756225541234,-0.0272491946816444,-0.0214778985828161
679,-0.0331149213016033,-0.0209195371717215,-0.0287835877388716,-0.0116846868768334,-0.01862215064466,-0.0123969130218029
680,-0.0237803887575865,-0.0162946935743093,-0.0226909518241882,-0.00319855636917055,-0.00892094150185585,-0.0013404005439952
681,-0.0155440950766206,-0.0137134240940213,-0.0178456921130419,0.00358660495840013,-0.00268540158867836,0.00858583394438028
682,-0.0124511821195483,-0.0135071109980345,-0.0156918447464705,0.00570759549736977,-0.00172266364097595,0.015479146502912
683,-0.0118390051648021,-0.0126079563051462,-0.0127163380384445,0.00483408616855741,-0.00257391505874693,0.0193549375981092
684,-0.0102511225268245,-0.00862644519656897,-0.00729465484619141,0.00389312743209302,-0.00185562763363123,0.0206118132919073
685,-0.0099489064887166,-0.00471273902803659,-0.00396386720240116,0.00297686993144453,-0.00113926909398288,0.019350454211235
686,-0.0133587568998337,-0.00503662321716547,-0.00580312358215451,0.00171424366999418,-0.00205583358183503,0.0162436570972204
687,-0.0174964908510447,-0.00837718322873116,-0.00918698031455278,0.00146361393854022,-0.00138385419268161,0.0129493828862906
688,-0.018688315525651,-0.011661228723824,-0.0109928539022803,0.0021423208527267,0.00373244844377041,0.00965354777872562
689,-0.0170364137738943,-0.0138235129415989,-0.012194087728858,0.00183541758451611,0.0107328156009316,0.00447979941964149
690,-0.015183656476438,-0.0142717100679874,-0.0132477814331651,-3.71793212252669E-05,0.0147574190050364,-0.00312500353902578
691,-0.0157632548362017,-0.0126972068101168,-0.0137859275564551,-0.00274793477728963,0.0133660659193993,-0.0118493884801865
692,-0.018735958263278,-0.00934795569628477,-0.0144879510626197,-0.0054691038094461,0.00716783246025443,-0.0198324751108885
693,-0.0223660357296467,-0.00548769859597087,-0.0163806229829788,-0.00782892294228077,-0.00178988766856492,-0.0256540048867464
694,-0.0249704401940107,-0.00271204300224781,-0.0188016220927238,-0.00870868749916554,-0.00926310196518898,-0.0283726509660482
695,-0.025774983689189,-0.00206106249243021,-0.0206049289554358,-0.00750447437167168,-0.0127418115735054,-0.0277541745454073
696,-0.0257748365402222,-0.00490726716816425,-0.0225130040198565,-0.00671518500894308,-0.014827661216259,-0.0248779263347387
697,-0.0259572062641382,-0.0108212120831013,-0.0251789912581444,-0.0081499582156539,-0.0170985367149115,-0.0203292090445757
698,-0.0267050936818123,-0.0170925110578537,-0.0280022975057364,-0.0109952474012971,-0.018607672303915,-0.015128611586988
699,-0.0275615137070417,-0.0210009198635817,-0.0289114098995924,-0.0132119301706553,-0.0190451182425022,-0.0109389713034034
700,-0.0272757075726986,-0.021091440692544,-0.0259317383170128,-0.0128052178770304,-0.018466467037797,-0.00761782703921199
701,-0.0266467873007059,-0.0193495228886604,-0.0215690229088068,-0.0114580234512687,-0.0180221702903509,-0.00547137809917331
702,-0.0278678871691227,-0.019558547064662,-0.0203501768410206,-0.0127893956378102,-0.0195782259106636,-0.00500352447852492
703,-0.0306803733110428,-0.0223508831113577,-0.0221905596554279,-0.0170062091201544,-0.0226228628307581,-0.00498133804649115
704,-0.0326992683112621,-0.0257354490458965,-0.0238387119024992,-0.0220686998218298,-0.0256360750645399,-0.00598583556711674
705,-0.0322753079235554,-0.0289757791906595,-0.0249460861086845,-0.0266236700117588,-0.0295017845928669,-0.0102151120081544
706,-0.0290051214396954,-0.0312841609120369,-0.026159605011344,-0.0283253360539675,-0.0335846990346909,-0.0160528738051653
707,-0.0231583751738071,-0.0295559242367744,-0.0239833425730467,-0.0230031907558441,-0.0323908068239689,-0.0176327023655176
708,-0.016349833458662,-0.0227682795375586,-0.0159863028675318,-0.00999079737812281,-0.0233864560723305,-0.011932217516005
709,-0.0117030292749405,-0.0156109137460589,-0.00738960411399603,0.00345133175142109,-0.0134068755432963,-0.00406447891145945
710,-0.0114229070022702,-0.0138532454147935,-0.00526454485952854,0.00850768107920885,-0.0111919548362494,-0.00125813996419311
711,-0.0147590786218643,-0.0184702482074499,-0.0104174856096506,0.0036208787932992,-0.0179696585983038,-0.00472238333895803
712,-0.0186154209077358,-0.0252093989402056,-0.0175242498517036,-0.00623507471755147,-0.0279151163995266,-0.0101692238822579
713,-0.0203639641404152,-0.0293533112853765,-0.0211544930934906,-0.0154950711876154,-0.0348181687295437,-0.0127174239605665
714,-0.019369350746274,-0.0296637155115604,-0.0204705540090799,-0.0210380591452122,-0.0366478562355042,-0.0109573984518647
715,-0.0167696699500084,-0.0272519793361425,-0.0183438193053007,-0.0224972497671843,-0.0348272435367107,-0.00751459505409002
716,-0.0149902971461415,-0.0243838969618082,-0.0178738236427307,-0.0219138916581869,-0.0317180752754211,-0.00571951549500227
717,-0.0161177944391966,-0.0244255792349577,-0.0200187563896179,-0.022556746378541,-0.03003148175776,-0.00749297393485904
718,-0.0191963482648134,-0.0275472272187471,-0.022597236558795,-0.0252119768410921,-0.0300588998943567,-0.0122730573639274
719,-0.0204816143959761,-0.0291824862360954,-0.0224276222288609,-0.026640048250556,-0.0283127874135971,-0.0171926654875278
720,-0.0187935438007116,-0.0270163770765066,-0.0197182204574347,-0.0250748135149479,-0.0238922275602818,-0.0202034320682287
721,-0.0157697647809982,-0.0228893477469683,-0.0165787469595671,-0.0217122286558151,-0.018832003697753,-0.0196146033704281
722,-0.0137099176645279,-0.0198451392352581,-0.0155369332060218,-0.0184341482818127,-0.0151635184884071,-0.0158788841217756
723,-0.0159610658884048,-0.02128048799932,-0.0196272172033787,-0.0179506856948137,-0.0152725894004107,-0.0137324072420597
724,-0.0212454125285149,-0.0263563878834248,-0.026306414976716,-0.0202394872903824,-0.0177134666591883,-0.0136258183047175
725,-0.0236060973256826,-0.030206099152565,-0.0295767225325108,-0.0225017704069614,-0.0187770668417215,-0.0116458656266332
726,-0.0204016175121069,-0.0306603442877531,-0.0281842090189457,-0.023751987144351,-0.0178428310900927,-0.00820381101220846
727,-0.0125645268708467,-0.0282143130898476,-0.0231080576777458,-0.0239091850817204,-0.014882299117744,-0.00512982765212655
728,-0.00260858447290957,-0.0245611667633057,-0.0160199161618948,-0.0236299559473991,-0.00970825552940369,-0.00366733456030488
729,0.00599752832204103,-0.0217169895768166,-0.0104657206684351,-0.0238912999629974,-0.00383319775573909,-0.005643539596349
730,0.0106152687221766,-0.0196702983230352,-0.00868106447160244,-0.0235420130193233,0.000294296274660155,-0.0101401610299945
731,0.010317244566977,-0.0184412691742182,-0.0102392891421914,-0.0217632837593555,0.00113878608681262,-0.0147664975374937
732,0.00677361665293574,-0.0187059007585049,-0.0128034045919776,-0.0192548707127571,-0.000476272631203756,-0.0179700944572687
733,0.00251179770566523,-0.0196365732699633,-0.0146948043256998,-0.0165526047348976,-0.00374545692466199,-0.0190707966685295
734,-0.00314233219251037,-0.0218158680945635,-0.0179060567170382,-0.0150732081383467,-0.0107808839529753,-0.0203967951238155
735,-0.0113271288573742,-0.0268272664397955,-0.0243382714688778,-0.0160154607146978,-0.0220988132059574,-0.023857593536377
736,-0.0178591776639223,-0.0313722901046276,-0.0299742557108402,-0.0175495967268944,-0.0312886834144592,-0.025635801255703
737,-0.0176637824624777,-0.0305813997983933,-0.0297882203012705,-0.0176922921091318,-0.0313488692045212,-0.0221831481903791
738,-0.0123372031375766,-0.0245560593903065,-0.0256164465099573,-0.0173618253320456,-0.023748941719532,-0.0162556152790785
739,-0.00833002664148808,-0.0175015591084957,-0.0229490790516138,-0.0185667425394058,-0.0161263663321733,-0.0129620544612408
740,-0.00821234285831451,-0.012308431789279,-0.0229317247867584,-0.0204791706055403,-0.0118262972682714,-0.0130615644156933
741,-0.00849193800240755,-0.00822078716009855,-0.0225604958832264,-0.0195491183549166,-0.00815348885953426,-0.0123533355072141
742,-0.00760529283434153,-0.00564722158014774,-0.0213993713259697,-0.0160394925624132,-0.00501382723450661,-0.00815227907150984
743,-0.00803572684526443,-0.00666384398937225,-0.022023705765605,-0.0144451782107353,-0.00489125028252602,-0.00206579896621406
744,-0.010228531435132,-0.0103465728461742,-0.0247962437570095,-0.0163448862731457,-0.00692786043509841,0.00261495891027153
745,-0.0113639393821359,-0.0137158716097474,-0.0271347742527723,-0.0186057109385729,-0.00761907082051039,0.00317782047204673
746,-0.00923933740705252,-0.0147873070091009,-0.0258892849087715,-0.0176107194274664,-0.00362634612247348,-0.000531805446371436
747,-0.00542263686656952,-0.0142278466373682,-0.0209049303084612,-0.0145086450502276,0.00491467071697116,-0.00725436629727483
748,-0.00265633477829397,-0.0146714467555285,-0.0157105326652527,-0.0139359151944518,0.0131402555853128,-0.0157552696764469
749,-0.00094461179105565,-0.0168009288609028,-0.012342949397862,-0.0166213009506464,0.0163669437170029,-0.0233366824686527
750,-5.67372489967966E-06,-0.0185990575700998,-0.0102575365453959,-0.0192817188799381,0.0147377820685506,-0.0274626798927784
751,0.00050078536150977,-0.017688974738121,-0.00883697997778654,-0.0191981215029955,0.0121094547212124,-0.0275470037013292
752,0.00127925584092736,-0.0140170902013779,-0.00829430390149355,-0.0164010860025883,0.009736985899508,-0.0249481163918972
753,0.000473050866276026,-0.010587521828711,-0.00949061289429665,-0.0136742424219847,0.0044730743393302,-0.0222610961645842
754,-0.0036862266715616,-0.009517977014184,-0.0123690897598863,-0.0126426033675671,-0.00438329530879855,-0.0206861458718777
755,-0.00990925170481205,-0.00994644593447447,-0.0161229632794857,-0.0124299554154277,-0.0127418385818601,-0.0195806492120028
756,-0.0161542240530252,-0.0106425061821938,-0.0201905034482479,-0.0128669003024697,-0.0167073868215084,-0.018689576536417
757,-0.0214680451899767,-0.011906310915947,-0.0236044395714998,-0.0143909845501184,-0.0158357098698616,-0.0178239140659571
758,-0.0244919210672379,-0.013345567509532,-0.0242955256253481,-0.0156674403697252,-0.011607525870204,-0.0126091036945581
759,-0.0235423184931278,-0.0131275905296206,-0.0205987822264433,-0.014750748872757,-0.00488997669890523,0.00151958467904478
760,-0.0205065794289112,-0.0120711615309119,-0.0147367371246219,-0.0125785088166595,0.00272326963022351,0.0187435932457447
761,-0.0187240671366453,-0.011910947971046,-0.0109550273045897,-0.0110760312527418,0.00973073672503233,0.0283340327441692
762,-0.0186429806053638,-0.0122262788936496,-0.0109234219416976,-0.01037039142102,0.0156172830611467,0.0260092504322529
763,-0.0207525640726089,-0.0142036033794284,-0.0146654518321157,-0.0115284258499742,0.0165760908275843,0.0124225579202175
764,-0.0262478720396757,-0.0202483609318733,-0.0219409745186567,-0.0164336357265711,0.00837859883904457,-0.00916264858096838
765,-0.0317018106579781,-0.0278669465333223,-0.0291809663176537,-0.0234232675284147,-0.00438532512634993,-0.0303651317954063
766,-0.0303848963230848,-0.0311792716383934,-0.0303877200931311,-0.0275063700973988,-0.0119712371379137,-0.041754275560379
767,-0.0219620373100042,-0.0292585231363773,-0.0247237663716078,-0.0264726411551237,-0.0123581727966666,-0.0422183983027935
768,-0.011974168010056,-0.0245914608240128,-0.015426023863256,-0.0217599980533123,-0.00904489681124687,-0.036433819681406
769,-0.00305941398255527,-0.0169137567281723,-0.00378509028814733,-0.0140503710135818,-0.00253527192398906,-0.026126941666007
770,0.00393830565735698,-0.00739452056586742,0.00746627245098352,-0.00531524606049061,0.00527405040338635,-0.0122118657454848
771,0.00653728237375617,-0.000987417879514396,0.0128672327846289,-0.000116234376037028,0.00870070699602365,0.00138447270728648
772,0.00436171377077699,0.000876994745340198,0.0115089388564229,0.000854052195791155,0.00652590114623308,0.0113260103389621
773,0.00066082103876397,0.00172993866726756,0.00821046996861696,0.00154887558892369,0.00386220961809158,0.0178854987025261
774,-0.00158903212286532,0.00371494889259338,0.00629013171419501,0.0042116497643292,0.00437279744073749,0.0227285977452993
775,-0.00233374256640673,0.00488483486697078,0.00411484250798821,0.0065519786439836,0.00650850404053926,0.0242512356489897
776,-0.00214166287332773,0.00404869113117456,0.000988227315247059,0.00641687540337443,0.00852375105023384,0.0202780049294233
777,-0.00143997918348759,0.00238400720991194,-0.00145660329144448,0.00427964981645346,0.00988947041332722,0.0131858205422759
778,-0.0024872999638319,-0.000531495781615376,-0.00435292115435004,0.000422770797740668,0.0076541886664927,0.00754838902503252
779,-0.00631495239213109,-0.00469307601451874,-0.00831562373787165,-0.00281268497928977,0.00112643139436841,0.00698613654822111
780,-0.0105110146105289,-0.00765564944595099,-0.0117033431306481,-0.0017972617642954,-0.00469834078103304,0.0104724932461977
781,-0.0135035458952188,-0.00885015074163675,-0.0155964028090239,0.00110826839227229,-0.0072818323969841,0.0118042966350913
782,-0.015573451295495,-0.010209490545094,-0.0204183310270309,0.000887254776898772,-0.00939594395458698,0.00690638879314065
783,-0.016364861279726,-0.0121436305344105,-0.0225403346121311,-0.00169951224233955,-0.012588950805366,-0.00224657612852752
784,-0.0172720365226269,-0.0139644285663962,-0.0219065546989441,-0.00406751362606883,-0.0161943174898624,-0.0125926677137613
785,-0.0211772918701172,-0.0156246470287442,-0.0228600110858679,-0.00714773451909423,-0.0202214866876602,-0.0232515223324299
786,-0.0286251828074455,-0.0176907405257225,-0.0279396623373032,-0.0133176222443581,-0.0262307971715927,-0.033448651432991
787,-0.0367731004953384,-0.0208427254110575,-0.0366926267743111,-0.0228753406554461,-0.0351408720016479,-0.0414615198969841
788,-0.0409352891147137,-0.0241755116730928,-0.0461317822337151,-0.0321973562240601,-0.0447074472904205,-0.0454960130155087
789,-0.0382850840687752,-0.0247548576444387,-0.0513528026640415,-0.0353784412145615,-0.0502406880259514,-0.0425746887922287
790,-0.0296102073043585,-0.0201623402535915,-0.0481704846024513,-0.0291143786162138,-0.0472096167504787,-0.0306409355252981
791,-0.0181776639074087,-0.0115276267752051,-0.0371027365326881,-0.0161269307136536,-0.0355255790054798,-0.014026147313416
792,-0.00762738427147269,-0.00256284093484282,-0.0232251919806004,-0.00240336102433503,-0.0204617064446211,-0.000655664305668324
793,-0.000172494241269305,0.00449306517839432,-0.0117664430290461,0.00780569715425372,-0.00819274038076401,0.00522776134312153
794,0.00371670839376748,0.00974589306861162,-0.00475863693282008,0.0134301036596298,-0.00105739512946457,0.00462093995884061
795,0.00321955559775233,0.0117875300347805,-0.00238939048722386,0.0139042362570763,0.00174759910441935,5.69411022297572E-05
796,-0.0006903579342179,0.0102150179445744,-0.00266784126870334,0.011067433282733,0.00298704230226576,-0.00290939258411527
797,-0.00314813270233572,0.00918128434568644,-0.00143002287950367,0.0103181218728423,0.00607554847374558,0.00251623149961233
798,-0.00131235481239855,0.0116140954196453,0.00316937756724656,0.0149349318817258,0.0109787182882428,0.0154305882751942
799,0.00263138185255229,0.0154415145516396,0.00990425795316696,0.0230893343687058,0.0145269343629479,0.0287445690482855
800,0.00530417961999774,0.0167972911149263,0.0147154694423079,0.0289927087724209,0.0136217121034861,0.0365550480782986
801,0.00762376049533486,0.0165914446115494,0.0155468266457319,0.0299222525209188,0.0106726447120309,0.0382969565689564
802,0.0110262390226126,0.0177101343870163,0.0139812417328358,0.0272589772939682,0.0100550893694162,0.0348329991102219
803,0.011685848236084,0.0169538073241711,0.00942728295922279,0.0205944087356329,0.00910468958318233,0.0247481241822243
804,0.00810655672103167,0.0116297733038664,0.00352964014746249,0.0119632072746754,0.00522655667737126,0.0109192868694663
805,0.00374893331900239,0.00504568358883262,0.00081190379569307,0.00618659099563956,0.00124503194820136,-0.000501766277011484
806,0.000259920983808115,0.00034406068152748,0.00106686865910888,0.00364838377572596,-0.000378641358111054,-0.0082127396017313
807,-0.00237276451662183,-0.0018820611294359,0.00139491201844066,0.00208555860444903,0.00136639375705272,-0.0139820193871856
808,-0.00363633828237653,-0.00233497330918908,0.000946624495554715,0.000914499803911895,0.0059001287445426,-0.018026290461421
809,-0.00312075112015009,-0.00165014679078013,0.000700070057064295,0.00144983339123428,0.0109045291319489,-0.0190751049667597
810,-0.00145855115260929,-7.55506407585926E-05,-3.01112822853611E-06,0.00409746216610074,0.0135903442278504,-0.0167244598269463
811,-0.000558586150873452,0.000838420703075826,-0.0036703625228256,0.00614579254761338,0.0110788680613041,-0.0117347836494446
812,-0.00328253326006234,-0.00134941167198122,-0.0106276692822576,0.0043198331259191,0.002074443269521,-0.00618609366938472
813,-0.00977853965014219,-0.00489889504387975,-0.0164175722748041,0.000556485378183424,-0.0091810617595911,-0.00168418791145086
814,-0.0164437275379896,-0.00532618444412947,-0.0155828958377242,0.000108061998616904,-0.0154029382392764,0.0029658367857337
815,-0.021108178421855,-0.00315423915162683,-0.00858115311712027,0.00327586405910552,-0.0146123534068465,0.00881523638963699
816,-0.0232927873730659,-0.00137290579732507,-0.000495008542202413,0.0067491764202714,-0.0098832631483674,0.0161120239645243
817,-0.0228352136909962,-0.00037525684456341,0.0050804796628654,0.0086688743904233,-0.0033109076321125,0.0228449366986752
818,-0.0205776859074831,0.000783190596848726,0.00815417990088463,0.00925692450255156,0.00594898220151663,0.0245480220764875
819,-0.0181236211210489,0.00197833590209484,0.00935714039951563,0.00926670152693987,0.0163936316967011,0.0195811875164509
820,-0.0170591026544571,0.00182697258424014,0.00822565611451864,0.00905861612409353,0.0220530480146408,0.0108159119263291
821,-0.0178735107183456,-0.000351366295944899,0.00474250363186002,0.0086592510342598,0.0190833229571581,0.00234183599241078
822,-0.0191879533231258,-0.00344238057732582,0.000660967198200524,0.00720428163185716,0.00965529773384333,-0.00408063502982259
823,-0.0201104078441858,-0.00761294458061457,-0.00298998015932739,0.00220331596210599,-0.00248918263241649,-0.0100326491519809
824,-0.0196386985480785,-0.0122765535488725,-0.0056941038928926,-0.00573180289939046,-0.0130812497809529,-0.0151178417727351
825,-0.0153506584465504,-0.0133741842582822,-0.00512514309957623,-0.0104635367169976,-0.0167410019785166,-0.0152665348723531
826,-0.00854725576937199,-0.0100379409268498,-0.00110179302282631,-0.00882145017385483,-0.0135741839185357,-0.0102984616532922
827,-0.00352632696740329,-0.0057647000066936,0.00306698004715145,-0.00453670881688595,-0.00967437960207462,-0.00438728276640177
828,-0.00156093307305127,-0.00263297813944519,0.00510758208110929,-0.0015414945082739,-0.00881077907979488,0.000172814950929023
829,-0.00123522616922855,-0.000538507883902639,0.00587100582197309,0.000114999005745631,-0.00979640893638134,0.00324930739589036
830,-0.00154197495430708,-0.000195452012121677,0.00637943251058459,0.00103241484612226,-0.0108178202062845,0.00527948141098022
831,-0.000888497044797987,-0.00113973231054842,0.00737497583031654,0.00223446963354945,-0.0102498661726713,0.00909607764333487
832,0.00229133199900389,-0.00104748108424246,0.00922504719346762,0.00533875357359648,-0.00787744112312794,0.0168046820908785
833,0.00615850044414401,-0.000406118226237595,0.00964825600385666,0.00872180704027414,-0.00646647484973073,0.025037718936801
834,0.00790574867278337,-0.00127928867004812,0.00689120823517442,0.00938952714204788,-0.00714742392301559,0.0286815576255322
835,0.0082063339650631,-0.00336763611994684,0.00315719028003514,0.00767288682982326,-0.00665895780548453,0.026666259393096
836,0.0079200966283679,-0.00614181067794561,0.00101292796898633,0.00464901141822338,-0.0018793159397319,0.0197933409363031
837,0.00559287890791893,-0.00963692646473646,0.000735995476134121,0.000482904317323118,0.00608939304947853,0.0086267851293087
838,0.00204851082526147,-0.0119059691205621,0.0021152684930712,-0.0023194681853056,0.0139587735757232,-0.00315478071570396
839,-0.000967086525633931,-0.0123609052971005,0.00387573079206049,-0.00243774405680597,0.0185283496975899,-0.0119920717552304
840,-0.00553130218759179,-0.0147088579833508,0.00290388008579612,-0.00335089978761971,0.0165387559682131,-0.0193326864391565
841,-0.0132948383688927,-0.0215288158506155,-0.00276398588903248,-0.00797130633145571,0.00675031822174788,-0.0276520401239395
842,-0.021543812006712,-0.0299427136778831,-0.0119294030591846,-0.014914215542376,-0.00792925711721182,-0.0358962416648865
843,-0.0267621148377657,-0.034081906080246,-0.0204932484775782,-0.0198641195893288,-0.0217093266546726,-0.0394191890954971
844,-0.0276390742510557,-0.0316402316093445,-0.0232287775725126,-0.0192412491887808,-0.0300354193896055,-0.0334610491991043
845,-0.0250036474317312,-0.0261306744068861,-0.0182762704789639,-0.013459037989378,-0.0327716656029224,-0.0192961618304253
846,-0.0196974463760853,-0.020476832985878,-0.00908326357603073,-0.00519853923469782,-0.0312855578958988,-0.00374817941337824
847,-0.0114381173625588,-0.0144236208871007,-0.00126073998399079,0.00306716398335993,-0.0265258960425854,0.00767520163208246
848,-0.00221653888002038,-0.00925058219581842,0.000976369017735124,0.00862973928451538,-0.0219268817454576,0.0133795933797956
849,0.00313166272826493,-0.00762856937944889,-0.00240785349160433,0.00964146759361029,-0.0212136786431074,0.015413305722177
850,0.00203814613632858,-0.00911708921194077,-0.00741066550835967,0.00772324902936816,-0.0233451202511787,0.0169502552598715
851,-0.00322682363912463,-0.0110014099627733,-0.0102793127298355,0.00624200608581305,-0.024529105052352,0.0183407906442881
852,-0.00765376165509224,-0.0112644527107477,-0.00976749416440725,0.0068250373005867,-0.022532531991601,0.0191580560058355
853,-0.00865011848509312,-0.0102151185274124,-0.00746055413037539,0.00801736861467361,-0.0179853737354279,0.0197166204452515
854,-0.00799956079572439,-0.0102186426520348,-0.00659682275727391,0.00695563806220889,-0.0127979964017868,0.0182138774544001
855,-0.00657348288223147,-0.0107688950374722,-0.00727091450244188,0.00409063650295138,-0.00713368644937873,0.0133510157465935
856,-0.00329486676491797,-0.00868520978838205,-0.00700631318613887,0.00300355604849756,-0.000502791604958475,0.00719336373731494
857,0.000864289875607938,-0.0041431630961597,-0.00548480683937669,0.00520041771233082,0.0060474406927824,0.00139455171301961
858,0.00404690764844418,0.000215710155316629,-0.00382003630511463,0.00890323799103498,0.011221818625927,-0.00326710031367838
859,0.00465264776721597,0.00218124128878117,-0.00336987827904522,0.010775838047266,0.0130927069112659,-0.00625762669369578
860,0.00245026871562004,0.00084207602776587,-0.00482377922162414,0.00890437792986631,0.00949051231145859,-0.00851963553577662
861,0.000742996810004115,-0.00139180617406964,-0.00612250296398997,0.00576771050691605,0.0024446218740195,-0.00983028579503298
862,0.00165342609398067,-0.00215456867590547,-0.00555113982409239,0.00423049414530396,-0.00368678453378379,-0.00984441675245762
863,0.00471154786646366,-0.00147067138459533,-0.00347597571089864,0.00440569082275033,-0.00711402343586087,-0.00889702513813972
864,0.0103376004844904,0.000923564715776592,-6.3068640884012E-05,0.00581380072981119,-0.00809851195663214,-0.00585423782467842
865,0.0178133491426706,0.0040789358317852,0.00401764269918203,0.00769491819664836,-0.00771702267229557,-0.000520594301633537
866,0.0239405389875174,0.00577559741213918,0.00823516212403774,0.00969808455556631,-0.00651892460882664,0.00569349247962236
867,0.0253877509385347,0.00498874625191092,0.0125897666439414,0.0117996940389276,-0.00451540853828192,0.0108513487502933
868,0.0217911042273045,0.00176915456540883,0.0153904259204865,0.0139379529282451,-0.00241336273029447,0.0132893566042185
869,0.0164992958307266,-0.00256869033910334,0.0155966682359576,0.0165944844484329,-0.000167728867381811,0.0140174413099885
870,0.0125428941100836,-0.00654446799308062,0.0138929057866335,0.0183452814817429,0.00225573964416981,0.0150959817692637
871,0.0109210163354874,-0.00944054313004017,0.010392177850008,0.0160116199404001,0.0035666530020535,0.0155767388641834
872,0.012097236700356,-0.0107153626158834,0.00677822018042207,0.0095737986266613,0.00392838893458247,0.0138322096318007
873,0.0156920030713081,-0.0109657272696495,0.00644357828423381,0.00291911233216524,0.00491300132125616,0.0117491837590933
874,0.0213874131441116,-0.00943821202963591,0.0110626267269254,0.00108732108492404,0.00932996533811092,0.0147404111921787
875,0.027201222255826,-0.00501540303230286,0.0178976412862539,0.00519194221124053,0.0187355913221836,0.0243922472000122
876,0.0292828567326069,-0.000451786268968135,0.0214170701801777,0.0103019494563341,0.0287719238549471,0.0324162840843201
877,0.0284737460315228,0.00325371278449893,0.0204886179417372,0.0132944146171212,0.0349223911762238,0.031742949038744
878,0.0287738405168056,0.00810755603015423,0.0184513311833143,0.0154529549181461,0.0369057357311249,0.0249051116406918
879,0.0302717480808496,0.0129148839041591,0.0163778010755777,0.0170592442154884,0.0346109680831432,0.0163542758673429
880,0.0292945075780153,0.0142945125699043,0.011510350741446,0.016220161691308,0.0267221238464117,0.0068927900865674
881,0.0239636413753033,0.0114348977804184,0.00257983733899891,0.0121956868097186,0.0138499103486538,-0.00345774460583925
882,0.0178447365760803,0.00745471566915512,-0.00635545374825597,0.00793095212429762,0.000715981645043939,-0.0121675878763199
883,0.0151127278804779,0.00526265986263752,-0.0115411104634404,0.00601063808426261,-0.00858739763498306,-0.0169467180967331
884,0.0156818237155676,0.00437219813466072,-0.0136358523741364,0.00556654669344425,-0.0139641650021076,-0.018287992104888
885,0.0169590748846531,0.00309328362345696,-0.0142833180725574,0.00542257400229573,-0.0165448691695929,-0.0171134993433952
886,0.0166228581219912,0.00112945633009076,-0.014225616119802,0.00582599034532905,-0.0173314101994038,-0.0130188334733248
887,0.0149342846125364,-0.000493101077154279,-0.0135510079562664,0.00758259696885943,-0.0171866193413734,-0.00483151897788048
888,0.015039250254631,-0.000876913021784276,-0.0114174038171768,0.0114367911592126,-0.0159833040088415,0.0078229121863842
889,0.0176609084010124,3.69168787983654E-06,-0.00782399997115135,0.0166869666427374,-0.0134760467335582,0.0217855051159859
890,0.0188937354832888,0.000817147141788155,-0.00528253708034754,0.0199695378541946,-0.0114348297938704,0.0313549675047398
891,0.0185669455677271,0.00168637034948915,-0.0037145228125155,0.0203427653759718,-0.00952368043363094,0.0349818915128708
892,0.0207300763577223,0.00428338767960668,-1.53162582137156E-05,0.0207582544535398,-0.00459060026332736,0.0343860350549221
893,0.0246610417962074,0.00693626422435045,0.00439377408474684,0.0209770519286394,0.00202042586170137,0.0291700940579176
894,0.0271573103964329,0.00761835556477308,0.00633565802127123,0.0192155558615923,0.0073206233792007,0.0208123438060284
895,0.0288208536803722,0.00782004278153181,0.00701097585260868,0.0174720231443644,0.0119237508624792,0.014137321151793
896,0.0306540429592133,0.00816686078906059,0.00741529790684581,0.0168294347822666,0.0152027569711208,0.00994893442839384
897,0.032298531383276,0.007552077062428,0.00591050740331411,0.0149901947006583,0.014771955087781,0.00556610291823745
898,0.0327231474220753,0.00476750452071428,0.000723428733181208,0.00915482919663191,0.00875669904053211,-0.000820454210042953
899,0.0294279418885708,-0.00102006644010544,-0.00785086583346128,-0.00150466174818575,-0.00380556075833738,-0.0104501340538263
900,0.0234258137643337,-0.00719185825437307,-0.0153545429930091,-0.0124227199703455,-0.0191499404609203,-0.0207366589456797
901,0.0196941681206226,-0.00995838642120361,-0.0179740283638239,-0.0177529938519001,-0.030637975782156,-0.0264862552285194
902,0.0214393679052591,-0.00760517409071326,-0.0156217254698277,-0.0159037876874208,-0.0342856720089912,-0.0246615372598171
903,0.0269261058419943,-0.00143818627111614,-0.0109814079478383,-0.0092521607875824,-0.0321805104613304,-0.0155519088730216
904,0.0317269638180733,0.00446289172396064,-0.00814898405224085,-0.00246166461147368,-0.0299994293600321,-0.00281664938665926
905,0.0347863584756851,0.00818938482552767,-0.00830130930989981,0.00135094986762851,-0.0294398628175259,0.00967700593173504
906,0.0377057120203972,0.00947336200624704,-0.0104147614911199,0.0016246730228886,-0.0286943074315786,0.0187026206403971
907,0.0412313342094421,0.00769671192392707,-0.0132797006517649,-0.000465670163976029,-0.0264042336493731,0.0214110724627972
908,0.0450022406876087,0.0038189732003957,-0.0152816763147712,-0.0030731838196516,-0.0226140730082989,0.0183397885411978
909,0.0478715561330318,-6.27869594609365E-05,-0.015000113286078,-0.00510498275980353,-0.0186412502080202,0.0133287850767374
910,0.0491052865982056,-0.00242916983552277,-0.0109086018055677,-0.00574857043102384,-0.0156148094683886,0.0086387163028121
911,0.0479399189352989,-0.00386284827254713,-0.003753328230232,-0.00534885050728917,-0.0139915822073817,0.00303893047384918
912,0.0434139855206013,-0.00587780401110649,0.00188439933117479,-0.00532850669696927,-0.0139683643355966,-0.00413051201030612
913,0.0381178520619869,-0.00717616314068437,0.00428809737786651,-0.00483570899814367,-0.013446451164782,-0.00833186693489552
914,0.0365839004516602,-0.00569678982719779,0.0054836361669004,-0.00237949239090085,-0.00964574702084064,-0.00463034445419908
915,0.0392772257328033,-0.00371012138202786,0.00460032420232892,-0.00013342710735742,-0.00413111783564091,0.00303273485042155
916,0.0444098152220249,-0.00363226025365293,0.00143569509964436,0.000270135496975854,0.000442526972619817,0.00745725305750966
917,0.050417248159647,-0.00399367371574044,-0.000930254813283682,0.000466515048174188,0.00315159349702299,0.00703665101900697
918,0.0546192675828934,-0.00371307344175875,-0.00188251538202167,0.000838652078527957,0.00221175048500299,0.0030955399852246
919,0.0561606101691723,-0.0033551340457052,-0.00285468040965497,0.000193761457921937,-0.00266957026906312,-0.00170338281895965
920,0.0567556507885456,-0.00300543080084026,-0.0039108251221478,-0.00168805499561131,-0.00798051618039608,-0.00335761765018106
921,0.0559754371643066,-0.00341974152252078,-0.00603983318433166,-0.00503045972436666,-0.0116410283371806,-0.00175681349355727
922,0.052434403449297,-0.0059421481564641,-0.0107458811253309,-0.0100274300202727,-0.0152746606618166,-0.000884466513525695
923,0.0481432266533375,-0.00835807155817747,-0.0147955538704991,-0.0134232370182872,-0.0186111759394407,-0.000972106761764735
924,0.0456294491887093,-0.00682624382898211,-0.0135091049596667,-0.0112983779981732,-0.0201733410358429,0.00248868437483907
925,0.0441461727023125,-0.00202935212291777,-0.00766627676784992,-0.00509946374222636,-0.0213423706591129,0.0107630742713809
926,0.0427262000739574,0.003072006162256,-0.00062471249839291,0.00136455800384283,-0.0230727437883615,0.0190595351159573
927,0.0415399633347988,0.00664122682064772,0.00563129317015409,0.00619979109615088,-0.0245637577027082,0.0221474524587393
928,0.0405610352754593,0.00792940799146891,0.0100468304008245,0.008749108761549,-0.0244368743151426,0.0188835300505161
929,0.0401382371783257,0.00822378043085337,0.0118427099660039,0.00881875399500132,-0.0212049465626478,0.0113993063569069
930,0.0397178009152412,0.00808200426399708,0.0100217200815678,0.00607262179255486,-0.0163696520030499,0.00178722210694104
931,0.0377651266753674,0.00588473211973906,0.0048598675057292,0.000663557730149478,-0.0133428564295173,-0.00874168798327446
932,0.0344923362135887,0.00211844104342163,-0.00115027965512127,-0.00489838514477015,-0.0123261837288737,-0.0175515711307526
933,0.0316941775381565,-0.000702461169566959,-0.00589224928990006,-0.00724154617637396,-0.0110522359609604,-0.02116390876472
934,0.0300201736390591,-0.00171550235245377,-0.00934269372373819,-0.00639895675703883,-0.00919648446142673,-0.0178773012012243
935,0.0292799863964319,-0.00118626630865037,-0.0117236040532589,-0.00527798477560282,-0.00721430126577616,-0.00864525604993105
936,0.0295804738998413,0.000203968083951622,-0.0124393803998828,-0.00564201921224594,-0.00453547760844231,0.00213539111427963
937,0.030592143535614,0.00114206911530346,-0.0111181894317269,-0.00743339257314801,-0.00196429621428251,0.00946170557290316
938,0.0318775735795498,0.00133456930052489,-0.0079744178801775,-0.00915014464408159,-0.000696768925990909,0.0124644031748176
939,0.0326512455940247,0.00131404655985534,-0.00377109553664923,-0.00811266247183084,-0.000367681321222335,0.0131823439151049
940,0.0323193892836571,0.00150221423245966,0.0007087696576491,-0.00306278164498508,-0.000473248335765675,0.0130927311256528
941,0.0322749428451061,0.00258006947115064,0.00480781774967909,0.00403409451246262,-0.000923435320146382,0.0123232193291187
942,0.0343072675168514,0.00462335906922817,0.00781822390854359,0.00942603312432766,-0.00113959773443639,0.0104696247726679
943,0.0383663401007652,0.00667210109531879,0.00965041294693947,0.010728714056313,-0.000586355337873101,0.00828906148672104
944,0.0426882319152355,0.00734364986419678,0.010235283523798,0.00875648856163025,-0.000784263946115971,0.00745509983971715
945,0.0447963438928127,0.0053080702200532,0.00903316494077444,0.00550420116633177,-0.00340383755974472,0.00730422325432301
946,0.044916745275259,0.000961149984505028,0.00648488849401474,0.00209499732591212,-0.00697068870067596,0.00515856733545661
947,0.0473821200430393,-0.0028234904166311,0.0049208658747375,-0.000432414293754846,-0.00812440551817417,0.000505602161865681
948,0.0538649782538414,-0.003413709346205,0.0059389965608716,-0.00137265818193555,-0.00537545047700405,-0.00493974843993783
949,0.0590819530189037,-0.00242919404990971,0.00701692281290889,-0.002492590341717,-0.00159115879796445,-0.0107106082141399
950,0.0571104325354099,-0.00385772832669318,0.00431898469105363,-0.0066674780100584,-0.000446547870524228,-0.0177125297486782
951,0.0477048233151436,-0.00860618520528078,-0.00257350248284638,-0.0143655324354768,-0.00241355132311583,-0.0257426295429468
952,0.0356452018022537,-0.0143332621082664,-0.0101854791864753,-0.0228034127503634,-0.00594404898583889,-0.0312519408762455
953,0.0269753392785788,-0.0174855124205351,-0.0138216344639659,-0.0272806119173765,-0.00773887941613793,-0.0280552338808775
954,0.0244076158851385,-0.0157400500029325,-0.011953535489738,-0.025081479921937,-0.00422458909451962,-0.0152912493795156
955,0.0264971554279327,-0.00996761862188578,-0.00651242816820741,-0.0177049282938242,0.00428395578637719,-0.000638197234366089
956,0.0316795483231544,-0.0028505043592304,0.000647073611617088,-0.00833016820251942,0.0149291446432471,0.00835221167653799
957,0.0384365804493427,0.00231623300351202,0.00776831246912479,0.000240484980167821,0.0244842618703842,0.0100048994645476
958,0.0430575050413609,0.00204869173467159,0.011290074326098,0.00490910187363625,0.0274365730583668,0.00589538458734751
959,0.0431271642446518,-0.00317924609407783,0.00958863086998463,0.00405282760038972,0.0207285974174738,-0.000671286252327263
960,0.0403518192470074,-0.00817803200334311,0.00607635406777263,2.23259066842729E-05,0.00896849203854799,-0.00442450353875756
961,0.0371832177042961,-0.0105876056477427,0.0039352853782475,-0.00428646104410291,-0.00157981994561851,-0.0038399463519454
962,0.0348233282566071,-0.0120145138353109,0.00371246528811753,-0.00787102337926626,-0.00861518923193216,-0.00333775253966451
963,0.0341018363833427,-0.0130320340394974,0.00556045351549983,-0.00997450388967991,-0.0123621933162212,-0.005408416967839
964,0.0352541878819466,-0.0131391081959009,0.00868120603263378,-0.00998340733349323,-0.0128850508481264,-0.00699128909036517
965,0.0376849099993706,-0.0121101131662726,0.0116061298176646,-0.00828354340046644,-0.00957959331572056,-0.00504672573879361
966,0.0405349247157574,-0.0106607126072049,0.0132508296519518,-0.00670637143775821,-0.00351850944571197,-0.00244239228777587
967,0.0432754456996918,-0.0105867497622967,0.0124966772273183,-0.00721111102029681,0.00160340580623597,-0.00471789529547095
968,0.0464660227298737,-0.0121915275231004,0.00913889985531569,-0.0094502754509449,0.00286868261173368,-0.0122522292658687
969,0.0502513945102692,-0.0138029493391514,0.00447407178580761,-0.0114313941448927,0.00112110201735049,-0.0209343191236258
970,0.0533900931477547,-0.0138725014403462,0.000900491955690086,-0.0111258989199996,0.000457753194496036,-0.0266407430171967
971,0.0550506114959717,-0.0120331617072225,0.00020800250058528,-0.00772991310805082,0.00369418528862298,-0.0258432980626822
972,0.0546225979924202,-0.00976602174341679,0.00148360838647932,-0.00327657465822995,0.00870666746050119,-0.0173063445836306
973,0.0517037771642208,-0.00928354728966951,0.00215254840441048,-0.00149055919609964,0.0110943084582686,-0.00643616216257215
974,0.0470708459615707,-0.0117130260914564,0.000248212396400049,-0.00467711733654141,0.00842861365526915,-0.00192661362234503
975,0.0412483252584934,-0.0165605936199427,-0.00398782547563314,-0.0115984575822949,0.00136234879028052,-0.00641996366903186
976,0.0336763858795166,-0.0226075425744057,-0.00908386707305908,-0.0191722307354212,-0.00826096720993519,-0.0162986386567354
