,AF3,AF4,Fp1,Fp2,AF7,AF8
0,-0.0337440855801106,-0.0186175107955933,-0.0182859487831593,-0.0187146961688995,-0.0379329584538937,-0.0433367714285851
1,-0.0311949327588081,-0.0199823435395956,-0.0210202652961016,-0.0212836563587189,-0.0355406887829304,-0.0379517301917076
2,-0.0304173287004232,-0.0180419199168682,-0.0231171976774931,-0.0229189563542604,-0.0320698656141758,-0.0292655508965254
3,-0.029604084789753,-0.0134742092341185,-0.0222607143223286,-0.0224383026361465,-0.0279516447335482,-0.0207273177802563
4,-0.0280484315007925,-0.00825474597513676,-0.0181512236595154,-0.0202139392495155,-0.0236305817961693,-0.0159832257777452
5,-0.0280974302440882,-0.00501626404002309,-0.0134537890553474,-0.0185854937881231,-0.0202386416494846,-0.0184416621923447
6,-0.0304281860589981,-0.00462245801463723,-0.00992078427225351,-0.0179516766220331,-0.0183559972792864,-0.0267833694815636
7,-0.0332526862621307,-0.00542803155258298,-0.00780939869582653,-0.0160164330154657,-0.0171081535518169,-0.0332786738872528
8,-0.0344694629311562,-0.00469269603490829,-0.00609251204878092,-0.010802929289639,-0.0141475284472108,-0.0299276206642389
9,-0.0348302908241749,-0.00276478449814022,-0.00468189083039761,-0.00542455492541194,-0.0093776872381568,-0.0203086175024509
10,-0.0380015037953854,-0.00435013370588422,-0.00657422887161374,-0.00648661330342293,-0.00739501370117068,-0.0161607153713703
11,-0.0432447455823421,-0.0109138460829854,-0.0116341430693865,-0.0143105024471879,-0.00939632672816515,-0.0215970277786255
12,-0.0464356653392315,-0.0182661134749651,-0.014794466085732,-0.0224317628890276,-0.0112177543342113,-0.0310638919472694
13,-0.0458851829171181,-0.0216596145182848,-0.0119514325633645,-0.0247981660068035,-0.00964737311005592,-0.036780696362257
14,-0.0422285310924053,-0.0188355296850204,-0.00347403972409666,-0.0196930691599846,-0.00510202534496784,-0.0348299480974674
15,-0.037707906216383,-0.0116891823709011,0.0057017058134079,-0.0112309493124485,-0.000985629973001778,-0.028371773660183
16,-0.0333827510476112,-0.00373294460587204,0.0107506802305579,-0.00505314487963915,0.00160901749040931,-0.0229160506278276
17,-0.0294088050723076,0.00270063732750714,0.0102289961650968,-0.0035220286808908,0.00345084932632744,-0.0204598009586334
18,-0.0281487796455622,0.00600452395156026,0.00539798103272915,-0.00530387926846743,0.00337206921540201,-0.0190058331936598
19,-0.0307291466742754,0.0065422747284174,0.000394432339817286,-0.006289501208812,0.00229518674314022,-0.01515434961766
20,-0.034335445612669,0.00690774200484157,-0.00132807879708707,-0.00339815276674926,0.00208363262936473,-0.00776429055258632
21,-0.0354599878191948,0.00972696207463741,0.00028963724616915,0.00320120272226632,0.0017509093740955,0.00294625293463469
22,-0.0339566841721535,0.0144980782642961,0.00353532028384507,0.0104071237146854,0.00020410175784491,0.0157255381345749
23,-0.0320278033614159,0.0185271240770817,0.00737296417355537,0.0149646922945976,-0.00146775343455374,0.0261793173849583
24,-0.0306358151137829,0.0212791487574577,0.0123621504753828,0.0168281942605972,-0.00139602669514716,0.0299853794276714
25,-0.0297353528439999,0.02375110052526,0.0181999150663614,0.0173687729984522,0.000923255749512464,0.0277761090546846
26,-0.0275979973375797,0.0276645887643099,0.0246069729328156,0.0186021029949188,0.00595237594097853,0.0247165709733963
27,-0.021894097328186,0.0348312258720398,0.0311928950250149,0.0221468154340982,0.0131747741252184,0.0238609313964844
28,-0.0141991255804896,0.0437386967241764,0.035330805927515,0.0267170313745737,0.0194350499659777,0.0233582686632872
29,-0.00764138530939817,0.050771102309227,0.0359742678701878,0.0307356230914593,0.0232147853821516,0.0217186100780964
30,-0.00257969228550792,0.0542270354926586,0.0349339060485363,0.0338099300861359,0.025229400023818,0.019978005439043
31,0.00168031570501626,0.0547021180391312,0.0329850427806377,0.0346849970519543,0.0252608060836792,0.0181554835289717
32,0.004226288292557,0.0533414110541344,0.0296041406691074,0.0320936813950539,0.0233162902295589,0.0141716906800866
33,0.00257962360046804,0.0503646694123745,0.0244575422257185,0.0263322535902262,0.0199317689985037,0.00732610980048776
34,-0.00370841566473246,0.0457793921232224,0.0182152949273586,0.0196496304124594,0.0158162843436003,0.0017145307501778
35,-0.0109261143952608,0.0412319153547287,0.0137959672138095,0.0159111060202122,0.0132930567488074,0.00259670941159129
36,-0.0144029883667827,0.0386472530663013,0.0140072451904416,0.0175845064222813,0.0144621003419161,0.0092334384098649
37,-0.0129005275666714,0.0370956845581532,0.0171655081212521,0.0223572552204132,0.0185806266963482,0.0151511058211327
38,-0.00918443687260151,0.0351673625409603,0.0193894654512405,0.0254620872437954,0.0240629650652409,0.0148787861689925
39,-0.00661235162988305,0.0343714319169521,0.0193253681063652,0.0248299743980169,0.0289531350135803,0.00863767601549625
40,-0.00649839174002409,0.0359775684773922,0.0169795770198107,0.0213065538555384,0.030389241874218,0.00107184157241136
41,-0.00724541023373604,0.0388942137360573,0.0130911581218243,0.0173500571399927,0.0289218965917826,-0.00306026916950941
42,-0.00716177793219686,0.0409264303743839,0.00922949984669685,0.0154528673738241,0.026506906375289,-0.00281157111749053
43,-0.00709774764254689,0.0400163345038891,0.00613866513594985,0.0166093837469816,0.0228518303483725,0.000923056097235531
44,-0.00784447137266397,0.0356539748609066,0.00482582254335284,0.0215311106294394,0.019570380449295,0.00971050374209881
45,-0.00901343300938606,0.0291021782904863,0.00689456006512046,0.0295893270522356,0.0194084346294403,0.0231653731316328
46,-0.010719632729888,0.0225335583090782,0.0122180413454771,0.0370821170508862,0.0217696446925402,0.0345052629709244
47,-0.0138742011040449,0.0173201430588961,0.0177892297506332,0.0400947779417038,0.0234948135912418,0.0365858785808086
48,-0.018212279304862,0.0138079524040222,0.0199321992695332,0.0377376973628998,0.0223508756607771,0.0283261742442846
49,-0.0209964700043201,0.0130569990724325,0.0178453717380762,0.032228346914053,0.0194351132959127,0.0141956200823188
50,-0.0204124972224236,0.0158612094819546,0.0138863297179341,0.0270145144313574,0.0172425545752048,0.000555927981622517
51,-0.017187500372529,0.0216743145138025,0.0117312045767903,0.0251392405480146,0.0171213485300541,-0.00729494681581855
52,-0.0131645770743489,0.0279066693037748,0.0124447895213962,0.0269157830625772,0.0184159278869629,-0.00840658415108919
53,-0.0110182501375675,0.0303835235536098,0.0126732103526592,0.0292346384376287,0.0186889991164207,-0.0069711240939796
54,-0.011627284809947,0.0280818752944469,0.00946655683219433,0.0291546173393726,0.0170476902276278,-0.00727328890934587
55,-0.013405105099082,0.0236666928976774,0.00338618224486709,0.0260641518980265,0.0149951567873359,-0.00995410326868296
56,-0.014486082829535,0.0201989598572254,-0.00248389109037817,0.0219633299857378,0.014021860435605,-0.0119882198050618
57,-0.0127303330227733,0.0199139006435871,-0.00436263391748071,0.0203789845108986,0.0148386424407363,-0.0100364061072469
58,-0.00803208630532026,0.0220305100083351,-0.00212897569872439,0.0221169777214527,0.0166610516607761,-0.00528862234205008
59,-0.00350046087987721,0.0233025811612606,-0.000259972584899515,0.0247176829725504,0.0178090892732143,-0.00104902475140989
60,-0.00151044700760394,0.0217158049345016,-0.00238078669644892,0.0257948972284794,0.0169782340526581,0.00133173016365618
61,-0.00222153123468161,0.0170383490622044,-0.00839748978614807,0.0240697227418423,0.0138864936307073,0.00153508968651295
62,-0.00367940263822675,0.011424720287323,-0.0151297673583031,0.0206172410398722,0.0110797733068466,0.0019207097357139
63,-0.00248409551568329,0.00903261266648769,-0.0180979948490858,0.0189705323427916,0.0118596693500876,0.00755652831867337
64,0.00131508044432849,0.0104862004518509,-0.0161148086190224,0.0204240288585424,0.0150075936689973,0.017880093306303
65,0.0038594538345933,0.0118280937895179,-0.0125418473035097,0.0221788343042135,0.0156247597187757,0.0246250946074724
66,0.00369704654440284,0.0107000088319182,-0.0104828784242272,0.0217295233160257,0.0115724131464958,0.0225455239415169
67,0.00211793091148138,0.0082226125523448,-0.0105570666491985,0.0189641285687685,0.00475575309246778,0.0147982314229012
68,0.000787262222729623,0.00701960315927863,-0.0107302572578192,0.016017522662878,-0.00108542374800891,0.00758231710642576
69,0.000829112832434475,0.00779407983645797,-0.00883165653795004,0.0149765778332949,-0.00315144890919328,0.0026812010910362
70,0.001650255988352,0.0075434185564518,-0.00646931026130915,0.0150846904143691,-0.00268198153935373,-0.00306609412655234
71,0.00191489758435637,0.00473200716078281,-0.00559602724388242,0.0145785324275494,-0.00193195464089513,-0.0113249523565173
72,2.56336297752569E-05,0.00167092005722225,-0.00571876205503941,0.0119243618100882,-0.00102013407740742,-0.0204642657190561
73,-0.00386734632775187,0.00163757684640586,-0.00530543643981218,0.00773829547688365,0.0012639231281355,-0.0270381849259138
74,-0.00686322944238782,0.00548996264114976,-0.00307242712005973,0.00490129878744483,0.00537255359813571,-0.0281428173184395
75,-0.00705024413764477,0.0101858945563436,0.000447248254204169,0.00427074590697885,0.0102630089968443,-0.024827042594552
76,-0.00522557040676475,0.0131159843876958,0.0037691374309361,0.00503080664202571,0.0156918652355671,-0.0197622366249561
77,-0.00413158861920238,0.0139248687773943,0.00540115032345057,0.00590492552146316,0.021077947691083,-0.0149128567427397
78,-0.00676092132925987,0.0122206332162023,0.00380498613230884,0.00486380094662309,0.0235733650624752,-0.0125318141654134
79,-0.0125424657016993,0.00908178370445967,-0.000631672039162368,0.00209001731127501,0.0216195080429316,-0.0126376459375024
80,-0.0173455346375704,0.00725528970360756,-0.0052297180518508,0.000196763634448871,0.0170922763645649,-0.0121388705447316
81,-0.0181654021143913,0.00833112094551325,-0.0080964183434844,0.000794015824794769,0.0125390253961086,-0.00783884339034557
82,-0.0155553156509995,0.0113926809281111,-0.0099702337756753,0.00286070723086596,0.00840717926621437,0.00115056161303073
83,-0.0117648718878627,0.0140728922560811,-0.0120961423963308,0.00424597505480051,0.00358005380257964,0.0122511414811015
84,-0.00824624765664339,0.0155725786462426,-0.0139810992404819,0.00468308618292212,-0.00205063610337675,0.0215120762586594
85,-0.00698215793818235,0.0156812220811844,-0.0157308503985405,0.00411535054445267,-0.0084232809022069,0.025556918233633
86,-0.00942675396800041,0.0135687449947,-0.0183457545936108,0.0017261013854295,-0.0154724949970841,0.0225941594690084
87,-0.0129385385662317,0.0104094883427024,-0.020921153947711,-0.000754627864807844,-0.0211271531879902,0.0145161859691143
88,-0.0144529575482011,0.0081118531525135,-0.0223888587206602,-0.00124302844051272,-0.0237696878612041,0.00505664618685842
89,-0.0146057764068246,0.00652932375669479,-0.0231619700789452,-0.000811232253909111,-0.0240235943347216,-0.00419431971386075
90,-0.0151843037456274,0.00456040725111961,-0.0238590817898512,-0.00165350886527449,-0.0231522396206856,-0.0136281372979283
91,-0.0168444905430079,0.00192944111768156,-0.0250552408397198,-0.00476789614185691,-0.0225405003875494,-0.0233570653945208
92,-0.019087890163064,-0.000900353072211146,-0.0272185634821653,-0.0100215040147305,-0.0228235684335232,-0.0325754135847092
93,-0.0218894332647324,-0.00420850748196244,-0.0312817133963108,-0.0173401888459921,-0.0242703072726727,-0.0410392135381699
94,-0.0265543293207884,-0.00884811300784349,-0.0382681116461754,-0.0265089459717274,-0.0281065721064806,-0.0489288493990898
95,-0.031154740601778,-0.0125120589509606,-0.045149601995945,-0.0337306000292301,-0.0321585647761822,-0.0530491434037685
96,-0.0321343317627907,-0.0121624749153852,-0.0474230758845806,-0.0347309559583664,-0.0316714122891426,-0.0500094033777714
97,-0.0303388610482216,-0.00906497333198786,-0.0450669936835766,-0.0305857993662357,-0.0262941177934408,-0.0413228459656239
98,-0.0270590335130692,-0.00532066868618131,-0.0396861284971237,-0.0241624042391777,-0.0189523231238127,-0.0294730085879564
99,-0.0212845876812935,-0.0016264837468043,-0.0327382534742355,-0.0177162736654282,-0.012534873560071,-0.017643028870225
100,-0.013665140606463,0.000840789696667343,-0.026710893958807,-0.0141883892938495,-0.00840698275715113,-0.0113557670265436
101,-0.00524733541533351,0.00240560388192534,-0.0216474421322346,-0.0137509675696492,-0.00408916408196092,-0.0117952562868595
102,0.00264934054575861,0.00380377960391343,-0.0177467074245214,-0.0144607285037637,0.00142891053110361,-0.0148589042946696
103,0.00686487182974815,0.00435663666576147,-0.018189562484622,-0.0150642730295658,0.00398187339305878,-0.0152945723384619
104,0.00673094019293785,0.00519824307411909,-0.0222966335713863,-0.0133769577369094,0.00221142894588411,-0.0085426326841116
105,0.00393483880907297,0.00672758230939507,-0.0262649729847908,-0.0092375110834837,-0.000926299544516951,0.00341769447550178
106,0.00147098058369011,0.00827942229807377,-0.027034480124712,-0.00396772148087621,-0.00200138427317142,0.0147884301841259
107,0.00329871824942529,0.0106772668659687,-0.0230570007115602,0.0027718530036509,0.000413111847592518,0.0228439625352621
108,0.00885499734431505,0.0127396853640676,-0.0169636160135269,0.0092567577958107,0.0023358182515949,0.0261790882796049
109,0.0133948875591159,0.0125113064423203,-0.0125585198402405,0.01207684725523,-0.000637661432847381,0.0242094788700342
110,0.0154568869620562,0.0122868688777089,-0.00973443035036325,0.0117867095395923,-0.00634353701025248,0.0188013315200806
111,0.0168987698853016,0.0150708397850394,-0.00655855983495712,0.0110822003334761,-0.00999058503657579,0.0120831755921245
112,0.0170967187732458,0.0188703257590532,-0.00364932394586504,0.00934250559657812,-0.0105531364679337,0.0047736200504005
113,0.014481520280242,0.0195586252957582,-0.00302205653861165,0.00472615566104651,-0.00942535419017076,-0.00201362068764865
114,0.0104219475761056,0.0158620737493038,-0.00492319697514176,-0.00231049419380724,-0.00719205429777503,-0.00754480762407184
115,0.0074891853146255,0.00959759391844273,-0.00870336592197418,-0.00997420959174633,-0.00455195503309369,-0.0126754306256771
116,0.00725396396592259,0.00355981918983161,-0.0133241098374128,-0.0156354010105133,-0.00231253542006016,-0.0171216931194067
117,0.0101033430546522,0.000289172545308247,-0.0161122977733612,-0.01635567471385,0.000318062433507293,-0.0185737982392311
118,0.0145928636193275,0.000721081858500838,-0.0158615410327911,-0.0125795397907496,0.00381718249991536,-0.0154644921422005
119,0.0172017831355333,0.00294688413850963,-0.0150911873206496,-0.00871593412011862,0.00596373621374369,-0.0088658519089222
120,0.0149645442143083,0.0043115159496665,-0.0162773504853249,-0.00840530451387167,0.00408626813441515,-0.00212913774885237
121,0.00905060674995184,0.00449160765856504,-0.0185862239450216,-0.0111987963318825,-0.00074499094625935,0.00158447213470936
122,0.00269444868899882,0.00439718039706349,-0.0204429905861616,-0.014848436228931,-0.00579078961163759,0.000641431310214102
123,-0.00247572548687458,0.00397504540160298,-0.0222685821354389,-0.0186313167214394,-0.0108749512583017,-0.0045336838811636
124,-0.00521900271996856,0.002905516885221,-0.0246061570942402,-0.0224669110029936,-0.0160006545484066,-0.010415418073535
125,-0.00299469288438559,0.00298714707605541,-0.0255600772798061,-0.0243048276752234,-0.0177704151719809,-0.0127427913248539
126,0.00558905908837914,0.00662366766482592,-0.022486625239253,-0.0215874146670103,-0.0130679914727807,-0.010810311883688
127,0.0172989033162594,0.01308907661587,-0.0160126760601997,-0.0152033111080527,-0.00459480471909046,-0.00699353264644742
128,0.0270742680877447,0.0195813477039337,-0.00964623130857944,-0.00871329661458731,0.00281618256121874,-0.0035529846791178
129,0.0327899754047394,0.0226642042398453,-0.00719053577631712,-0.00543821649625897,0.00624367920681834,-0.00293072359636426
130,0.0347723178565502,0.0199173539876938,-0.0104190912097692,-0.00660158088430762,0.00386591046117246,-0.00685202656313777
131,0.0336383394896984,0.0124909104779363,-0.0178894810378551,-0.0105378041043878,-0.00402236822992563,-0.0137209491804242
132,0.0297623686492443,0.00307820714078844,-0.0273104384541512,-0.0153447026386857,-0.015254027210176,-0.0202674828469753
133,0.0246354788541794,-0.00587750039994717,-0.0360464453697205,-0.019914647564292,-0.0260356422513723,-0.0229081809520721
134,0.0207805130630732,-0.0113409692421556,-0.0405952408909798,-0.0220645610243082,-0.0319587402045727,-0.0195732787251472
135,0.0211722496896982,-0.0100910607725382,-0.0372572168707848,-0.0185560137033463,-0.0296768844127655,-0.0120641654357314
136,0.0269348416477442,-0.00266540818847716,-0.0257338173687458,-0.00922490656375885,-0.0191729329526424,-0.00480327988043427
137,0.0345301330089569,0.00540014868602157,-0.0122598046436906,0.000776020518969744,-0.00589668657630682,-0.00184339040424675
138,0.0397852919995785,0.00979451835155487,-0.0033096878323704,0.00661689974367619,0.00431887619197369,-0.00261522619985044
139,0.0417407043278217,0.0100597534328699,0.000204200128791854,0.00746837491169572,0.0106677943840623,-0.00416971370577812
140,0.0422517694532871,0.0081222178414464,0.00127184530720115,0.00558035494759679,0.0164056047797203,-0.00479374220594764
141,0.0432968400418758,0.00631025107577443,0.00237322016619146,0.00400909688323736,0.0233123973011971,-0.00263198278844357
142,0.0450897924602032,0.00441854540258646,0.00312002864666283,0.00396749656647444,0.0295607913285494,0.00254132994450629
143,0.0470272451639175,0.000721102813258767,0.00138212589081377,0.00448059849441051,0.032600425183773,0.00795180350542068
144,0.0477236695587635,-0.00475616147741675,-0.00375585327856243,0.0037422813475132,0.0308306980878115,0.00994714628905058
145,0.0471593290567398,-0.00920980144292116,-0.0092792147770524,0.00216157035902143,0.0263405200093985,0.00704852165654302
146,0.0477866604924202,-0.00987122301012278,-0.0114457458257675,0.00199322123080492,0.0239463429898024,0.00100709730759263
147,0.0502056479454041,-0.00643851142376661,-0.00985211413353682,0.00450924737378955,0.0253912378102541,-0.00486231036484241
148,0.0518354624509811,-0.000466805970063433,-0.00680080056190491,0.00915505457669497,0.0280687157064676,-0.0081727858632803
149,0.050086110830307,0.00533875590190291,-0.00595159316435456,0.0125767383724451,0.0280283074826002,-0.00955784227699041
150,0.04533326998353,0.00933282356709242,-0.0088675394654274,0.0115323550999165,0.0241329148411751,-0.0103382142260671
151,0.0404998697340488,0.0120005533099175,-0.0130080161616206,0.00709700025618076,0.0187646932899952,-0.0108558163046837
152,0.0373319573700428,0.013811114244163,-0.015016807243228,0.0025332358200103,0.0141200507059693,-0.0123427305370569
153,0.0341703854501247,0.0137028787285089,-0.0148850120604038,-0.00155745237134397,0.0100051071494818,-0.0164828281849623
154,0.029359757900238,0.0107863359153271,-0.0152885457500815,-0.00600665435194969,0.00554276490584016,-0.0225946307182312
155,0.0247582532465458,0.00623715436086059,-0.0172099471092224,-0.00960931088775396,0.00143709382973611,-0.027704332023859
156,0.0221060439944267,0.00164447340648621,-0.0199695713818073,-0.0114301657304168,-0.00135497364681214,-0.0306743513792753
157,0.0209577139467001,-0.00179918936919421,-0.0225993450731039,-0.0116526326164603,-0.00261413375847042,-0.03236373513937
158,0.0209948234260082,-0.0033045073505491,-0.0240284074097872,-0.0104345688596368,-0.00254463404417038,-0.0324687026441097
159,0.0213796384632587,-0.00411248672753572,-0.0250820145010948,-0.0095897251740098,-0.00286877015605569,-0.0302542671561241
160,0.0211961381137371,-0.00612121727317572,-0.02756167948246,-0.0113527067005634,-0.00525309145450592,-0.0267652478069067
161,0.0205503068864346,-0.00916548632085323,-0.0312443673610687,-0.0152279743924737,-0.00911287497729063,-0.0241098403930664
162,0.0194985419511795,-0.012092188000679,-0.0342527516186237,-0.0186316110193729,-0.0129118897020817,-0.0232883039861918
163,0.0185469314455986,-0.014548959210515,-0.0356567092239857,-0.0200974196195602,-0.0156104145571589,-0.0240459460765123
164,0.0185988135635853,-0.0164168160408735,-0.0362208969891071,-0.0205703247338533,-0.0174180790781975,-0.0245550647377968
165,0.0199965331703424,-0.0172137171030045,-0.0366099700331688,-0.0204205960035324,-0.0193528700619936,-0.0214308090507984
166,0.0217157360166311,-0.0171390175819397,-0.0363987199962139,-0.0180782191455364,-0.0212800055742264,-0.0139050921425223
167,0.0222789198160172,-0.0162488762289286,-0.0341533087193966,-0.0125765111297369,-0.0216119233518839,-0.00458842236548662
168,0.021289024502039,-0.0141073716804385,-0.029840050265193,-0.00613855570554733,-0.0201631486415863,0.00359203014522791
169,0.01940893009305,-0.0109912175685167,-0.0253497380763292,-0.00224304851144552,-0.0183244273066521,0.0084001375362277
170,0.017820106819272,-0.00779447145760059,-0.0214683525264263,-0.00173878739587963,-0.0165552943944931,0.00865370407700539
171,0.0172930173575878,-0.00580225745216012,-0.0181911140680313,-0.00351469544693828,-0.0140584316104651,0.00482194172218442
172,0.0176771208643913,-0.00559541676193476,-0.0159512665122747,-0.00626411056146026,-0.00967993587255478,-0.0010627448791638
173,0.0175968315452337,-0.00727386120706797,-0.0155740166082978,-0.00924480985850096,-0.00469791609793901,-0.00667769368737936
174,0.0165857337415218,-0.00999898370355368,-0.0167474281042814,-0.0117955720052123,-0.00165137683507055,-0.00988146662712097
175,0.0161947943270206,-0.0110934656113386,-0.0172714255750179,-0.0130940955132246,-0.000241273897700012,-0.0104203196242452
176,0.017579572275281,-0.00867636874318123,-0.0158299840986729,-0.0129950828850269,0.000860046362504363,-0.00997285265475512
177,0.0211673099547625,-0.00388389290310442,-0.0135245304554701,-0.0119709884747863,0.00168797723017633,-0.00905002374202013
178,0.027479000389576,0.00134074606467038,-0.0115380976349115,-0.00994458235800266,0.00276689440943301,-0.00704253697767854
179,0.0353634692728519,0.00618494627997279,-0.00959496852010489,-0.00669552106410265,0.00507227890193462,-0.00488901697099209
180,0.0424461401998997,0.00951309688389301,-0.00688523426651955,-0.00360027584247291,0.00847184285521507,-0.00501022487878799
181,0.0473458021879196,0.0106856552883983,-0.00313240033574402,-0.00213954807259142,0.0127016520127654,-0.00839199312031269
182,0.0482821688055992,0.00993089191615582,5.38214262633119E-05,-0.00311297760345042,0.0169894732534885,-0.0146249765530229
183,0.0438559912145138,0.00687620555981994,0.000567315029911697,-0.00703014992177486,0.0189503747969866,-0.0224791280925274
184,0.0369622595608234,0.00308569194748998,-0.000164005396072753,-0.0106576923280954,0.0181092415004969,-0.0270577315241098
185,0.0323478020727634,0.00164601299911737,0.00111454434227198,-0.00908614601939917,0.0164984837174416,-0.0230672918260098
186,0.031183909624815,0.00281917280517519,0.004487921949476,-0.0033546662889421,0.0151294395327568,-0.0119736855849624
187,0.032044667750597,0.00442180084064603,0.00759469484910369,0.00130044762045145,0.014149397611618,9.92629720713012E-05
188,0.0342235267162323,0.00490231160074472,0.00958053302019835,0.00268922606483102,0.0136532261967659,0.00898710824549198
189,0.0375165604054928,0.00457736803218722,0.0110505819320679,0.00216698297299445,0.0132538713514805,0.0139602143317461
190,0.0398038774728775,0.00331806531175971,0.0104930941015482,-0.000157017770106904,0.0110436631366611,0.0141569264233112
191,0.0389229170978069,-0.000280447100521997,0.00594191113486886,-0.0056302254088223,0.00511837610974908,0.0088832713663578
192,0.0358569771051407,-0.00596661306917667,-0.000809067394584417,-0.0130033465102315,-0.00307655823417008,0.00136759120505303
193,0.0327671431005001,-0.0114120887592435,-0.00639919936656952,-0.0192009080201387,-0.0102505376562476,-0.00455603655427694
194,0.0306804459542036,-0.0149454064667225,-0.00983505789190531,-0.0224901549518108,-0.0147193092852831,-0.00864935293793678
195,0.0297791641205549,-0.0165778808295727,-0.0112125016748905,-0.0218432061374187,-0.0161919686943293,-0.0109690232202411
196,0.0298363920301199,-0.0162430685013533,-0.00981141161173582,-0.0171352475881577,-0.0147580029442906,-0.00916025321930647
197,0.0286679770797491,-0.015059320256114,-0.00705137616023421,-0.0124087175354362,-0.0125327166169882,-0.00336651224642992
198,0.0245249643921852,-0.0149035379290581,-0.00534607702866197,-0.0120796235278249,-0.0109982211142778,0.00168306671548635
199,0.0193393677473068,-0.0152993882074952,-0.0048205847851932,-0.0155238127335906,-0.00845161732286215,0.00226905080489814
200,0.0145527897402644,-0.0169207658618689,-0.006592339836061,-0.0212113577872515,-0.00558099243789911,-0.00263326405547559
201,0.0106660341843963,-0.0211147051304579,-0.0114396326243877,-0.0279146730899811,-0.00515001825988293,-0.0112975062802434
202,0.0101267490535975,-0.0253006480634212,-0.0160159636288881,-0.0322359204292297,-0.00665949191898108,-0.0187731124460697
203,0.0131085542961955,-0.0270011760294437,-0.0175697188824415,-0.0325648225843906,-0.00858044065535069,-0.0218318197876215
204,0.0169840697199106,-0.0262573286890984,-0.0162680465728045,-0.03005550801754,-0.00921016186475754,-0.0200311355292797
205,0.0208504199981689,-0.0229844134300947,-0.0122115351259708,-0.0251357927918434,-0.00562936207279563,-0.013346298597753
206,0.0249437913298607,-0.0169417560100555,-0.00523572973906994,-0.0174282491207123,0.0026898980140686,-0.00272643938660622
207,0.0291786156594753,-0.00853287149220705,0.00422140303999186,-0.00700309127569199,0.0132584031671286,0.0104301040992141
208,0.0321943573653698,-4.69141850771848E-05,0.0134916631504893,0.00358986272476614,0.0226327758282423,0.0229465272277594
209,0.0318169333040714,0.00551732257008553,0.0191010013222694,0.0100497826933861,0.0279725715517998,0.0296857431530952
210,0.027795348316431,0.00658486364409328,0.0199638716876507,0.0103308642283082,0.0279623288661242,0.0279378443956375
211,0.0233161859214306,0.00357378320768476,0.0170110166072845,0.0064221965149045,0.0231370683759451,0.0200473498553038
212,0.0217089354991913,-0.00197701994329691,0.0114128869026899,0.000978987663984299,0.0152799934148788,0.0101975779980421
213,0.0228009466081858,-0.00807995535433292,0.00506565114483237,-0.00414086598902941,0.00756217958405614,0.00268686027266085
214,0.0251526851207018,-0.0118155814707279,0.000931632413994521,-0.00604137033224106,0.0040792440995574,0.00109469494782388
215,0.0275848992168903,-0.0116475038230419,0.000369662855518982,-0.003608213737607,0.00653969263657928,0.00371366133913398
216,0.0300184190273285,-0.00768351042643189,0.00328100845217705,0.00220180535688996,0.0134959369897842,0.00698233023285866
217,0.0332902707159519,-0.00131339393556118,0.00761655066162348,0.00962170399725437,0.0201943591237068,0.0100238295271993
218,0.0356114134192467,0.00333080999553204,0.00852992665022612,0.0150810452178121,0.0212581139057875,0.0125630768015981
219,0.0351962484419346,0.00409200834110379,0.00467703491449356,0.0177663303911686,0.0172368567436934,0.0155623964965343
220,0.0351195074617863,0.00545473769307137,0.00163184257689863,0.0218729730695486,0.0143755059689283,0.0213164445012808
221,0.0381755083799362,0.0113528883084655,0.00324249872937799,0.0283912681043148,0.0156969390809536,0.0295756347477436
222,0.041866909712553,0.0189847238361835,0.00596142001450062,0.0329175665974617,0.0173613708466291,0.0364095568656921
223,0.042383786290884,0.0233877673745155,0.00496278656646609,0.0328229963779449,0.0151129849255085,0.0381560437381268
224,0.0403250157833099,0.0235433634370565,0.00119929772336036,0.0304691158235073,0.0104461079463363,0.0369792208075523
225,0.0390767753124237,0.021721513941884,-0.000833299185615033,0.0296157859265804,0.0084542203694582,0.0373171418905258
226,0.0385933183133602,0.0183170344680548,8.19051711005159E-05,0.0305337458848953,0.0110681410878897,0.0377835854887962
227,0.0368642546236515,0.0132603086531162,0.00292309303767979,0.0321447066962719,0.0168051030486822,0.035270169377327
228,0.0337847806513309,0.00811180099844933,0.00623758882284164,0.0339289307594299,0.0228876657783985,0.0305492971092463
229,0.0311646889895201,0.00517436768859625,0.00845761969685555,0.0352632403373718,0.0264403466135263,0.0271691288799047
230,0.0314551033079624,0.00728841777890921,0.0110374046489596,0.0370427221059799,0.0271050631999969,0.0275524463504553
231,0.0347953364253044,0.0140336789190769,0.0157259218394756,0.04006627202034,0.0264795925468206,0.029337827116251
232,0.0389187261462212,0.0209590345621109,0.021161800250411,0.0434779301285744,0.0257623735815287,0.0288364868611097
233,0.0420791730284691,0.0245266389101744,0.025789650157094,0.0462918095290661,0.0256470181047916,0.0263886582106352
234,0.0431476980447769,0.0243249163031578,0.0288335047662258,0.0477016158401966,0.0257733147591352,0.0247412528842688
235,0.0403719581663609,0.0213346052914858,0.0286592021584511,0.0466673150658607,0.0233767740428448,0.0239456109702587
236,0.0337854772806168,0.0168680064380169,0.0246722977608442,0.0433272905647755,0.0167725067585707,0.0222698729485273
237,0.0281455181539059,0.0138906771317124,0.0203652568161488,0.0411409661173821,0.00982289295643568,0.0212480630725622
238,0.0279426779597998,0.0149070890620351,0.0195682309567928,0.0430728457868099,0.00759497983381152,0.0230828933417797
239,0.0314705744385719,0.0184683464467525,0.0213985033333302,0.0468769744038582,0.0100318538025022,0.0260383691638708
240,0.035194355994463,0.0224019717425108,0.0234004985541105,0.0494136922061443,0.0139046097174287,0.0279555562883615
241,0.038479782640934,0.0260257814079523,0.0248528011143208,0.0501025579869747,0.017337704077363,0.0286345183849335
242,0.0413577780127525,0.0280592273920774,0.0249859672039747,0.0485781654715538,0.0199241321533918,0.0279270578175783
243,0.0432845316827297,0.027218883857131,0.0231660436838865,0.0445140339434147,0.0218859426677227,0.0254339464008808
244,0.0439686663448811,0.0234618838876486,0.0205709878355265,0.0387986153364182,0.0244597885757685,0.0214862134307623
245,0.0441884435713291,0.0186255890876055,0.0192334596067667,0.0338571630418301,0.0287170056253672,0.0192278772592545
246,0.0458560101687908,0.0157508421689272,0.0204558372497559,0.0325176976621151,0.0345673300325871,0.0232935585081577
247,0.0490996539592743,0.0162329729646444,0.0238781105726957,0.0352478474378586,0.0410277806222439,0.0344652086496353
248,0.0520196110010147,0.0196601264178753,0.0281760711222887,0.0400964058935642,0.0465999990701675,0.0486541278660297
249,0.0533688627183437,0.0246968772262335,0.031978152692318,0.0443022474646568,0.049530066549778,0.0594065897166729
250,0.053395077586174,0.0297683030366898,0.0346685014665127,0.0464263297617435,0.0495761372148991,0.0628068745136261
251,0.0541614554822445,0.0346637666225433,0.0373888984322548,0.0476620271801949,0.0497613362967968,0.0616839900612831
252,0.0578457228839397,0.0398636497557163,0.0416553430259228,0.0497188493609428,0.0535555966198444,0.0604595951735973
253,0.0626414865255356,0.0437514707446098,0.045868769288063,0.0518761724233627,0.0589223019778728,0.0584149472415447
254,0.0635669380426407,0.0427235141396523,0.0458367094397545,0.0509433448314667,0.0591997392475605,0.0528399683535099
255,0.0582090429961681,0.0350558459758759,0.039638314396143,0.0447326675057411,0.0519994124770164,0.0434205010533333
256,0.0488322712481022,0.0236006658524275,0.0290981475263834,0.0346677713096142,0.0415791310369968,0.031383752822876
257,0.0395593829452991,0.0140234399586916,0.0183537304401398,0.0249797105789185,0.0333800576627254,0.0193845555186272
258,0.0333954319357872,0.0106828957796097,0.0116671873256564,0.0199010279029608,0.0304722171276808,0.0109172370284796
259,0.0311709400266409,0.0141360145062208,0.0106094544753432,0.0204386152327061,0.0321389995515347,0.00716564524918795
260,0.0318040400743485,0.0211293213069439,0.0135087380185723,0.0237733758985996,0.0347914025187492,0.00617402093484998
261,0.0328395292162895,0.0267157759517431,0.0165044292807579,0.0256552211940289,0.034392386674881,0.00519630219787359
262,0.0333215892314911,0.0289217252284288,0.0177090261131525,0.0249248761683702,0.0304904095828533,0.00426433049142361
263,0.0340760312974453,0.0289449691772461,0.0185658633708954,0.0241356287151575,0.0263867303729057,0.00520705850794911
264,0.0339846909046173,0.0266162734478712,0.018735483288765,0.0243079122155905,0.0228223949670792,0.00724724121391773
265,0.0316486619412899,0.021545572206378,0.0161762218922377,0.0233169440180063,0.017875699326396,0.00827497150748968
266,0.0279208458960056,0.0153603488579392,0.0111070116981864,0.0187940709292889,0.0114941075444222,0.00744643062353134
267,0.0247621592134237,0.010275274515152,0.00605694483965635,0.0114909168332815,0.00639786850661039,0.0060802660882473
268,0.0233030896633863,0.00763599714264274,0.00387205136939883,0.00446422630921006,0.00568272173404694,0.00678060203790665
269,0.0230512823909521,0.0077153267338872,0.00635543232783675,-0.000424886326072738,0.0098727447912097,0.00997700542211533
270,0.0235006380826235,0.00989432167261839,0.0130508653819561,-0.00235658092424273,0.016812652349472,0.0147714028134942
271,0.0245826430618763,0.0121924774721265,0.0205559320747852,-0.00156884512398392,0.0236321948468685,0.0210109725594521
272,0.0250106379389763,0.0118658430874348,0.0239645838737488,-0.00152254675049335,0.0270775482058525,0.0253147408366203
273,0.0236831065267324,0.00798919890075922,0.0214666537940502,-0.00540690962225199,0.0253325011581182,0.0229157339781523
274,0.0211532041430473,0.00220427685417235,0.0157873947173357,-0.0119267189875245,0.0203427709639072,0.0151901077479124
275,0.0178724639117718,-0.00322343525476754,0.0101673835888505,-0.0181379672139883,0.0153795182704926,0.00703103374689817
276,0.0135605428367853,-0.00720747979357839,0.00533078284934163,-0.0229607336223125,0.0115772746503353,5.5905388762767E-06
277,0.00885703414678574,-0.0095837339758873,0.00075012247543782,-0.0265819337219,0.00854709558188915,-0.00675174267962575
278,0.00607654545456171,-0.0102642271667719,-0.00276260706596076,-0.0287176389247179,0.0069574280641973,-0.0124564273282886
279,0.00595541996881366,-0.0101028345525265,-0.00468196347355843,-0.0296230297535658,0.00737405242398381,-0.0159443374723196
280,0.00636105798184872,-0.0112040052190423,-0.00650971475988626,-0.0311225410550833,0.0075536803342402,-0.0192091930657625
281,0.00577046349644661,-0.0154398093000054,-0.00936467852443457,-0.0346896536648273,0.00524421082809567,-0.0253837276250124
282,0.00477514555677772,-0.0218184310942888,-0.0117543153464794,-0.0389594100415707,0.00220857164822519,-0.0336789824068546
283,0.00491334544494748,-0.0266872346401215,-0.0115155857056379,-0.0410222187638283,0.00160242430865765,-0.0394018329679966
284,0.00725504569709301,-0.0274633374065161,-0.00840207189321518,-0.0394798070192337,0.00393151910975575,-0.0390765108168125
285,0.0109712006524205,-0.0251306351274252,-0.00429840851575136,-0.0356877446174622,0.00648666732013226,-0.034488633275032
286,0.0136802289634943,-0.0231995433568954,-0.00196817517280579,-0.0327142514288425,0.00633791647851467,-0.0303116627037525
287,0.0131379570811987,-0.0244321208447218,-0.00345903937704861,-0.0329822935163975,0.00295318919233978,-0.0294319130480289
288,0.010529643855989,-0.0270084049552679,-0.00729783717542887,-0.0352207608520985,-0.000673444184940308,-0.0300526916980743
289,0.00956726260483265,-0.0269081834703684,-0.00914053991436958,-0.0357152111828327,-0.00044916314072907,-0.0276276096701622
290,0.0103315124288201,-0.0251137241721153,-0.00866154115647078,-0.0346448794007301,0.00190078443847597,-0.0221819765865803
291,0.0104219755157828,-0.0256126299500465,-0.00944274105131626,-0.0350779928267002,0.000911978830117732,-0.0172163136303425
292,0.00833933707326651,-0.0301125459372997,-0.0134099181741476,-0.0385685041546822,-0.00496266270056367,-0.0145330782979727
293,0.002521458780393,-0.037960447371006,-0.0207743775099516,-0.0455979369580746,-0.0140444803982973,-0.0159617364406586
294,-0.00588308274745941,-0.0457377545535564,-0.0296380221843719,-0.0541458316147327,-0.0239253509789705,-0.021125478670001
295,-0.0119455456733704,-0.0489152036607265,-0.0352997742593288,-0.059239961206913,-0.0309317838400602,-0.0254580955952406
296,-0.012662336230278,-0.0459048487246037,-0.0343514010310173,-0.0578863508999348,-0.0323402993381023,-0.0265164598822594
297,-0.00913870520889759,-0.0378665551543236,-0.0271626021713018,-0.0510113835334778,-0.0289654731750488,-0.0250944178551435
298,-0.00422870088368654,-0.0277904774993658,-0.0171106476336718,-0.0417760722339153,-0.0243461932986975,-0.0230642147362232
299,0.000164460463565774,-0.0201476663351059,-0.00908162817358971,-0.0347391068935394,-0.0218284726142883,-0.0240807663649321
300,0.00409817136824131,-0.0170397702604532,-0.00656045228242874,-0.0334026329219341,-0.0227034725248814,-0.0297002978622913
301,0.00662215845659375,-0.0179449040442705,-0.00953487027436495,-0.0381888896226883,-0.0269641671329737,-0.0376307554543018
302,0.0061695696786046,-0.0222356170415878,-0.0141263548284769,-0.0467803291976452,-0.0326262451708317,-0.0449553951621056
303,0.00360380462370813,-0.028616102412343,-0.016224829480052,-0.0555900111794472,-0.0358254536986351,-0.0496429391205311
304,0.00114129832945764,-0.0344937406480312,-0.0151508133858442,-0.0612616501748562,-0.0340520218014717,-0.0507596656680107
305,8.58480052556843E-05,-0.0372888185083866,-0.0126898800954223,-0.0623260363936424,-0.0286544505506754,-0.0484194345772266
306,9.95461305137724E-05,-0.0374474301934242,-0.0118681294843555,-0.0608820766210556,-0.0238919239491224,-0.0445696450769901
307,0.00164868426509202,-0.0363814420998096,-0.0136378044262528,-0.0588323846459389,-0.0214974693953991,-0.040378276258707
308,0.0063505657017231,-0.0333923362195492,-0.0153354443609715,-0.0549592524766922,-0.0193316675722599,-0.03349394723773
309,0.0122688179835677,-0.0302839875221252,-0.0165710672736168,-0.0502369031310081,-0.0172495190054178,-0.0233598202466965
310,0.016644049435854,-0.0291909221559763,-0.0186619311571121,-0.0465955175459385,-0.0155067648738623,-0.0119116930291057
311,0.0200829822570086,-0.0277994889765978,-0.0199710503220558,-0.0426601022481918,-0.0119232498109341,-0.000502086419146508
312,0.0230370629578829,-0.0249618273228407,-0.0193809047341347,-0.0381697081029415,-0.00679774023592472,0.00716174254193902
313,0.0245962888002396,-0.0227817818522453,-0.0184593070298433,-0.0354100726544857,-0.00300917681306601,0.00673025706782937
314,0.0243945196270943,-0.0226083733141422,-0.0186483506113291,-0.0360533371567726,-0.00257466430775821,-0.00157806510105729
315,0.022903848439455,-0.0236823242157698,-0.019301425665617,-0.0399227030575275,-0.00506474543362856,-0.0134370550513268
316,0.0203213337808847,-0.0241833105683327,-0.0193154755979776,-0.0449819602072239,-0.00818539690226316,-0.0238706488162279
317,0.0165176726877689,-0.0231484454125166,-0.0197286009788513,-0.0488977581262589,-0.0111037129536271,-0.0302692390978336
318,0.0109276873990893,-0.0223824288696051,-0.0227975640445948,-0.0520059503614903,-0.0157699100673199,-0.0334293618798256
319,0.00418537948280573,-0.0235926937311888,-0.0276690479367971,-0.0549089163541794,-0.0220359377563,-0.0336612202227116
320,-0.00180704682134092,-0.0260332003235817,-0.0314721390604973,-0.0567472986876965,-0.0274175833910704,-0.0309948530048132
321,-0.00623523257672787,-0.028394715860486,-0.0333402752876282,-0.0577576793730259,-0.0320390798151493,-0.0281219538301229
322,-0.00835858657956123,-0.0295774415135384,-0.0338334366679192,-0.058498278260231,-0.037064291536808,-0.0266005881130695
323,-0.00821733847260475,-0.0300465170294046,-0.0350357219576836,-0.0594783425331116,-0.0428330600261688,-0.0257476307451725
324,-0.0078937504440546,-0.0317867733538151,-0.0387937799096107,-0.0611726641654968,-0.0489154346287251,-0.0256142001599073
325,-0.00837513245642185,-0.0350466519594193,-0.0434484928846359,-0.0624945461750031,-0.0533626489341259,-0.0260542817413807
326,-0.00779642444103956,-0.0383905135095119,-0.0459006763994694,-0.0619296357035637,-0.0541530400514603,-0.0250743757933378
327,-0.00446504773572087,-0.0404072664678097,-0.0446427837014198,-0.0586796589195728,-0.0507970191538334,-0.0211560893803835
328,0.000457720627309754,-0.040123026818037,-0.0404933467507362,-0.0523455440998077,-0.0451361015439034,-0.0153765128925443
329,0.00444476120173931,-0.0390468314290047,-0.0363517478108406,-0.0449482053518295,-0.0403773076832294,-0.0107373120263219
330,0.006036008708179,-0.0397370979189873,-0.0349050350487232,-0.0401054732501507,-0.0379506461322308,-0.0095744039863348
331,0.00500010047107935,-0.04212262108922,-0.0363722965121269,-0.0385887920856476,-0.037034023553133,-0.0109742851927876
332,0.00249216449446976,-0.0439469181001186,-0.0378950797021389,-0.037725031375885,-0.0357733815908432,-0.0110879372805357
333,0.000253092497587204,-0.0435594283044338,-0.0363523215055466,-0.035644892603159,-0.0326475985348225,-0.00791863165795803
334,-0.00182288524229079,-0.0422502495348454,-0.0327345058321953,-0.0342070944607258,-0.0281415805220604,-0.00534674478694797
335,-0.00666172988712788,-0.0441636070609093,-0.0325845368206501,-0.0375142022967339,-0.0261301174759865,-0.00985636189579964
336,-0.0151273189112544,-0.0505412817001343,-0.0390703082084656,-0.046251904219389,-0.0296905525028706,-0.0221839491277933
337,-0.0218487586826086,-0.0565543137490749,-0.0475425384938717,-0.0548387207090855,-0.0352874360978603,-0.0346029251813889
338,-0.0214143358170986,-0.0576629303395748,-0.0519409999251366,-0.0579191856086254,-0.0381608754396439,-0.038707684725523
339,-0.0151706663891673,-0.0543261915445328,-0.0511294230818748,-0.0554013624787331,-0.0382175631821156,-0.0331884063780308
340,-0.00957832206040621,-0.0507932417094707,-0.0477586649358273,-0.0507470592856407,-0.0379107296466827,-0.0237905755639076
341,-0.00746820261701941,-0.0484100617468357,-0.0432255789637566,-0.0457836166024208,-0.0376645140349865,-0.0143418610095978
342,-0.00537057965993881,-0.0435261204838753,-0.0362142138183117,-0.0393396764993668,-0.0356344319880009,-0.00283386674709618
343,-0.00237330771051347,-0.0365099273622036,-0.0282469764351845,-0.0328285396099091,-0.0333374030888081,0.0101902168244123
344,-0.00046196294715628,-0.031453151255846,-0.0224887616932392,-0.028785390779376,-0.0328029878437519,0.0206287931650877
345,0.00151520525105298,-0.028865335509181,-0.0189535561949015,-0.0263023730367422,-0.0318572819232941,0.0258724205195904
346,0.00484617333859205,-0.0276177991181612,-0.0165245309472084,-0.0242870859801769,-0.0293504782021046,0.0243644323199987
347,0.0073709306307137,-0.027299091219902,-0.0150867383927107,-0.0231313239783049,-0.0272295530885458,0.0166927147656679
348,0.00571586471050978,-0.027356281876564,-0.0151799786835909,-0.0232202094048262,-0.0276415627449751,0.00642217975109816
349,1.54429799295031E-05,-0.0273135341703892,-0.0162241514772177,-0.0244481395930052,-0.0307179000228643,-0.00289760204032063
350,-0.00619917223230004,-0.0279790554195642,-0.0170585494488478,-0.0265664737671614,-0.0344801284372807,-0.0103190327063203
351,-0.0104433270171285,-0.0309090204536915,-0.0178546849638224,-0.0293824691325426,-0.037001296877861,-0.0165915172547102
352,-0.0114653268828988,-0.0347127243876457,-0.018353508785367,-0.0316923223435879,-0.037015575915575,-0.0211520958691835
353,-0.00963931065052748,-0.0365382693707943,-0.018290376290679,-0.0325913764536381,-0.0341314114630222,-0.0235406830906868
354,-0.00665693264454603,-0.0360074676573277,-0.0181545596569777,-0.0320974066853523,-0.0283806920051575,-0.0241304133087397
355,-0.00254201586358249,-0.0335977301001549,-0.0173220206052065,-0.0300466809421778,-0.0201541651040316,-0.0213087294250727
356,0.00257025822065771,-0.0305255893617868,-0.0160092990845442,-0.0283434838056564,-0.0123641779646277,-0.0142493899911642
357,0.00776241347193718,-0.0287471022456884,-0.0155626032501459,-0.0289736017584801,-0.00766532681882381,-0.00570450117811561
358,0.0122316358610988,-0.0276588592678308,-0.0159719660878181,-0.0301486644893885,-0.00574271287769079,0.00219733151607215
359,0.0142327724024653,-0.0254447106271982,-0.0168859139084816,-0.0296440254896879,-0.00614162907004356,0.0108548039570451
360,0.0135927861556411,-0.0222876016050577,-0.0175995882600546,-0.0274545513093472,-0.00776506308466196,0.0211764499545097
361,0.0119834253564477,-0.0200504995882511,-0.0174670573323965,-0.0253261439502239,-0.0092550115659833,0.0288131050765514
362,0.00966515950858593,-0.0201649945229292,-0.0178901329636574,-0.0253401435911655,-0.0116935195401311,0.0275794509798288
363,0.0063904169946909,-0.0221245307475328,-0.0197384674102068,-0.0275379326194525,-0.0157871898263693,0.0163671281188726
364,0.00336702796630561,-0.0242805946618319,-0.0215095635503531,-0.0300587564706802,-0.0199215188622475,0.000396873248973861
365,0.00134142464958131,-0.0258159898221493,-0.0227068401873112,-0.0317867398262024,-0.0232637878507376,-0.0137254204601049
366,0.00102084293030202,-0.0257231201976538,-0.0225115716457367,-0.0311335306614637,-0.0242525171488523,-0.0215907860547304
367,0.00409220578148961,-0.0224284864962101,-0.0184304732829332,-0.0259289350360632,-0.019483407959342,-0.021668117493391
368,0.00953670497983694,-0.0174394547939301,-0.0118150087073445,-0.0181305464357138,-0.00948588270694017,-0.0167408268898726
369,0.014813338406384,-0.0134906703606248,-0.00672031147405505,-0.0113552082329988,0.00105574179906398,-0.0104146506637335
370,0.0193474274128675,-0.0103717837482691,-0.00412813480943441,-0.00594676379114389,0.00878993887454271,-0.00293275504373014
371,0.0223503708839417,-0.00817618984729052,-0.00286567583680153,-0.00135710195172578,0.0130215892568231,0.00626812735572457
372,0.0209986716508865,-0.0102867605164647,-0.00322581664659083,-3.34968717652373E-05,0.0129484347999096,0.0143702048808336
373,0.0141742518171668,-0.0181273221969604,-0.00552252260968089,-0.00412063580006361,0.0084432689473033,0.017510062083602
374,0.00669145351275802,-0.0268571618944407,-0.007114646025002,-0.00976480729877949,0.00299747684039176,0.0171008557081223
375,0.00477899424731731,-0.0306691788136959,-0.00552899343892932,-0.0114284697920084,0.000553306716028601,0.0189851764589548
376,0.00762714631855488,-0.0297963637858629,-0.00291706807911396,-0.00987092684954405,0.00023694550327491,0.0251018684357405
377,0.0095340283587575,-0.0277116000652313,-0.00328900921158493,-0.00997823290526867,-0.00116929621435702,0.0314774066209793
378,0.00869608111679554,-0.0244614128023386,-0.00645649898797274,-0.0130445929244161,-0.00319029949605465,0.0355899222195148
379,0.00802001357078552,-0.0178229585289955,-0.00771520892158151,-0.0154382679611444,-0.0023482155520469,0.037877194583416
380,0.00915883481502533,-0.00771376816555858,-0.0036595743149519,-0.013883369974792,0.00241013756021857,0.0378993786871433
381,0.00947841629385948,0.00244014523923397,0.00217747944407165,-0.00989869516342878,0.00714195147156715,0.0339811779558659
382,0.00575468642637134,0.00817747414112091,0.00310827232897282,-0.00786044169217348,0.00718044117093086,0.0248446650803089
383,-0.000377882097382098,0.00914066564291716,-0.000924414256587625,-0.0092577962204814,0.00317164254374802,0.0120456386357546
384,-0.00482123019173741,0.00862526055425406,-0.00461629964411259,-0.0121962428092957,-0.00134823773987591,-0.00114108016714454
385,-0.0063755358569324,0.00789867714047432,-0.00621387921273708,-0.0153341954573989,-0.00565574830397964,-0.0126918219029903
386,-0.00481414049863815,0.00695606181398034,-0.00668009603396058,-0.0174576248973608,-0.00929875764995813,-0.0198198352009058
387,0.000177552094100975,0.00762553699314594,-0.00528109446167946,-0.016549127176404,-0.00933612696826458,-0.0189788285642862
388,0.00560409436002374,0.0101758325472474,-0.00266810622997582,-0.0132420789450407,-0.00498781213536859,-0.0112086553126574
389,0.00761619256809354,0.0127519052475691,-0.00107969983946532,-0.0100272055715322,0.00110541807953268,-0.000555964768864214
390,0.00578540377318859,0.0145866060629487,-0.000474297616165131,-0.00761652737855911,0.00629076035693288,0.0120900385081768
391,0.00202977634035051,0.0156803280115128,0.000757483358029276,-0.00534582370892167,0.00978413876146078,0.0272552464157343
392,-0.00127142132259905,0.0161824859678745,0.00339253037236631,-0.00231429655104876,0.0124628162011504,0.0412672460079193
393,-0.00304809724912047,0.0158406943082809,0.00626506749540567,0.00121906283311546,0.013903196901083,0.047527901828289
394,-0.00370382890105248,0.0146966045722365,0.00839504785835743,0.00424292357638478,0.0137088447809219,0.0446313843131065
395,-0.0046747112646699,0.0128159848973155,0.00926780607551336,0.00580786541104317,0.0126550411805511,0.0364795215427876
396,-0.00765171740204096,0.0095326341688633,0.00796806160360575,0.00491671171039343,0.0103035168722272,0.0261537563055754
397,-0.0117623601108789,0.00647948356345296,0.00561685627326369,0.00243939366191626,0.00683200033381581,0.0173880066722631
398,-0.0150335263460875,0.00590990437194705,0.0033393690828234,0.000146271544508636,0.00293368846178055,0.0134105561301112
399,-0.0164423044770956,0.00797680579125881,0.00114895810838789,-0.000364810868632048,-0.000839759188238531,0.0130279948934913
400,-0.0159732103347778,0.0115489596500993,-0.00028709537582472,0.00156070408411324,-0.00372303533367813,0.0127909388393164
401,-0.0160684995353222,0.0140563976019621,-0.00170652754604816,0.00352146034128964,-0.00676312809810042,0.00969594065099955
402,-0.0187666732817888,0.0146268084645271,-0.00404512230306864,0.00410975283011794,-0.0100325020030141,0.00482437573373318
403,-0.0228376407176256,0.0149360643699765,-0.0059028104878962,0.00517410458996892,-0.0111325792968273,0.00264740199781954
404,-0.0255272313952446,0.0156491454690695,-0.00587274972349405,0.00747445831075311,-0.00847282912582159,0.0045728450641036
405,-0.0251294691115618,0.0157921481877565,-0.00515661388635635,0.00908428616821766,-0.00267794518731534,0.00758906733244658
406,-0.0242598410695791,0.0131067577749491,-0.00758162001147866,0.0069269947707653,0.00159233121667057,0.00730562536045909
407,-0.0257578585296869,0.00792368780821562,-0.0133513770997524,0.00217994675040245,0.00101350957993418,0.0033381178509444
408,-0.0275192130357027,0.00496494630351663,-0.0166479330509901,0.000822262198198587,-0.00104188569821417,0.00058716005878523
409,-0.0274270046502352,0.00627991929650307,-0.0145362289622426,0.00416592601686716,-0.00171385915018618,0.00229911180213094
410,-0.0259347874671221,0.0100671714171767,-0.00939257629215717,0.00876028928905725,-0.00194873125292361,0.00723434891551733
411,-0.0247817896306515,0.0139572378247976,-0.00511802360415459,0.0119665106758475,-0.00418126350268722,0.0115135880187154
412,-0.0248338766396046,0.0164131727069616,-0.00364336464554071,0.0135211367160082,-0.0091721722856164,0.0132873868569732
413,-0.0252268314361572,0.0177465099841356,-0.00371989863924682,0.0154683189466596,-0.0147534627467394,0.0148106524720788
414,-0.0254067964851856,0.0177113804966211,-0.00460868375375867,0.0181065071374178,-0.0192259699106216,0.0167028084397316
415,-0.0240748636424541,0.0170943699777126,-0.00536829745396972,0.0202944222837687,-0.0203680582344532,0.0182338058948517
416,-0.0208390634506941,0.0182561650872231,-0.00511241657659411,0.0217747017741203,-0.0170872267335653,0.0192089769989252
417,-0.0179863888770342,0.0203289873898029,-0.00492206169292331,0.0222573708742857,-0.0122094796970487,0.0169470775872469
418,-0.0183004457503557,0.0191198587417603,-0.00607174914330244,0.0205136258155108,-0.00917701330035925,0.00753648951649666
419,-0.022279467433691,0.0129254264757037,-0.00838841591030359,0.015836987644434,-0.0083165867254138,-0.00874255783855915
420,-0.0253568533807993,0.00630170153453946,-0.00891607813537121,0.0112830363214016,-0.00619950890541077,-0.0250709000974894
421,-0.0232056155800819,0.00353122525848448,-0.00601610075682402,0.00967858824878931,-0.00151258148252964,-0.0344959311187267
422,-0.0176334474235773,0.00362195610068738,-0.00211315904743969,0.0103086121380329,0.00254593696445227,-0.0346215814352036
423,-0.0126088159158826,0.00441454350948334,0.000687166349962354,0.0121500780805945,0.00322118797339499,-0.0271091684699059
424,-0.00976844318211079,0.00501502072438598,0.00211967993527651,0.0139734083786607,0.00103255198337138,-0.017555357888341
425,-0.00781893078237772,0.00613054120913148,0.00359110999852419,0.0152549222111702,-5.77602077100892E-05,-0.00993911921977997
426,-0.00534895248711109,0.00881311949342489,0.00705258222296834,0.0169974435120821,0.00356142688542604,-0.0044888062402606
427,-0.00267360941506922,0.0128972651436925,0.0119769396260381,0.0194821730256081,0.0108990604057908,-0.00135924201458693
428,4.63234864582773E-05,0.0178627502173185,0.0162912122905254,0.0224016215652227,0.017791198566556,-0.00042310994467698
429,0.00151386542711407,0.0216697696596384,0.0174037497490644,0.0242067128419876,0.0190164018422365,-0.00194602448027581
430,-0.000195100321434438,0.0215307753533125,0.0128911156207323,0.0223961789160967,0.0118522699922323,-0.00682053901255131
431,-0.00282639497891068,0.0184252709150314,0.0043761651031673,0.017614858224988,0.000655946030747145,-0.0127319134771824
432,-0.00232954369857907,0.0157879162579775,-0.00342652574181557,0.0134942336007953,-0.00781331397593021,-0.0146085126325488
433,0.00163168727885932,0.0142377065494657,-0.00811024755239487,0.0121733481064439,-0.0119286561384797,-0.0115335518494248
434,0.00633359840139747,0.0118967955932021,-0.0106856292113662,0.012419912032783,-0.0136306053027511,-0.00888831913471222
435,0.00911735557019711,0.00801451783627272,-0.013106107711792,0.0118436347693205,-0.0144173726439476,-0.011087697930634
436,0.00884515419602394,0.00298644439317286,-0.0166173428297043,0.00917045865207911,-0.0152791868895292,-0.017220601439476
437,0.00673786411061883,-0.00218689325265586,-0.0206940062344074,0.00525396224111319,-0.0161076579242945,-0.0230017080903053
438,0.00566716305911541,-0.00488916970789433,-0.0230292081832886,0.0030855075456202,-0.0155059015378356,-0.0242171827703714
439,0.00654158741235733,-0.00366944400593638,-0.0225957408547401,0.00397298391908407,-0.0138464653864503,-0.0212898999452591
440,0.00856193900108337,0.000184364776941948,-0.0202698092907667,0.0064119310118258,-0.0121492203325033,-0.0177707206457853
441,0.0113954534754157,0.00471265614032745,-0.0172456465661526,0.00866150297224522,-0.0101141212508082,-0.0169361867010593
442,0.0133761931210756,0.00740343052893877,-0.0157292354851961,0.00882836896926165,-0.00919738225638866,-0.0216004569083452
443,0.0124384071677923,0.00659841950982809,-0.0178574230521917,0.00609066244214773,-0.0115522164851427,-0.0307398345321417
444,0.00929252710193396,0.00407936796545982,-0.0229151025414467,0.00242168689146638,-0.0163004323840141,-0.0387458093464375
445,0.006432113237679,0.0032123364508152,-0.027728633955121,0.000211582766496576,-0.0208259876817465,-0.0412741377949715
446,0.00477985804900527,0.00463467556983233,-0.0304364357143641,-0.000764766300562769,-0.024112407118082,-0.0388905815780163
447,0.00261722155846655,0.00589432893320918,-0.0323517695069313,-0.00254485034383833,-0.0276309736073017,-0.0351148992776871
448,-0.000849349889904261,0.00534311216324568,-0.0347598493099213,-0.00581129267811775,-0.031720869243145,-0.0328852348029613
449,-0.00370914372615516,0.00364672928117216,-0.0371105447411537,-0.00939392112195492,-0.0340378023684025,-0.0330685898661613
450,-0.00381752452813089,0.00296695809811354,-0.0381229817867279,-0.011259407736361,-0.0328361541032791,-0.0339797101914883
451,-0.00137709570117295,0.00465435814112425,-0.0378743559122086,-0.0105802323669195,-0.0294140465557575,-0.0337991751730442
452,0.00078568363096565,0.00712583493441343,-0.0389620363712311,-0.00968240480870008,-0.0274505466222763,-0.0335881374776363
453,0.00161524151917547,0.00928787607699633,-0.0417984910309315,-0.0101066837087274,-0.0277499035000801,-0.0342941246926785
454,0.00237087742425501,0.0110288765281439,-0.0443908907473087,-0.0115017797797918,-0.0280721411108971,-0.0358989760279655
455,0.00278690038248897,0.0104686412960291,-0.047285370528698,-0.0144127206876874,-0.0287329200655222,-0.0392297692596912
456,0.00270015466958284,0.00725183542817831,-0.050991240888834,-0.0182356983423233,-0.030476737767458,-0.0438705831766129
457,0.00394251337274909,0.00427643721923232,-0.0531999580562115,-0.0203521754592657,-0.030934302136302,-0.04793955758214
458,0.00651897024363279,0.00256778835318983,-0.0537610165774822,-0.0205456335097551,-0.0296329408884048,-0.0518376678228378
459,0.00813204422593117,0.000869640964083374,-0.0553690306842327,-0.0212661121040583,-0.0296485535800457,-0.0570313856005669
460,0.00859313458204269,-0.000192909603356384,-0.0578620061278343,-0.0229207016527653,-0.0316697806119919,-0.0620505064725876
461,0.00983547605574131,0.00112399342469871,-0.0588002577424049,-0.0238045696169138,-0.0334371104836464,-0.064689464867115
462,0.0118694845587015,0.00408380106091499,-0.0587611347436905,-0.0245049968361855,-0.0351714417338371,-0.0660178661346436
463,0.0119131505489349,0.00541419815272093,-0.0610318370163441,-0.0279641523957253,-0.0399784334003925,-0.0689873918890953
464,0.00903171394020319,0.0040695508942008,-0.0657691955566406,-0.0342022962868214,-0.047942440956831,-0.07396599650383
465,0.00579254794865847,0.00244431965984404,-0.0696247816085815,-0.0398842059075832,-0.0552989058196545,-0.0784498304128647
466,0.00391212105751038,0.00202570203691721,-0.0716580972075462,-0.0433138348162174,-0.0602720752358437,-0.0806155279278755
467,0.00294662755914032,0.00197351910173893,-0.0739172175526619,-0.0457549318671227,-0.0643113180994987,-0.0820562168955803
468,0.00208422378636897,0.00161872804164886,-0.0775279253721237,-0.0488486178219318,-0.0690860077738762,-0.0855683237314224
469,0.000624402426183224,0.00138668774161488,-0.0821431204676628,-0.0531778112053871,-0.0753276869654655,-0.0911758318543434
470,-0.000975174596533179,0.00205278652720153,-0.0863731428980827,-0.0577690675854683,-0.081537090241909,-0.0964365974068642
471,-0.00129613082390279,0.00410510087385774,-0.0881707072257996,-0.0609518624842167,-0.0843643024563789,-0.0989345535635948
472,-9.83243444352411E-05,0.0065445713698864,-0.0870890244841576,-0.0625289976596832,-0.0822288542985916,-0.0993819311261177
473,0.00186227727681398,0.00779144885018468,-0.0843713656067848,-0.0629473850131035,-0.0766579881310463,-0.100259937345982
474,0.0041920249350369,0.00799364410340786,-0.0811890289187431,-0.0623369887471199,-0.0706492364406586,-0.101736731827259
475,0.00656616780906916,0.00819829665124416,-0.0784429758787155,-0.0616324506700039,-0.0669267401099205,-0.103761456906796
476,0.00826487317681313,0.00882215518504381,-0.0769590139389038,-0.0617291294038296,-0.0669068694114685,-0.107201747596264
477,0.0085022896528244,0.0093985116109252,-0.0777229815721512,-0.0631498023867607,-0.0703602954745293,-0.111547119915485
478,0.0068716206587851,0.00870127789676189,-0.0814265981316566,-0.0669011548161507,-0.0756213292479515,-0.116075724363327
479,0.00418446585536003,0.00699280900880694,-0.0863601863384247,-0.0719166547060013,-0.0797581002116203,-0.120206810534
480,0.00201729126274586,0.0065029738470912,-0.0891719982028008,-0.0745365992188454,-0.0799787044525146,-0.122646175324917
481,0.00151722622103989,0.0078890360891819,-0.0885802954435349,-0.0734653025865555,-0.0768439322710037,-0.123765513300896
482,0.00231906468980014,0.00832937005907297,-0.0870970264077187,-0.0719802230596542,-0.0750593021512032,-0.127217754721642
483,0.0028888420201838,0.00564961275085807,-0.0882219597697258,-0.0732612311840057,-0.0788158774375916,-0.134937837719917
484,0.00338984001427889,0.00180382479447871,-0.0918520018458366,-0.0768051147460938,-0.087008461356163,-0.143871605396271
485,0.00549936480820179,-0.00123716169036925,-0.0956586003303528,-0.0812913998961449,-0.0955439060926437,-0.150943651795387
486,0.00943913962692022,-0.00325024034827948,-0.0983681827783585,-0.0856273174285889,-0.101403065025806,-0.154005199670792
487,0.0128943771123886,-0.00380189041607082,-0.100070998072624,-0.0886442065238953,-0.104258820414543,-0.151780560612679
488,0.0141202798113227,-0.00239065266214311,-0.101330548524857,-0.0899632200598717,-0.105824321508408,-0.145828947424889
489,0.013312011025846,0.000447562342742458,-0.102360978722572,-0.0900773853063583,-0.107768930494785,-0.139129012823105
490,0.0109568331390619,0.00294004566967487,-0.103372551500797,-0.0904582366347313,-0.11029276996851,-0.135994419455528
491,0.00844218116253614,0.00411123223602772,-0.104000106453896,-0.0916873291134834,-0.111806392669678,-0.13962110877037
492,0.00735556380823255,0.00503950519487262,-0.10287369042635,-0.0922314450144768,-0.111120410263538,-0.148105099797249
493,0.00786318257451057,0.00742421019822359,-0.0992446318268776,-0.0903621464967728,-0.108689963817596,-0.157003402709961
494,0.0074328831396997,0.00956990383565426,-0.0963210538029671,-0.0884172171354294,-0.107600040733814,-0.165450096130371
495,0.0030850691255182,0.00736967753618956,-0.0990441143512726,-0.0915412753820419,-0.111657679080963,-0.175774872303009
496,-0.00381229002960026,0.000978789641521871,-0.106917008757591,-0.100095145404339,-0.119831927120686,-0.187430769205093
497,-0.0103018544614315,-0.00651922170072794,-0.115869298577309,-0.110332801938057,-0.127720415592194,-0.197488442063332
498,-0.0150199523195624,-0.0128550911322236,-0.122631877660751,-0.118902623653412,-0.13116729259491,-0.203029587864876
499,-0.0169039275497198,-0.0159542746841908,-0.124639630317688,-0.12299108505249,-0.128218099474907,-0.200804263353348
500,-0.0163491312414408,-0.0160415582358837,-0.122654497623444,-0.122617691755295,-0.121634557843208,-0.192369654774666
501,-0.0147138945758343,-0.0148814581334591,-0.119323097169399,-0.120324485003948,-0.114803738892078,-0.182483524084091
502,-0.0123226307332516,-0.0127324182540178,-0.114804960787296,-0.116603098809719,-0.107769913971424,-0.170469865202904
503,-0.00961553584784269,-0.00971717666834593,-0.108771525323391,-0.110276810824871,-0.100573658943176,-0.155331894755363
504,-0.00708383647724986,-0.00537183741107583,-0.101574882864952,-0.101139903068542,-0.0946047604084015,-0.141830891370773
505,-0.00422076834365726,0.00131012708880007,-0.093714639544487,-0.0904467701911926,-0.0903135761618614,-0.134795144200325
506,-0.00189649546518922,0.00846198014914989,-0.0877450034022331,-0.0815767496824265,-0.0880436301231384,-0.135035961866379
507,-0.00187484722118825,0.0133764818310738,-0.0864843800663948,-0.0779225751757622,-0.0888829529285431,-0.139476507902145
508,-0.00316666881553829,0.0158238094300032,-0.0900312885642052,-0.0800418853759766,-0.0927283316850662,-0.144835844635963
509,-0.0032648048363626,0.0168060176074505,-0.0959040150046349,-0.0860917791724205,-0.0968895703554153,-0.15075708925724
510,-0.0013586439890787,0.0171018503606319,-0.100653283298016,-0.0927874222397804,-0.0977282002568245,-0.156364932656288
511,0.000839022221043706,0.0168929602950811,-0.103243313729763,-0.0975408405065537,-0.0951053276658058,-0.159165114164352
512,0.000607924943324178,0.0154483560472727,-0.105294406414032,-0.1002596616745,-0.0929177924990654,-0.158841893076897
513,-0.00283501599915326,0.0117804454639554,-0.107319228351116,-0.101720117032528,-0.0941697657108307,-0.157411172986031
514,-0.00736616505309939,0.00733894621953368,-0.107296042144299,-0.101238511502743,-0.0971548482775688,-0.155289024114609
515,-0.0114458631724119,0.00436802441254258,-0.104270257055759,-0.0984292104840279,-0.098919466137886,-0.151320531964302
516,-0.015213537029922,0.00292969425208867,-0.0996308028697968,-0.0944066569209099,-0.0989215895533562,-0.145418286323547
517,-0.0187566597014666,0.0016775926342234,-0.0954229459166527,-0.0908007547259331,-0.0979926660656929,-0.139939501881599
518,-0.0213996432721615,-0.000297129183309153,-0.0930061414837837,-0.0887491181492805,-0.0963396579027176,-0.137004613876343
519,-0.0215649623423815,-0.00260762078687549,-0.0912363156676292,-0.0875620245933533,-0.0921071916818619,-0.132960692048073
520,-0.0198092777282,-0.00582591956481338,-0.0891978293657303,-0.0864050835371017,-0.0843683853745461,-0.120528869330883
521,-0.0178891941905022,-0.00991787295788527,-0.0871899649500847,-0.0834478586912155,-0.0746011361479759,-0.0982340797781944
522,-0.0157994739711285,-0.0124399838969111,-0.0840226411819458,-0.0759618952870369,-0.0644557923078537,-0.0748262703418732
523,-0.0133488345891237,-0.012385182082653,-0.0781982243061066,-0.0657085254788399,-0.0539683997631073,-0.0609881281852722
524,-0.0131133813410997,-0.0130518199875951,-0.0724359378218651,-0.0600170567631722,-0.0447976849973202,-0.0625525563955307
525,-0.0184047203511,-0.0170032978057861,-0.0706579387187958,-0.0627769529819489,-0.0407330542802811,-0.0776766538619995
526,-0.0267650801688433,-0.0203063730150461,-0.0701806619763374,-0.0680663585662842,-0.0406213402748108,-0.0951793268322945
527,-0.0316466577351093,-0.0174525585025549,-0.0662745162844658,-0.0687447339296341,-0.0403989143669605,-0.104050725698471
528,-0.0298856738954782,-0.00681586097925901,-0.058810617774725,-0.0638538151979446,-0.038893073797226,-0.101357914507389
529,-0.0236411150544882,0.00889700558036566,-0.0493013896048069,-0.0553064495325089,-0.0358492359519005,-0.0899481475353241
530,-0.0171670652925968,0.023497898131609,-0.0388676337897778,-0.0446509197354317,-0.0308742672204971,-0.0745593383908272
531,-0.0135139087215066,0.0317427925765514,-0.0299099329859018,-0.0341031290590763,-0.0252115018665791,-0.0598585344851017
532,-0.0122321490198374,0.0332015827298164,-0.0239288937300444,-0.025414826348424,-0.0195559915155172,-0.0477503947913647
533,-0.0114960912615061,0.0298414323478937,-0.02047024294734,-0.0183939021080732,-0.014008148573339,-0.0367990136146545
534,-0.0121415909379721,0.0231297072023153,-0.0194014385342598,-0.0129531202837825,-0.0104234656319022,-0.026558730751276
535,-0.0152019141241908,0.0160163324326277,-0.0197433941066265,-0.00936625339090824,-0.00905942916870117,-0.0173124242573977
536,-0.0186749286949635,0.0130752334371209,-0.0187869146466255,-0.00709937606006861,-0.00648225238546729,-0.00679085869342089
537,-0.0207177773118019,0.0152006978169084,-0.0143510345369577,-0.00496165547519922,0.00101000478025526,0.00519536342471838
538,-0.0228844713419676,0.0177952125668526,-0.00802680663764477,-0.00298491399735212,0.0123000163584948,0.0141196129843593
539,-0.025724770501256,0.0180269870907068,-0.0023176206741482,-0.000314540695399046,0.022375863045454,0.0205841027200222
540,-0.0256803147494793,0.0190877374261618,0.00499664805829525,0.00738996500149369,0.0298092886805534,0.031162217259407
541,-0.0213148016482592,0.0236598756164312,0.0157215651124716,0.0201584678143263,0.0359113104641438,0.0443324483931065
542,-0.0164505075663328,0.0294605176895857,0.0259461514651775,0.0309259742498398,0.0390261225402355,0.05114671215415
543,-0.0140746310353279,0.0339964292943478,0.0324169881641865,0.035308800637722,0.038249421864748,0.0485989265143871
544,-0.0130529422312975,0.0368374809622765,0.0363077111542225,0.0348140001296997,0.0362354069948196,0.0406355038285255
545,-0.0120314871892333,0.0375153571367264,0.0391588769853115,0.0323432944715023,0.0351699478924274,0.0322654359042645
546,-0.011801490560174,0.0362127050757408,0.0410234779119492,0.0300187151879072,0.0350101180374622,0.0277949199080467
547,-0.0127953551709652,0.0342864282429218,0.0420675277709961,0.0287026520818472,0.0355219095945358,0.028581527993083
548,-0.0131767429411411,0.0335107930004597,0.0431004054844379,0.0290371924638748,0.0387656912207603,0.0335639491677284
549,-0.011615521274507,0.0348412580788136,0.0439109802246094,0.0322742275893688,0.0464447773993015,0.0426020547747612
550,-0.00919629074633121,0.037909209728241,0.0442530736327171,0.0387883111834526,0.0568713136017323,0.055092953145504
551,-0.0075194681994617,0.0408504195511341,0.0446245931088924,0.0462754741311073,0.0666938498616219,0.0684595853090286
552,-0.00681019574403763,0.0418263785541058,0.0448950491845608,0.0520631857216358,0.0733116045594215,0.0811112001538277
553,-0.00645026238635182,0.0411015674471855,0.0444991290569305,0.0556556731462479,0.0754623487591743,0.091711588203907
554,-0.00684117898344994,0.0392358228564262,0.0429222993552685,0.0569461360573769,0.0731606483459473,0.096920520067215
555,-0.00740824267268181,0.0373022519052029,0.0408899821341038,0.0567160397768021,0.0693514496088028,0.0961669385433197
556,-0.00595252076163888,0.037493422627449,0.0398710891604424,0.0569564253091812,0.0676029697060585,0.0930178612470627
557,-0.00208025798201561,0.0408846698701382,0.0412051491439343,0.0590489134192467,0.0698771476745605,0.0911450162529945
558,0.00240734731778502,0.0465416572988033,0.0461377054452896,0.063938319683075,0.0780946165323257,0.093251958489418
559,0.0048368270508945,0.0519287139177322,0.0531990900635719,0.0711871981620789,0.0908951312303543,0.101125366985798
560,0.00385665008798242,0.055357351899147,0.0591014064848423,0.0789779275655746,0.102279134094715,0.114422455430031
561,0.00117264583241194,0.0577454455196857,0.0633507147431374,0.0862118825316429,0.107230521738529,0.128743693232536
562,-0.00118618190754205,0.0600646324455738,0.0665816962718964,0.0909016504883766,0.104448653757572,0.13748399913311
563,-0.00323548191227019,0.0609584636986256,0.0672368928790092,0.0893672332167625,0.0944784060120583,0.136731520295143
564,-0.00469208229333162,0.0599862635135651,0.0653386116027832,0.0822501257061958,0.080634668469429,0.128776028752327
565,-0.00455469870939851,0.0595452450215817,0.0642109140753746,0.0750087201595306,0.0686495825648308,0.120493032038212
566,-0.00429475959390402,0.0603921860456467,0.0653824880719185,0.0698980614542961,0.0610821507871151,0.116377212107182
567,-0.00521736778318882,0.0623199231922627,0.0684737861156464,0.0675397664308548,0.0587382204830647,0.117669463157654
568,-0.00572791090235114,0.0662193819880486,0.0739918872714043,0.0709725171327591,0.0633750557899475,0.124485358595848
569,-0.00587105099111795,0.0699227973818779,0.0806837230920792,0.0793748125433922,0.0725720748305321,0.133665263652802
570,-0.00704292068257928,0.0707611888647079,0.0860742926597595,0.0873583927750587,0.0812879055738449,0.141367316246033
571,-0.00725054088979959,0.0709989815950394,0.0907754823565483,0.092673234641552,0.0887484028935432,0.147552967071533
572,-0.00484421476721764,0.0730119645595551,0.0954900458455086,0.0962031483650208,0.0958831161260605,0.154126882553101
573,-0.00229833042249084,0.0753747671842575,0.0984909757971764,0.0980813279747963,0.10145116597414,0.163045808672905
574,-0.00164106616284698,0.0759730637073517,0.0990033075213432,0.0981116592884064,0.104491792619228,0.173937276005745
575,-0.00270884577184916,0.0732950270175934,0.0964367538690567,0.0954499691724777,0.104079455137253,0.180474460124969
576,-0.00374609162099659,0.0683313459157944,0.0913465842604637,0.0905275642871857,0.100712403655052,0.17760993540287
577,-0.00183843821287155,0.0646569654345512,0.0877282097935677,0.0866915434598923,0.098617821931839,0.168529987335205
578,0.00307495077140629,0.062666542828083,0.0875987857580185,0.085721030831337,0.100803472101688,0.158339112997055
579,0.00827005319297314,0.0596561580896378,0.0894099473953247,0.0862212553620338,0.108127132058144,0.150232225656509
580,0.0140408333390951,0.0556806996464729,0.0929037779569626,0.0874608382582664,0.122987404465675,0.146978333592415
581,0.0228584706783295,0.0536844320595264,0.098799467086792,0.090337261557579,0.144176557660103,0.148438647389412
582,0.0314357578754425,0.0541634224355221,0.104723691940308,0.0937290787696838,0.161215633153915,0.150705814361572
583,0.0335872918367386,0.0552405081689358,0.107904516160488,0.0957005396485329,0.164798140525818,0.15120629966259
584,0.0293064843863249,0.0567670613527298,0.109830491244793,0.097377210855484,0.157296434044838,0.150729730725288
585,0.0217515490949154,0.0575491487979889,0.111436165869236,0.0985588058829308,0.144545271992683,0.148829758167267
586,0.0129201523959637,0.0556852631270885,0.111101269721985,0.0972326397895813,0.1293555945158,0.144884422421455
587,0.00545263476669788,0.0536063425242901,0.109635010361671,0.0953564122319222,0.115065783262253,0.14174473285675
588,8.32828809507191E-05,0.0531193464994431,0.107975833117962,0.0943223610520363,0.10355868935585,0.140385299921036
589,-0.00547873415052891,0.051412183791399,0.104346565902233,0.0910262167453766,0.0939911305904388,0.138013258576393
590,-0.010995970107615,0.0474724024534225,0.0990548431873322,0.0850585177540779,0.0876212939620018,0.134869456291199
591,-0.0132552841678262,0.04398213326931,0.0956600829958916,0.0806203484535217,0.0875204876065254,0.135020017623901
592,-0.01285763643682,0.0409433022141457,0.0946473702788353,0.0792695879936218,0.0924868360161781,0.141013607382774
593,-0.0135950846597552,0.0360385440289974,0.0933825969696045,0.0795357450842857,0.098161056637764,0.153526484966278
594,-0.0158623792231083,0.0306228920817375,0.0922431126236916,0.0816130042076111,0.103126220405102,0.170570775866508
595,-0.0180869922041893,0.0274249464273453,0.0923453643918037,0.0847582370042801,0.107069715857506,0.184263616800308
596,-0.0189038682729006,0.0264750681817532,0.0927577912807465,0.0868648663163185,0.10991819947958,0.186438739299774
597,-0.0169160962104797,0.0261348281055689,0.0931439399719238,0.0881906300783157,0.113349705934525,0.176629722118378
598,-0.0131971528753638,0.0256668105721474,0.0933415591716766,0.0896900147199631,0.116869077086449,0.160748809576035
599,-0.00972892623394728,0.0277482625097036,0.0935161709785461,0.0911423191428185,0.118669509887695,0.145332545042038
600,-0.00630766898393631,0.0339788608253002,0.0949252843856812,0.0919009819626808,0.119280472397804,0.134400010108948
601,-0.00292798737064004,0.0395653881132603,0.0971738174557686,0.0910722464323044,0.118720546364784,0.128750815987587
602,-0.000942736223805696,0.0396422371268272,0.0981384441256523,0.0885534510016441,0.115513801574707,0.127568632364273
603,-0.00112586817704141,0.0345464274287224,0.0964668318629265,0.0852082073688507,0.11016484349966,0.128622442483902
604,-0.00368218822404742,0.0262134205549955,0.0919545814394951,0.0811497867107391,0.104984901845455,0.12810193002224
605,-0.00831139925867319,0.0162396635860205,0.0853129252791405,0.0760895758867264,0.100816912949085,0.124966450035572
606,-0.0138896629214287,0.00714316451922059,0.0779580995440483,0.0705667436122894,0.0967629179358482,0.121062979102135
607,-0.0181023664772511,0.00222971523180604,0.0725268349051476,0.0665749236941338,0.0934333726763725,0.118070788681507
608,-0.019647503271699,0.00167302030604333,0.0700396746397018,0.0647794380784035,0.0911014974117279,0.11557824909687
609,-0.0200207121670246,0.00213510566391051,0.0677846595644951,0.0627546161413193,0.0875087603926659,0.110858105123043
610,-0.0194139517843723,0.00277434173040092,0.0652128830552101,0.0597625076770782,0.0831928551197052,0.103957541286945
611,-0.0158753134310246,0.00579857779666781,0.0653257146477699,0.0581153333187103,0.0820564478635788,0.0987618565559387
612,-0.00887720659375191,0.0125195579603314,0.0696263387799263,0.0600327737629414,0.0856151059269905,0.0985559076070786
613,-0.00071068579563871,0.0210542548447847,0.075845330953598,0.0650530457496643,0.0901333838701248,0.103271469473839
614,0.00455891620367765,0.0269815400242805,0.07966248691082,0.0698976963758469,0.0904605686664581,0.1112444922328
615,0.0047560129314661,0.0280672665685415,0.0800512135028839,0.0731010437011719,0.0870699062943459,0.123310655355453
616,0.00202366383746266,0.0265835523605347,0.0808327943086624,0.077037900686264,0.0854601711034775,0.140044525265694
617,-0.000147351180203259,0.0256875976920128,0.0851438716053963,0.083126425743103,0.0890036150813103,0.156402125954628
618,-0.000820353685412556,0.0259812586009502,0.0914376899600029,0.0889856144785881,0.0958521738648415,0.165069654583931
619,-0.00169580895453691,0.0260246228426695,0.0956283807754517,0.09124955534935,0.101330853998661,0.162694409489632
620,-0.00471882335841656,0.0245437119156122,0.0952830240130425,0.0888610482215881,0.101377472281456,0.151806876063347
621,-0.00874640420079231,0.0226191785186529,0.0919741243124008,0.0843260139226913,0.0961874052882195,0.139218181371689
622,-0.0118592036888003,0.0208091847598553,0.0877193361520767,0.0801053866744041,0.0882914960384369,0.129262626171112
623,-0.015635272487998,0.0164992194622755,0.0816501975059509,0.0760077089071274,0.0781847238540649,0.122544549405575
624,-0.0202966965734959,0.00961397681385279,0.0741540342569351,0.072143629193306,0.0673740655183792,0.12086383998394
625,-0.0224648397415876,0.00403081253170967,0.0682878196239471,0.0697455778717995,0.0595450960099697,0.123454600572586
626,-0.0213735308498144,0.00143827381543815,0.0657967031002045,0.0694680511951447,0.056569654494524,0.124635174870491
627,-0.0196631327271461,0.000637831748463213,0.0657620579004288,0.0705972090363503,0.0581832528114319,0.119862362742424
628,-0.0187000725418329,0.0010294180829078,0.0668443590402603,0.0714600384235382,0.0634096190333366,0.109432511031628
629,-0.0179848950356245,0.00293525471352041,0.0691706836223602,0.070601798593998,0.0704647675156593,0.0969955325126648
630,-0.0166480634361506,0.00706663448363543,0.0738653317093849,0.0684157535433769,0.078072264790535,0.0867662653326988
631,-0.0147820198908448,0.0134491445496678,0.0802247002720833,0.0667017251253128,0.0852530673146248,0.0820521637797356
632,-0.0137292193248868,0.0199371110647917,0.0849079713225365,0.0663734897971153,0.0892265439033508,0.0834527835249901
633,-0.0138028552755713,0.0233392342925072,0.0856172740459442,0.0668260753154755,0.0876007899641991,0.08873400837183
634,-0.0149747096002102,0.0215736739337444,0.0821295455098152,0.0663675516843796,0.0810201093554497,0.0952393785119057
635,-0.0179928559809923,0.0151693560183048,0.0749797970056534,0.0634770765900612,0.0721288621425629,0.100170962512493
636,-0.0224040430039167,0.00692218728363514,0.0662519708275795,0.0582930780947208,0.0634882301092148,0.100787408649921
637,-0.0265321340411901,0.000297455088002607,0.0589918307960033,0.0526742376387119,0.0560553520917892,0.0984881445765495
638,-0.0283597894012928,-0.00154424423817545,0.0558433122932911,0.0490968376398087,0.0506139509379864,0.0976911783218384
639,-0.0268254894763231,0.00133428373374045,0.057662345468998,0.0482197739183903,0.0488069131970406,0.097696952521801
640,-0.0220181103795767,0.00558478338643909,0.0626561418175697,0.0491636320948601,0.0510638058185577,0.0951930955052376
641,-0.0141295166686177,0.00837207213044167,0.0677647516131401,0.0508579947054386,0.0559696070849895,0.0898092463612556
642,-0.00552911311388016,0.00806080177426338,0.0699430853128433,0.0512993633747101,0.0606102161109447,0.0816093608736992
643,0.00100128166377544,0.00556755810976028,0.0691492035984993,0.0505554489791393,0.0629379376769066,0.0725876167416573
644,0.00533707113936543,0.00390991987660527,0.0687993392348289,0.0509382411837578,0.063572883605957,0.06646928191185
645,0.00764328427612782,0.00373844709247351,0.070119135081768,0.0524008721113205,0.0631807148456573,0.0640013739466667
646,0.00791000667959452,0.00351391918957233,0.0708873197436333,0.0535465329885483,0.0617285594344139,0.0643985420465469
647,0.00502901012077928,0.0016019920585677,0.0683144927024841,0.0533958449959755,0.0579886063933373,0.0661920830607414
648,-0.00373170780949295,-0.00367991230450571,0.0601907148957253,0.0502336584031582,0.0495106801390648,0.0654133930802345
649,-0.0169051885604858,-0.0112267537042499,0.0478704087436199,0.0443154461681843,0.0376925803720951,0.0607164315879345
650,-0.0273256730288267,-0.0155753828585148,0.037508238106966,0.0401285924017429,0.0296430978924036,0.0563017278909683
651,-0.0310032293200493,-0.0140029648318887,0.0333272702991962,0.0405508801341057,0.0300884582102299,0.0548905543982983
652,-0.0309420488774776,-0.0106499139219522,0.0335640758275986,0.0435609892010689,0.0364672988653183,0.0547736324369907
653,-0.0300118047744036,-0.00920463912189007,0.0356770344078541,0.0475571341812611,0.0448506325483322,0.0553843453526497
654,-0.0287227090448141,-0.00952112022787333,0.0380692705512047,0.0517613179981709,0.0521093867719173,0.0583685711026192
655,-0.0275178644806147,-0.0102871768176556,0.0392420776188374,0.0541184805333614,0.0559509806334972,0.0640172213315964
656,-0.0259997583925724,-0.00986771658062935,0.0398528873920441,0.0542673319578171,0.0580773502588272,0.0713944807648659
657,-0.024003729224205,-0.00798357278108597,0.0409319587051868,0.0536485873162746,0.0608753189444542,0.0790790319442749
658,-0.0230093542486429,-0.0064022964797914,0.0415525734424591,0.0524802543222904,0.0628409087657928,0.0839348584413528
659,-0.024630468338728,-0.00686640432104468,0.0403421707451344,0.0489563532173634,0.0612652935087681,0.082268163561821
660,-0.0273223016411066,-0.00768249901011586,0.0386401377618313,0.0428892262279987,0.0576069764792919,0.0749389380216599
661,-0.0279402434825897,-0.00566707691177726,0.0393705144524574,0.0369909964501858,0.0548406392335892,0.0668617188930511
662,-0.0272360146045685,-0.00232184515334666,0.041635774075985,0.0320866331458092,0.0512996651232243,0.060004185885191
663,-0.0275253634899855,-0.00127840065397322,0.0422246418893337,0.0268196314573288,0.0453785471618176,0.0528427138924599
664,-0.028561245650053,-0.00277344160713255,0.0404208227992058,0.0207422953099012,0.0393518693745136,0.0442603789269924
665,-0.0283067878335714,-0.00405122106894851,0.0380974449217319,0.0151275163516402,0.0354517996311188,0.0354555621743202
666,-0.0252458546310663,-0.00297788716852665,0.0368671864271164,0.0113762123510242,0.0342127494513988,0.028580604121089
667,-0.0218031611293554,-0.00239459192380309,0.0345245413482189,0.00756387552246451,0.0334687866270542,0.0227629989385605
668,-0.0209696441888809,-0.00579006783664227,0.0289109852164984,0.00218754191882908,0.031306654214859,0.0171144157648087
669,-0.021072156727314,-0.0106915459036827,0.0231353510171175,-0.00140472152270377,0.0296771116554737,0.0145268989726901
670,-0.0203454624861479,-0.0133226467296481,0.0205344296991825,-0.000754256849177182,0.029898839071393,0.016496766358614
671,-0.0192459914833307,-0.0123261800035834,0.0214950311928988,0.00338399363681674,0.0310332104563713,0.0228979270905256
672,-0.0174747947603464,-0.0079124066978693,0.0255953054875135,0.0101362960413098,0.0330611765384674,0.0355436243116856
673,-0.0146524896845222,-0.00203600362874568,0.0319068692624569,0.0182669442147017,0.0372243039309978,0.0528770051896572
674,-0.0116526512429118,0.00299632805399597,0.0386463403701782,0.0253316517919302,0.0441611930727959,0.0670212730765343
675,-0.0102614555507898,0.0053098201751709,0.0425838492810726,0.0285437442362309,0.0507300086319447,0.0708877220749855
676,-0.0112034501507878,0.00401603803038597,0.0413304008543491,0.0275695212185383,0.0519952327013016,0.0642636120319366
677,-0.0138082019984722,-0.000342473125783727,0.0353497564792633,0.0242993850260973,0.0465071573853493,0.0518949702382088
678,-0.0158931240439415,-0.00500326137989759,0.0277950596064329,0.0212897341698408,0.0373446680605412,0.0402385182678699
679,-0.0135045005008578,-0.00636898307129741,0.0233327019959688,0.0213240645825863,0.0297394897788763,0.0340674184262753
680,-0.00711340876296163,-0.005467280279845,0.0230273194611073,0.0234133452177048,0.0264830011874437,0.0312559194862843
681,-0.00210426351986825,-0.0054865088313818,0.0245322566479445,0.0243881698697805,0.0276095122098923,0.0271674692630768
682,-0.000651369162369519,-0.00574326561763883,0.0267666410654783,0.023897672072053,0.0323441363871098,0.021627139300108
683,-0.00145807594526559,-0.0048137535341084,0.0288509745150805,0.022181062027812,0.0380528941750526,0.0163727905601263
684,-0.00423490861430764,-0.00384798203594983,0.0288921073079109,0.0186610706150532,0.0411133170127869,0.0125934258103371
685,-0.0092964069917798,-0.00359217287041247,0.0262708384543657,0.0144996996968985,0.0391828306019306,0.0115919662639499
686,-0.0156159978359938,-0.00306740123778582,0.0225551445037127,0.0122159151360393,0.0327298417687416,0.0135146779939532
687,-0.0214468110352755,-0.00143341056536883,0.0198457818478346,0.013251781463623,0.0252492390573025,0.0166307482868433
688,-0.0258330497890711,0.00140287249814719,0.0190190318971872,0.0175535827875137,0.0201191566884518,0.0192727018147707
689,-0.0290119852870703,0.00445384904742241,0.0200000889599323,0.0233556292951107,0.0179365184158087,0.0206560641527176
690,-0.0318011343479156,0.00576057378202677,0.022038422524929,0.0276223924010992,0.0172842461615801,0.0217952784150839
691,-0.0350735858082771,0.00394887384027243,0.0228124987334013,0.0286845918744802,0.015793077647686,0.0263910684734583
692,-0.039072573184967,-0.000950890709646046,0.0203876886516809,0.0272907167673111,0.0121966125443578,0.0350067876279354
693,-0.0423782430589199,-0.00749282026663423,0.0166043099015951,0.0254720617085695,0.00909002032130957,0.0419183485209942
694,-0.0427012555301189,-0.0127094043418765,0.0161521211266518,0.0257816035300493,0.0111180804669857,0.0434796772897244
695,-0.0393133908510208,-0.0139352902770042,0.021693017333746,0.029974477365613,0.0196710098534822,0.0415486507117748
696,-0.0342311449348927,-0.0115512292832136,0.0306798797100782,0.0370078459382057,0.0307033210992813,0.0373168289661407
697,-0.0310888476669788,-0.00900798290967941,0.0370508693158627,0.0431178659200668,0.03712123259902,0.029725955799222
698,-0.0316393002867699,-0.00853504054248333,0.0367260538041592,0.0455718487501144,0.0351659283041954,0.0192420389503241
699,-0.0340094566345215,-0.00799900386482477,0.0308888740837574,0.0450075939297676,0.0275528747588396,0.00887241959571838
700,-0.0355447828769684,-0.00573713192716241,0.0235010720789433,0.0434655360877514,0.0185021925717592,0.00230751931667328
701,-0.0345744155347347,-0.00326281483285129,0.0183487683534622,0.0430649593472481,0.0114010302349925,0.00188053806778044
702,-0.0319778211414814,-0.00265402998775244,0.0159741528332233,0.0439866185188293,0.0074923001229763,0.00534145254641771
703,-0.0312313195317984,-0.00550066167488694,0.0137579226866364,0.0442116633057594,0.00402651913464069,0.00745906634256244
704,-0.0328365042805672,-0.0105353863909841,0.0114800175651908,0.0435876250267029,-0.000483924435684457,0.00656073354184628
705,-0.0337772369384766,-0.0144861005246639,0.0111513584852219,0.0436704941093922,-0.00389719591476023,0.00445200596004725
706,-0.0330824553966522,-0.0163768511265516,0.0125600192695856,0.0443329252302647,-0.00496498262509704,0.00167116732336581
707,-0.0328854396939278,-0.0176017973572016,0.0136508522555232,0.0439504273235798,-0.00517846317961812,-0.00206888746470213
708,-0.0340692661702633,-0.0183441620320082,0.0141681181266904,0.042827196419239,-0.00514312367886305,-0.00343781593255699
709,-0.0346265397965908,-0.0171672627329826,0.0158575810492039,0.0433420985937119,-0.00314489076845348,0.00156858505215496
710,-0.0337319299578667,-0.0140872793272138,0.018499881029129,0.0457729250192642,0.000395250419387594,0.0111498348414898
711,-0.0332557074725628,-0.0108347553759813,0.0197587553411722,0.0474252142012119,0.00258798967115581,0.0192962549626827
712,-0.0349007248878479,-0.00970219261944294,0.018316525965929,0.0456190221011639,0.00224238028749824,0.0212469361722469
713,-0.0373282432556152,-0.0115517331287265,0.0153780095279217,0.0412629619240761,0.000947345630265772,0.0188275258988142
714,-0.0362071841955185,-0.0144124012440443,0.0143404183909297,0.038683507591486,0.00103981303982437,0.0185597874224186
715,-0.029645249247551,-0.0157778169959784,0.0173603966832161,0.0403176844120026,0.00310499011538923,0.0226872004568577
716,-0.0211654808372259,-0.0151832019910216,0.0225200355052948,0.0448504276573658,0.00612249644473195,0.0278925970196724
717,-0.014674105681479,-0.0141205554828048,0.0260511767119169,0.0497085303068161,0.00900951586663723,0.0305782444775105
718,-0.0118438424542546,-0.0144803375005722,0.0254112239927053,0.0522583089768887,0.0107374601066113,0.0279699992388487
719,-0.012460551224649,-0.0161472260951996,0.0213883202522993,0.0522003918886185,0.0113780349493027,0.0197514295578003
720,-0.0144179752096534,-0.0170078184455633,0.017103148624301,0.0514740236103535,0.0114440452307463,0.00926570314913988
721,-0.0168885588645935,-0.016840199008584,0.012831156142056,0.049455888569355,0.00840922724455595,-0.00190904713235796
722,-0.0210334006696939,-0.0171286500990391,0.00622572703287005,0.0436329171061516,-0.00103845680132508,-0.0144553361460567
723,-0.0270910710096359,-0.0183097068220377,-0.0023051337338984,0.0338502563536167,-0.0153627963736653,-0.0272698923945427
724,-0.0331285037100315,-0.0198460966348648,-0.00892528053373098,0.0230394415557384,-0.0283748544752598,-0.036939974874258
725,-0.0366042852401733,-0.0204929281026125,-0.0103385886177421,0.0155203836038709,-0.0341170430183411,-0.0397478230297565
726,-0.0368313044309616,-0.0195713676512241,-0.00661315815523267,0.0137747870758176,-0.0311121493577957,-0.0354839451611042
727,-0.0353227332234383,-0.0181529317051172,-0.000893341028131545,0.0169590041041374,-0.0230684727430344,-0.0265952553600073
728,-0.0334376655519009,-0.0169953498989344,0.00353002222254872,0.0228660888969898,-0.0149222947657108,-0.0144517570734024
729,-0.0315607078373432,-0.0157754812389612,0.00547571107745171,0.0291624162346125,-0.008998510427773,-0.0016777110286057
730,-0.0310334321111441,-0.0154811535030603,0.00452795531600714,0.0332670547068119,-0.00690403115004301,0.00656097568571568
731,-0.03196756914258,-0.0166005343198776,0.0014756825985387,0.034699447453022,-0.00887641496956348,0.00874903611838818
732,-0.0309351235628128,-0.016104806214571,-0.000273015320999548,0.0363670028746128,-0.0105226123705506,0.00829170644283295
733,-0.0266625937074423,-0.0122263766825199,0.000775510212406516,0.0393591448664665,-0.00904281530529261,0.00669023720547557
734,-0.0219678469002247,-0.00740935979411006,0.002259990433231,0.0412701182067394,-0.00713524036109447,0.00288062705658376
735,-0.0186866410076618,-0.00368907442316413,0.00282372790388763,0.0413528457283974,-0.00671137496829033,-0.00216412474401295
736,-0.0174319371581078,-0.00129253906197846,0.00250241369940341,0.040741041302681,-0.00750143593177199,-0.00570721831172705
737,-0.0185711812227964,-0.000446864229161292,0.00077127612894401,0.0396649613976479,-0.0091837365180254,-0.00558431539684534
738,-0.0197490565478802,-0.000113182359200437,-0.000700590957421809,0.038928609341383,-0.00908768363296986,-0.00132973561994731
739,-0.0188183486461639,0.000749274680856615,-4.00368007831275E-05,0.039121113717556,-0.00500944163650274,0.00364034343510866
740,-0.018243620172143,-9.44513085414656E-05,0.000269654381554574,0.0377292968332767,-0.000505720905493945,0.00357762444764376
741,-0.0191852357238531,-0.00343778356909752,-0.00106474512722343,0.0342748463153839,0.00148704717867076,-0.000978332245722413
742,-0.019180616363883,-0.00622990075498819,-0.00125922216102481,0.0324730537831783,0.00310686696320772,-0.00401405896991491
743,-0.0168328359723091,-0.00554394535720348,0.00238507706671953,0.0351604372262955,0.00734937563538551,-0.00306703057140112
744,-0.0121485674753785,-0.000775257358327508,0.0101342145353556,0.0417832769453526,0.0142889358103275,-4.08270279876888E-05
745,-0.00739112822338939,0.00416971603408456,0.0178407579660416,0.0477671772241592,0.0187205653637648,0.000620347331278026
746,-0.00552466697990894,0.00493972515687346,0.0206613689661026,0.0487493202090263,0.0154861928895116,-0.00406187167391181
747,-0.00695096049457788,0.00174791109748185,0.0181183088570833,0.0443419143557549,0.00452070729807019,-0.0122083583846688
748,-0.0106155471876264,-0.0036370453890413,0.0122473193332553,0.0362190790474415,-0.0111180227249861,-0.0202230699360371
749,-0.0147994980216026,-0.00984025001525879,0.00512417778372765,0.0270766988396645,-0.0271664671599865,-0.0257902443408966
750,-0.0167573485523462,-0.0149994371458888,-0.000813665275927633,0.0202592667192221,-0.0390778928995132,-0.0277151186019182
751,-0.0145304594188929,-0.0181070305407047,-0.00386587460525334,0.0175330881029367,-0.0436719581484795,-0.0248485151678324
752,-0.00807100534439087,-0.0190837383270264,-0.00380774657242,0.0187261272221804,-0.0404605716466904,-0.0172693226486444
753,0.000185738550499082,-0.0181763470172882,-0.00178596493788064,0.0219067558646202,-0.0325082130730152,-0.00888583622872829
754,0.00579753564670682,-0.0168437398970127,-0.000373398448573425,0.0239517781883478,-0.025339899584651,-0.00482175033539534
755,0.00713867368176579,-0.0158999543637037,-0.0001093368337024,0.0242055263370276,-0.0213031005114317,-0.00543131260201335
756,0.00500026857480407,-0.0154448980465531,-0.000212032042327337,0.0237801391631365,-0.0200769975781441,-0.00810651108622551
757,0.000993100693449378,-0.0149824665859342,-0.000242777212406509,0.0238909460604191,-0.0212473943829536,-0.0109739936888218
758,-0.00131457857787609,-0.0129870427772403,0.00123077293392271,0.0259752869606018,-0.0222287327051163,-0.012777179479599
759,-0.000769954407587647,-0.0101776961237192,0.003876191098243,0.029426634311676,-0.0208613649010658,-0.0136632900685072
760,-0.00020455100457184,-0.0090088052675128,0.00510192802175879,0.0314725786447525,-0.0183350015431643,-0.0150770805776119
761,-0.00195761024951935,-0.010600314475596,0.00308562768623233,0.0293821170926094,-0.0174867548048496,-0.0173965413123369
762,-0.005594776943326,-0.0139419548213482,-0.00199865805916488,0.0229035764932632,-0.0194787438958883,-0.0191483162343502
763,-0.00985750369727612,-0.0178500469774008,-0.00932806916534901,0.0138716027140617,-0.0237414613366127,-0.0216765441000462
764,-0.0132014527916908,-0.0212432015687227,-0.0170590411871672,0.00518228253349662,-0.0287856664508581,-0.0275072138756514
765,-0.0138192698359489,-0.0215177163481712,-0.0217149797827005,0.000462528027128428,-0.0318768844008446,-0.0334857814013958
766,-0.0123425535857677,-0.0183134023100138,-0.022074980661273,0.000410401058616117,-0.0318248718976974,-0.0341301523149014
767,-0.0103043569251895,-0.0142426807433367,-0.0198009312152863,0.00251974398270249,-0.0297679286450148,-0.0286894049495459
768,-0.007419821806252,-0.0104805706068873,-0.015983447432518,0.00515979528427124,-0.0268415510654449,-0.0219416096806526
769,-0.00411903206259012,-0.00756825366988778,-0.011619902215898,0.00732114398851991,-0.0241469629108906,-0.0195808336138725
770,-0.00187648041173816,-0.00639089429751039,-0.00854007620364428,0.00785796158015728,-0.022578988224268,-0.0233255513012409
771,-0.000845765112899244,-0.00646262709051371,-0.00753703340888023,0.00726133864372969,-0.021770441904664,-0.0301144663244486
772,-0.00107910553924739,-0.00753558008000255,-0.00869186408817768,0.00604555709287524,-0.0213802792131901,-0.0362611226737499
773,-0.00236559356562793,-0.00945471040904522,-0.0111831426620483,0.00418778089806437,-0.0206846594810486,-0.0405830554664135
774,-0.00314978579990566,-0.0105529660359025,-0.0126336701214314,0.00269740866497159,-0.0182515047490597,-0.0434385053813457
775,-0.00284821749664843,-0.00990004930645227,-0.0119658010080457,0.00215406320057809,-0.0151688540354371,-0.0455022118985653
776,-0.00193212297745049,-0.0075767538510263,-0.0101121244952083,0.00270083220675588,-0.013999167829752,-0.0463762320578098
777,-0.000396888412069529,-0.00374101800844073,-0.00813899002969265,0.00455323932692409,-0.0149415768682957,-0.044876616448164
778,0.00210564280860126,0.00055101333418861,-0.0062305498868227,0.00695656146854162,-0.0159754436463118,-0.0410232581198215
779,0.00497205089777708,0.00341453775763512,-0.00465674791485071,0.00864617992192507,-0.0159355159848928,-0.036518394947052
780,0.00674023665487766,0.00331226154230535,-0.00457162922248244,0.0088056456297636,-0.0155161079019308,-0.0328666344285011
781,0.00731096789240837,0.000350604910636321,-0.00584328407421708,0.00791553966701031,-0.0150414677336812,-0.0292648151516914
782,0.00862040556967258,-0.003604622092098,-0.00623281439766288,0.00768708158284426,-0.0131381237879395,-0.0243592206388712
783,0.0121555337682366,-0.00613596383482218,-0.00420693308115005,0.00922350957989693,-0.00857402756810188,-0.0196189787238836
784,0.0161812081933022,-0.00646891165524721,-0.00122757942881435,0.0113873528316617,-0.00296328775584698,-0.018501915037632
785,0.0187252126634121,-0.00575008103623986,0.000588724273256958,0.0119460634887218,0.0014891498722136,-0.0220101214945316
786,0.0198553875088692,-0.00557468645274639,0.000900308368727565,0.00954875815659761,0.00381828215904534,-0.0276880376040936
787,0.0195393767207861,-0.0074042696505785,-0.000330170354573056,0.00461035687476397,0.00220945267938077,-0.0328032746911049
788,0.0195698738098145,-0.0105023710057139,-0.00280342251062393,-0.000245753122726455,-0.00341332308016717,-0.0361358448863029
789,0.0219918303191662,-0.01288743596524,-0.00579752586781979,-0.00384470145218074,-0.0102213220670819,-0.0399242825806141
790,0.0255142115056515,-0.0136249773204327,-0.00861006230115891,-0.0073318243958056,-0.0156577844172716,-0.046855304390192
791,0.0290050990879536,-0.0109104383736849,-0.00914608314633369,-0.00935405679047108,-0.0179719068109989,-0.0540756620466709
792,0.0308728460222483,-0.00551757263019681,-0.00767790852114558,-0.00949685648083687,-0.0186845734715462,-0.0589610636234283
793,0.0285325739532709,-0.00225084135308862,-0.00815673917531967,-0.0113741112872958,-0.0216590519994497,-0.0631872192025185
794,0.0231959968805313,-0.00243150372989476,-0.0111978761851788,-0.0158576015383005,-0.0265738647431135,-0.0657863914966583
795,0.0174648277461529,-0.00393070606514812,-0.0144941434264183,-0.020593199878931,-0.0306353643536568,-0.0636003240942955
796,0.0120482724159956,-0.00599528849124908,-0.0173980370163918,-0.0246615130454302,-0.032979603856802,-0.0578825436532497
797,0.00831910222768784,-0.00779264187440276,-0.0191904939711094,-0.0273666363209486,-0.0332591906189919,-0.0521729402244091
798,0.00728054810315371,-0.00811292696744204,-0.019192049279809,-0.0280499961227179,-0.0317289754748344,-0.0474272146821022
799,0.00727045582607389,-0.00761196250095963,-0.0186756439507008,-0.0277067665010691,-0.0299516227096319,-0.0425339713692665
800,0.00649603549391031,-0.00741712842136621,-0.0189171209931374,-0.0272465981543064,-0.0290199983865023,-0.0367526449263096
801,0.00563145941123366,-0.00705370493233204,-0.0191214177757502,-0.0259954091161489,-0.0278139673173428,-0.031350776553154
802,0.00567099964246154,-0.00621051946654916,-0.0186849609017372,-0.0235698949545622,-0.0251058600842953,-0.0287176314741373
803,0.00664651952683926,-0.00484387949109077,-0.0178845524787903,-0.0202703382819891,-0.0218285359442234,-0.0290568564087152
804,0.00850787665694952,-0.00277537247166038,-0.0167555585503578,-0.0168785024434328,-0.0199238266795874,-0.0300897806882858
805,0.00994182005524635,-0.00182163808494806,-0.01677305996418,-0.0159076265990734,-0.02149255014956,-0.0308276209980249
806,0.0094807306304574,-0.00319170043803751,-0.0190427433699369,-0.0185602698475122,-0.0266278926283121,-0.0321130268275738
807,0.00693944981321692,-0.00660549476742744,-0.023571290075779,-0.0240822695195675,-0.0340694300830364,-0.0349835865199566
808,0.00251792091876268,-0.0128841688856483,-0.0310026668012142,-0.0325813330709934,-0.0436663217842579,-0.0412399992346764
809,-0.00210656528361142,-0.0206135492771864,-0.0390724465250969,-0.0418197549879551,-0.0531644932925701,-0.0508712269365788
810,-0.00566387362778187,-0.0266043487936258,-0.0444361753761768,-0.0483257733285427,-0.0599686019122601,-0.0613709650933743
811,-0.00903424341231585,-0.029906390234828,-0.0472010038793087,-0.0518933832645416,-0.0647600069642067,-0.0709065422415733
812,-0.0113189416006207,-0.0292789023369551,-0.0468013361096382,-0.0523179993033409,-0.0656125769019127,-0.0772261694073677
813,-0.0117053957656026,-0.0250885430723429,-0.0433550477027893,-0.0502024814486504,-0.0598963648080826,-0.0798941105604172
814,-0.0107066696509719,-0.0200385767966509,-0.0389269925653934,-0.047180064022541,-0.0494091585278511,-0.0807804241776466
815,-0.00754861393943429,-0.014345571398735,-0.0327040478587151,-0.0421856939792633,-0.0371237136423588,-0.0792951062321663
816,-0.00365203060209751,-0.00889686401933432,-0.0251762084662914,-0.0356131345033646,-0.027366679161787,-0.0747043043375015
817,-0.00171019439585507,-0.00645841239020228,-0.0200185794383287,-0.0303877647966146,-0.023959131911397,-0.0686467289924622
818,-0.00174728676211089,-0.00795079208910465,-0.0188350658863783,-0.0278951898217201,-0.0267857238650322,-0.0635275542736053
819,-0.00296514248475432,-0.0130789587274194,-0.0211148280650377,-0.0284278634935617,-0.0338375493884087,-0.0615218281745911
820,-0.00399289652705193,-0.0203451924026012,-0.0254282224923372,-0.0318811014294624,-0.0420336239039898,-0.0626595988869667
821,-0.00212782877497375,-0.0263852160423994,-0.0289667434990406,-0.0363821312785149,-0.0474269799888134,-0.0640518665313721
822,0.00259218760766089,-0.0288620721548796,-0.0299489423632622,-0.039292361587286,-0.0481350757181644,-0.0631384700536728
823,0.00697434181347489,-0.0277777872979641,-0.0287425313144922,-0.0394044071435928,-0.0453807339072227,-0.0599326156079769
824,0.00976652652025223,-0.024197306483984,-0.0259267054498196,-0.0368315577507019,-0.0413118489086628,-0.0554800517857075
825,0.0108757130801678,-0.0207841116935015,-0.0232451893389225,-0.0334547348320484,-0.038049440830946,-0.0511839501559734
826,0.00967136211693287,-0.0198794733732939,-0.02283725887537,-0.0323424898087978,-0.0368265435099602,-0.0482075698673725
827,0.00729589117690921,-0.0201085153967142,-0.0235768780112267,-0.0338472686707973,-0.0364159941673279,-0.0454064831137657
828,0.00485474849119782,-0.0198352374136448,-0.0237010978162289,-0.0363986007869244,-0.0355249829590321,-0.041751816868782
829,0.00181304663419724,-0.0200811084359884,-0.02391098998487,-0.0395308397710323,-0.0351190604269505,-0.0394247882068157
830,-0.00122334808111191,-0.020790658891201,-0.0244343597441912,-0.0423954650759697,-0.0356792397797108,-0.0401126742362976
831,-0.00218123500235379,-0.0198335237801075,-0.023761011660099,-0.0433549731969833,-0.0351215749979019,-0.042417474091053
832,-0.000408768828492612,-0.0166755300015211,-0.021214134991169,-0.0421405509114265,-0.0318901687860489,-0.0439293645322323
833,0.0024058660492301,-0.0131728434935212,-0.0173291154205799,-0.040255568921566,-0.0272801890969276,-0.0422523319721222
834,0.00583565793931484,-0.00981831178069115,-0.0118020856752992,-0.0381220504641533,-0.0220945086330175,-0.0367902107536793
835,0.0101188877597451,-0.00610647583380342,-0.00555956177413464,-0.0350884571671486,-0.017230961471796,-0.030561126768589
836,0.0132405310869217,-0.00328070716932416,-0.00179568666499108,-0.0320169292390347,-0.015571353957057,-0.026412907987833
837,0.0136534003540874,-0.00284084375016391,-0.00203878129832447,-0.030528062954545,-0.0177445784211159,-0.0253940317779779
838,0.0114460727199912,-0.00563626131042838,-0.0057752407155931,-0.0317696444690228,-0.0218834076076746,-0.0286791510879993
839,0.00851677637547255,-0.0104420725256205,-0.0107141248881817,-0.0345342308282852,-0.0251667406409979,-0.0348980128765106
840,0.00750391697511077,-0.0143097192049026,-0.0133113292977214,-0.0359976775944233,-0.0248772911727428,-0.0408710204064846
841,0.00912292487919331,-0.0154020814225078,-0.0117208072915673,-0.0347514525055885,-0.0207080654799938,-0.0446511991322041
842,0.0123072750866413,-0.0134341027587652,-0.00706074805930257,-0.0314896330237389,-0.0148842157796025,-0.045720063149929
843,0.0146725308150053,-0.0101636350154877,-0.0029123593121767,-0.0295010842382908,-0.01151776406914,-0.046228215098381
844,0.0155795514583588,-0.00645598210394382,-0.000622012885287404,-0.0300920065492392,-0.0115301534533501,-0.047215286642313
845,0.0168442223221064,-0.00169387948699296,0.00147766235750169,-0.0309406835585833,-0.0114140072837472,-0.0470250807702541
846,0.0180494841188192,0.00164079992100596,0.00246775755658746,-0.0322478041052818,-0.0101226288825274,-0.0459014773368835
847,0.0172952301800251,0.000592856376897544,0.000184098782483488,-0.0351176597177982,-0.00949134398251772,-0.0435569137334824
848,0.0151649275794625,-0.00378287443891168,-0.00413678819313645,-0.037081141024828,-0.00960846710950136,-0.0379604659974575
849,0.0132618043571711,-0.00897378288209438,-0.00795799773186445,-0.0361218117177486,-0.00964715518057346,-0.0310910698026419
850,0.0126964170485735,-0.0128220003098249,-0.00990570802241564,-0.0329812131822109,-0.00942820683121681,-0.026765113696456
851,0.0137433391064405,-0.0142695782706141,-0.0101999584585428,-0.0295846853405237,-0.00945688225328922,-0.0261738430708647
852,0.0147168496623635,-0.0150512615218759,-0.0108369970694184,-0.0283812042325735,-0.0113791385665536,-0.0297387465834618
853,0.0148362331092358,-0.0159821007400751,-0.0123026119545102,-0.029358483850956,-0.0150672383606434,-0.0361375324428082
854,0.0156535059213638,-0.0145342973992229,-0.0123960757628083,-0.0293353032320738,-0.0175430774688721,-0.0405935794115067
855,0.016649104654789,-0.0107918456196785,-0.0110667105764151,-0.0273484326899052,-0.018577516078949,-0.0398402027785778
856,0.0150419669225812,-0.00877056829631329,-0.0109575437381864,-0.0256455056369305,-0.0212826617062092,-0.0349143296480179
857,0.0117328781634569,-0.00901004299521446,-0.0114407427608967,-0.0236849971115589,-0.0249455682933331,-0.0263741128146648
858,0.0107250325381756,-0.00901793409138918,-0.00988165196031332,-0.0193951148539782,-0.0261482801288366,-0.0158260390162468
859,0.0141349090263247,-0.00908919796347618,-0.0070077427662909,-0.0142435878515244,-0.024538267403841,-0.00918504782021046
860,0.0198150407522917,-0.0118850618600845,-0.0066174603998661,-0.0122128697112203,-0.0225975550711155,-0.0113883400335908
861,0.0238431543111801,-0.0170918069779873,-0.00985045731067657,-0.0146546559408307,-0.0215368866920471,-0.0204405300319195
862,0.0252686999738216,-0.0198090542107821,-0.0124995410442352,-0.0180298760533333,-0.0201198142021894,-0.0283137001097202
863,0.0248918030411005,-0.0170380659401417,-0.011060930788517,-0.0187215749174356,-0.0178844146430492,-0.0281619857996702
864,0.0238058771938086,-0.0102287400513887,-0.00553254783153534,-0.0157021246850491,-0.0141293276101351,-0.0190414935350418
865,0.021962596103549,-0.00308742187917233,0.00119254039600492,-0.0114108501002193,-0.00933069083839655,-0.00796190742403269
866,0.017527112737298,0.000451141415396705,0.00487730465829372,-0.0107509745284915,-0.00760235264897347,-0.00469169300049543
867,0.0118739362806082,0.000527516182046384,0.00558996992185712,-0.0138900727033615,-0.00969240628182888,-0.0099021652713418
868,0.0083951149135828,-0.000224457704462111,0.00595323136076331,-0.0166874937713146,-0.0117471562698483,-0.016435107216239
869,0.0074184462428093,-0.00143491860944778,0.0061193173751235,-0.0174935944378376,-0.011919692158699,-0.0197291318327188
870,0.00804361701011658,-0.00337481638416648,0.00593417277559638,-0.0171453915536404,-0.0107700498774648,-0.0206502508372068
871,0.00991317350417376,-0.00554447527974844,0.00554092507809401,-0.0169872865080833,-0.00952884554862976,-0.0228386055678129
872,0.0119281196966767,-0.00768469832837582,0.00424040947109461,-0.0180752575397491,-0.0102537116035819,-0.028744189068675
873,0.0125235179439187,-0.0099653210490942,0.00180766545236111,-0.0201916266232729,-0.0144394170492888,-0.0365371815860271
874,0.0121729848906398,-0.012002244591713,-0.000261891691479832,-0.0217621345072985,-0.0202037468552589,-0.0420254617929459
875,0.0119282230734825,-0.0135978907346725,-0.000973676331341267,-0.0223597902804613,-0.0248792190104723,-0.0442835614085197
876,0.0104723796248436,-0.0162699669599533,-0.00188886502292007,-0.0238322876393795,-0.0286918170750141,-0.045983798801899
877,0.00771996006369591,-0.0195696521550417,-0.00316240219399333,-0.0260820239782333,-0.0306244324892759,-0.0472873076796532
878,0.00582832098007202,-0.0201078001409769,-0.00293678627349436,-0.0266245305538177,-0.0281295496970415,-0.0451670698821545
879,0.00497192703187466,-0.0175251625478268,-0.00176420004572719,-0.0251965466886759,-0.0220823679119349,-0.039510790258646
880,0.00383638497442007,-0.0153702991083264,-0.00180763227399439,-0.0237128827720881,-0.0155820939689875,-0.0349092930555344
881,0.00298621412366629,-0.0153907965868711,-0.00298036262392998,-0.0225693341344595,-0.0105714853852987,-0.0340715683996677
882,0.00341880577616394,-0.0160275436937809,-0.00378903863020241,-0.0211179796606302,-0.0083149578422308,-0.0343068055808544
883,0.00386085757054389,-0.0157057587057352,-0.0045393779873848,-0.0201672557741404,-0.0103310849517584,-0.0327851362526417
884,0.00283715105615556,-0.0145852295681834,-0.00624313857406378,-0.0207232590764761,-0.016331247985363,-0.0301951076835394
885,0.00111022021155804,-0.0137973800301552,-0.00801077298820019,-0.0220477432012558,-0.0231962017714977,-0.0281125828623772
886,0.000485289579955861,-0.0134875942021608,-0.00777602847665548,-0.0223894771188498,-0.0273568145930767,-0.0261017084121704
887,0.00210211845114827,-0.0118917031213641,-0.00459058443084359,-0.0205382537096739,-0.0265008416026831,-0.0221826061606407
888,0.00551194790750742,-0.00837173964828253,-0.000415920017985627,-0.017440864816308,-0.021363964304328,-0.0166967809200287
889,0.00814319681376219,-0.00526384776458144,0.00123685377184302,-0.0158649645745754,-0.0164812449365854,-0.0140053788200021
890,0.00786172784864903,-0.00401513976976275,-0.000881037442013621,-0.0170195568352938,-0.01553148124367,-0.0164919495582581
891,0.00551508786156774,-0.00353040499612689,-0.00453612487763166,-0.0193042196333408,-0.0174359623342752,-0.0204100329428911
892,0.00265240482985973,-0.00293951644562185,-0.00697742495685816,-0.0212232619524002,-0.0192387383431196,-0.0210575666278601
893,0.000301539781503379,-0.00195034826174378,-0.00727554224431515,-0.0219169575721025,-0.018698439002037,-0.0176173578947783
894,0.000269799260422587,4.39379509771243E-05,-0.00586204556748271,-0.0198340527713299,-0.0146931102499366,-0.0117946844547987
895,0.00283325067721307,0.00267823087051511,-0.0046016382984817,-0.0159988310188055,-0.00948823988437653,-0.00697242002934217
896,0.00505319004878402,0.00455765053629875,-0.00538342352956533,-0.0142749110236764,-0.00709954323247075,-0.00659162597730756
897,0.00614171521738172,0.00622522737830877,-0.00683019356802106,-0.0150245791301131,-0.00743872579187155,-0.00986009556800127
898,0.00958183314651251,0.00964193604886532,-0.00588066084310412,-0.0149354180321097,-0.00681719509884715,-0.0137474611401558
899,0.0152527457103133,0.0129884639754891,-0.00323082599788904,-0.0135767553001642,-0.00411597033962607,-0.0179387293756008
900,0.0186754297465086,0.0129292672500014,-0.00147527176886797,-0.0128970118239522,0.000111368848592974,-0.0224074963480234
901,0.0180691722780466,0.00956930685788393,-0.00070989050436765,-0.0132842436432838,0.00626956671476364,-0.0246211625635624
902,0.0143024194985628,0.00423587998375297,-0.00072413106681779,-0.0149758597835898,0.0121651766821742,-0.0232173539698124
903,0.00924199167639017,-0.00149784341920167,-0.00184706901200116,-0.0179011188447475,0.0140994023531675,-0.0202121380716562
904,0.00493301078677177,-0.00576543947681785,-0.00337173580192029,-0.0196944326162338,0.0116850920021534,-0.0174126271158457
905,0.00271850218996406,-0.00755996257066727,-0.00362436566501856,-0.0171612333506346,0.0082205617800355,-0.0131652737036347
906,0.00329633359797299,-0.00731413019821048,-0.00201079179532826,-0.0105438269674778,0.00655986089259386,-0.00571123091503978
907,0.00545970816165209,-0.00644348422065377,-6.25989632681012E-05,-0.00414112024009228,0.00610776804387569,0.00330103514716029
908,0.00788795482367277,-0.00471829529851675,0.00134275574237108,-0.000636721262708306,0.0057153757661581,0.0113729955628514
909,0.00986701902002096,-0.00223886454477906,0.00138456118293107,-0.000444656878244132,0.00355685781687498,0.0157132707536221
910,0.00992362666875124,-0.00138961791526526,-0.00166077935136855,-0.00420260801911354,-0.00296175247058272,0.0133234979584813
911,0.00830887258052826,-0.00204649288207293,-0.0067146779038012,-0.0105027100071311,-0.011957973241806,0.00528216455131769
912,0.0072590559720993,-0.00117122672963887,-0.0109695568680763,-0.0162067040801048,-0.0189716666936874,-0.00377770629711449
913,0.00786011572927237,0.00226581050083041,-0.0132872350513935,-0.0192339140921831,-0.0219568181782961,-0.00985004287213087
914,0.00973656866699457,0.00647616107016802,-0.01285963319242,-0.0188242457807064,-0.0207497477531433,-0.011571423150599
915,0.0112914787605405,0.00861099921166897,-0.010432749055326,-0.0166871305555105,-0.0173926819115877,-0.0120898177847266
916,0.00969288684427738,0.0063060000538826,-0.010172251611948,-0.0171049199998379,-0.0164142604917288,-0.0160020366311073
917,0.00425530970096588,0.000116330396849662,-0.0145896021276712,-0.0218824595212936,-0.0199101790785789,-0.0229691918939352
918,-0.0028126984834671,-0.00739453779533505,-0.0222167801111937,-0.0287852101027966,-0.0259665884077549,-0.0294215716421604
919,-0.00965588074177504,-0.0145693849772215,-0.0305691864341497,-0.0350422598421574,-0.0330005176365376,-0.0332414321601391
920,-0.014190211892128,-0.0192106068134308,-0.0357102155685425,-0.0372352711856365,-0.0388780273497105,-0.0327665284276009
921,-0.0142458556219935,-0.019465122371912,-0.0341061688959599,-0.0331115536391735,-0.0399478897452354,-0.0281367171555758
922,-0.010069265961647,-0.016971331089735,-0.0268307253718376,-0.0251980107277632,-0.035125657916069,-0.0232557747513056
923,-0.00357157131657004,-0.0137057537212968,-0.0180595703423023,-0.0174451321363449,-0.0268749296665192,-0.0211122557520866
924,0.0027371437754482,-0.0101367486640811,-0.0117693617939949,-0.0119587397202849,-0.0188882276415825,-0.0217361319810152
925,0.00752679910510778,-0.0067868884652853,-0.00882530119270086,-0.00897774565964937,-0.012043122202158,-0.023511566221714
926,0.0114443060010672,-0.00387805281206965,-0.00744873657822609,-0.00761709408834577,-0.00455863913521171,-0.0236654821783304
927,0.0143343536183238,-0.00210137874819338,-0.00700488872826099,-0.00780134182423353,0.00271550263278186,-0.020566500723362
928,0.0160543266683817,-0.00179926364216954,-0.00711625767871737,-0.00899654719978571,0.00738652609288692,-0.0136301033198833
929,0.0179826058447361,-0.00229083281010389,-0.00716148456558585,-0.00998098216950893,0.00891023874282837,-0.0031826791819185
930,0.0209818165749311,-0.00339554087258875,-0.00765322521328926,-0.0106208818033338,0.00819245353341103,0.00732398219406605
931,0.0238697174936533,-0.00484099332243204,-0.00885224621742964,-0.0106430975720286,0.00715334806591272,0.0141933467239141
932,0.0244757644832134,-0.00604776898398995,-0.00982224196195602,-0.00901342742145061,0.00748355966061354,0.0179706197232008
933,0.0228519402444363,-0.00644736457616091,-0.00954217556864023,-0.00601042108610272,0.00856432877480984,0.0201838091015816
934,0.0209645181894302,-0.00551398750394583,-0.0086546316742897,-0.00403499091044068,0.00791990663856268,0.0190741680562496
935,0.0199961382895708,-0.00269311130978167,-0.00798181816935539,-0.00391833437606692,0.00489947339519858,0.0132768284529448
936,0.0195020940154791,0.00193953630514443,-0.00714292796328664,-0.00417967373505235,0.001022266340442,0.00428275670856237
937,0.0179879795759916,0.0066051441244781,-0.00633403705433011,-0.00458069937303662,-0.00328502338379622,-0.00590422796085477
938,0.014667171984911,0.00944690406322479,-0.00625284248962998,-0.00558350048959255,-0.00802836194634438,-0.0148014919832349
939,0.0105062648653984,0.0105934822931886,-0.0062378104776144,-0.0060117831453681,-0.0108453193679452,-0.0185566898435354
940,0.00636266730725765,0.0100903501734138,-0.00602284260094166,-0.00574499974027276,-0.0101813562214375,-0.0163359008729458
941,0.00212460733018816,0.00721770990639925,-0.00673560751602054,-0.00680736778303981,-0.00812929682433605,-0.0126020796597004
942,-0.00033789238659665,0.00421866914257407,-0.00740347057580948,-0.00826634559780359,-0.00598329911008477,-0.00986069533973932
943,0.0014373705489561,0.00386804761365056,-0.00652823830023408,-0.0074480683542788,-0.00369545910507441,-0.00642915675416589
944,0.0072666541673243,0.00595486164093018,-0.00427399016916752,-0.00361864641308784,-0.00118754326831549,-0.000437858660006896
945,0.0151924202218652,0.00928932335227728,-0.000563044100999832,0.00287189823575318,0.00287225120700896,0.0081471735611558
946,0.0221413187682629,0.0123378541320562,0.00400708010420203,0.00983077008277178,0.00869323685765266,0.0156595669686794
947,0.0254390630871058,0.0139967324212193,0.00745964469388127,0.0145125547423959,0.0141273606568575,0.0183104630559683
948,0.0242567602545023,0.0132446344941854,0.00765205407515168,0.0153203485533595,0.016368268057704,0.0160287525504828
949,0.0197222102433443,0.00943083968013525,0.00418722396716475,0.012102329172194,0.0143937561661005,0.0106198759749532
950,0.0139498999342322,0.00362623669207096,-0.00183845183346421,0.00623974250629544,0.00901107490062714,0.0039682281203568
951,0.00913456454873085,-0.00244130939245224,-0.00922429841011763,-9.41530088311993E-05,0.00187602394726127,-0.00120764703024179
952,0.00774306943640113,-0.00605451827868819,-0.015021039173007,-0.00384291494265199,-0.00311182369478047,-0.00110744195990264
953,0.0104081500321627,-0.00517784897238016,-0.015652084723115,-0.00352362915873528,-0.00201737112365663,0.00401168363168836
954,0.0143849411979318,-0.0015372586203739,-0.0110564529895782,-0.00107251189183444,0.00421205582097173,0.00835789553821087
955,0.016071368008852,0.00177219486795366,-0.00446913531050086,0.00102465075906366,0.0106642926111817,0.00734376581385732
956,0.0147438421845436,0.00461043510586023,0.00162040034774691,0.00292514753527939,0.0142397424206138,0.00269768736325204
957,0.0115933800116181,0.00749487336724997,0.00587221560999751,0.00529909553006291,0.0142675954848528,-0.000523336348123848
958,0.00693311588838696,0.00824965536594391,0.00675220182165504,0.006380510982126,0.0106522869318724,-0.0010383982444182
959,0.00164752919226885,0.00568957207724452,0.00421756273135543,0.00494827423244715,0.00504322955384851,-0.00098054448608309
960,-0.00184022006578743,0.0021372155752033,0.000281179964076728,0.00234958273358643,0.000568878895137459,-0.00134099519345909
961,-0.00163888314273208,0.000962407328188419,-0.00238046096637845,0.000688548374455422,0.000351487222360447,-0.00163382908795029
962,0.00113178172614425,0.00254935934208333,-0.0034717891830951,-0.000121175922686234,0.00469255493953824,-0.00193888449575752
963,0.00396699691191316,0.00423120241612196,-0.00478163221850991,-0.00178406725171953,0.0104272067546844,-0.00259474851191044
964,0.00421128189191222,0.00291969068348408,-0.00802175141870975,-0.0052426909096539,0.0127247106283903,-0.00423983205109835
965,-0.000716289156116545,-0.00287366472184658,-0.0144708994776011,-0.010668920353055,0.00776176527142525,-0.00860402639955282
966,-0.00861144065856934,-0.00944620463997126,-0.0212442483752966,-0.0158915091305971,-0.00210562674328685,-0.0137651916593313
967,-0.0134085807949305,-0.0105950767174363,-0.0228861551731825,-0.0174307618290186,-0.00985789112746716,-0.0134796248748899
968,-0.0118719404563308,-0.00498419720679522,-0.0192148629575968,-0.0147629668936133,-0.0121464701369405,-0.0051871039904654
969,-0.00620069028809667,0.00305936648510396,-0.0148885156959295,-0.0108338547870517,-0.0108865927904844,0.00685809226706624
970,-0.000203522067749873,0.00957277975976467,-0.0119956219568849,-0.00754891289398074,-0.00694457069039345,0.0176450554281473
971,0.0043330485932529,0.0132900523021817,-0.0101274894550443,-0.00488840602338314,-0.000612751464359462,0.0247196462005377
972,0.00637822970747948,0.0132541479542851,-0.0101369069889188,-0.00391589291393757,0.00488532148301601,0.0261735580861568
973,0.00581899425014853,0.00947338156402111,-0.0121207693591714,-0.00523501913994551,0.00737509690225124,0.0211032032966614
974,0.00532245077192783,0.00483896397054195,-0.0134472260251641,-0.00693551311269403,0.0085595864802599,0.0121537512168288
975,0.00805320311337709,0.00326541066169739,-0.0109645985066891,-0.00661012623459101,0.0113696549087763,0.00502928160130978
976,0.0132116572931409,0.00481217494234443,-0.00556892342865467,-0.00462002540007234,0.0155590763315558,0.00373004097491503
977,0.0175388734787703,0.00692335655912757,-0.00109222298488021,-0.00266216276213527,0.0187341012060642,0.00756040308624506
978,0.0190133210271597,0.0084253279492259,0.000835595710668713,-0.00109673198312521,0.0196844376623631,0.0121964523568749
979,0.0163994748145342,0.00849224627017975,0.000104085105704144,-0.000793066283222288,0.0172032881528139,0.0139244385063648
