,AF3,AF4,Fp1,Fp2,AF7,AF8
0,0.0411588251590729,0.0206734668463469,-0.0305233355611563,-0.126153111457825,0.0142693491652608,0.00168028625193983
1,0.0496269501745701,0.0280270613729954,-0.0186005905270576,-0.111394450068474,0.0322096459567547,0.0127330329269171
2,0.0608001798391342,0.036228284239769,-0.00990886520594358,-0.0944914817810059,0.0421114377677441,0.0240680072456598
3,0.0740342810750008,0.0461511388421059,-0.00477155437693,-0.0779859721660614,0.0462726876139641,0.0349143594503403
4,0.0854647979140282,0.0547158159315586,-0.00519061367958784,-0.0676411762833595,0.0451182052493095,0.0414050668478012
5,0.093113549053669,0.0593804679811001,-0.0108980387449265,-0.0653182864189148,0.0387828201055527,0.0423553921282291
6,0.0973347574472427,0.0602986738085747,-0.0189246144145727,-0.0682051479816437,0.0279398076236248,0.0394065044820309
7,0.0989909023046494,0.0594187751412392,-0.026448518037796,-0.0729451477527618,0.0152768883854151,0.0347884893417358
8,0.100889675319195,0.0599736757576466,-0.0299963690340519,-0.0755911022424698,0.00734445126727223,0.0320170037448406
9,0.104314960539341,0.0630759745836258,-0.0287466179579496,-0.0747370049357414,0.0074504935182631,0.0324694067239761
10,0.108298219740391,0.068248562514782,-0.0235674176365137,-0.0711969509720802,0.0145382778719068,0.035683810710907
11,0.111587814986706,0.0736460313200951,-0.0162350349128246,-0.066624753177166,0.0252146404236555,0.0395756177604198
12,0.113108307123184,0.0763628557324409,-0.0106003815308213,-0.0634257197380066,0.033977385610342,0.0406258106231689
13,0.113212674856186,0.0764448344707489,-0.00814386084675789,-0.0618433356285095,0.0377892665565014,0.0389236360788345
14,0.111622400581837,0.075070433318615,-0.00907136686146259,-0.0612843409180641,0.0363034382462502,0.0368110314011574
15,0.106494821608067,0.0710602700710297,-0.0155461924150586,-0.0629801005125046,0.0287995077669621,0.0339425690472126
16,0.099008783698082,0.0651663765311241,-0.0261904988437891,-0.0669699013233185,0.0169836226850748,0.0295662265270948
17,0.0949343368411064,0.0631537958979607,-0.0330059118568897,-0.0688380524516106,0.0084751658141613,0.0269208941608667
18,0.0971757471561432,0.0680548846721649,-0.0313252918422222,-0.0654997602105141,0.0082167312502861,0.0287345573306084
19,0.102290093898773,0.0758587270975113,-0.0251841563731432,-0.0596357248723507,0.0118252392858267,0.0325872972607613
20,0.10564848035574,0.0807736814022064,-0.0212835371494293,-0.0557982735335827,0.0120529299601913,0.0340879522264004
21,0.105090498924255,0.0795517340302467,-0.0246985554695129,-0.0573233552277088,0.00523702055215836,0.030299611389637
22,0.101010374724865,0.0724902376532555,-0.0364559404551983,-0.0649142265319824,-0.00769568560644984,0.0209397505968809
23,0.0956722572445869,0.0633407682180405,-0.0507448092103004,-0.0743299499154091,-0.0222069285809994,0.0096418084576726
24,0.0908297598361969,0.0556075647473335,-0.0596292689442635,-0.0804207697510719,-0.0340802446007729,0.000595346617046744
25,0.0869797691702843,0.0494730174541473,-0.0611144341528416,-0.0834424570202827,-0.0415484011173248,-0.00662161409854889
26,0.0856162682175636,0.0456402637064457,-0.0580061338841915,-0.0851708576083183,-0.0428527370095253,-0.0132880667224526
27,0.0869565531611443,0.0453379265964031,-0.055193018168211,-0.0860015153884888,-0.0399258732795715,-0.0183589085936546
28,0.088429220020771,0.0470966249704361,-0.0573466196656227,-0.0868628621101379,-0.0389791876077652,-0.0207178350538015
29,0.0896093994379044,0.0498987473547459,-0.0627843216061592,-0.0873203426599503,-0.0406618900597095,-0.0193005427718163
30,0.0921839103102684,0.0537430346012115,-0.0669602900743485,-0.0870935991406441,-0.0406151823699474,-0.0157822053879499
31,0.0953054502606392,0.0574249923229218,-0.0696645751595497,-0.0880280956625938,-0.0384961180388927,-0.0144383143633604
32,0.0968867391347885,0.0602728053927422,-0.071378231048584,-0.0899739637970924,-0.0371418111026287,-0.0161792356520891
33,0.0973847210407257,0.0637847930192947,-0.0701355785131454,-0.089383065700531,-0.0365787893533707,-0.0175081863999367
34,0.0985614508390427,0.0689729228615761,-0.0667309537529945,-0.0846768766641617,-0.0351922549307346,-0.0157206170260906
35,0.0993604138493538,0.0732402503490448,-0.0663241147994995,-0.079502247273922,-0.0343643240630627,-0.0133117372170091
36,0.0989283695816994,0.0756731852889061,-0.0697891712188721,-0.0755645558238029,-0.0352642685174942,-0.0117910224944353
37,0.0988277196884155,0.0785777345299721,-0.0723446607589722,-0.0709444209933281,-0.0371076203882694,-0.00892310030758381
38,0.0985646620392799,0.0819513648748398,-0.0704096704721451,-0.0666604191064835,-0.038179911673069,-0.00482135312631726
39,0.0972153842449188,0.0854739770293236,-0.0634057074785233,-0.0637287795543671,-0.0348618440330029,0.000101674944744445
40,0.0964996367692947,0.0903515890240669,-0.0547968372702599,-0.0603594817221165,-0.0274465326219797,0.0067055462859571
41,0.09610266238451,0.0938191935420036,-0.0540980212390423,-0.0591486655175686,-0.0257732570171356,0.011491421610117
42,0.0920898467302322,0.0906512588262558,-0.0693436190485954,-0.0660418719053268,-0.0399001650512218,0.00872588995844126
43,0.082707017660141,0.0813076868653297,-0.0973275303840637,-0.0805851444602013,-0.0687998384237289,-0.00173286383505911
44,0.0723024308681488,0.0714162737131119,-0.127651214599609,-0.0965722948312759,-0.10376301407814,-0.0149764344096184
45,0.0688706934452057,0.0665644481778145,-0.150106623768806,-0.108127430081367,-0.13503485918045,-0.0266014989465475
46,0.0735312849283218,0.0676392987370491,-0.160684570670128,-0.114562220871449,-0.158314064145088,-0.0376033633947372
47,0.0782213658094406,0.0735223963856697,-0.16264320909977,-0.11934731900692,-0.175393924117088,-0.0514626912772655
48,0.0757788494229317,0.0838957726955414,-0.162593275308609,-0.125373706221581,-0.189366683363914,-0.0696190148591995
49,0.0661402344703674,0.0955938026309013,-0.165718957781792,-0.132759541273117,-0.202304422855377,-0.0912266001105309
50,0.0558831505477428,0.107354313135147,-0.169306397438049,-0.13691833615303,-0.211311414837837,-0.110230155289173
51,0.0518104620277882,0.12235676497221,-0.166557759046555,-0.132215604186058,-0.209598064422607,-0.118629693984985
52,0.0545285269618034,0.139730900526047,-0.156590029597282,-0.119494676589966,-0.194286793470383,-0.115033730864525
53,0.0593541637063026,0.153063103556633,-0.144427642226219,-0.10716973990202,-0.170663952827454,-0.105323456227779
54,0.0622476525604725,0.158762231469154,-0.133823618292809,-0.102321557700634,-0.148115873336792,-0.0960950255393982
55,0.0621598623692989,0.158771514892578,-0.127507016062737,-0.104272872209549,-0.135282665491104,-0.090312659740448
56,0.0597296729683876,0.157785519957542,-0.12795801460743,-0.10829021781683,-0.135539844632149,-0.0868819952011108
57,0.0586175210773945,0.162515223026276,-0.129804030060768,-0.109290488064289,-0.142269030213356,-0.0810022428631783
58,0.0626295059919357,0.176135078072548,-0.125756993889809,-0.105206005275249,-0.146412491798401,-0.0699122548103333
59,0.0705063790082932,0.192277610301971,-0.11832108348608,-0.0996022298932076,-0.146175369620323,-0.0578920096158981
60,0.0800206810235977,0.203015625476837,-0.112130142748356,-0.0957925096154213,-0.142768561840057,-0.049102108925581
61,0.0919420495629311,0.209008127450943,-0.10579214990139,-0.0916995033621788,-0.134874150156975,-0.0415999963879585
62,0.105965591967106,0.215516939759254,-0.0970566496253014,-0.0841509699821472,-0.120724201202393,-0.032439399510622
63,0.119122661650181,0.224387645721436,-0.0869393795728683,-0.0728434845805168,-0.102170914411545,-0.0225558280944824
64,0.130296751856804,0.233569726347923,-0.0764734745025635,-0.0588567480444908,-0.0830968022346497,-0.01414939109236
65,0.14170241355896,0.239420548081398,-0.0656999200582504,-0.0446319580078125,-0.0661604031920433,-0.00745667610317469
66,0.155911952257156,0.240509882569313,-0.0537865050137043,-0.0325649790465832,-0.0520965866744518,-0.00113326183054596
67,0.174522757530212,0.240647926926613,-0.0371432490646839,-0.020903654396534,-0.0387537777423859,0.00801886897534132
68,0.196253791451454,0.243162229657173,-0.0157506261020899,-0.00805654469877481,-0.0259849596768618,0.0211813692003489
69,0.217917010188103,0.248005092144012,0.00529377488419414,0.00478050298988819,-0.0157304424792528,0.0354687087237835
70,0.238183066248894,0.254973858594894,0.0237517636269331,0.0171870458871126,-0.00567768886685371,0.0485503040254116
71,0.256239205598831,0.263386219739914,0.0397871732711792,0.0279164407402277,0.0055803363211453,0.0598015561699867
72,0.273127108812332,0.273389935493469,0.0544918440282345,0.0381004400551319,0.0159075483679771,0.0718537420034409
73,0.292594105005264,0.285530388355255,0.0686182305216789,0.051872655749321,0.0244221873581409,0.0885741785168648
74,0.313974410295486,0.298384308815002,0.0778882876038551,0.0664391443133354,0.0302704703062773,0.107132464647293
75,0.33379054069519,0.310694873332977,0.0797253772616386,0.0757850036025047,0.0354594774544239,0.121864847838879
76,0.352700769901276,0.321670770645142,0.0803961455821991,0.0804954618215561,0.0465239062905312,0.132478758692741
77,0.37011981010437,0.329469054937363,0.08610799908638,0.083199568092823,0.0647455230355263,0.139789953827858
78,0.38073793053627,0.330967605113983,0.0942397788167,0.0839381590485573,0.0833947062492371,0.141268745064735
79,0.381599843502045,0.323084801435471,0.0980308726429939,0.0820426791906357,0.0956450328230858,0.133838132023811
80,0.376361101865768,0.307510286569595,0.0958195328712463,0.0774661004543304,0.0990455448627472,0.119063697755337
81,0.371968686580658,0.291622161865234,0.0908351317048073,0.0704892873764038,0.0959287583827972,0.10442840307951
82,0.373459488153458,0.281827479600906,0.0857858806848526,0.0622445717453957,0.0921307057142258,0.0970893800258636
83,0.380854815244675,0.278608083724976,0.0831164643168449,0.0555766522884369,0.0930763408541679,0.0991623476147652
84,0.389733403921127,0.279275059700012,0.0857377573847771,0.0526119731366634,0.100670106709003,0.107223883271217
85,0.396605134010315,0.283115297555923,0.0954457446932793,0.0545340105891228,0.113905698060989,0.116080984473228
86,0.401544153690338,0.290306061506271,0.111626282334328,0.0628874748945236,0.1300358325243,0.124621465802193
87,0.404274940490723,0.296539902687073,0.128806158900261,0.0756179615855217,0.142367660999298,0.133352875709534
88,0.403190344572067,0.295200049877167,0.139700502157211,0.0866782441735268,0.144030138850212,0.140990138053894
89,0.401557594537735,0.287483304738998,0.145599395036697,0.0951739922165871,0.141346782445908,0.150430485606194
90,0.407390981912613,0.281962007284164,0.154585599899292,0.107017301023006,0.149638190865517,0.166853934526443
91,0.420962810516357,0.281201034784317,0.166883453726768,0.121542483568192,0.17010822892189,0.183664485812187
92,0.433668553829193,0.281197905540466,0.175703585147858,0.131254881620407,0.190407663583755,0.18874603509903
93,0.441273182630539,0.282750189304352,0.179465964436531,0.135353699326515,0.203190878033638,0.183105066418648
94,0.446243971586227,0.289790570735931,0.181669130921364,0.138145476579666,0.208192378282547,0.1767947524786
95,0.451713740825653,0.299569725990295,0.184457942843437,0.141203343868256,0.206422001123428,0.176167339086533
96,0.458964705467224,0.305118411779404,0.188429221510887,0.144687592983246,0.200662836432457,0.182742059230804
97,0.465058416128159,0.303064584732056,0.193289920687675,0.147720381617546,0.19358803331852,0.192881867289543
98,0.46683406829834,0.295083522796631,0.198974743485451,0.149614781141281,0.187535688281059,0.200742155313492
99,0.465615421533585,0.285632103681564,0.206105276942253,0.152410671114922,0.186472579836845,0.20556066930294
100,0.460861712694168,0.274587124586105,0.209459349513054,0.153230428695679,0.187509104609489,0.205766692757607
101,0.451502114534378,0.259829968214035,0.20461830496788,0.147620975971222,0.185144364833832,0.199297532439232
102,0.440762400627136,0.24576810002327,0.198045685887337,0.139850363135338,0.18253268301487,0.191554605960846
103,0.432327210903168,0.238213211297989,0.197699889540672,0.136899784207344,0.184662967920303,0.188320174813271
104,0.429011911153793,0.238027408719063,0.205092042684555,0.141339674592018,0.192608296871185,0.189717188477516
105,0.432124018669128,0.240798145532608,0.215777352452278,0.149684831500053,0.204888418316841,0.193514093756676
106,0.438584089279175,0.240585058927536,0.222844183444977,0.155022576451302,0.217767521739006,0.197342067956924
107,0.440473914146423,0.234133720397949,0.223470598459244,0.153386622667313,0.225891649723053,0.19833967089653
108,0.432209670543671,0.222176805138588,0.21982853114605,0.146739035844803,0.225698247551918,0.196014299988747
109,0.415034294128418,0.207528099417686,0.212676882743835,0.138320192694664,0.219134300947189,0.1922687292099
110,0.393188178539276,0.191473498940468,0.20136022567749,0.12821914255619,0.211247012019157,0.187680259346962
111,0.370128840208054,0.173240199685097,0.186506450176239,0.115106672048569,0.202443480491638,0.182026639580727
112,0.348540157079697,0.153854519128799,0.16961869597435,0.100043751299381,0.190520331263542,0.176649570465088
113,0.329411506652832,0.135806411504745,0.152766168117523,0.0853455811738968,0.17606808245182,0.171561032533646
114,0.310398280620575,0.118749015033245,0.136430934071541,0.0708611607551575,0.159129232168198,0.162551984190941
115,0.293459236621857,0.104502007365227,0.124012976884842,0.0596193484961987,0.142291501164436,0.151387140154839
116,0.283408105373383,0.0970544517040253,0.120838232338429,0.0565555915236473,0.130330324172974,0.145533069968224
117,0.277922809123993,0.0953886955976486,0.125709310173988,0.0594583638012409,0.122953921556473,0.145298078656197
118,0.271330952644348,0.0951563641428947,0.133063927292824,0.0621728599071503,0.117013283073902,0.145801693201065
119,0.260603815317154,0.0916945189237595,0.136878505349159,0.0598314553499222,0.109640210866928,0.142572596669197
120,0.247509196400642,0.0834762156009674,0.134303703904152,0.0520965829491615,0.101030386984348,0.135274633765221
121,0.236339285969734,0.0743229761719704,0.128350764513016,0.043677493929863,0.0946374163031578,0.128238379955292
122,0.228698819875717,0.0694010183215141,0.12355675548315,0.0387198701500893,0.092412956058979,0.12463216483593
123,0.224106356501579,0.0689545869827271,0.12285565584898,0.0378078147768974,0.0944161340594292,0.124949745833874
124,0.222060576081276,0.0676895081996918,0.127478241920471,0.0395481735467911,0.100338362157345,0.127817869186401
125,0.221768543124199,0.0620247200131416,0.135044038295746,0.042106781154871,0.108905732631683,0.13095235824585
126,0.223764404654503,0.0542071387171745,0.141523405909538,0.0454067587852478,0.118893876671791,0.136177808046341
127,0.228758350014687,0.0470717884600163,0.144357189536095,0.049834318459034,0.128620892763138,0.147066906094551
128,0.23383130133152,0.0397827178239822,0.14191959798336,0.051979836076498,0.134428918361664,0.159662023186684
129,0.23801700770855,0.0334971211850643,0.137698665261269,0.0516125746071339,0.137750342488289,0.168772235512733
130,0.243503242731094,0.030494911596179,0.136990487575531,0.0531730130314827,0.143153429031372,0.174672156572342
131,0.252419710159302,0.0312358848750591,0.14258049428463,0.0594767332077026,0.152290880680084,0.180179461836815
132,0.26472482085228,0.0347996465861797,0.154834300279617,0.0698315128684044,0.165290489792824,0.186730727553368
133,0.274512141942978,0.037408359348774,0.16860543191433,0.0799226388335228,0.178846955299377,0.191311046481133
134,0.278885424137115,0.0385750457644463,0.179955542087555,0.089577928185463,0.191121697425842,0.193564236164093
135,0.282130837440491,0.0410799123346806,0.188916653394699,0.101871356368065,0.203160524368286,0.196245014667511
136,0.286477982997894,0.0436540208756924,0.19429150223732,0.113907091319561,0.211795717477798,0.197464883327484
137,0.290087103843689,0.0431018806993961,0.19624924659729,0.119950495660305,0.21385270357132,0.194805711507797
138,0.292307704687119,0.0408019348978996,0.198843851685524,0.120247960090637,0.213789135217667,0.192154601216316
139,0.293615758419037,0.0404821410775185,0.203924104571342,0.120052769780159,0.216646254062653,0.194442704319954
140,0.293059557676315,0.0432930365204811,0.21034899353981,0.123342953622341,0.222355782985687,0.202236384153366
141,0.290877997875214,0.0482301488518715,0.218137383460999,0.130266427993774,0.230967104434967,0.21355564892292
142,0.289828658103943,0.0526466816663742,0.227009192109108,0.137525454163551,0.243496149778366,0.224298253655434
143,0.291637897491455,0.0550751946866512,0.237059354782104,0.143721699714661,0.259611785411835,0.231777936220169
144,0.295231223106384,0.0570350363850594,0.247491717338562,0.151083111763,0.276149094104767,0.237501814961433
145,0.299174636602402,0.0599190965294838,0.255620390176773,0.161799296736717,0.28909033536911,0.244159057736397
146,0.302257388830185,0.0630468800663948,0.260752946138382,0.174894839525223,0.29639333486557,0.2526775598526
147,0.30282598733902,0.0643242374062538,0.262698173522949,0.184416994452477,0.295741021633148,0.260332494974136
148,0.30012771487236,0.0623347461223602,0.260039478540421,0.184720084071159,0.285547167062759,0.263262540102005
149,0.294391244649887,0.0566401779651642,0.251948237419128,0.175617158412933,0.267799556255341,0.259863138198853
150,0.286343932151794,0.0475140251219273,0.239595234394073,0.161722645163536,0.246952220797539,0.252306193113327
151,0.277369409799576,0.0376115143299103,0.22660905122757,0.149491548538208,0.22910176217556,0.246993079781532
152,0.268754720687866,0.0300715807825327,0.215739399194717,0.142251670360565,0.218708261847496,0.248163908720016
153,0.261984944343567,0.0256727747619152,0.207216113805771,0.139139235019684,0.215939193964005,0.252805322408676
154,0.258435815572739,0.0240203477442265,0.200826600193977,0.137928828597069,0.218949690461159,0.255681663751602
155,0.255945563316345,0.0231480300426483,0.195056244730949,0.135785356163979,0.223385915160179,0.25284880399704
156,0.251320123672485,0.0210194047540426,0.189120501279831,0.132370486855507,0.225051537156105,0.243221372365952
157,0.24485932290554,0.0177629701793194,0.185527861118317,0.130448415875435,0.224411621689796,0.229822754859924
158,0.237501159310341,0.0133753595873713,0.186861664056778,0.130551397800446,0.224723875522614,0.216981649398804
159,0.22831492125988,0.00669129053130746,0.191970646381378,0.129086777567863,0.227510750293732,0.207396760582924
160,0.216560319066048,-0.00280341715551913,0.196349561214447,0.122585572302341,0.230901628732681,0.200974017381668
161,0.203927874565125,-0.0116766141727567,0.198002621531487,0.114086098968983,0.235468670725822,0.198156535625458
162,0.1930021494627,-0.0145053425803781,0.198672443628311,0.110667392611504,0.244876742362976,0.20075860619545
163,0.18288254737854,-0.0124748069792986,0.196904480457306,0.112300559878349,0.255105137825012,0.205396637320518
164,0.170134693384171,-0.0131915071979165,0.187902003526688,0.110436178743839,0.25468185544014,0.203026309609413
165,0.156235501170158,-0.0190777573734522,0.173455163836479,0.101184614002705,0.241759330034256,0.191186591982841
166,0.145239859819412,-0.0264563355594873,0.160934641957283,0.0890912413597107,0.226656407117844,0.176215887069702
167,0.135183036327362,-0.0342313125729561,0.152657523751259,0.0776885375380516,0.21750620007515,0.161729484796524
168,0.120007924735546,-0.0448499172925949,0.144467055797577,0.0655427426099777,0.213645577430725,0.144969940185547
169,0.0985565409064293,-0.0592927485704422,0.132928401231766,0.0507077500224113,0.210741952061653,0.124821923673153
170,0.0766350105404854,-0.0751836895942688,0.118913367390633,0.0343132391571999,0.206373110413551,0.106657631695271
171,0.058441799134016,-0.090425580739975,0.104015812277794,0.0178731307387352,0.197731122374535,0.0948809608817101
172,0.0448116548359394,-0.102420419454575,0.0908268094062805,0.0040749553591013,0.183385506272316,0.0904135480523109
173,0.0375168956816196,-0.10609845072031,0.0834409072995186,-0.00148237030953169,0.167908504605293,0.0956202000379562
174,0.0363391898572445,-0.0999829396605492,0.0825802311301231,0.00338851101696491,0.155857816338539,0.111232571303844
175,0.0373350866138935,-0.090218111872673,0.0841195732355118,0.0126246502622962,0.145863816142082,0.130331784486771
176,0.03721634298563,-0.0836434066295624,0.0842258334159851,0.0185856595635414,0.136496141552925,0.143162205815315
177,0.0340461023151875,-0.083191029727459,0.0796336308121681,0.0173694882541895,0.129170313477516,0.143127083778381
178,0.0272119659930468,-0.0885522216558456,0.0667535364627838,0.00796464737504721,0.123621068894863,0.128510534763336
179,0.0186132919043303,-0.0959882214665413,0.0469033382833004,-0.00693817250430584,0.117101296782494,0.104357160627842
180,0.00644361693412066,-0.105618961155415,0.0221187081187963,-0.0267574153840542,0.104620106518269,0.0748746544122696
181,-0.0119857555255294,-0.120651043951511,-0.00561064993962646,-0.051581647247076,0.0855796709656715,0.0426527261734009
182,-0.0314168035984039,-0.137441873550415,-0.0291767157614231,-0.0742147117853165,0.068448543548584,0.0151861952617764
183,-0.0460400395095348,-0.14978101849556,-0.043862197548151,-0.0884574726223946,0.0591533333063126,-0.00275705824606121
184,-0.0554063729941845,-0.155253142118454,-0.0499399565160275,-0.0949977561831474,0.0547340176999569,-0.0131689719855785
185,-0.0600864551961422,-0.154240071773529,-0.0485965758562088,-0.0966374799609184,0.0499216690659523,-0.0189301557838917
186,-0.0621047206223011,-0.149649024009705,-0.0444138906896114,-0.0978618711233139,0.04098916426301,-0.021951062604785
187,-0.0638023987412453,-0.143747195601463,-0.0410546697676182,-0.100523553788662,0.0305775869637728,-0.0223676785826683
188,-0.0647215396165848,-0.136245712637901,-0.0369694754481316,-0.100747250020504,0.0277095902711153,-0.0196425877511501
189,-0.0657050237059593,-0.128940939903259,-0.0335800051689148,-0.0984619110822678,0.034345094114542,-0.016729986295104
190,-0.0685460716485977,-0.125575199723244,-0.0357062295079231,-0.0981516540050507,0.0424572750926018,-0.0175525117665529
191,-0.0706764608621597,-0.125227570533752,-0.042656023055315,-0.0997640192508698,0.0453161932528019,-0.0211085025221109
192,-0.0674602389335632,-0.122528798878193,-0.0471345968544483,-0.0992270112037659,0.0427083745598793,-0.0225989781320095
193,-0.0568701662123203,-0.114438325166702,-0.0416374579071999,-0.0937384068965912,0.0392175689339638,-0.019663980230689
194,-0.0423913411796093,-0.103842228651047,-0.0278667695820332,-0.0852453038096428,0.0390860848128796,-0.016044644638896
195,-0.0329238027334213,-0.0977188423275948,-0.0170420818030834,-0.0805786475539207,0.041689857840538,-0.0181116554886103
196,-0.0341084003448486,-0.100734703242779,-0.0171577278524637,-0.0848073437809944,0.0443245582282543,-0.0283428467810154
197,-0.0435895584523678,-0.111280202865601,-0.0282604936510324,-0.0961362794041634,0.0445001535117626,-0.0434916764497757
198,-0.0575362779200077,-0.125121340155602,-0.0482419021427631,-0.110725037753582,0.0378630310297012,-0.0601983368396759
199,-0.0729301050305367,-0.138490751385689,-0.0739114060997963,-0.127271696925163,0.0219783708453178,-0.0785061120986938
200,-0.0840479731559753,-0.146700695157051,-0.0977833420038223,-0.142788618803024,0.00302312546409667,-0.096855640411377
201,-0.0874830260872841,-0.147691786289215,-0.112698912620544,-0.153003841638565,-0.011951083317399,-0.11137530952692
202,-0.0888381153345108,-0.14669206738472,-0.120522059500217,-0.159428656101227,-0.0269032716751099,-0.121684662997723
203,-0.0930204465985298,-0.147284179925919,-0.125220596790314,-0.16376020014286,-0.045566625893116,-0.126857399940491
204,-0.0942217633128166,-0.143402338027954,-0.122457385063171,-0.160716831684113,-0.0586260408163071,-0.12153684347868
205,-0.0866357162594795,-0.128726050257683,-0.109402000904083,-0.148446172475815,-0.0572193898260593,-0.105969175696373
206,-0.0736562237143517,-0.106090649962425,-0.0917906910181046,-0.133134752511978,-0.0443166457116604,-0.0871265009045601
207,-0.062189444899559,-0.0844652652740479,-0.0759202316403389,-0.120532751083374,-0.0284160301089287,-0.071040466427803
208,-0.058262050151825,-0.0719165205955505,-0.0667858421802521,-0.114282168447971,-0.019451392814517,-0.063639871776104
209,-0.0618683844804764,-0.068554624915123,-0.065193384885788,-0.114311262965202,-0.0216404311358929,-0.0662150382995605
210,-0.067028820514679,-0.0675965622067451,-0.0657766535878181,-0.116373971104622,-0.0303364899009466,-0.0729369074106216
211,-0.0712381675839424,-0.0650672763586044,-0.0662214607000351,-0.118266269564629,-0.0415540970861912,-0.0805262699723244
212,-0.0749110504984856,-0.0610910132527351,-0.0677134767174721,-0.119709528982639,-0.0524258837103844,-0.0882156491279602
213,-0.0755212530493736,-0.0548991411924362,-0.0671084597706795,-0.118885427713394,-0.0573011338710785,-0.0915978848934174
214,-0.0716620460152626,-0.0472083128988743,-0.0631223917007446,-0.11664392799139,-0.0543138571083546,-0.0891154259443283
215,-0.0672374293208122,-0.0419256649911404,-0.0623215548694134,-0.117783889174461,-0.0488006435334682,-0.0865686908364296
216,-0.0647050812840462,-0.0385316498577595,-0.0666047781705856,-0.121717102825642,-0.0436484552919865,-0.0858729779720306
217,-0.0628568530082703,-0.0327751375734806,-0.0705749541521072,-0.123064428567886,-0.0370999164879322,-0.0826017260551453
218,-0.0621502250432968,-0.0246579758822918,-0.0719692781567574,-0.120994076132774,-0.0282805617898703,-0.0763963237404823
219,-0.0631699040532112,-0.016450172290206,-0.0709890797734261,-0.117789559066296,-0.0160382259637117,-0.0709099099040031
220,-0.0634660571813583,-0.00759815238416195,-0.0658570826053619,-0.112951800227165,0.000974862021394074,-0.0669313371181488
221,-0.0611278042197227,0.00318790064193308,-0.0557396151125431,-0.105285629630089,0.0195166412740946,-0.06341452896595
222,-0.0580517128109932,0.0129647003486753,-0.0451590530574322,-0.0983914434909821,0.0300121661275625,-0.0627131089568138
223,-0.0533086135983467,0.0198508817702532,-0.0377319306135178,-0.0948535650968552,0.0279945842921734,-0.0659585073590279
224,-0.0424468368291855,0.028145669028163,-0.0319541357457638,-0.090850368142128,0.0204643383622169,-0.0691159591078758
225,-0.0275039337575436,0.0401882044970989,-0.0277564078569412,-0.0841580703854561,0.0135850012302399,-0.0696571618318558
226,-0.0165490675717592,0.0516339391469955,-0.0278522986918688,-0.0782397761940956,0.00526722799986601,-0.0691016912460327
227,-0.0106383459642529,0.0613695345818996,-0.0304236281663179,-0.0726785734295845,-0.00539261102676392,-0.0651401057839394
228,-0.00114504783414304,0.0765068084001541,-0.0273015331476927,-0.060300812125206,-0.0111820995807648,-0.0505249761044979
229,0.0150191383436322,0.0995259359478951,-0.0147433523088694,-0.0397061221301556,-0.00686141941696405,-0.0257178973406553
230,0.0312602892518044,0.12324545532465,0.00262791640125215,-0.0184168461710215,0.00362481526099145,-0.00105944508686662
231,0.0405678190290928,0.140201449394226,0.0167578961700201,-0.00552069582045078,0.0113149825483561,0.0129855144768953
232,0.0409267768263817,0.148719489574432,0.0219542309641838,-0.00519603583961725,0.0104744983837008,0.0134920105338097
233,0.0367015302181244,0.153101682662964,0.021888742223382,-0.0117942979559302,0.00536456098780036,0.00941992178559303
234,0.0326598398387432,0.156612232327461,0.0222468003630638,-0.0170827303081751,0.00178485526703298,0.0123395100235939
235,0.0298371836543083,0.158103913068771,0.0216961670666933,-0.019320297986269,-0.000775330991018564,0.0226320195943117
236,0.0298316944390535,0.15969580411911,0.0201243255287409,-0.018040157854557,-0.0015286480775103,0.0351368151605129
237,0.0339094325900078,0.165123656392097,0.021400511264801,-0.0123414434492588,0.00159872055519372,0.0469161383807659
238,0.0388126485049725,0.171310812234879,0.0251344311982393,-0.00615121051669121,0.00534081878140569,0.0533944256603718
239,0.0419934913516045,0.175508677959442,0.0296825505793095,-0.00196343753486872,0.00760672613978386,0.0532628037035465
240,0.046512134373188,0.182168379426003,0.0378524027764797,0.00445927027612925,0.0125153176486492,0.0532228909432888
241,0.0539914630353451,0.193065941333771,0.0495398938655853,0.0145773477852345,0.0211713165044785,0.0572790019214153
242,0.0622984878718853,0.205391883850098,0.0612030029296875,0.0251531302928925,0.030223423615098,0.0631735846400261
243,0.0689159333705902,0.216575026512146,0.0693603977560997,0.0325100049376488,0.0355475321412086,0.0665872097015381
244,0.0714012309908867,0.222572758793831,0.0692498311400414,0.0322897247970104,0.0324015095829964,0.0624991469085217
245,0.069974459707737,0.221216082572937,0.0612548999488354,0.0245941765606403,0.0215794667601585,0.0515495091676712
246,0.0677920430898666,0.21634928882122,0.0538204312324524,0.0160477105528116,0.0109210899099708,0.0421277843415737
247,0.0668356791138649,0.212800234556198,0.0525427162647247,0.0118052009493113,0.00513022160157561,0.0397632867097855
248,0.0671404153108597,0.212373271584511,0.0558487735688686,0.0124840466305614,0.00341885536909103,0.0431331321597099
249,0.0690865069627762,0.216534227132797,0.0629787147045136,0.0181540567427874,0.00835434161126614,0.0512340255081654
250,0.0716280713677406,0.224172547459602,0.0733069479465485,0.0265603419393301,0.0223912000656128,0.0618970431387424
251,0.0735043659806252,0.231291502714157,0.0840509608387947,0.0337085835635662,0.0420442931354046,0.0705159306526184
252,0.0737339109182358,0.234251394867897,0.0914162918925285,0.0358811728656292,0.0591927729547024,0.0731727629899979
253,0.0702913925051689,0.231293320655823,0.0919445529580116,0.0305444095283747,0.0639153569936752,0.0688189119100571
254,0.0656550005078316,0.22539609670639,0.0876056700944901,0.0211409274488688,0.0533838905394077,0.0623471774160862
255,0.0652794539928436,0.221233204007149,0.0835887566208839,0.0144010121002793,0.0344399176537991,0.0604763366281986
256,0.0706184282898903,0.221123024821281,0.0830938965082169,0.0147499553859234,0.0166777689009905,0.0671459138393402
257,0.0813516601920128,0.22628815472126,0.0868305489420891,0.0237883348017931,0.0065535819157958,0.0826800614595413
258,0.098066158592701,0.236824348568916,0.0934172198176384,0.0395519584417343,0.00536969676613808,0.102355875074863
259,0.117083624005318,0.248875468969345,0.099760040640831,0.0550230965018272,0.00924856867641211,0.117371805012226
260,0.131712898612022,0.258526533842087,0.104722291231155,0.0643487051129341,0.0140677662566304,0.123193569481373
261,0.140419512987137,0.265967279672623,0.111282207071781,0.0687700137495995,0.0205248761922121,0.123559676110744
262,0.144611045718193,0.270012021064758,0.118474014103413,0.0694747120141983,0.0276506245136261,0.12123916298151
263,0.146524026989937,0.269827216863632,0.121222913265228,0.0664472430944443,0.0319287851452827,0.117326103150845
264,0.153017476201057,0.271558791399002,0.121715493500233,0.0659599453210831,0.0364919640123844,0.118617884814739
265,0.170090734958649,0.281629145145416,0.127941027283669,0.0761838927865028,0.0476901009678841,0.132222518324852
266,0.194058924913406,0.296626746654511,0.141217932105064,0.0954006239771843,0.0629760921001434,0.15376989543438
267,0.216042891144753,0.308139979839325,0.155391797423363,0.114068441092968,0.0733581110835075,0.171258047223091
268,0.231465131044388,0.312775313854218,0.165357321500778,0.126241952180862,0.0750573724508286,0.179161250591278
269,0.240551128983498,0.311935871839523,0.169903844594955,0.131651505827904,0.0711119994521141,0.179726600646973
270,0.245580822229385,0.307151466608047,0.170304998755455,0.131818860769272,0.0660741701722145,0.175834625959396
271,0.249396473169327,0.2995964884758,0.169017910957336,0.129027456045151,0.0632279738783836,0.169692933559418
272,0.252918064594269,0.290318429470062,0.167469337582588,0.124809473752975,0.0626686960458755,0.162654459476471
273,0.254528075456619,0.278526216745377,0.164984479546547,0.118165738880634,0.060543492436409,0.154189601540565
274,0.254669994115829,0.266601264476776,0.164231762290001,0.111322246491909,0.0572127662599087,0.146836519241333
275,0.256810903549194,0.261386394500732,0.170668810606003,0.110575713217258,0.0598631016910076,0.145460978150368
276,0.259734809398651,0.262579530477524,0.181585624814034,0.115585446357727,0.0694292634725571,0.148313969373703
277,0.259171813726425,0.263298332691193,0.188936814665794,0.120311208069324,0.078261524438858,0.149388372898102
278,0.257475584745407,0.263014912605286,0.191329017281532,0.124222934246063,0.0830722823739052,0.148281335830688
279,0.25793930888176,0.26304966211319,0.188640564680099,0.12868158519268,0.0851037055253983,0.145973116159439
280,0.260180324316025,0.261141687631607,0.180300399661064,0.132150277495384,0.0857641845941544,0.140849202871323
281,0.264681428670883,0.257684737443924,0.171264410018921,0.134415090084076,0.0871286541223526,0.134693637490273
282,0.269229143857956,0.252330392599106,0.163496077060699,0.134546041488647,0.0862372219562531,0.129438146948814
283,0.270632266998291,0.242573261260986,0.154698878526688,0.130511835217476,0.0776461660861969,0.123923406004906
284,0.271198451519012,0.229942619800568,0.14545314013958,0.123015835881233,0.0626301169395447,0.118006095290184
285,0.272877871990204,0.216787949204445,0.136187717318535,0.113158024847507,0.0465254262089729,0.110996954143047
286,0.273233562707901,0.202721983194351,0.126339048147202,0.101194635033607,0.0318014025688171,0.100853338837624
287,0.271811217069626,0.189344629645348,0.119089841842651,0.0904734060168266,0.0194487944245338,0.09014493227005
288,0.268659025430679,0.17735481262207,0.114974550902843,0.0826954618096352,0.00927037186920643,0.0809597820043564
289,0.260806411504745,0.16285328567028,0.106353990733624,0.0729168727993965,-0.00212409696541727,0.0679501816630363
290,0.249471992254257,0.145796954631805,0.0893361195921898,0.0583691708743572,-0.0155972391366959,0.0492596365511417
291,0.242777138948441,0.132943019270897,0.0721038207411766,0.0453751981258392,-0.0249507017433643,0.0330498479306698
292,0.246194019913673,0.128938153386116,0.0643348544836044,0.041313361376524,-0.0238586030900478,0.025734044611454
293,0.256149977445602,0.132128208875656,0.0669631436467171,0.0461642183363438,-0.01324372459203,0.0254932530224323
294,0.264218538999558,0.137383803725243,0.0744233503937721,0.0544916614890099,0.00097408052533865,0.0269831605255604
295,0.264953792095184,0.139810755848885,0.0814644247293472,0.060960441827774,0.0148819899186492,0.0261681322008371
296,0.25935161113739,0.137700915336609,0.0874064639210701,0.0639136582612991,0.0284956376999617,0.0231656078249216
297,0.250354915857315,0.132010132074356,0.0937450528144836,0.0640538781881332,0.0413106344640255,0.019522663205862
298,0.239097833633423,0.123364813625813,0.0991647765040398,0.0611470229923725,0.0494115576148033,0.014473669230938
299,0.225300446152687,0.110249809920788,0.0976045578718185,0.053244236856699,0.0468569993972778,0.0053981407545507
300,0.208657652139664,0.0910969823598862,0.0838739052414894,0.0398651584982872,0.0318634286522865,-0.00826922338455915
301,0.191104844212532,0.0671926215291023,0.061294961720705,0.0247807148844004,0.00823269039392471,-0.0225353613495827
302,0.177235513925552,0.0434745810925961,0.0397314317524433,0.014282532967627,-0.0184310059994459,-0.0307479500770569
303,0.169189035892487,0.0227162837982178,0.0235316716134548,0.00952458195388317,-0.0444946326315403,-0.0315836071968079
304,0.163711473345757,0.00209376960992813,0.0079584801569581,0.00390802603214979,-0.0700508505105972,-0.0324389934539795
305,0.159104913473129,-0.0178356450051069,-0.0068979449570179,-0.00491470564156771,-0.0914707183837891,-0.0362674258649349
306,0.15681965649128,-0.0324576944112778,-0.0144007289782166,-0.0121634928509593,-0.10163377225399,-0.0379696451127529
307,0.152829766273499,-0.0440745018422604,-0.0165212489664555,-0.0186843480914831,-0.102728597819805,-0.0388737320899963
308,0.142022326588631,-0.0575424991548061,-0.0187797248363495,-0.0274652373045683,-0.101489946246147,-0.0433339849114418
309,0.128007769584656,-0.0706454589962959,-0.0186234153807163,-0.0343082547187805,-0.0968809053301811,-0.0476558320224285
310,0.115504033863544,-0.081167109310627,-0.0157477278262377,-0.0372828617691994,-0.0876444652676582,-0.0490517355501652
311,0.105497181415558,-0.0897249132394791,-0.0139573253691196,-0.0381226576864719,-0.0770035088062286,-0.0486416034400463
312,0.0967491641640663,-0.0986838936805725,-0.0165604315698147,-0.0387489646673203,-0.071417972445488,-0.0480728633701801
313,0.0877649188041687,-0.11158736795187,-0.0254862103611231,-0.0415804125368595,-0.0758146792650223,-0.0479857288300991
314,0.0810649618506432,-0.126139223575592,-0.0353669971227646,-0.0444557033479214,-0.0842687040567398,-0.0468288138508797
315,0.0772623494267464,-0.137773215770721,-0.0396103449165821,-0.0451554395258427,-0.0890626981854439,-0.0477070361375809
316,0.0724078193306923,-0.14674486219883,-0.0394770726561546,-0.0463327504694462,-0.0904228091239929,-0.056285947561264
317,0.0648798570036888,-0.154807463288307,-0.039908554404974,-0.0500236041843891,-0.0904209390282631,-0.0714902952313423
318,0.0578586496412754,-0.15997751057148,-0.0404959656298161,-0.0524207130074501,-0.0869296342134476,-0.0836255252361298
319,0.0515867955982685,-0.163046523928642,-0.0416715182363987,-0.0527350753545761,-0.0820420458912849,-0.0880230814218521
320,0.0410311743617058,-0.170454263687134,-0.0484320409595966,-0.0571982152760029,-0.0838242024183273,-0.0922257155179977
321,0.0273909848183393,-0.181060716509819,-0.0565490424633026,-0.0636018216609955,-0.0895757451653481,-0.0984335616230965
322,0.0172067414969206,-0.186943531036377,-0.0579877533018589,-0.0636535733938217,-0.0902035087347031,-0.100414223968983
323,0.0118055799975991,-0.187199890613556,-0.0555374696850777,-0.0584591589868069,-0.0869863480329514,-0.0978642478585243
324,0.0110432291403413,-0.184779763221741,-0.0534345433115959,-0.0510985851287842,-0.0836522355675697,-0.0928580090403557
325,0.0168614611029625,-0.178613543510437,-0.0489266589283943,-0.0394162498414516,-0.0777084082365036,-0.0836673229932785
326,0.0269826743751764,-0.168869093060493,-0.0408803038299084,-0.0259236115962267,-0.0689894929528236,-0.0724723264575005
327,0.0357880592346191,-0.159319549798965,-0.0324645265936852,-0.0169379897415638,-0.0608354955911636,-0.0646201446652412
328,0.040385153144598,-0.1524288803339,-0.0261221062391996,-0.013692207634449,-0.0538681074976921,-0.0607063248753548
329,0.0426675789058208,-0.146334499120712,-0.0205640066415071,-0.0118743097409606,-0.0445730462670326,-0.0558429360389709
330,0.0455328859388828,-0.138627544045448,-0.0131993079558015,-0.00801602099090815,-0.0303946621716022,-0.0467958934605122
331,0.0475941225886345,-0.132348239421844,-0.00591288646683097,-0.0047696721740067,-0.0154248978942633,-0.0376937575638294
332,0.0452210418879986,-0.132648408412933,-0.00341076031327248,-0.00653494009748101,-0.00661703944206238,-0.0347084701061249
333,0.0388769023120403,-0.139312565326691,-0.00559439836069942,-0.0115704499185085,-0.00635202880948782,-0.0381982252001762
334,0.0333706513047218,-0.148148983716965,-0.00825364980846643,-0.0153446523472667,-0.0123841976746917,-0.0449030995368958
335,0.0305646825581789,-0.156182214617729,-0.0112277753651142,-0.0184047725051641,-0.0227877516299486,-0.0536674745380878
336,0.0294913742691278,-0.159049510955811,-0.0144551107659936,-0.0205443557351828,-0.0313220098614693,-0.0600264295935631
337,0.0289614200592041,-0.15380297601223,-0.0149100488051772,-0.0195599962025881,-0.0299078095704317,-0.0592137314379215
338,0.027486190199852,-0.142459705471992,-0.0114466305822134,-0.0155735649168491,-0.0191795136779547,-0.0534981600940228
339,0.0255692042410374,-0.127464771270752,-0.00511226011440158,-0.00897438358515501,-0.00670991977676749,-0.0464817248284817
340,0.0231010038405657,-0.113386482000351,-0.00190619484055787,-0.00397783285006881,-0.0025955515448004,-0.0426323935389519
341,0.0210137106478214,-0.104799628257751,-0.00644082156941295,-0.00548693537712097,-0.0107730980962515,-0.0440342016518116
342,0.0203628316521645,-0.101828195154667,-0.0161017570644617,-0.0132777448743582,-0.0260376054793596,-0.0472437143325806
343,0.016534173861146,-0.103233627974987,-0.0295635685324669,-0.0255672819912434,-0.0429219119250774,-0.0511990189552307
344,0.00637199124321342,-0.106765165925026,-0.0462731122970581,-0.039140559732914,-0.0575726591050625,-0.0574400797486305
345,-0.00745030073449016,-0.110301911830902,-0.0624044835567474,-0.050104945898056,-0.0674547255039215,-0.0661163777112961
346,-0.0214623846113682,-0.114122740924358,-0.0744152888655663,-0.0573908239603043,-0.0728543102741241,-0.0765735507011414
347,-0.0335596315562725,-0.118033789098263,-0.0804471522569656,-0.0613144300878048,-0.0740096122026443,-0.085804894566536
348,-0.0438294820487499,-0.121576927602291,-0.0814678072929382,-0.062843419611454,-0.0711178854107857,-0.0897581204771996
349,-0.0524733774363995,-0.12445043027401,-0.0804683566093445,-0.0633649304509163,-0.0643019005656242,-0.0874248296022415
350,-0.0590147338807583,-0.125513717532158,-0.0799882784485817,-0.0634852200746536,-0.0529173985123634,-0.0814956575632095
351,-0.0651534497737885,-0.126055300235748,-0.0829897522926331,-0.0649062246084213,-0.040939774364233,-0.0770949870347977
352,-0.072550542652607,-0.129999354481697,-0.0916235893964767,-0.070574052631855,-0.0365425907075405,-0.0791124254465103
353,-0.0791365131735802,-0.13870133459568,-0.102791123092175,-0.080278180539608,-0.0425368510186672,-0.0876645669341087
354,-0.0842387527227402,-0.151179969310761,-0.113182798027992,-0.0925470665097237,-0.0561271086335182,-0.0999926254153252
355,-0.0892945602536201,-0.163967713713646,-0.122078411281109,-0.105153404176235,-0.0711313784122467,-0.111866980791092
356,-0.0919598564505577,-0.169639214873314,-0.125693649053574,-0.111630693078041,-0.0784707814455032,-0.116329178214073
357,-0.093441866338253,-0.167328476905823,-0.123708330094814,-0.111110083758831,-0.0771092474460602,-0.114097438752651
358,-0.100155927240849,-0.16447514295578,-0.120830580592155,-0.110457189381123,-0.0732639878988266,-0.113323025405407
359,-0.112139746546745,-0.164340049028397,-0.11834242939949,-0.112131521105766,-0.0687865987420082,-0.115677058696747
360,-0.121656060218811,-0.163441225886345,-0.115791961550713,-0.112597241997719,-0.0626291409134865,-0.115523591637611
361,-0.12273995578289,-0.159656569361687,-0.115425884723663,-0.110434859991074,-0.058183416724205,-0.110057808458805
362,-0.117983624339104,-0.155541613698006,-0.119884639978409,-0.109163723886013,-0.0611247457563877,-0.104667715728283
363,-0.113438650965691,-0.153130427002907,-0.127042070031166,-0.111049994826317,-0.0706203132867813,-0.105996288359165
364,-0.109479062259197,-0.14924219250679,-0.128783658146858,-0.111541084945202,-0.0768188685178757,-0.111016288399696
365,-0.104215651750565,-0.140629768371582,-0.121442630887032,-0.106500059366226,-0.0717567726969719,-0.11285038292408
366,-0.100067973136902,-0.130017325282097,-0.111503265798092,-0.0993618443608284,-0.0602331273257732,-0.112043403089046
367,-0.0994500815868378,-0.121038965880871,-0.105562962591648,-0.094172403216362,-0.0525495111942291,-0.110433168709278
368,-0.101368419826031,-0.114314891397953,-0.105751715600491,-0.0916005074977875,-0.0529765710234642,-0.106277480721474
369,-0.101522721350193,-0.107516959309578,-0.108695186674595,-0.0888239219784737,-0.0566208437085152,-0.0967660918831825
370,-0.0963779017329216,-0.0987762734293938,-0.108646407723427,-0.0821801796555519,-0.0559577606618404,-0.081517405807972
371,-0.089011162519455,-0.0910452678799629,-0.107339955866337,-0.074926532804966,-0.0504622682929039,-0.0672538504004478
372,-0.084367074072361,-0.0874834358692169,-0.110082536935806,-0.0732113718986511,-0.0453226938843727,-0.0621979236602783
373,-0.0825865790247917,-0.0867935121059418,-0.116394892334938,-0.0766039341688156,-0.0448733381927013,-0.0655598565936089
374,-0.0787491276860237,-0.0832286104559898,-0.119689725339413,-0.0781453996896744,-0.0474431291222572,-0.0680029168725014
375,-0.0700870528817177,-0.0737207755446434,-0.115629941225052,-0.0744345784187317,-0.049975860863924,-0.0659767910838127
376,-0.0615092180669308,-0.0633717104792595,-0.108275435864925,-0.0709667205810547,-0.0542510747909546,-0.0665098801255226
377,-0.057780422270298,-0.0566125176846981,-0.102253988385201,-0.0720725432038307,-0.0599897392094135,-0.0725633949041367
378,-0.0575928092002869,-0.0523334182798862,-0.0970076620578766,-0.0758894607424736,-0.0622058212757111,-0.0793228447437286
379,-0.0570421926677227,-0.0479883328080177,-0.090353362262249,-0.0788559764623642,-0.0561358369886875,-0.0826308354735374
380,-0.0553667061030865,-0.0443494506180286,-0.0837923362851143,-0.0806017741560936,-0.0434531569480896,-0.084033727645874
381,-0.0531984157860279,-0.0431059263646603,-0.0792783871293068,-0.0816750004887581,-0.0307326540350914,-0.0860315337777138
382,-0.0498993024230003,-0.0423470325767994,-0.075765036046505,-0.0802966803312302,-0.0224954262375832,-0.0866923928260803
383,-0.0474276579916477,-0.0409700088202953,-0.0757678598165512,-0.0779841840267181,-0.0215206257998943,-0.0854839831590652
384,-0.0469322837889194,-0.03906624391675,-0.0827569216489792,-0.0779769569635391,-0.0263980813324451,-0.0836709141731262
385,-0.0474109053611755,-0.03746322914958,-0.0966597273945808,-0.0824216976761818,-0.034254752099514,-0.0836897641420364
386,-0.0464865379035473,-0.0356790870428085,-0.111985102295876,-0.0900399163365364,-0.0431975983083248,-0.0864844173192978
387,-0.0381205230951309,-0.0274297520518303,-0.117468327283859,-0.0924240127205849,-0.0471754632890224,-0.085208922624588
388,-0.0182688441127539,-0.00810893625020981,-0.108544021844864,-0.0833762511610985,-0.041630357503891,-0.0749051123857498
389,0.0109201073646545,0.0180710181593895,-0.0924087837338448,-0.0663787797093391,-0.0297324433922768,-0.0610354170203209
390,0.0440685488283634,0.0423028729856014,-0.0788150355219841,-0.050495482981205,-0.019640427082777,-0.0523359701037407
391,0.0779295116662979,0.0594510845839977,-0.0726151540875435,-0.0429515205323696,-0.0175768416374922,-0.0519130975008011
392,0.112445637583733,0.0700865760445595,-0.0735984072089195,-0.044565711170435,-0.0231262743473053,-0.0568788349628448
393,0.148320108652115,0.0776558443903923,-0.0784149393439293,-0.0510385818779469,-0.0302594304084778,-0.0636309608817101
394,0.186643436551094,0.0877143070101738,-0.0813943818211555,-0.0557723417878151,-0.0318895503878593,-0.0689658671617508
395,0.226062998175621,0.103926464915276,-0.0801034495234489,-0.0557476989924908,-0.0276487004011869,-0.0713662207126617
396,0.262818843126297,0.125817164778709,-0.0767036899924278,-0.0540594048798084,-0.0224927179515362,-0.0726418420672417
397,0.294388175010681,0.150547564029694,-0.0740795806050301,-0.0548575557768345,-0.0197242964059114,-0.0758454576134682
398,0.319349855184555,0.174045369029045,-0.0744146406650543,-0.0589750371873379,-0.0199099238961935,-0.0821881517767906
399,0.336637526750565,0.19456185400486,-0.077669657766819,-0.0637743175029755,-0.02222640812397,-0.08823461830616
400,0.345842719078064,0.212150022387505,-0.0841188803315163,-0.0679415017366409,-0.0282701160758734,-0.0900880247354507
401,0.349770367145538,0.227700650691986,-0.0928704291582108,-0.0711824893951416,-0.0387107953429222,-0.0866910070180893
402,0.355611175298691,0.245039954781532,-0.0971595346927643,-0.070773683488369,-0.0469721630215645,-0.0777012705802917
403,0.367560803890228,0.266563832759857,-0.0918967127799988,-0.0658934488892555,-0.0472464114427567,-0.0650649592280388
404,0.381868034601212,0.289361178874969,-0.0807510018348694,-0.0595839768648148,-0.042278315871954,-0.0530582033097744
405,0.393649607896805,0.309791803359985,-0.069542370736599,-0.0538745671510696,-0.035942692309618,-0.0435001887381077
406,0.400722205638886,0.325958669185638,-0.0616359300911427,-0.0498612783849239,-0.0300223212689161,-0.0362064391374588
407,0.401954025030136,0.336502820253372,-0.0588035397231579,-0.0483638681471348,-0.0271689146757126,-0.032316442579031
408,0.39898157119751,0.342691838741302,-0.0593361370265484,-0.0473561994731426,-0.0265136621892452,-0.0322724804282188
409,0.394212484359741,0.345771431922913,-0.0618828497827053,-0.0468546599149704,-0.0268831010907888,-0.0365690067410469
410,0.390863865613937,0.346112936735153,-0.0646650493144989,-0.0474643968045712,-0.0290203057229519,-0.0425889492034912
411,0.392002403736115,0.344041705131531,-0.0634872987866402,-0.0467970110476017,-0.03203259781003,-0.0443336516618729
412,0.395378679037094,0.337269425392151,-0.0582919903099537,-0.0445937253534794,-0.0349610149860382,-0.04122469201684
413,0.396766781806946,0.324629127979279,-0.053689256310463,-0.0431556366384029,-0.036566287279129,-0.0367649495601654
414,0.39317199587822,0.30701819062233,-0.0553381331264973,-0.0460022203624249,-0.0376321449875832,-0.0350630208849907
415,0.384336292743683,0.28631979227066,-0.0638619363307953,-0.0538302101194859,-0.0402559340000153,-0.0382837615907192
416,0.374211758375168,0.26724910736084,-0.0730220600962639,-0.0609340667724609,-0.0428687632083893,-0.0421836338937283
417,0.368350625038147,0.25566303730011,-0.0756921991705894,-0.0605207495391369,-0.0404930151998997,-0.0391228906810284
418,0.36793240904808,0.251814931631088,-0.0705740973353386,-0.053474135696888,-0.0324037745594978,-0.0286996532231569
419,0.367658019065857,0.249071016907692,-0.063760869204998,-0.0480460859835148,-0.0259945392608643,-0.0201257076114416
420,0.364192932844162,0.24297708272934,-0.0617374815046787,-0.0488422773778439,-0.0262447334825993,-0.0191405322402716
421,0.359645992517471,0.234007760882378,-0.0650515034794807,-0.0526116266846657,-0.0297388974577188,-0.0216388385742903
422,0.355747222900391,0.222706273198128,-0.0696783810853958,-0.0551631599664688,-0.0321212634444237,-0.0226437300443649
423,0.352379530668259,0.2086001932621,-0.0730525702238083,-0.0562823936343193,-0.0325732864439487,-0.0231292359530926
424,0.347848773002625,0.191372588276863,-0.0772414654493332,-0.0589289888739586,-0.0333236567676067,-0.0272025484591722
425,0.33980056643486,0.171359077095985,-0.0845512747764587,-0.065205030143261,-0.0369814373552799,-0.0365156680345535
426,0.330885946750641,0.15157924592495,-0.0912360474467278,-0.0714797228574753,-0.0406059473752975,-0.0469487868249416
427,0.325388580560684,0.134962752461433,-0.0931959971785545,-0.0732724815607071,-0.0408700034022331,-0.0537693426012993
428,0.323729664087296,0.121509455144405,-0.0910802856087685,-0.070197582244873,-0.0392931774258614,-0.055687103420496
429,0.324256658554077,0.109979830682278,-0.0870210975408554,-0.0637913569808006,-0.0385231859982014,-0.0529408939182758
430,0.323734551668167,0.097208671271801,-0.0847398042678833,-0.0580377094447613,-0.042372602969408,-0.048640888184309
431,0.322005718946457,0.0816004350781441,-0.0854272171854973,-0.0557154193520546,-0.0508870221674442,-0.0459962040185928
432,0.322289913892746,0.0651281550526619,-0.0863171219825745,-0.0556671805679798,-0.0580650568008423,-0.0455786176025867
433,0.324122905731201,0.0490302890539169,-0.086437463760376,-0.0568079985678196,-0.0595610402524471,-0.047531746327877
434,0.324623942375183,0.0336137823760509,-0.0856888592243195,-0.0580980777740479,-0.0559028163552284,-0.0504204779863358
435,0.324836224317551,0.0203847605735064,-0.0815354064106941,-0.0559364072978497,-0.0497517660260201,-0.0497302785515785
436,0.327537924051285,0.0104695241898298,-0.0717691332101822,-0.0476479828357697,-0.0443294458091259,-0.0421824865043163
437,0.330732941627502,0.00171793333720416,-0.0590724349021912,-0.0368914231657982,-0.0434622764587402,-0.032153308391571
438,0.330171823501587,-0.0095050698146224,-0.0498833358287811,-0.0304225273430347,-0.0487289167940617,-0.0287825409322977
439,0.325387358665466,-0.0228559151291847,-0.0470734611153603,-0.0294798891991377,-0.0556559450924397,-0.0342390350997448
440,0.317163348197937,-0.0372603461146355,-0.0482062585651875,-0.0315943956375122,-0.0599059201776981,-0.0440617650747299
441,0.305130749940872,-0.0549171008169651,-0.0497790649533272,-0.0356525518000126,-0.0621432438492775,-0.0550539307296276
442,0.29033038020134,-0.0765715762972832,-0.0511223338544369,-0.0398197248578072,-0.0624045804142952,-0.0647325292229652
443,0.276602298021317,-0.0986153855919838,-0.0536772236227989,-0.0404588170349598,-0.0583442747592926,-0.0694027096033096
444,0.2682044506073,-0.117565743625164,-0.0571990981698036,-0.0366742610931396,-0.050008051097393,-0.068030409514904
445,0.265720695257187,-0.133586004376411,-0.0596937425434589,-0.0320258848369122,-0.0400622002780437,-0.0641223713755608
446,0.268256843090057,-0.144646286964417,-0.0565789565443993,-0.0258979126811028,-0.0277872681617737,-0.0571566894650459
447,0.27263006567955,-0.149678468704224,-0.0473607033491135,-0.0159058216959238,-0.0144494697451591,-0.0451532751321793
448,0.272551953792572,-0.154094696044922,-0.0393189266324043,-0.00627892278134823,-0.00703644845634699,-0.0332842133939266
449,0.265601933002472,-0.162213698029518,-0.037074901163578,-0.00204477529041469,-0.00883174501359463,-0.0273342542350292
450,0.255435407161713,-0.172640278935432,-0.0371014215052128,-0.00223482679575682,-0.0146536594256759,-0.0264632683247328
451,0.245518311858177,-0.183735057711601,-0.0351927317678928,-0.00425851345062256,-0.0184316523373127,-0.0278609599918127
452,0.235009849071503,-0.19776913523674,-0.033318605273962,-0.00885333400219679,-0.0205005053430796,-0.0318615064024925
453,0.224711060523987,-0.213667333126068,-0.0320968218147755,-0.0140274651348591,-0.0202050656080246,-0.0358102135360241
454,0.216680720448494,-0.226666837930679,-0.0298144202679396,-0.0156508311629295,-0.0159989092499018,-0.0355422273278236
455,0.210226029157639,-0.235005170106888,-0.0275202039629221,-0.0130104152485728,-0.00988206267356873,-0.0315475948154926
456,0.20494632422924,-0.239637598395348,-0.0256072357296944,-0.00700190057978034,-0.00308752944692969,-0.0259792730212212
457,0.20027069747448,-0.243710905313492,-0.0244336016476154,4.43420030933339E-05,0.00259905331768095,-0.0208624135702848
458,0.195348963141441,-0.250442206859589,-0.0248874146491289,0.00500868633389473,0.00546913780272007,-0.0177932493388653
459,0.189038336277008,-0.262015849351883,-0.0280436500906944,0.00478253792971373,0.00541861448436975,-0.0191076118499041
460,0.177942752838135,-0.279692530632019,-0.0359677635133266,-0.00326281203888357,0.000532893172930926,-0.0273305531591177
461,0.163104146718979,-0.298223108053207,-0.0451190024614334,-0.0144886849448085,-0.00828449428081512,-0.0374587923288345
462,0.151773348450661,-0.309041857719421,-0.0483529679477215,-0.0199582632631063,-0.0147206783294678,-0.0400075875222683
463,0.146591007709503,-0.311200022697449,-0.0463492684066296,-0.0192144624888897,-0.0160232130438089,-0.0334004946053028
464,0.146322444081306,-0.306409239768982,-0.0409698821604252,-0.0150162614881992,-0.0114360535517335,-0.020503468811512
465,0.1484604626894,-0.296699017286301,-0.0315235555171967,-0.00797676760703325,-0.00186178192961961,-0.00636617466807365
466,0.147067904472351,-0.288790851831436,-0.0225235540419817,-0.00126581324730068,0.00488895550370216,0.000719071133062243
467,0.140466138720512,-0.285596400499344,-0.0176247172057629,0.00358962919563055,0.00512748444452882,-0.00131230789702386
468,0.132562443614006,-0.284135490655899,-0.0155529361218214,0.00788339786231518,0.0033736324403435,-0.0080878809094429
469,0.126716956496239,-0.28215816617012,-0.0139235742390156,0.0126763619482517,0.00314708636142313,-0.0136855794116855
470,0.122356683015823,-0.281085997819901,-0.0127794900909066,0.0172788016498089,0.00328836170956492,-0.014687261544168
471,0.11314757168293,-0.286095350980759,-0.017539344727993,0.0167554300278425,-0.00250429986044765,-0.0161233302205801
472,0.0959402397274971,-0.297260314226151,-0.0294027552008629,0.00946513283997774,-0.0171034969389439,-0.0222131870687008
473,0.0792858675122261,-0.305500984191895,-0.0391422584652901,0.00257928925566375,-0.0315020084381104,-0.0270151309669018
474,0.0732451975345612,-0.304522633552551,-0.0395063236355782,0.00235151499509811,-0.0356782637536526,-0.0243195053189993
475,0.0789906978607178,-0.294431537389755,-0.0294049680233002,0.0105968164280057,-0.0271613448858261,-0.0112220514565706
476,0.0894309729337692,-0.278654724359512,-0.0108873751014471,0.0259213410317898,-0.00996017828583717,0.011122458614409
477,0.0952003672719002,-0.264318287372589,0.00935819186270237,0.0414554476737976,0.00659062247723341,0.0317597091197968
478,0.0920672491192818,-0.256462723016739,0.0239694211632013,0.0499871335923672,0.0154375461861491,0.0397369749844074
479,0.0824168100953102,-0.253877222537994,0.0297718103975058,0.0508695058524609,0.0176424738019705,0.0357783697545528
480,0.0719176307320595,-0.25201016664505,0.0287273731082678,0.048823356628418,0.0182594247162342,0.0288529973477125
481,0.0640723258256912,-0.24830074608326,0.0240741446614265,0.0476083755493164,0.0195536985993385,0.0263962429016829
482,0.0575480498373508,-0.245119109749794,0.0164308566600084,0.0472429543733597,0.0201935824006796,0.0294055175036192
483,0.0496823973953724,-0.245311319828033,0.00684857228770852,0.0464269071817398,0.0199378468096256,0.0345702581107616
484,0.0415363125503063,-0.247176140546799,-0.000707912491634488,0.0454828292131424,0.0222705081105232,0.0391310006380081
485,0.0361686274409294,-0.247945785522461,-0.00361869670450687,0.0456622838973999,0.0285837650299072,0.0418659709393978
486,0.033019844442606,-0.24775904417038,-0.00420953007414937,0.0463585630059242,0.0331147499382496,0.0418884456157684
487,0.0284883063286543,-0.248516082763672,-0.00754974456503987,0.0452151224017143,0.027989724650979,0.0393225401639938
488,0.0203606188297272,-0.251905679702759,-0.0160879474133253,0.0404261648654938,0.0112838661298156,0.0338720008730888
489,0.0122468927875161,-0.25567752122879,-0.0250520277768373,0.0348227582871914,-0.00830758176743984,0.0272690802812576
490,0.00901582278311253,-0.25620773434639,-0.0276150498539209,0.0328184179961681,-0.0201036911457777,0.0228620674461126
491,0.00858388282358646,-0.254017561674118,-0.0224924404174089,0.0344895385205746,-0.0224254857748747,0.0199421029537916
492,0.00680832145735621,-0.249745115637779,-0.0124832084402442,0.0393422059714794,-0.0184027645736933,0.0177848227322102
493,0.00437134318053722,-0.241712033748627,-0.00176566722802818,0.0472981594502926,-0.0100526390597224,0.0183474998921156
494,0.00384353683330119,-0.229639619588852,0.00674222223460674,0.056451503187418,0.00182807759847492,0.0220475848764181
495,0.00435605086386204,-0.216434761881828,0.0127907153218985,0.0641737803816795,0.0146322911605239,0.026976902037859
496,0.00161347829271108,-0.206773012876511,0.0162730701267719,0.0676438584923744,0.0233344510197639,0.030450738966465
497,-0.00730369472876191,-0.203895807266235,0.0166656877845526,0.0654589459300041,0.0260264202952385,0.0310078151524067
498,-0.0186591818928719,-0.204814285039902,0.0169648453593254,0.0612029023468494,0.0279758088290691,0.0320221669971943
499,-0.0256069898605347,-0.202979236841202,0.0213539004325867,0.060207799077034,0.0347083546221256,0.0381530337035656
500,-0.0274396575987339,-0.198119565844536,0.0274100359529257,0.0620806962251663,0.0420862399041653,0.046428021043539
501,-0.0281525775790215,-0.195604726672173,0.0292858369648457,0.0623730756342411,0.0416853912174702,0.049312848597765
502,-0.0285476427525282,-0.195615917444229,0.0265558082610369,0.06105737388134,0.0339373052120209,0.0459115579724312
503,-0.0262140072882175,-0.190954715013504,0.0248039737343788,0.0643169283866882,0.0283506438136101,0.0438181944191456
504,-0.0236210152506828,-0.180847525596619,0.0250366069376469,0.0721650719642639,0.0288767069578171,0.0446823723614216
505,-0.0275255143642426,-0.17368246614933,0.0215309839695692,0.0758499652147293,0.0309559796005487,0.0398975536227226
506,-0.0393137149512768,-0.17270790040493,0.0139607712626457,0.0721315145492554,0.0328586883842945,0.0277564413845539
507,-0.0551196597516537,-0.174569264054298,0.00736915087327361,0.0652790740132332,0.0353609025478363,0.016144160181284
508,-0.0724041536450386,-0.178258791565895,0.00203792680986226,0.0572787523269653,0.0359355397522449,0.00770704261958599
509,-0.0910668894648552,-0.185522809624672,-0.00651724450290203,0.0456696823239326,0.0304331220686436,-0.00286093074828386
510,-0.109845720231533,-0.195242926478386,-0.0192092135548592,0.0295725036412477,0.0182942375540733,-0.0182495471090078
511,-0.12349184602499,-0.201376467943192,-0.0290146693587303,0.0148442899808288,0.00586258992552757,-0.0324006229639053
512,-0.127195090055466,-0.198685199022293,-0.029147956520319,0.00958218332380056,-0.000347623659763485,-0.0362475588917732
513,-0.124922059476376,-0.190584346652031,-0.0239609722048044,0.0127300499007106,-0.00484161544591188,-0.029615230858326
514,-0.124885380268097,-0.183607056736946,-0.0227142944931984,0.0166345667093992,-0.0160605106502771,-0.0205141566693783
515,-0.128586784005165,-0.178270980715752,-0.0281904023140669,0.0170896127820015,-0.0329145528376102,-0.0150259686633945
516,-0.132967606186867,-0.172507971525192,-0.0370940007269382,0.0124138668179512,-0.0499345660209656,-0.0157174151390791
517,-0.137306898832321,-0.165887802839279,-0.0450894497334957,0.00308547960594296,-0.0648935362696648,-0.0218597911298275
518,-0.140642702579498,-0.157931491732597,-0.0481502078473568,-0.00418832013383508,-0.0743895098567009,-0.0272735711187124
519,-0.139846131205559,-0.147829592227936,-0.0429346524178982,-0.00124122540000826,-0.0731093212962151,-0.0252465941011906
520,-0.135511413216591,-0.137030571699142,-0.0306619256734848,0.011960350908339,-0.0616850145161152,-0.0163336750119925
521,-0.130626618862152,-0.127973854541779,-0.0158742684870958,0.0289124138653278,-0.0463413037359715,-0.00506489956751466
522,-0.126305729150772,-0.122398622334003,-0.00199717353098094,0.043286357074976,-0.0323049798607826,0.00450307223945856
523,-0.124880604445934,-0.123785883188248,0.00664080306887627,0.048952542245388,-0.0238268170505762,0.00729168020188808
524,-0.128837928175926,-0.133660525083542,0.00550481490790844,0.0428269542753696,-0.0233904495835304,0.00217852741479874
525,-0.135887742042542,-0.145673185586929,-0.00396294379606843,0.0303324013948441,-0.0261324103921652,-0.00465558329597116
526,-0.140532523393631,-0.151463702321053,-0.0150102898478508,0.0203247126191854,-0.0230869054794312,-0.00571288261562586
527,-0.140450239181519,-0.150204822421074,-0.0230154693126678,0.0154004907235503,-0.0134743126109242,-5.75821177335456E-05
528,-0.137658894062042,-0.14664514362812,-0.0274319667369127,0.0124107077717781,-0.00500372983515263,0.00624108174815774
529,-0.13449339568615,-0.143967911601067,-0.0285741724073887,0.00965783838182688,-0.00208043679594994,0.00787365343421698
530,-0.132071956992149,-0.141435191035271,-0.025615768507123,0.00963390897959471,-0.00207797857001424,0.00562308402732015
531,-0.130309388041496,-0.13487996160984,-0.0165691990405321,0.0165959279984236,-0.000239868793869391,0.00474140606820583
532,-0.129385828971863,-0.121947690844536,-0.00336652412079275,0.0303325820714235,0.00428755069151521,0.00859479419887066
533,-0.130181968212128,-0.107487089931965,0.00770566845312715,0.0451443903148174,0.00819718465209007,0.0164510421454906
534,-0.131163477897644,-0.0976403281092644,0.015882596373558,0.0580219700932503,0.0119901765137911,0.0270125530660152
535,-0.129845485091209,-0.0925752520561218,0.0257240775972605,0.0694428160786629,0.0195075906813145,0.0397964529693127
536,-0.128042250871658,-0.0917146578431129,0.0338805355131626,0.0754430368542671,0.027752423658967,0.0514477491378784
537,-0.128554463386536,-0.0958916842937469,0.0324575304985046,0.0715289786458015,0.0302752926945686,0.0560055449604988
538,-0.130018755793571,-0.102637119591236,0.0231864806264639,0.0611382983624935,0.0271500386297703,0.0513204596936703
539,-0.131249487400055,-0.109044894576073,0.0136447958648205,0.0502749159932137,0.0217586383223534,0.0390261225402355
540,-0.132847458124161,-0.113540187478065,0.0096329003572464,0.0426748059689999,0.0178025551140308,0.0234826412051916
541,-0.134666442871094,-0.114927858114243,0.0123170847073197,0.0404144451022148,0.0181028116494417,0.0110664889216423
542,-0.13688288629055,-0.113945350050926,0.0168926827609539,0.0425040721893311,0.0200257487595081,0.00427457131445408
543,-0.141360908746719,-0.113736189901829,0.0170929059386253,0.0442890301346779,0.0178845804184675,-0.00109278422314674
544,-0.149026170372963,-0.116804003715515,0.0108297951519489,0.0411170348525047,0.0104925185441971,-0.0105261858552694
545,-0.154874086380005,-0.119936414062977,0.00437215436249971,0.0360394977033138,0.00600983202457428,-0.0212604571133852
546,-0.15263144671917,-0.119380325078964,0.0048391493037343,0.0355067998170853,0.0116420155391097,-0.0254564974457026
547,-0.143586933612823,-0.116966277360916,0.00943764857947826,0.0386173874139786,0.0223073288798332,-0.0214873198419809
548,-0.134142473340034,-0.113941729068756,0.0126123810186982,0.0422720834612846,0.0312728770077229,-0.0125856101512909
549,-0.130062445998192,-0.110288396477699,0.0130814500153065,0.0457328073680401,0.037518173456192,-0.00341537152417004
550,-0.132791355252266,-0.107553906738758,0.0122259017080069,0.0483510904014111,0.0412212498486042,0.00169346539769322
551,-0.139432340860367,-0.105450756847858,0.0128581989556551,0.0514180734753609,0.0429550856351852,0.00279408763162792
552,-0.149783730506897,-0.104815118014812,0.0129372105002403,0.053588043898344,0.0402777530252934,-0.000484148651594296
553,-0.165506571531296,-0.108378581702709,0.007851199246943,0.0502246841788292,0.0305809192359447,-0.0105079114437103
554,-0.183685824275017,-0.11546890437603,-0.00128367310389876,0.0408648997545242,0.0183354653418064,-0.0257616993039846
555,-0.197946265339851,-0.121584989130497,-0.00855896063148975,0.031000854447484,0.0115017062053084,-0.0391861721873283
556,-0.205012589693069,-0.12385219335556,-0.0101501317694783,0.0262520425021648,0.0127934692427516,-0.0444806180894375
557,-0.205397501587868,-0.122700542211533,-0.00717141292989254,0.0283497795462608,0.0200797393918037,-0.0406509786844254
558,-0.199799612164497,-0.118785358965397,-0.00235150661319494,0.0356553457677364,0.0312193799763918,-0.0302991364151239
559,-0.192424237728119,-0.114657089114189,0.000589559087529778,0.0423057228326797,0.0418815538287163,-0.0191378984600306
560,-0.189459905028343,-0.112337395548821,-0.000157838076120242,0.0440119095146656,0.0482549071311951,-0.0099226227030158
561,-0.194150298833847,-0.112558662891388,-0.00389748346060514,0.0404318571090698,0.0488001704216003,-0.00299780047498643
562,-0.205058231949806,-0.115667998790741,-0.00726250978186727,0.0339285731315613,0.0446477048099041,-0.000118390278657898
563,-0.216959938406944,-0.118767626583576,-0.00578041607514024,0.0298166964203119,0.0407735332846642,-0.000684133847244084
564,-0.224036514759064,-0.117183052003384,0.000354893680196255,0.0321413651108742,0.0416983030736446,3.80344208679162E-05
565,-0.222698897123337,-0.108472809195518,0.00897858198732138,0.0410273820161819,0.0485110394656658,0.00721030868589878
566,-0.215460404753685,-0.0960354804992676,0.0171012785285711,0.0512625724077225,0.0577931627631187,0.0182437021285295
567,-0.210184946656227,-0.0878609418869019,0.0185695588588715,0.0544294193387032,0.0628712996840477,0.0226212702691555
568,-0.212026506662369,-0.0881765931844711,0.0117488177493215,0.048218060284853,0.0592099241912365,0.0145861646160483
569,-0.216984570026398,-0.0916040688753128,0.00424147350713611,0.0403750389814377,0.0502525269985199,0.00150636350736022
570,-0.218531772494316,-0.0912429541349411,0.00106272601988167,0.0379618108272552,0.0425392426550388,-0.00726308859884739
571,-0.217010393738747,-0.0873827934265137,-0.000574958801735193,0.0401374213397503,0.0384154729545116,-0.0112813953310251
572,-0.217456877231598,-0.0842428579926491,-0.0045818337239325,0.0416646338999271,0.0360038056969643,-0.014774446375668
573,-0.221145644783974,-0.0834588930010796,-0.0118957106024027,0.0389911755919456,0.0310937575995922,-0.0201016776263714
574,-0.223233297467232,-0.0828787684440613,-0.0201935116201639,0.0337249115109444,0.021039942279458,-0.026483615860343
575,-0.218878835439682,-0.0798633173108101,-0.025807486847043,0.0297985654324293,0.00860895775258541,-0.0311412438750267
576,-0.208659335970879,-0.0741134062409401,-0.0262236185371876,0.0290268491953611,-0.000319755228701979,-0.0324873775243759
577,-0.197746187448502,-0.0677231326699257,-0.0226694382727146,0.0299214422702789,-0.00318275135941803,-0.0322333350777626
578,-0.191696286201477,-0.0633956789970398,-0.018196027725935,0.0302436240017414,-0.00156617723405361,-0.0322585105895996
579,-0.193877428770065,-0.0627884045243263,-0.0137210702523589,0.0287970639765263,0.00227754912339151,-0.0327337123453617
580,-0.204450964927673,-0.0657273530960083,-0.00998362340033054,0.0250298120081425,0.00660966942086816,-0.0337673351168633
581,-0.219191387295723,-0.0693367198109627,-0.00905452203005552,0.0200904402881861,0.011183237656951,-0.0347435735166073
582,-0.232195794582367,-0.0698576048016548,-0.011472343467176,0.0165515150874853,0.0173892881721258,-0.0339377708733082
583,-0.239790022373199,-0.0665416866540909,-0.0152911730110645,0.0162542425096035,0.0265265796333551,-0.0305230505764484
584,-0.240015178918839,-0.0603744946420193,-0.0163738206028938,0.0203139949589968,0.0389684550464153,-0.0242264345288277
585,-0.233227342367172,-0.0526535846292973,-0.0124855181202292,0.0282358415424824,0.0515851750969887,-0.0157206747680902
586,-0.222469791769981,-0.044750988483429,-0.00615252275019884,0.0384746976196766,0.0597394928336143,-0.00612985296174884
587,-0.212145417928696,-0.0372116304934025,-0.000981520744971931,0.0489507541060448,0.0622855462133884,0.00256752362474799
588,-0.205511048436165,-0.0300583690404892,0.000132042987388559,0.0557125993072987,0.0595426671206951,0.00580535875633359
589,-0.202437326312065,-0.023139588534832,-0.00498839467763901,0.055649172514677,0.0503263399004936,0.000451744213933125
590,-0.201003313064575,-0.018862672150135,-0.0154414195567369,0.0494059287011623,0.0338401794433594,-0.0107164131477475
591,-0.199482202529907,-0.0198002997785807,-0.0257194079458714,0.0416444800794125,0.0144371595233679,-0.0199035350233316
592,-0.197746500372887,-0.0232087094336748,-0.0305053107440472,0.0375775918364525,0.00116978981532156,-0.0216621868312359
593,-0.197431161999702,-0.0252177342772484,-0.0302689988166094,0.0370795913040638,-0.00062383827753365,-0.0187088083475828
594,-0.201184615492821,-0.0264727268368006,-0.0293406005948782,0.0355468466877937,0.00544090522453189,-0.0183849316090345
595,-0.207150906324387,-0.0268205124884844,-0.0280894190073013,0.033372163772583,0.015513701364398,-0.0225954782217741
596,-0.208630338311195,-0.0233695786446333,-0.0235190540552139,0.034661527723074,0.0289332065731287,-0.0265883821994066
597,-0.203941479325294,-0.0168869700282812,-0.0155756454914808,0.0380151197314262,0.0410012006759644,-0.0278375502675772
598,-0.197098672389984,-0.010806430131197,-0.00616116309538484,0.0398755669593811,0.045952320098877,-0.0272063594311476
599,-0.190350264310837,-0.00591994309797883,0.00297506269998848,0.0410458743572235,0.0439308620989323,-0.0238805040717125
600,-0.183320820331573,-0.00123441079631448,0.00940460525453091,0.0439296066761017,0.0389977023005486,-0.0172282885760069
601,-0.17764151096344,0.00124962232075632,0.00855678599327803,0.0458382479846478,0.0319392792880535,-0.0125755667686462
602,-0.174817740917206,6.9167603214737E-05,-0.000220610469114035,0.0439463667571545,0.0236190389841795,-0.0141245732083917
603,-0.17349037528038,-0.00251191994175315,-0.0106319133192301,0.0408315919339657,0.0180997233837843,-0.0181706286966801
604,-0.172782078385353,-0.0051456680521369,-0.0181658640503883,0.0382408611476421,0.0157773625105619,-0.0202779080718756
605,-0.173957586288452,-0.00951211806386709,-0.0235101561993361,0.034475538879633,0.0133971488103271,-0.0210658982396126
606,-0.178044319152832,-0.0174545366317034,-0.0264293607324362,0.0298279374837875,0.0110100246965885,-0.0219967998564243
607,-0.182411521673203,-0.0250007919967175,-0.0221123676747084,0.0285469200462103,0.0148387821391225,-0.0196999777108431
608,-0.18230776488781,-0.0256114918738604,-0.00887048244476318,0.0324236489832401,0.0288546122610569,-0.0109477508813143
609,-0.176878035068512,-0.0206835344433784,0.00431951368227601,0.036951195448637,0.045207392424345,-0.00105991563759744
610,-0.171094909310341,-0.0174636524170637,0.0058353990316391,0.0364781878888607,0.0505032129585743,0.000120172233437188
611,-0.169937610626221,-0.0189775805920362,-0.00617177179083228,0.0306772254407406,0.0395484007894993,-0.00959660764783621
612,-0.171794936060905,-0.0209271647036076,-0.021496195346117,0.0244199186563492,0.0200137794017792,-0.0219002608209848
613,-0.17098867893219,-0.0172800123691559,-0.026966055855155,0.0238669905811548,0.00513905193656683,-0.0262035764753819
614,-0.165122300386429,-0.0068690050393343,-0.018655888736248,0.0325307287275791,0.00243813917040825,-0.0168998166918755
615,-0.15561056137085,0.00716277630999684,-0.00287334178574383,0.0481914877891541,0.0102365203201771,0.00332769099622965
616,-0.146647617220879,0.0198252499103546,0.00999765563756227,0.0627773702144623,0.0204948280006647,0.0223122667521238
617,-0.142540961503983,0.02883605286479,0.0136697068810463,0.0698339343070984,0.0256858728826046,0.0290266834199429
618,-0.142513290047646,0.0376173332333565,0.0114615214988589,0.0712578594684601,0.0256046839058399,0.0250796731561422
619,-0.143391773104668,0.0480404756963253,0.00961616169661283,0.0714699476957321,0.0245484784245491,0.0184365082532167
620,-0.143587097525597,0.0570610724389553,0.00980721414089203,0.0719937607645988,0.0260617025196552,0.0139585100114346
621,-0.142214119434357,0.0614930056035519,0.0104368543252349,0.0726391598582268,0.0308737028390169,0.0124079324305058
622,-0.13812854886055,0.0607995465397835,0.0108183212578297,0.0730741918087006,0.0367857590317726,0.0134512688964605
623,-0.131718799471855,0.0559504479169846,0.0109921311959624,0.0723175257444382,0.0399079658091068,0.0154773956164718
624,-0.127091005444527,0.0471508428454399,0.00932539161294699,0.0681298300623894,0.0365186482667923,0.0145281124860048
625,-0.127327054738998,0.0352893844246864,0.00590665172785521,0.0611465573310852,0.0280286949127913,0.00992761459201574
626,-0.131227120757103,0.0230434853583574,0.00408904207870364,0.0546892806887627,0.0214452482759953,0.00540710147470236
627,-0.13655698299408,0.0129723967984319,0.00731905596330762,0.0513751059770584,0.0243087746202946,0.00398998195305467
628,-0.140522569417953,0.00686645228415728,0.0179434511810541,0.0534493327140808,0.0409043543040752,0.00774517236277461
629,-0.141554892063141,0.00551757123321295,0.0337814427912235,0.0601489767432213,0.0665408968925476,0.017393184825778
630,-0.140682891011238,0.00954722985625267,0.0483728311955929,0.0686661005020142,0.0888019353151321,0.0312612242996693
631,-0.138422220945358,0.0182009506970644,0.0569285191595554,0.0778341442346573,0.0985323190689087,0.0458739548921585
632,-0.135606408119202,0.0256851147860289,0.0566367655992508,0.0843043476343155,0.0930574014782906,0.0546939335763454
633,-0.132790580391884,0.0261084865778685,0.0474298559129238,0.0839274674654007,0.0755296945571899,0.053472213447094
634,-0.127793595194817,0.0211234036833048,0.0349463857710361,0.0782683491706848,0.0551001913845539,0.0462026782333851
635,-0.120564341545105,0.0156351756304502,0.024598116055131,0.0708005204796791,0.0382542945444584,0.037812851369381
636,-0.11650588363409,0.0107588907703757,0.0161841325461864,0.0620529018342495,0.0244323685765266,0.0281679145991802
637,-0.121801175177097,0.00468065217137337,0.00654365308582783,0.0512751527130604,0.011957511305809,0.0151944663375616
638,-0.132432475686073,-0.000704681209754199,-0.00273781176656485,0.0420987829566002,0.00641787191852927,0.00216178805567324
639,-0.134472846984863,0.000475976121379063,-0.0032811020500958,0.0418013595044613,0.0182643067091703,-0.00307703414000571
640,-0.122298568487167,0.00980511680245399,0.0089210020378232,0.0513960979878902,0.0470339544117451,0.00117123732343316
641,-0.105113320052624,0.0226516593247652,0.0274473130702972,0.0644279345870018,0.0778285935521126,0.00960438884794712
642,-0.0931467786431313,0.0344876833260059,0.0440856255590916,0.0755084007978439,0.0963349193334579,0.0194416474550962
643,-0.0886432379484177,0.0440402626991272,0.0550767071545124,0.0834506899118423,0.0990127623081207,0.0311477743089199
644,-0.0889388173818588,0.0511920936405659,0.0598950646817684,0.0883973687887192,0.0894870162010193,0.0424345657229424
645,-0.0901250392198563,0.056500431150198,0.0607601962983608,0.0912857875227928,0.0733063519001007,0.0506331585347652
646,-0.0903596505522728,0.0598098114132881,0.0593020021915436,0.0917116478085518,0.054460771381855,0.0532433167099953
647,-0.090943843126297,0.0592657066881657,0.0549373216927052,0.0877547189593315,0.0353093706071377,0.0475986301898956
648,-0.0947151407599449,0.0536254197359085,0.0478200688958168,0.0797611102461815,0.0173620991408825,0.0349574014544487
649,-0.102316178381443,0.0448173731565475,0.0409396179020405,0.0706113055348396,0.00307385344058275,0.0207809489220381
650,-0.109843745827675,0.0380719751119614,0.0393120050430298,0.0648363754153252,-0.00161715073045343,0.0131129380315542
651,-0.112853191792965,0.0379182174801826,0.0452932827174664,0.0661490187048912,0.00651266984641552,0.0167818032205105
652,-0.111854203045368,0.0422454513609409,0.0531025603413582,0.0714976415038109,0.0199087671935558,0.0255402252078056
653,-0.111122876405716,0.0446810945868492,0.0545892678201199,0.0739535316824913,0.027003962546587,0.0282165985554457
654,-0.110954999923706,0.0452484972774982,0.0509679168462753,0.072811670601368,0.0281391851603985,0.0238578375428915
655,-0.106228411197662,0.0503099039196968,0.0482946038246155,0.0726955756545067,0.0348693653941154,0.02175622433424
656,-0.097157433629036,0.0599469132721424,0.0456982739269733,0.0734466537833214,0.0504412055015564,0.0246129352599382
657,-0.0927363857626915,0.0660031884908676,0.0389007292687893,0.0695962756872177,0.0645013302564621,0.0241081230342388
658,-0.0978130847215652,0.0645136833190918,0.028833294287324,0.060085516422987,0.0687730759382248,0.0156023325398564
659,-0.106907725334167,0.0610128790140152,0.019501656293869,0.0501843728125095,0.0654745846986771,0.00435441918671131
660,-0.112872406840324,0.0619888417422771,0.0122713008895516,0.043759498745203,0.0593173950910568,-0.00315112620592117
661,-0.112818837165833,0.0686628445982933,0.00696147512644529,0.0410333462059498,0.0510336011648178,-0.00483078276738524
662,-0.106027610599995,0.0794282779097557,0.00543791987001896,0.0424434542655945,0.0410348363220692,-0.000432575441664085
663,-0.0946371629834175,0.091233029961586,0.00899908598512411,0.0480223335325718,0.0304835438728333,0.00855906587094069
664,-0.0854649990797043,0.0998375564813614,0.0157049298286438,0.0544425249099731,0.0195863228291273,0.0174542646855116
665,-0.0850747302174568,0.102029368281364,0.0213577300310135,0.056271955370903,0.00800470728427172,0.0208489149808884
666,-0.0919973030686378,0.100394055247307,0.0240503288805485,0.0536325424909592,-0.00198504538275301,0.0186235383152962
667,-0.0997629091143608,0.100513108074665,0.0253754332661629,0.0516207329928875,-0.00722651183605194,0.0153390243649483
668,-0.103415206074715,0.105762340128422,0.0290991440415382,0.0544410906732082,-0.00580251589417458,0.0165076646953821
669,-0.100173458456993,0.116972476243973,0.0381713919341564,0.0632576644420624,0.00366060854867101,0.0251419730484486
670,-0.0951613038778305,0.125502735376358,0.0448761060833931,0.068315252661705,0.0145370895043015,0.0311157014220953
671,-0.0942087322473526,0.122837588191032,0.0409678295254707,0.0600313581526279,0.0201544370502234,0.022676907479763
672,-0.0927375108003616,0.11622542142868,0.0323709398508072,0.0462224371731281,0.0242769327014685,0.00673864549025893
673,-0.0858307927846909,0.115968398749828,0.0273126419633627,0.0388364493846893,0.0290467590093613,-0.00294547085650265
674,-0.0749696046113968,0.123251646757126,0.0267774816602468,0.0400491058826447,0.0318520329892635,-0.0012277050409466
675,-0.0651549249887466,0.134774222970009,0.0289534199982882,0.0453785285353661,0.0321654565632343,0.0091487281024456
676,-0.0622785277664661,0.146953970193863,0.0316131189465523,0.0488475523889065,0.0295046530663967,0.0210410244762897
677,-0.0681155696511269,0.155619218945503,0.0313931293785572,0.0471687652170658,0.0223479084670544,0.0269234180450439
678,-0.0767902806401253,0.158933386206627,0.0280147586017847,0.043245654553175,0.0129684014245868,0.0256375502794981
679,-0.081026092171669,0.159585282206535,0.0254490319639444,0.0418894290924072,0.00600244756788015,0.0228491127490997
680,-0.0804423317313194,0.159368559718132,0.0247824266552925,0.0426357984542847,0.00283237476833165,0.0222643688321114
681,-0.0785455256700516,0.157374709844589,0.0234278384596109,0.0424530617892742,0.00182674289681017,0.0222248937934637
682,-0.077944815158844,0.153045862913132,0.0204479414969683,0.0407687909901142,0.000703715602867305,0.0194525495171547
683,-0.079340323805809,0.148232504725456,0.0179393459111452,0.03980902582407,-0.000398698059143499,0.0135864308103919
684,-0.0814372003078461,0.144782826304436,0.0178125612437725,0.0408996269106865,0.00069448648719117,0.00638788705691695
685,-0.0848987326025963,0.139717042446136,0.0185154024511576,0.0404625199735165,0.00411915080621839,-0.00368473352864385
686,-0.0919874384999275,0.129863291978836,0.0169732663780451,0.0350074805319309,0.00942389853298664,-0.0179246757179499
687,-0.10203505307436,0.117914848029613,0.0118397604674101,0.026011923328042,0.0152439428493381,-0.0316535942256451
688,-0.111557692289352,0.109692364931107,0.00468854838982224,0.0175645146518946,0.0172980986535549,-0.0381313562393188
689,-0.11892319470644,0.106241680681705,-0.00286220456473529,0.0115548670291901,0.0105391051620245,-0.0373428799211979
690,-0.127202749252319,0.101190738379955,-0.0131891341879964,0.0042425156570971,-0.00837178714573383,-0.037110947072506
691,-0.139348670840263,0.0891487374901772,-0.0301799736917019,-0.00953742023557425,-0.0372424982488155,-0.0437525846064091
692,-0.152747541666031,0.0727335587143898,-0.0514120608568192,-0.0277211274951696,-0.0660420358181,-0.0562768951058388
693,-0.161067143082619,0.059162262827158,-0.0680933892726898,-0.0421646237373352,-0.0826586931943893,-0.0695648640394211
694,-0.16081777215004,0.0535523965954781,-0.0750802084803581,-0.0488354898989201,-0.0830021500587463,-0.0784870982170105
695,-0.153687551617622,0.0579029880464077,-0.0731324106454849,-0.048340730369091,-0.0712454617023468,-0.0785747319459915
696,-0.144971579313278,0.0692510902881622,-0.0667986422777176,-0.0428910665214062,-0.0550623349845409,-0.0709989294409752
697,-0.139918372035027,0.0796849951148033,-0.0618351250886917,-0.0363198295235634,-0.0423203781247139,-0.0634535476565361
698,-0.138785108923912,0.0841708779335022,-0.0587602034211159,-0.0306216925382614,-0.0351406745612621,-0.0602669678628445
699,-0.13824750483036,0.083940677344799,-0.0537694580852985,-0.0254394263029099,-0.0311781633645296,-0.0593387670814991
700,-0.136711269617081,0.0821243599057198,-0.0459385924041271,-0.0207841768860817,-0.0302728079259396,-0.0580368414521217
701,-0.135441869497299,0.0799134746193886,-0.0388048999011517,-0.0183312520384789,-0.0335394665598869,-0.056952316313982
702,-0.134183987975121,0.0777730196714401,-0.0347309224307537,-0.0185525733977556,-0.0393050312995911,-0.0567768551409245
703,-0.132500872015953,0.0754979848861694,-0.0340539813041687,-0.0201483387500048,-0.0457286797463894,-0.0559304244816303
704,-0.135841488838196,0.0689919665455818,-0.0399989485740662,-0.0253643654286861,-0.054896280169487,-0.0560208596289158
705,-0.146282434463501,0.0569404251873493,-0.0512780137360096,-0.0343900360167027,-0.0653249472379684,-0.0588895566761494
706,-0.155662029981613,0.0472520850598812,-0.0570285394787788,-0.0395736955106258,-0.0681602358818054,-0.059327095746994
707,-0.159111604094505,0.0456209592521191,-0.0534107275307179,-0.0375018455088139,-0.060848418623209,-0.0547070205211639
708,-0.157463923096657,0.05087960511446,-0.0453668311238289,-0.0306032299995422,-0.0472562983632088,-0.0476062372326851
709,-0.150710061192513,0.0605251044034958,-0.0351713411509991,-0.0201162230223417,-0.0295691099017859,-0.0385729596018791
710,-0.141641929745674,0.0688155293464661,-0.0265778005123138,-0.0104188593104482,-0.0143069280311465,-0.0297522693872452
711,-0.132930263876915,0.0706925913691521,-0.0233626868575811,-0.00516880862414837,-0.0084313228726387,-0.0231027845293283
712,-0.125693991780281,0.0660047307610512,-0.0258411671966314,-0.00344122969545424,-0.0128228459507227,-0.0196685362607241
713,-0.121261611580849,0.0586011074483395,-0.0317914299666882,-0.00317555968649685,-0.0239778868854046,-0.0204819440841675
714,-0.116855040192604,0.054082453250885,-0.0356258414685726,-0.00171900575514883,-0.0343758203089237,-0.0233744215220213
715,-0.108738414943218,0.0537487901747227,-0.0347416885197163,0.00160093780141324,-0.0378437303006649,-0.0268971417099237
716,-0.0992441549897194,0.0528361797332764,-0.0329577513039112,0.00384970079176128,-0.0361029356718063,-0.0316893048584461
717,-0.0943117514252663,0.0459299944341183,-0.0335399284958839,0.00164097896777093,-0.0360388420522213,-0.037226963788271
718,-0.0931676402688026,0.0368942730128765,-0.0320474691689014,-0.00118419842328876,-0.0380862690508366,-0.0378270111978054
719,-0.0912856385111809,0.0332403294742107,-0.0253149215131998,0.000695557857397944,-0.0387844741344452,-0.0305036585777998
720,-0.0911884009838104,0.0326776318252087,-0.0197969283908606,0.00270102289505303,-0.0410528257489204,-0.0237721651792526
721,-0.0979174077510834,0.0292805638164282,-0.0197792500257492,-0.000574152509216219,-0.0476144924759865,-0.0254203248769045
722,-0.109717234969139,0.023265365511179,-0.0212328471243382,-0.00648173177614808,-0.0544372424483299,-0.0328569449484348
723,-0.119852758944035,0.0180312842130661,-0.0204892624169588,-0.0107461540028453,-0.0560364201664925,-0.0400065444409847
724,-0.123934581875801,0.0149059304967523,-0.0166403949260712,-0.0111977299675345,-0.0498726367950439,-0.0425644293427467
725,-0.121423035860062,0.0145647944882512,-0.00859871227294207,-0.00531770987436175,-0.0350751653313637,-0.0371921882033348
726,-0.114656127989292,0.0169953890144825,0.00141452194657177,0.00620606634765863,-0.0144399609416723,-0.0253239832818508
727,-0.10722378641367,0.0206438861787319,0.00802032276988029,0.0173758678138256,0.00343869859352708,-0.0136845828965306
728,-0.100974939763546,0.0242197141051292,0.00744853029027581,0.0225838106125593,0.00990493781864643,-0.00804404728114605
729,-0.0958328023552895,0.0253114644438028,-0.000545433082152158,0.0212362464517355,0.00359810213558376,-0.00948058906942606
730,-0.0931745544075966,0.0199414901435375,-0.0145469950512052,0.0143794417381287,-0.0115991346538067,-0.0168202966451645
731,-0.0961206406354904,0.00630861753597856,-0.033464640378952,0.00210879370570183,-0.0322159975767136,-0.0298351310193539
732,-0.104366116225719,-0.0122594889253378,-0.0539739951491356,-0.0118177812546492,-0.0535307675600052,-0.0463598519563675
733,-0.111863508820534,-0.0277937259525061,-0.0684151351451874,-0.0204666703939438,-0.067799985408783,-0.0592419058084488
734,-0.112653687596321,-0.0343366339802742,-0.0714026242494583,-0.0213733203709126,-0.0703891888260841,-0.0624288357794285
735,-0.106199696660042,-0.0329496785998344,-0.0660595148801804,-0.0175240747630596,-0.0635124519467354,-0.0574254356324673
736,-0.0953071862459183,-0.028018107637763,-0.0585029162466526,-0.0121845509856939,-0.053010780364275,-0.0497130826115608
737,-0.0843553319573402,-0.0239067580550909,-0.0528011582791805,-0.00784148927778006,-0.045095682144165,-0.0426071062684059
738,-0.0758278220891953,-0.0217213872820139,-0.0486739091575146,-0.00360418250784278,-0.0412573367357254,-0.0326159596443176
739,-0.0687719061970711,-0.0194454025477171,-0.0432115122675896,0.00255085597746074,-0.0407684296369553,-0.0160637125372887
740,-0.0629570856690407,-0.0162107553333044,-0.035310585051775,0.0086921900510788,-0.0438597425818443,0.00159396720118821
741,-0.059993501752615,-0.0136447055265307,-0.0270009469240904,0.0119131440296769,-0.0484446473419666,0.0110716661438346
742,-0.060616310685873,-0.0136683434247971,-0.0225435923784971,0.0113821281120181,-0.0525274015963078,0.00823541730642319
743,-0.0633933320641518,-0.0166064519435167,-0.0242038518190384,0.00737399281933904,-0.0556519031524658,-0.00490270555019379
744,-0.0671974942088127,-0.0223670303821564,-0.0305591933429241,4.50553925475106E-05,-0.0567002296447754,-0.0237541105598211
745,-0.0711875334382057,-0.0293611120432615,-0.0378872603178024,-0.00830910820513964,-0.0535800158977509,-0.0417383201420307
746,-0.0724883824586868,-0.0338351838290691,-0.0416166335344315,-0.0131417457014322,-0.0448147915303707,-0.0519735962152481
747,-0.0687140375375748,-0.034291323274374,-0.0394459404051304,-0.0130699155852199,-0.0331170670688152,-0.0531414039433002
748,-0.0632205829024315,-0.0339634120464325,-0.0357964150607586,-0.0128053370863199,-0.0271795950829983,-0.0510979481041431
749,-0.0606058351695538,-0.0349206291139126,-0.03687609359622,-0.0161044299602509,-0.0331840626895428,-0.0506700910627842
750,-0.0587196722626686,-0.0347757190465927,-0.0418136268854141,-0.0199090782552958,-0.0479965060949326,-0.0499859340488911
751,-0.0531716607511044,-0.0311850886791945,-0.0454640053212643,-0.0197194740176201,-0.0641611665487289,-0.0463212206959724
752,-0.0441538915038109,-0.0238620601594448,-0.0451461002230644,-0.0148664219304919,-0.0753339901566505,-0.0406100302934647
753,-0.0348149687051773,-0.0137418927624822,-0.0412183739244938,-0.00709978444501758,-0.0791126266121864,-0.0337168537080288
754,-0.0268354378640652,-0.00223415880464017,-0.0341961421072483,0.00237867259420455,-0.0768991336226463,-0.0239606481045485
755,-0.0193649753928185,0.00956137012690306,-0.0245783999562263,0.0133221903815866,-0.0710013583302498,-0.0107411285862327
756,-0.0114275394007564,0.0199999269098043,-0.0149663481861353,0.0242818854749203,-0.0639015957713127,0.00217832205817103
757,-0.00488037103787065,0.0265579465776682,-0.00841750390827656,0.031707338988781,-0.0584557354450226,0.00957561656832695
758,-0.00132439972367138,0.0293256808072329,-0.00361584173515439,0.0349034406244755,-0.0539514198899269,0.0122958850115538
759,0.000886450579855591,0.0303305052220821,0.00165098311845213,0.0372839234769344,-0.0470120795071125,0.0164566561579704
760,0.00168986537028104,0.0284997001290321,0.00389180611819029,0.0398578085005283,-0.0381527207791805,0.0241888631135225
761,-0.00117356004193425,0.0210423339158297,-0.00193533254787326,0.0392967313528061,-0.0317607149481773,0.0305008422583342
762,-0.00730587681755424,0.00850567221641541,-0.0154972784221172,0.0316289365291595,-0.0307672433555126,0.0278802141547203
763,-0.0123181771486998,-0.00222376896999776,-0.0287999901920557,0.0200521666556597,-0.0303758680820465,0.0164637621492147
764,-0.0127535061910748,-0.00418351264670491,-0.0331115908920765,0.0133341606706381,-0.0256169829517603,0.00348133430816233
765,-0.0104835694655776,0.000677353760693222,-0.0287319663912058,0.012661611661315,-0.0227473992854357,-0.00880902074277401
766,-0.00787760131061077,0.00599310919642448,-0.0218951795250177,0.0129717281088233,-0.0289410855621099,-0.0211602803319693
767,-0.00459566293284297,0.00940369907766581,-0.0167631525546312,0.0132066607475281,-0.0419491045176983,-0.0299935676157475
768,0.00108024291694164,0.0144859869033098,-0.0123290158808231,0.0170427039265633,-0.0538044758141041,-0.0295473765581846
769,0.0116889113560319,0.0250311885029078,-0.00482643628492951,0.0263004414737225,-0.0572099685668945,-0.0179724469780922
770,0.0265341345220804,0.0365154519677162,0.00528412032872438,0.0370340310037136,-0.0518381185829639,-0.000595770659856498
771,0.0388942025601864,0.0399854257702827,0.0114406207576394,0.0431605726480484,-0.0440618880093098,0.0141803780570626
772,0.041265893727541,0.0337405689060688,0.00859515741467476,0.0417738743126392,-0.0400728546082973,0.0211720261722803
773,0.0339917317032814,0.0247528236359358,-0.000114395006676205,0.0361457802355289,-0.0405428819358349,0.0221200902014971
774,0.025171622633934,0.0206751171499491,-0.00680477265268564,0.0327018611133099,-0.0406043753027916,0.0229853689670563
775,0.0198667738586664,0.0228111296892166,-0.00788705889135599,0.0331840179860592,-0.0375570319592953,0.0254146754741669
776,0.0149946780875325,0.0268848296254873,-0.00644008535891771,0.0342303439974785,-0.0350265465676785,0.0257351268082857
777,0.00844400282949209,0.0300898887217045,-0.00444913143292069,0.0346514731645584,-0.0348903946578503,0.0230329483747482
778,0.0033619322348386,0.0325854606926441,-0.000924273452255875,0.0362615324556828,-0.0346104502677917,0.0198568645864725
779,0.00145039695780724,0.0349650643765926,0.00275796861387789,0.0402258075773716,-0.0336577445268631,0.0169456470757723
780,0.0029795013833791,0.0379555821418762,0.00424922257661819,0.0457710586488247,-0.0336097814142704,0.014176688157022
781,0.00784836430102587,0.0403242222964764,0.00169961166102439,0.0486088320612907,-0.0356813818216324,0.0109399212524295
782,0.0122330551967025,0.0405020453035831,-0.0045499037951231,0.045135386288166,-0.0402586720883846,0.00618385430425406
783,0.0121027044951916,0.0403751544654369,-0.00987070705741644,0.0385647676885128,-0.0459695309400558,0.00168604764621705
784,0.0067791067995131,0.0405491814017296,-0.0122280800715089,0.0337971970438957,-0.0531583614647388,-0.000192267863894813
785,-0.00276289111934602,0.0382929407060146,-0.013865158893168,0.0312277022749186,-0.0640790387988091,-0.000887011701706797
786,-0.0139974160119891,0.0328740328550339,-0.0145919313654304,0.0294304806739092,-0.0761870890855789,-0.0038278428837657
787,-0.0232537128031254,0.0262913443148136,-0.0114855524152517,0.0287386048585176,-0.0826180279254913,-0.00830737315118313
788,-0.0302871335297823,0.0197522584348917,-0.00600243220105767,0.0285680592060089,-0.0818447545170784,-0.0118131507188082
789,-0.0381313860416412,0.0134800150990486,-0.00440400838851929,0.0262026786804199,-0.0785060450434685,-0.0150634897872806
790,-0.0453961491584778,0.0104643860831857,-0.00774608552455902,0.0228432305157185,-0.0740896314382553,-0.0165947899222374
791,-0.0478378348052502,0.0128667140379548,-0.0124970553442836,0.021795617416501,-0.0687697604298592,-0.0144039401784539
792,-0.0467178635299206,0.0161220282316208,-0.0185934584587812,0.0219488311558962,-0.0666986927390099,-0.0125104775652289
793,-0.0446052215993404,0.0171352475881577,-0.0249071624130011,0.0233444981276989,-0.0683520883321762,-0.0142812868580222
794,-0.0395129136741161,0.0196888968348503,-0.025760680437088,0.0293256174772978,-0.0673018172383308,-0.0169900506734848
795,-0.0310951359570026,0.0252170003950596,-0.0194386374205351,0.0375165417790413,-0.0589957647025585,-0.0177898220717907
796,-0.0219134092330933,0.0315292179584503,-0.0085958419367671,0.0429448932409287,-0.0432107709348202,-0.0153341740369797
797,-0.0104340789839625,0.0398897491395473,0.00609340472146869,0.0486330650746822,-0.0199358463287354,-0.00575044378638268
798,0.00402796594426036,0.0500773414969444,0.0206393226981163,0.0580598376691341,0.00505255488678813,0.0101984273642302
799,0.0173895321786404,0.0586747340857983,0.029085285961628,0.0685022920370102,0.0212338455021381,0.0251824390143156
800,0.0293076522648335,0.0671761110424995,0.0342010036110878,0.0800821632146835,0.0274394527077675,0.0375921279191971
801,0.0408310927450657,0.077825590968132,0.0413335636258125,0.0941104516386986,0.027972673997283,0.0486031509935856
802,0.0493968389928341,0.0896770879626274,0.0508622117340565,0.107631020247936,0.0239850636571646,0.0559437721967697
803,0.0533364787697792,0.100907370448112,0.0601626336574554,0.116987116634846,0.0155061837285757,0.0574806593358517
804,0.0531145185232162,0.108438521623611,0.0641365945339203,0.119799517095089,0.00206492934376001,0.0525216944515705
805,0.048485092818737,0.110609896481037,0.059392724186182,0.115437671542168,-0.0158556122332811,0.0434116050601006
806,0.0387112274765968,0.109166599810123,0.0490196458995342,0.105211362242699,-0.0356083698570728,0.033086720854044
807,0.0256442874670029,0.108270369470119,0.0405114479362965,0.0936885178089142,-0.0511064566671848,0.0233767703175545
808,0.0119020789861679,0.108012452721596,0.0370356924831867,0.0852624922990799,-0.0568552277982235,0.0161093790084124
809,-0.00178213324397802,0.103009328246117,0.0344415195286274,0.0785616859793663,-0.0541254989802837,0.0120548559352756
810,-0.0134344696998596,0.0928653851151466,0.0306207779794931,0.0720412880182266,-0.046503771096468,0.0126652903854847
811,-0.019169494509697,0.0831872373819351,0.0291816778481007,0.068542554974556,-0.0352760963141918,0.0193568486720324
812,-0.019240066409111,0.0756440684199333,0.0306306201964617,0.0677330866456032,-0.0240025334060192,0.0273105315864086
813,-0.0207349769771099,0.0657873377203941,0.0283749662339687,0.0632906779646873,-0.0216732863336802,0.0266701281070709
814,-0.0278744995594025,0.0525885410606861,0.0189791657030582,0.0533301830291748,-0.0309865679591894,0.0154714798554778
815,-0.0372398868203163,0.0408285409212112,0.00641457783058286,0.0420010723173618,-0.0426827780902386,0.000123991485452279
816,-0.0463838651776314,0.032606266438961,-0.00665542390197515,0.0310397371649742,-0.0498441532254219,-0.015703484416008
817,-0.0569133497774601,0.0248415023088455,-0.020305072888732,0.0196480732411146,-0.0539610534906387,-0.0316379778087139
818,-0.0700968578457832,0.0140204280614853,-0.0326254665851593,0.00754345022141933,-0.0582169815897942,-0.0471707843244076
819,-0.0828703418374062,0.00275595695711672,-0.0380762815475464,-0.00230105686932802,-0.061557449400425,-0.0586020015180111
820,-0.0888629555702209,-0.000964512466453016,-0.0318362936377525,-0.00378255499526858,-0.0602974705398083,-0.0593825355172157
821,-0.0864716842770576,0.00466022593900561,-0.0201929286122322,0.00332307699136436,-0.0573908351361752,-0.0499501377344131
822,-0.0791920721530914,0.0124337440356612,-0.0160977877676487,0.0123330885544419,-0.060261957347393,-0.038458127528429
823,-0.0685594528913498,0.0166830644011498,-0.0224076230078936,0.0194412209093571,-0.0700023546814919,-0.0296985264867544
824,-0.0565604045987129,0.0173502992838621,-0.0325627289712429,0.0240869484841824,-0.08248171210289,-0.0240208450704813
825,-0.0497194603085518,0.014662116765976,-0.0428287275135517,0.0223246961832047,-0.095852330327034,-0.0223367009311914
826,-0.0550347231328487,0.00642744498327374,-0.0546485185623169,0.00866713467985392,-0.110861495137215,-0.0254770256578922
827,-0.0701712891459465,-0.00470009120181203,-0.0649925619363785,-0.0118365986272693,-0.123227335512638,-0.0293077658861876
828,-0.0847504809498787,-0.011081269942224,-0.0666329637169838,-0.0260300952941179,-0.126970738172531,-0.0283607710152864
829,-0.0931014493107796,-0.0101514644920826,-0.0585954524576664,-0.0275998823344707,-0.123142637312412,-0.0223182793706656
830,-0.0968190506100655,-0.00595273543149233,-0.0467393472790718,-0.0207693204283714,-0.115370258688927,-0.0153123745694757
831,-0.0995103791356087,-0.00382390664890409,-0.0386359095573425,-0.014802579768002,-0.104755237698555,-0.0138768814504147
832,-0.103022210299969,-0.0054333982989192,-0.0375826209783554,-0.0150348199531436,-0.0914427414536476,-0.0210004113614559
833,-0.105839796364307,-0.0100044719874859,-0.0410204380750656,-0.0197048597037792,-0.077789343893528,-0.0333154685795307
834,-0.103538781404495,-0.0154822506010532,-0.0442300885915756,-0.0236111916601658,-0.0664847642183304,-0.0442574620246887
835,-0.0951530262827873,-0.0188061036169529,-0.0459032282233238,-0.0246280767023563,-0.0593685731291771,-0.049961194396019
836,-0.0880819112062454,-0.0213623438030481,-0.0508949980139732,-0.0271014776080847,-0.0611570179462433,-0.0539393462240696
837,-0.0887306034564972,-0.0268834382295609,-0.0626244321465492,-0.0333832316100597,-0.0744820833206177,-0.060833066701889
838,-0.0946823284029961,-0.0338816531002522,-0.0774641558527946,-0.0384267345070839,-0.0940533354878426,-0.068725012242794
839,-0.100654058158398,-0.0373962745070457,-0.0892147645354271,-0.0382047332823277,-0.111838825047016,-0.0734247490763664
840,-0.102203987538815,-0.0337282530963421,-0.093731202185154,-0.0346364416182041,-0.120056480169296,-0.073835976421833
841,-0.096356675028801,-0.024324169382453,-0.0906316563487053,-0.0308263804763556,-0.113108962774277,-0.0697725117206573
842,-0.087405800819397,-0.0174051523208618,-0.0846533998847008,-0.0294541902840137,-0.0958888381719589,-0.0629981532692909
843,-0.0832611545920372,-0.0183990132063627,-0.0820491909980774,-0.0320499837398529,-0.0820088237524033,-0.0572252608835697
844,-0.0853506848216057,-0.024317592382431,-0.083974301815033,-0.0363135673105717,-0.0803372710943222,-0.0534246265888214
845,-0.0899622365832329,-0.0300511177629232,-0.0865506082773209,-0.0381413400173187,-0.0878810957074165,-0.0500604957342148
846,-0.0915906727313995,-0.0315283350646496,-0.0843925252556801,-0.0339141599833965,-0.0938113331794739,-0.0438573397696018
847,-0.0887555181980133,-0.0306763928383589,-0.0774491801857948,-0.0257983785122633,-0.0941821485757828,-0.0359857827425003
848,-0.0883442610502243,-0.0355660654604435,-0.0718945264816284,-0.0223807282745838,-0.0950314179062843,-0.0352580547332764
849,-0.0936726629734039,-0.0468105562031269,-0.0693789646029472,-0.0264088604599237,-0.0965775921940804,-0.0448406934738159
850,-0.0972686111927032,-0.0550519116222858,-0.0648814812302589,-0.031302597373724,-0.0925876274704933,-0.0570151507854462
851,-0.0908360108733177,-0.0532602705061436,-0.0548823624849319,-0.0300320442765951,-0.0813756138086319,-0.0633868351578712
852,-0.0750042125582695,-0.0435505323112011,-0.0430947244167328,-0.021434061229229,-0.0686829686164856,-0.0626289248466492
853,-0.056591659784317,-0.0327630490064621,-0.0358463078737259,-0.00983683206140995,-0.0633880421519279,-0.058627787977457
854,-0.0404536835849285,-0.0258077085018158,-0.0342105776071548,-0.00125953950919211,-0.0680810734629631,-0.0548274368047714
855,-0.0281040817499161,-0.0243039317429066,-0.0362701788544655,9.85851365840063E-05,-0.0770139098167419,-0.0526762194931507
856,-0.0195992067456245,-0.0273845084011555,-0.0415339432656765,-0.00584621634334326,-0.0842539966106415,-0.0538866333663464
857,-0.013214873149991,-0.0323299579322338,-0.0501076430082321,-0.0152495335787535,-0.0882656946778297,-0.0604730099439621
858,-0.00566417258232832,-0.0364604443311691,-0.0605129301548004,-0.023422883823514,-0.0897287353873253,-0.0709543377161026
859,0.00376329710707068,-0.0399944372475147,-0.07040024548769,-0.0290782433003187,-0.091223455965519,-0.0816760286688805
860,0.0130209373310208,-0.0444939248263836,-0.0771389827132225,-0.0327399410307407,-0.0950787737965584,-0.0901598185300827
861,0.0209135934710503,-0.0499352775514126,-0.0795227438211441,-0.0347889214754105,-0.0991553142666817,-0.0959995537996292
862,0.027676310390234,-0.0542065761983395,-0.0787515491247177,-0.0353194624185562,-0.0973778665065765,-0.0987711697816849
863,0.0357800275087357,-0.0535198822617531,-0.0741865485906601,-0.0315558053553104,-0.0849968791007996,-0.095282144844532
864,0.0470492169260979,-0.047712005674839,-0.064953401684761,-0.0224877018481493,-0.0649599656462669,-0.084949791431427
865,0.0613403432071209,-0.0402778945863247,-0.0521511919796467,-0.0103262607008219,-0.0445662774145603,-0.0700574442744255
866,0.076836459338665,-0.0333859361708164,-0.0385624244809151,0.00247862655669451,-0.031520813703537,-0.0513935424387455
867,0.0893127471208572,-0.0280842967331409,-0.028462590649724,0.0127586349844933,-0.0317932665348053,-0.0307447947561741
868,0.0975203514099121,-0.0231791716068983,-0.0228516757488251,0.0197149701416492,-0.0423342734575272,-0.0120127843692899
869,0.104664005339146,-0.0151703227311373,-0.0186440348625183,0.0248843729496002,-0.0541960336267948,-0.000107136547740083
870,0.112372681498528,-0.0047874366864562,-0.0142359109595418,0.0276279933750629,-0.06308463960886,0.000893656630069017
871,0.119892597198486,0.00310757965780795,-0.0101171396672726,0.0272701419889927,-0.0671482905745506,-0.00665345601737499
872,0.126851215958595,0.00807369779795408,-0.00428720843046904,0.0280573610216379,-0.0622796900570393,-0.0129634449258447
873,0.131249204277992,0.0120266210287809,0.00329886027611792,0.0321356803178787,-0.0504531338810921,-0.0123909506946802
874,0.129174560308456,0.0131653277203441,0.00623295782133937,0.0326693616807461,-0.0415534973144531,-0.0107847861945629
875,0.121675059199333,0.0121058626100421,0.00275912787765265,0.0259939171373844,-0.0389638431370258,-0.0130077572539449
876,0.114019505679607,0.010611186735332,-0.00303136417642236,0.0165875516831875,-0.0377603881061077,-0.0164102669805288
877,0.108407512307167,0.0061898697167635,-0.0101949330419302,0.00799733679741621,-0.035010538995266,-0.0182721447199583
878,0.105460114777088,-0.000461920688394457,-0.0179283171892166,0.0020248843356967,-0.0309288930147886,-0.0169861633330584
879,0.10723602771759,-0.0053696190007031,-0.0240161903202534,-0.000379861739929765,-0.0279141124337912,-0.0124554885551333
880,0.115219481289387,-0.00818919483572245,-0.0270576197654009,-0.000325994013110176,-0.0289440918713808,-0.00752193434163928
881,0.127526864409447,-0.0112272929400206,-0.0269312895834446,0.000429762352723628,-0.0333955399692059,-0.00595584698021412
882,0.141186743974686,-0.0135634196922183,-0.0248615089803934,0.00234536244533956,-0.0358271524310112,-0.00782622862607241
883,0.154127955436707,-0.013214910402894,-0.0240199286490679,0.00536509836092591,-0.0333847664296627,-0.0111503321677446
884,0.164298430085182,-0.0122608030214906,-0.0271461009979248,0.00686081731691957,-0.0292613431811333,-0.0170356761664152
885,0.171579629182816,-0.0116474479436874,-0.0308456625789404,0.0076400307007134,-0.0239841379225254,-0.0242297388613224
886,0.176406070590019,-0.00950982328504324,-0.0300623755902052,0.00923839118331671,-0.0165636334568262,-0.0284003484994173
887,0.177629008889198,-0.005273905582726,-0.0243317168205976,0.00905244704335928,-0.0101912543177605,-0.028682716190815
888,0.175524637103081,0.000490458565764129,-0.0161132384091616,0.00601813849061728,-0.0072845253162086,-0.0270952694118023
889,0.172298848628998,0.00652769254520535,-0.0102665359154344,0.00137504376471043,-0.00801840424537659,-0.0262863766402006
890,0.170588254928589,0.0120122637599707,-0.0107471663504839,-0.00397282047197223,-0.0129335029050708,-0.0271972250193357
891,0.175398409366608,0.0186732690781355,-0.013058272190392,-0.00531626725569367,-0.0195968840271235,-0.0249995104968548
892,0.189467206597328,0.0275414828211069,-0.00900334026664495,0.00261312560178339,-0.0235365945845842,-0.0135494386777282
893,0.206130728125572,0.0368858315050602,0.00117961526848376,0.016659876331687,-0.0232014022767544,0.00461184605956078
894,0.21643540263176,0.047137089073658,0.0130909588187933,0.0318145714700222,-0.0169437043368816,0.0226227827370167
895,0.216029360890388,0.0587046109139919,0.0235249456018209,0.0460377782583237,-0.0058916537091136,0.0359673649072647
896,0.204123511910439,0.0676035359501839,0.0275436639785767,0.0545382276177406,0.00307880039326847,0.0402212105691433
897,0.184370651841164,0.0705389529466629,0.0225814655423164,0.0532363466918468,0.00569639168679714,0.0338024497032166
898,0.16297772526741,0.0674314647912979,0.0115598542615771,0.0437455140054226,0.00257719471119344,0.0197368748486042
899,0.14573410153389,0.0612152256071568,0.00222376501187682,0.0326997004449368,-0.00118993467185646,0.00474003097042441
900,0.133295133709908,0.0549215823411942,-0.000182020710781217,0.0252187475562096,-0.00156193459406495,-0.00564471911638975
901,0.120868660509586,0.0483370795845985,0.000971717876382172,0.0205872226506472,-0.001082195318304,-0.0115961385890841
902,0.108537063002586,0.0428075045347214,0.00326318177394569,0.019456060603261,0.000295167439617217,-0.0119722131639719
903,0.099057637155056,0.0399799086153507,0.00715101789683104,0.0231519937515259,0.00619356986135244,-0.00575139885768294
904,0.0902930870652199,0.0378393456339836,0.0111966151744127,0.0284351296722889,0.0171301122754812,0.00309602357447147
905,0.081500917673111,0.0364037379622459,0.0172304939478636,0.0332307629287243,0.0319017469882965,0.013540493324399
906,0.0758157148957253,0.0394665375351906,0.0285223294049501,0.0391536727547646,0.048078466206789,0.0273431073874235
907,0.0731970444321632,0.0478090681135654,0.0408456586301327,0.0455743707716465,0.0601789578795433,0.0402681790292263
908,0.0713895186781883,0.057867743074894,0.0480351522564888,0.0504411049187183,0.064069963991642,0.0470173247158527
909,0.0693305283784866,0.0643397644162178,0.0490154959261417,0.0525244139134884,0.0586656667292118,0.0471241697669029
910,0.0651599541306496,0.0635067000985146,0.0441425330936909,0.049490749835968,0.0443570651113987,0.0414853431284428
911,0.0597587451338768,0.0593953505158424,0.0368285402655602,0.0425641164183617,0.0283879339694977,0.034362930804491
912,0.0537723153829575,0.0551597252488136,0.0303256623446941,0.0335626974701881,0.01783237606287,0.0283033736050129
913,0.0417607128620148,0.0450059846043587,0.0217061284929514,0.0193858537822962,0.0093755554407835,0.0184478405863047
914,0.0235123783349991,0.0299938358366489,0.0120855467393994,0.00334528600797057,0.00149083696305752,0.006923733279109
915,0.00944658368825912,0.0210499782115221,0.00965079944580793,-0.00332341413013637,0.000930013717152178,0.00449717277660966
916,0.00595843931660056,0.0218217000365257,0.0156669989228249,0.00236869626678526,0.0102459257468581,0.0121167451143265
917,0.00895994063466787,0.0277785360813141,0.0236909948289394,0.0134168639779091,0.0246812012046576,0.0209705494344234
918,0.0126384198665619,0.0336552076041698,0.0286338664591312,0.0229082759469748,0.0383616611361504,0.0246210880577564
919,0.0152783840894699,0.035652581602335,0.0284711848944426,0.0281287301331759,0.0466663166880608,0.0222208425402641
920,0.0170429814606905,0.0344972349703312,0.0234314296394587,0.0295207649469376,0.0463604591786861,0.0165347997099161
921,0.0190245285630226,0.0351359993219376,0.0175604894757271,0.0299156196415424,0.0386007092893124,0.0124272042885423
922,0.0245086140930653,0.0404292568564415,0.0172216277569532,0.033274807035923,0.0297442078590393,0.0148437833413482
923,0.0343348421156406,0.0474623888731003,0.0238327663391829,0.0398638099431992,0.0248296912759542,0.0251822657883167
924,0.0436262302100658,0.0512428395450115,0.0311462488025427,0.0445894785225391,0.0236438401043415,0.0385709814727306
925,0.0458689816296101,0.048648439347744,0.0311734136193991,0.0419887602329254,0.0231421329081059,0.0456091202795506
926,0.0393197312951088,0.0412641353905201,0.0249396190047264,0.0339815206825733,0.0226427689194679,0.0418667867779732
927,0.0285672284662724,0.0349941179156303,0.0214496627449989,0.0279326159507036,0.0237866975367069,0.0324565432965755
928,0.0194533430039883,0.0351825915277004,0.0248422548174858,0.0267612095922232,0.0277613550424576,0.0248829945921898
929,0.0141489608213305,0.0412453822791576,0.031162615865469,0.0275977589190006,0.0341198891401291,0.0214461497962475
930,0.0111175011843443,0.0472706407308578,0.0357965603470802,0.0279971212148666,0.0399199761450291,0.0208691172301769
931,0.00862864218652248,0.0504528097808361,0.0393610335886478,0.0304267164319754,0.0427449084818363,0.0251128915697336
932,0.00497859576717019,0.0514803864061832,0.0432981513440609,0.0365461930632591,0.0410849899053574,0.0347579121589661
933,-0.000492952531203628,0.0505560897290707,0.0480791367590427,0.043387595564127,0.0369239188730717,0.0450128614902496
934,-0.00453047687187791,0.0496242716908455,0.0557058267295361,0.0487923920154572,0.0371870882809162,0.0531391128897667
935,-0.00445845257490873,0.0505572892725468,0.0650323703885078,0.051240187138319,0.0434835143387318,0.0588166192173958
936,-0.0034576344769448,0.0511143542826176,0.0714900940656662,0.0488670133054256,0.0496896952390671,0.0611448884010315
937,-0.00698411930352449,0.0481546632945538,0.0714780688285828,0.0426145307719707,0.0506865084171295,0.0605510026216507
938,-0.0145073710009456,0.0433509275317192,0.0646716207265854,0.0370732061564922,0.0478958934545517,0.0596417933702469
939,-0.021300295367837,0.0408992916345596,0.0546648576855659,0.0355181880295277,0.0453931540250778,0.0601318702101707
940,-0.0249585453420877,0.0425413325428963,0.0476290173828602,0.0375415980815887,0.0469856858253479,0.0626194179058075
941,-0.0259822029620409,0.0474641472101212,0.0476271249353886,0.0423756316304207,0.0569294132292271,0.0676341876387596
942,-0.0278970021754503,0.0512162558734417,0.0504092499613762,0.0464980378746986,0.0717802494764328,0.0702799037098885
943,-0.0331531055271626,0.0491220057010651,0.0497936010360718,0.045646209269762,0.0829394832253456,0.0649209469556808
944,-0.0401642248034477,0.0430048853158951,0.0465465858578682,0.0414639450609684,0.0876176059246063,0.054794654250145
945,-0.0453626401722431,0.0375097244977951,0.0439971052110195,0.0387104600667953,0.0878263562917709,0.047330342233181
946,-0.0467107631266117,0.0351680479943752,0.0438126809895039,0.0397869050502777,0.0876689031720161,0.046071495860815
947,-0.0485886707901955,0.0362162552773952,0.0452601425349712,0.0422572046518326,0.0882994681596756,0.0485193617641926
948,-0.0566689260303974,0.0400807484984398,0.0480839908123016,0.043827585875988,0.0873749628663063,0.0522785112261772
949,-0.0711087062954903,0.0455160401761532,0.0534643903374672,0.0449890419840813,0.0855105295777321,0.0578855313360691
950,-0.092886246740818,0.0462365336716175,0.0576689057052135,0.0416466295719147,0.0819386914372444,0.0608853250741959
951,-0.123090922832489,0.0385175384581089,0.0585400462150574,0.0316920131444931,0.0760708525776863,0.0578038282692432
952,-0.154901340603828,0.0295059736818075,0.0602604262530804,0.023414945229888,0.0733129233121872,0.0550870858132839
953,-0.180663287639618,0.0272002797573805,0.0635330602526665,0.0246564466506243,0.0762672200798988,0.0593834668397903
954,-0.19917905330658,0.0331558398902416,0.0660023763775826,0.035801462829113,0.0821612328290939,0.0707220509648323
955,-0.212423965334892,0.042477261275053,0.0663023665547371,0.0510646216571331,0.0883198603987694,0.0835266932845116
956,-0.221389576792717,0.0493188425898552,0.0659917667508125,0.0640047267079353,0.0950348600745201,0.0929244384169579
957,-0.226380869746208,0.0541353821754456,0.0696717277169228,0.0737371221184731,0.102994002401829,0.0994414761662483
958,-0.230858221650124,0.0587735325098038,0.0761901587247849,0.0797392576932907,0.107609681785107,0.101871624588966
959,-0.238445341587067,0.0625652819871902,0.0790382400155067,0.0797377824783325,0.104607149958611,0.0975058823823929
960,-0.248788982629776,0.0648196339607239,0.0757094174623489,0.07444017380476,0.0963646844029427,0.0881920456886292
961,-0.259680420160294,0.065845213830471,0.0692310035228729,0.0665048360824585,0.0879387557506561,0.0781106874346733
962,-0.269760847091675,0.066894568502903,0.0638687908649445,0.0581104420125484,0.0821597948670387,0.0705328062176704
963,-0.280139029026031,0.0677542090415955,0.0603226348757744,0.0502233505249023,0.0780195072293282,0.0667523592710495
964,-0.291711181402206,0.0682938471436501,0.0579391829669476,0.0446001216769218,0.0749029591679573,0.068699911236763
965,-0.300323635339737,0.0726981833577156,0.0611223690211773,0.0467129200696945,0.0778950601816177,0.0800419971346855
966,-0.302193105220795,0.0829970240592957,0.0723071619868279,0.0587319694459438,0.0900691449642181,0.098115548491478
967,-0.299643993377686,0.0947918742895126,0.0862110406160355,0.0749901011586189,0.10646166652441,0.113871961832047
968,-0.295841097831726,0.104885414242744,0.0986754223704338,0.0894536972045898,0.122613660991192,0.12166927754879
969,-0.292445629835129,0.113216146826744,0.109446868300438,0.0991404354572296,0.137640982866287,0.121003597974777
970,-0.289234608411789,0.121630348265171,0.120341837406158,0.105412118136883,0.152774259448051,0.11645732074976
971,-0.283737331628799,0.133543357253075,0.13418185710907,0.113376528024673,0.171699672937393,0.116052970290184
972,-0.275266289710999,0.149036720395088,0.151796489953995,0.125132545828819,0.195679500699043,0.123049147427082
973,-0.265892118215561,0.164723068475723,0.17230661213398,0.138427898287773,0.220907434821129,0.133970111608505
974,-0.256747096776962,0.179570227861404,0.194140821695328,0.152147188782692,0.244313925504684,0.14611904323101
975,-0.247814267873764,0.194868922233582,0.212649881839752,0.167319402098656,0.265851974487305,0.160092502832413
976,-0.240483805537224,0.209888741374016,0.221820458769798,0.182135477662086,0.283405691385269,0.174170449376106
977,-0.237434133887291,0.221194922924042,0.218899950385094,0.19015146791935,0.28908896446228,0.182294175028801
978,-0.240989312529564,0.224987491965294,0.204600468277931,0.186204507946968,0.274840503931046,0.179049298167229
979,-0.248850330710411,0.222259044647217,0.18492092192173,0.173358485102654,0.244610980153084,0.166686803102493
980,-0.25544947385788,0.218251928687096,0.166397869586945,0.158782795071602,0.210269495844841,0.152187511324883
981,-0.259535253047943,0.21469309926033,0.147955596446991,0.144510194659233,0.177314296364784,0.136983975768089
982,-0.26344633102417,0.209817513823509,0.126776874065399,0.129281923174858,0.14622375369072,0.118929944932461
983,-0.268058359622955,0.204342395067215,0.105319239199162,0.114547573029995,0.119223162531853,0.100328542292118
984,-0.271638005971909,0.20221321284771,0.0893173888325691,0.103935793042183,0.10008293390274,0.0874121859669685
985,-0.271593481302261,0.20642825961113,0.0835617035627365,0.100777573883533,0.0915881618857384,0.0854820758104324
986,-0.265944302082062,0.21736453473568,0.0894061625003815,0.106584131717682,0.0945428758859634,0.0953038334846497
987,-0.257517725229263,0.229749009013176,0.100717283785343,0.115515634417534,0.103492602705956,0.107064679265022
988,-0.253419101238251,0.234620690345764,0.106100603938103,0.116851821541786,0.108004935085773,0.10586404055357
989,-0.255111068487167,0.230708375573158,0.100837714970112,0.10791339725256,0.104895614087582,0.0891866758465767
990,-0.258194386959076,0.22365328669548,0.0893914699554443,0.0943247750401497,0.0988184884190559,0.0661878064274788
991,-0.258916467428207,0.217493891716003,0.0772868096828461,0.0817371308803558,0.094459056854248,0.046156357973814
992,-0.256648033857346,0.212821185588837,0.0663886889815331,0.0722430050373077,0.0937307775020599,0.0332360304892063
993,-0.252721726894379,0.209421142935753,0.0580733865499496,0.0656560361385345,0.0963565856218338,0.0266184564679861
994,-0.247332438826561,0.208067089319229,0.0550137534737587,0.0618042722344399,0.100891694426537,0.0238581169396639
995,-0.239915266633034,0.208792895078659,0.0569848269224167,0.0598845295608044,0.104283422231674,0.0218202732503414
996,-0.229036718606949,0.211827725172043,0.0618101805448532,0.0600508376955986,0.106395207345486,0.0187715590000153
997,-0.213473320007324,0.217742517590523,0.067701019346714,0.0629389435052872,0.108734555542469,0.0162207018584013
998,-0.201129734516144,0.221167504787445,0.0664411559700966,0.0630090534687042,0.102572597563267,0.0121673140674829
999,-0.203603029251099,0.216099441051483,0.0492018684744835,0.0548228845000267,0.0782513096928597,0.00182148022577167
1000,-0.218140825629234,0.207360193133354,0.0227718017995358,0.0437062904238701,0.0443137884140015,-0.0111889140680432
1001,-0.233787655830383,0.202363818883896,-9.233698801836E-05,0.0360991060733795,0.0152964107692242,-0.020042959600687
1002,-0.244887873530388,0.202978312969208,-0.0144949657842517,0.032123439013958,-0.00323951477184892,-0.0230392049998045
1003,-0.250855594873428,0.208968669176102,-0.0186565816402435,0.0318094156682491,-0.00878370832651854,-0.0189355239272118
1004,-0.255150705575943,0.216180995106697,-0.0143968714401126,0.0347736068069935,-0.00323320762254298,-0.00920408871024847
1005,-0.26204064488411,0.218619540333748,-0.00847815722227097,0.0383771508932114,0.00425069127231836,-0.00113205541856587
1006,-0.272572755813599,0.217250064015388,-0.00460665626451373,0.0411003157496452,0.0066706114448607,-0.000228921649977565
