,AF3,AF4,Fp1,Fp2,AF7,AF8
0,0.00943435356020927,0.0363302864134312,0.0136864315718412,-0.0690852180123329,0.0613414905965328,-0.00925416499376297
1,-0.0152635304257274,0.0195365231484175,0.00468229968100786,-0.0801091268658638,0.0275059770792723,-0.0159687027335167
2,-0.0391533672809601,0.0039305123500526,-0.00743777817115188,-0.0865873247385025,-0.00543808471411467,-0.0149482535198331
3,-0.0520001910626888,-0.00349325244314969,-0.0158555824309587,-0.0866552591323853,-0.0242199692875147,-0.0077119842171669
4,-0.0469066873192787,0.00405070511624217,-0.0136485295370221,-0.078768789768219,-0.0176785606890917,0.00308326072990894
5,-0.0229087416082621,0.0259369947016239,-0.00166069343686104,-0.0651405975222588,0.01360266469419,0.0134197045117617
6,0.0069000544026494,0.048655591905117,0.0110255405306816,-0.0534655228257179,0.0513444617390633,0.0162893813103437
7,0.0208162292838097,0.054024800658226,0.0111171957105398,-0.0532746501266956,0.0708377957344055,0.00570906652137637
8,0.0113191232085228,0.0356169827282429,-0.00822415668517351,-0.0689428374171257,0.0616609379649162,-0.0166848171502352
9,-0.00961560849100351,0.004339843057096,-0.0379630364477634,-0.0930321738123894,0.0338822714984417,-0.0394723080098629
10,-0.0271584019064903,-0.0218114275485277,-0.0617838092148304,-0.110054381191731,0.00402165949344635,-0.0492561385035515
11,-0.0371606722474098,-0.0330761708319187,-0.072052501142025,-0.111899212002754,-0.0200554598122835,-0.0447645485401154
12,-0.0411127060651779,-0.0295870471745729,-0.0693719908595085,-0.101523026823998,-0.0354112982749939,-0.0346317961812019
13,-0.0392873026430607,-0.0147535363212228,-0.0567772537469864,-0.0849819183349609,-0.0386332608759403,-0.0249747112393379
14,-0.0338471680879593,0.00572804501280189,-0.0388556756079197,-0.0667992606759071,-0.0276828240603209,-0.0164268426597118
15,-0.0289291758090258,0.0221792496740818,-0.0213421192020178,-0.0525453202426434,-0.00381379667669535,-0.0110186217352748
16,-0.0263993795961142,0.0289596654474735,-0.00764328939840198,-0.0477997772395611,0.0273415166884661,-0.0109292641282082
17,-0.0252630636096001,0.0321372486650944,0.00256255571730435,-0.0504071824252605,0.0565771125257015,-0.010885707102716
18,-0.0262661278247833,0.0357117652893066,0.00836486369371414,-0.0544375739991665,0.0725883692502975,-0.00670869974419475
19,-0.030889006331563,0.0364923477172852,0.0106727359816432,-0.0558718517422676,0.0734555274248123,0.000908303540199995
20,-0.0409054458141327,0.0312740094959736,0.0106373503804207,-0.0556663796305656,0.0665577054023743,0.00924688950181007
21,-0.0590502582490444,0.0185844507068396,0.00377643713727593,-0.0609235838055611,0.0526399984955788,0.0112865855917335
22,-0.081098847091198,0.00267139566130936,-0.0122882248833776,-0.0747190043330193,0.0276938453316689,0.00147715862840414
23,-0.096329927444458,-0.00891290884464979,-0.0320608057081699,-0.0905052796006203,-0.00345134106464684,-0.0165257006883621
24,-0.0966965928673744,-0.00838747248053551,-0.0446727238595486,-0.0979351848363876,-0.0254637226462364,-0.0277040246874094
25,-0.0860795751214027,0.00344689912162721,-0.0462915450334549,-0.0956408008933067,-0.0313366167247295,-0.0218688622117043
26,-0.0752019807696342,0.0138542484492064,-0.0435396060347557,-0.0913775637745857,-0.0274820402264595,-0.0079693254083395
27,-0.0634050071239471,0.0183843728154898,-0.035940870642662,-0.0843138247728348,-0.0148405386134982,0.00280235940590501
28,-0.050599854439497,0.0198423285037279,-0.0228030178695917,-0.0719921290874481,0.0043878317810595,0.00507572339847684
29,-0.0470338501036167,0.0144454501569271,-0.0160160399973392,-0.063281424343586,0.0184584222733974,-0.00334247504360974
30,-0.0495030619204044,0.00128709827549756,-0.0194622855633497,-0.0618479512631893,0.0254993811249733,-0.012198843061924
31,-0.0453111827373505,-0.0134399579837918,-0.0229136925190687,-0.0628562942147255,0.0326409414410591,-0.0104431603103876
32,-0.0326566733419895,-0.0209389962255955,-0.0157080553472042,-0.0628748089075089,0.0436052568256855,-0.00042707085958682
33,-0.0176162980496883,-0.0181900504976511,0.00297836586833,-0.0608060210943222,0.0579462163150311,0.00746900076046586
34,-0.0105362068861723,-0.014508405700326,0.0156480837613344,-0.0620176009833813,0.0656039342284203,8.64899920998141E-05
35,-0.0214181561022997,-0.0173390060663223,0.0022926521487534,-0.0741763785481453,0.0511339828372002,-0.0278709009289742
36,-0.0445174761116505,-0.0206598583608866,-0.0321804471313953,-0.0932748392224312,0.0147228818386793,-0.0632658004760742
37,-0.0633521527051926,-0.0180772468447685,-0.0658785104751587,-0.108349449932575,-0.0259439554065466,-0.0878775790333748
38,-0.0723199024796486,-0.0145902456715703,-0.0871138125658035,-0.117775723338127,-0.0539693497121334,-0.0999981239438057
39,-0.0753724798560143,-0.0166654344648123,-0.0956460237503052,-0.125775441527367,-0.0623846314847469,-0.109385214745998
40,-0.0755966380238533,-0.0221484079957008,-0.0919238328933716,-0.131063982844353,-0.0555254220962524,-0.119175441563129
41,-0.0740437731146812,-0.0231006424874067,-0.0765576735138893,-0.127487897872925,-0.0422340035438538,-0.122232913970947
42,-0.0707100480794907,-0.0148257184773684,-0.0540136136114597,-0.113191574811935,-0.0278692152351141,-0.112004615366459
43,-0.0654211565852165,3.97961957787629E-05,-0.0320390574634075,-0.0945480242371559,-0.0121447117999196,-0.0904437452554703
44,-0.059513371437788,0.0146635985001922,-0.0173485483974218,-0.0800715908408165,0.00566240679472685,-0.0658054649829865
45,-0.0568437352776527,0.0234991684556007,-0.0122828846797347,-0.0734511539340019,0.0183544121682644,-0.0460651479661465
46,-0.0602767281234264,0.0253608617931604,-0.0150176230818033,-0.0725089460611343,0.0178107526153326,-0.0339832864701748
47,-0.0667350813746452,0.0208847727626562,-0.0218156985938549,-0.0734787136316299,0.00615267222747207,-0.0278348010033369
48,-0.0704840049147606,0.0129329832270741,-0.0282120686024427,-0.0742156580090523,-0.00657234853133559,-0.024856748059392
49,-0.0726416558027267,0.0060461419634521,-0.034021969884634,-0.0760117545723915,-0.0136724598705769,-0.0262497011572123
50,-0.075501061975956,0.00408812519162893,-0.0405763015151024,-0.0796466618776321,-0.0160961430519819,-0.0340601094067097
51,-0.0756200700998306,0.0084145525470376,-0.0441813953220844,-0.0814695358276367,-0.01752969622612,-0.044541098177433
52,-0.0768241882324219,0.0112498216331005,-0.0479008033871651,-0.0843877270817757,-0.0263294372707605,-0.057429276406765
53,-0.0866094753146172,0.00373444333672524,-0.0608965009450912,-0.0966767519712448,-0.0492083542048931,-0.0774393081665039
54,-0.0984118729829788,-0.00778011791408062,-0.0786518305540085,-0.113110065460205,-0.0767017230391502,-0.0971072539687157
55,-0.098766952753067,-0.00863180868327618,-0.0864272862672806,-0.118876054883003,-0.0917773246765137,-0.101157173514366
56,-0.0847350135445595,0.00528806075453758,-0.0798922628164291,-0.10995414853096,-0.0884082764387131,-0.09011160582304
57,-0.0665534809231758,0.0246795210987329,-0.0694358646869659,-0.0959162190556526,-0.0751758441329002,-0.0799575299024582
58,-0.0585045218467712,0.0358207002282143,-0.0687686130404472,-0.0889671146869659,-0.0685283169150352,-0.083651565015316
59,-0.0643253177404404,0.0323088839650154,-0.0806381925940514,-0.0927367657423019,-0.076470747590065,-0.0992241352796555
60,-0.0733365714550018,0.0212287548929453,-0.0942195132374763,-0.0998954847455025,-0.0901074856519699,-0.112479746341705
61,-0.0781900584697723,0.0100098280236125,-0.101548507809639,-0.105428859591484,-0.100949414074421,-0.116032712161541
62,-0.0816577970981598,0.00111106887925416,-0.103595934808254,-0.10918677598238,-0.108558095991611,-0.111439354717731
63,-0.0868019089102745,0.000870188872795552,-0.103179410099983,-0.108780972659588,-0.111701369285584,-0.0980917885899544
64,-0.0937774777412415,0.00838300678879023,-0.108277261257172,-0.108102925121784,-0.112959690392017,-0.0850430354475975
65,-0.101349584758282,0.00520953163504601,-0.129594966769218,-0.117900311946869,-0.121165215969086,-0.0918561369180679
66,-0.105501487851143,-0.0168185941874981,-0.159958079457283,-0.135675847530365,-0.132960855960846,-0.117803707718849
67,-0.0993282869458199,-0.0385854355990887,-0.178751856088638,-0.146498128771782,-0.132832750678062,-0.139818966388702
68,-0.0839439854025841,-0.0470027327537537,-0.184637770056725,-0.148885920643806,-0.12303638458252,-0.149418577551842
69,-0.0716717094182968,-0.0525552034378052,-0.192207917571068,-0.15445651113987,-0.12261189520359,-0.15825942158699
70,-0.0729382485151291,-0.0646006911993027,-0.204498752951622,-0.166646122932434,-0.138806566596031,-0.172059595584869
71,-0.0856171697378159,-0.0746015831828117,-0.211381122469902,-0.177763417363167,-0.161946848034859,-0.183558523654938
72,-0.0984317511320114,-0.0694652423262596,-0.207071036100388,-0.181742697954178,-0.180142477154732,-0.185143262147903
73,-0.105815783143044,-0.0557866804301739,-0.202264577150345,-0.182989358901978,-0.19417342543602,-0.179950192570686
74,-0.110729426145554,-0.0501863434910774,-0.207827031612396,-0.187346294522285,-0.211836636066437,-0.174513727426529
75,-0.113108105957508,-0.0486523136496544,-0.215474903583527,-0.189892798662186,-0.228839993476868,-0.16823498904705
76,-0.107581108808517,-0.0353618189692497,-0.212273687124252,-0.182477742433548,-0.231928214430809,-0.160309076309204
77,-0.0928031802177429,-0.0113659398630261,-0.19621653854847,-0.165825814008713,-0.214932143688202,-0.154317334294319
78,-0.0775399729609489,0.00745550217106938,-0.173321932554245,-0.148281693458557,-0.186497569084167,-0.153421461582184
79,-0.0753928795456886,0.00863886810839176,-0.158407956361771,-0.141028836369514,-0.168469205498695,-0.159905001521111
80,-0.0890578776597977,-0.00572916073724627,-0.164857983589172,-0.147919118404388,-0.174157410860062,-0.167609989643097
81,-0.10501316934824,-0.021438842639327,-0.184475004673004,-0.158092886209488,-0.190967038273811,-0.162460282444954
82,-0.112269699573517,-0.0303426738828421,-0.199981614947319,-0.161437094211578,-0.200247019529343,-0.147410988807678
83,-0.116672679781914,-0.0371468476951122,-0.210740625858307,-0.162492692470551,-0.202451452612877,-0.144398584961891
84,-0.124037332832813,-0.0458588339388371,-0.223559707403183,-0.170735210180283,-0.205735176801682,-0.163751780986786
85,-0.125870272517204,-0.0516447238624096,-0.234987378120422,-0.187733203172684,-0.20677587389946,-0.192804858088493
86,-0.115065284073353,-0.0464445874094963,-0.23876366019249,-0.204260066151619,-0.200276210904121,-0.210422858595848
87,-0.09436996281147,-0.0339997112751007,-0.235263496637344,-0.208214104175568,-0.188271462917328,-0.205827847123146
88,-0.069966658949852,-0.0307986978441477,-0.228652536869049,-0.199741765856743,-0.17482802271843,-0.190246492624283
89,-0.0497585199773312,-0.0396720506250858,-0.218051642179489,-0.185645267367363,-0.159337222576141,-0.176818341016769
90,-0.0448579527437687,-0.0507032610476017,-0.202066957950592,-0.17131219804287,-0.141611710190773,-0.167373538017273
91,-0.0623793043196201,-0.0633718073368073,-0.188760697841644,-0.167109787464142,-0.131636321544647,-0.165699183940887
92,-0.093658410012722,-0.0785038396716118,-0.18512462079525,-0.177528694272041,-0.139260366559029,-0.170942604541779
93,-0.125711217522621,-0.0929316803812981,-0.192899033427238,-0.195733025670052,-0.164791405200958,-0.176612436771393
94,-0.150553002953529,-0.103262357413769,-0.208442315459251,-0.211619526147842,-0.197111681103706,-0.179618582129478
95,-0.160068362951279,-0.104610495269299,-0.218708783388138,-0.215499758720398,-0.21546146273613,-0.176741123199463
96,-0.156436756253242,-0.0986756235361099,-0.216626733541489,-0.208375886082649,-0.210677295923233,-0.169340237975121
97,-0.147805705666542,-0.0892360508441925,-0.203936457633972,-0.19610483944416,-0.188127458095551,-0.158947661519051
98,-0.136132717132568,-0.0749112442135811,-0.181678771972656,-0.179066807031631,-0.153293713927269,-0.1440359801054
99,-0.126016855239868,-0.0587024055421352,-0.153531864285469,-0.159617781639099,-0.113830171525478,-0.12837852537632
100,-0.122955590486526,-0.0480779223144054,-0.126091748476028,-0.141359955072403,-0.0778582990169525,-0.114759147167206
101,-0.128071054816246,-0.0499321557581425,-0.11101820319891,-0.128601625561714,-0.0540243834257126,-0.1066053211689
102,-0.136068642139435,-0.0640469565987587,-0.116052523255348,-0.123645521700382,-0.0491441860795021,-0.105284176766872
103,-0.137166872620583,-0.0802036821842194,-0.132147178053856,-0.121773660182953,-0.0570565946400166,-0.102895952761173
104,-0.131643310189247,-0.0924871936440468,-0.14470899105072,-0.119301646947861,-0.0656991600990295,-0.0950857698917389
105,-0.127097368240356,-0.101411551237106,-0.145148113369942,-0.116513706743717,-0.0703746452927589,-0.0842122435569763
106,-0.125466153025627,-0.103774651885033,-0.134191900491714,-0.114001899957657,-0.0735107362270355,-0.0719857811927795
107,-0.121551632881165,-0.0993645563721657,-0.120388478040695,-0.111862532794476,-0.0769218355417252,-0.0584302395582199
108,-0.113049954175949,-0.0972458496689796,-0.111962273716927,-0.111697800457478,-0.0807079151272774,-0.0463204085826874
109,-0.108304411172867,-0.104178823530674,-0.111313946545124,-0.114143051207066,-0.0838620141148567,-0.0396741442382336
110,-0.115092128515244,-0.119146555662155,-0.116375185549259,-0.117268338799477,-0.0846883729100227,-0.0384637787938118
111,-0.127414092421532,-0.1383176445961,-0.123669311404228,-0.121000356972218,-0.0859763771295547,-0.0425329357385635
112,-0.134214982390404,-0.159993425011635,-0.131205633282661,-0.127020180225372,-0.0929698273539543,-0.0540580973029137
113,-0.133357286453247,-0.18147087097168,-0.137113481760025,-0.134057968854904,-0.102982573211193,-0.0701890140771866
114,-0.126720666885376,-0.191204383969307,-0.135807573795319,-0.136267215013504,-0.104402258992195,-0.0796458721160889
115,-0.118383891880512,-0.183334022760391,-0.12732969224453,-0.132867112755775,-0.0961904376745224,-0.0789044052362442
116,-0.117610096931458,-0.169916465878487,-0.1218456402421,-0.132872089743614,-0.0924273356795311,-0.0787170305848122
117,-0.127792239189148,-0.164947524666786,-0.124466173350811,-0.140910401940346,-0.0972683876752853,-0.0827215313911438
118,-0.142859116196632,-0.169939398765564,-0.12865749001503,-0.150248691439629,-0.0986050814390183,-0.0825876891613007
119,-0.15427528321743,-0.175626933574677,-0.122545853257179,-0.149925529956818,-0.0836053863167763,-0.0709639191627502
120,-0.155453845858574,-0.173974946141243,-0.0985499769449234,-0.134207934141159,-0.0472911186516285,-0.047025490552187
121,-0.149624213576317,-0.167089074850082,-0.0654417350888252,-0.109818376600742,0.000612341100350022,-0.0205390118062496
122,-0.147049516439438,-0.161611378192902,-0.0417331978678703,-0.0877610743045807,0.0386065989732742,-0.00386457494460046
123,-0.149496451020241,-0.15884356200695,-0.0360534600913525,-0.0734627470374107,0.0522957071661949,0.00123197818174958
124,-0.149062231183052,-0.156077042222023,-0.0418960973620415,-0.0689000338315964,0.0454573407769203,0.000514960091095418
125,-0.142544820904732,-0.153559267520905,-0.0468005053699017,-0.0722882002592087,0.0325781367719173,6.56432021060027E-05
126,-0.134406939148903,-0.152590245008469,-0.0443682335317135,-0.0764131397008896,0.0253435503691435,0.00332336034625769
127,-0.127352118492126,-0.150406897068024,-0.036675713956356,-0.0738470628857613,0.0276533123105764,0.0104632610455155
128,-0.124859228730202,-0.145437106490135,-0.0301091950386763,-0.0668316707015038,0.0322395302355289,0.0176222175359726
129,-0.133292570710182,-0.142689093947411,-0.032342404127121,-0.0660194009542465,0.0240171980112791,0.0185897666960955
130,-0.150952696800232,-0.141391173005104,-0.0423255860805511,-0.0712237507104874,0.00166953378356993,0.0185653138905764
131,-0.167844980955124,-0.133613184094429,-0.052101843059063,-0.0719361007213593,-0.0218827035278082,0.028923699632287
132,-0.173725798726082,-0.121515817940235,-0.0588570348918438,-0.0655375346541405,-0.037950724363327,0.0475693233311176
133,-0.166979044675827,-0.116164468228817,-0.0626284033060074,-0.0576709769666195,-0.0445787161588669,0.0637485980987549
134,-0.158699125051498,-0.124705605208874,-0.0638904646039009,-0.0548011884093285,-0.0456699766218662,0.0692652985453606
135,-0.159186169505119,-0.146358877420425,-0.064509391784668,-0.0610498338937759,-0.0481544695794582,0.0608752779662609
136,-0.169304266571999,-0.175144210457802,-0.0680916979908943,-0.0768101885914803,-0.054785531014204,0.0415533781051636
137,-0.179776638746262,-0.20037105679512,-0.073967918753624,-0.0939884707331657,-0.0582567118108273,0.0242291074246168
138,-0.177329376339912,-0.207053735852242,-0.0691743195056915,-0.0971212089061737,-0.0435928739607334,0.0263386406004429
139,-0.167671039700508,-0.190842226147652,-0.0478148870170116,-0.0828271955251694,-0.00948382541537285,0.0458303764462471
140,-0.168638676404953,-0.161926656961441,-0.020892508327961,-0.0621782056987286,0.0286008920520544,0.0632736906409264
141,-0.18076379597187,-0.131765738129616,0.00216187792830169,-0.0416396223008633,0.0597298964858055,0.0719564482569695
142,-0.19365668296814,-0.113999895751476,0.0144291240721941,-0.0241926796734333,0.0796481072902679,0.0763644203543663
143,-0.202690273523331,-0.117484122514725,0.0132232988253236,-0.0134022030979395,0.0875679478049278,0.0790214538574219
144,-0.208692580461502,-0.134034365415573,0.0061786170117557,-0.0098176309838891,0.086007185280323,0.0808388292789459
145,-0.211480811238289,-0.149535685777664,0.00173854106105864,-0.0117090092971921,0.0776859372854233,0.0828672796487808
146,-0.204353541135788,-0.159345179796219,0.00192418531514704,-0.0152714718133211,0.0661798417568207,0.0879344195127487
147,-0.181209400296211,-0.166546002030373,0.00279371091164649,-0.0171815678477287,0.0552662424743176,0.0958494767546654
148,-0.15108397603035,-0.171405270695686,0.000102964448160492,-0.0165781863033772,0.0479828342795372,0.102851927280426
149,-0.13461335003376,-0.172870144248009,-0.00736690824851394,-0.0143812457099557,0.0428926944732666,0.104301422834396
150,-0.142863214015961,-0.174561649560928,-0.0189519915729761,-0.0133349495008588,0.0335216671228409,0.0959493443369865
151,-0.169219583272934,-0.181014776229858,-0.032774779945612,-0.0167590659111738,0.0178780574351549,0.0801820456981659
152,-0.196942389011383,-0.190791338682175,-0.0436400026082993,-0.0224811229854822,0.00601331004872918,0.0681074187159538
153,-0.21473690867424,-0.201342761516571,-0.0494279228150845,-0.0293565094470978,0.00196606758981943,0.0659149736166
154,-0.226152345538139,-0.216944664716721,-0.0584304854273796,-0.0438245423138142,-0.00850360561162233,0.065033033490181
155,-0.233949780464172,-0.237075716257095,-0.0700848251581192,-0.0608021505177021,-0.0268884375691414,0.0602662712335587
156,-0.234972596168518,-0.252934277057648,-0.0717856660485268,-0.0652533918619156,-0.0363162606954575,0.0558714792132378
157,-0.228345304727554,-0.25844007730484,-0.059432614594698,-0.0532726794481277,-0.0282664597034454,0.0546229891479015
158,-0.212084740400314,-0.248792216181755,-0.0367861837148666,-0.0307804308831692,-0.00339305005036294,0.0599331818521023
159,-0.187490463256836,-0.224635913968086,-0.0113725000992417,-0.00949978083372116,0.0307944379746914,0.0717670544981956
160,-0.167932823300362,-0.202120274305344,0.00582288904115558,-0.00315415929071605,0.0572838895022869,0.0800991505384445
161,-0.164861187338829,-0.193605214357376,0.0110750952735543,-0.0116926031187177,0.0665221661329269,0.0762105137109756
162,-0.172754466533661,-0.189240247011185,0.00883802771568298,-0.0207363925874233,0.0643537789583206,0.0635893419384956
163,-0.17974765598774,-0.18005545437336,0.0021320425439626,-0.0214576199650764,0.0581411272287369,0.0524601303040981
164,-0.182212814688683,-0.173843428492546,-0.00905405171215534,-0.0188227146863937,0.0507428906857967,0.0478136353194714
165,-0.18401312828064,-0.176905140280724,-0.0226386785507202,-0.0194910205900669,0.0443711504340172,0.0472583323717117
166,-0.184652864933014,-0.183474972844124,-0.0307127796113491,-0.0198582168668509,0.0430251583456993,0.052794449031353
167,-0.180322527885437,-0.187245279550552,-0.0289873704314232,-0.0144538078457117,0.0456638634204865,0.071779727935791
168,-0.172530546784401,-0.187545239925385,-0.0221386291086674,-0.00557163078337908,0.0445623174309731,0.102874971926212
169,-0.16573578119278,-0.187285676598549,-0.0163396075367928,0.00212233304046094,0.0356037653982639,0.132435336709023
170,-0.160718530416489,-0.186398833990097,-0.0134853338822722,0.00813787151128054,0.0252033695578575,0.152582705020905
171,-0.155701369047165,-0.180528670549393,-0.0127450469881296,0.0123477801680565,0.0224496349692345,0.164939239621162
172,-0.151056185364723,-0.173754215240479,-0.0157932657748461,0.010243721306324,0.0250155478715897,0.165921360254288
173,-0.148920699954033,-0.173272863030434,-0.0219331420958042,0.00208883942104876,0.0250437594950199,0.152601912617683
174,-0.151988491415977,-0.176303580403328,-0.0243991781026125,-0.00311191752552986,0.0247527677565813,0.129926040768623
175,-0.159815713763237,-0.178857654333115,-0.0216959360986948,-0.0021655592136085,0.0294667184352875,0.102312996983528
176,-0.17302779853344,-0.185423389077187,-0.0238385181874037,-0.00634117145091295,0.0311320126056671,0.0700706541538239
177,-0.193585395812988,-0.199493929743767,-0.0366019867360592,-0.0225197896361351,0.0216442085802555,0.0392361916601658
178,-0.213332086801529,-0.212978184223175,-0.0499544553458691,-0.0386724509298801,0.0109623875468969,0.0242551527917385
179,-0.22223998606205,-0.216155752539635,-0.0536569133400917,-0.0426336042582989,0.0109456777572632,0.0312698408961296
180,-0.221566960215569,-0.208528682589531,-0.0482838787138462,-0.0340663529932499,0.0220736246556044,0.0515285544097424
181,-0.216034337878227,-0.193139657378197,-0.0362556204199791,-0.0162271354347467,0.0423923693597317,0.0735094025731087
182,-0.204665288329124,-0.169463694095612,-0.0179475322365761,0.00702674454078078,0.0690436959266663,0.0932881012558937
183,-0.187610670924187,-0.137362837791443,0.00246255402453244,0.0292970929294825,0.0931584388017654,0.112144589424133
184,-0.174628376960754,-0.109835714101791,0.010911650955677,0.0381561070680618,0.102192580699921,0.120466187596321
185,-0.170964330434799,-0.105255953967571,-0.00264751631766558,0.0269520208239555,0.0944593027234077,0.106046453118324
186,-0.166038453578949,-0.120762921869755,-0.0255970787256956,0.00822718534618616,0.0860582441091537,0.0790705755352974
187,-0.155786290764809,-0.136633470654488,-0.0401856042444706,-0.00293426960706711,0.0888183042407036,0.058639157563448
188,-0.153161764144897,-0.145215526223183,-0.0455187149345875,-0.00504567613825202,0.0944074243307114,0.0514408238232136
189,-0.161395132541656,-0.154603138566017,-0.04627900198102,-0.00292272306978703,0.0918976441025734,0.0587601140141487
190,-0.166193336248398,-0.170165851712227,-0.0414152108132839,-0.000251151563134044,0.081112764775753,0.0786861553788185
191,-0.161302730441093,-0.184389799833298,-0.0310762003064156,0.00232918560504913,0.0663975030183792,0.103588216006756
192,-0.154981315135956,-0.183210849761963,-0.0174077395349741,0.0103637780994177,0.0554189682006836,0.129998609423637
193,-0.156068459153175,-0.165540412068367,-0.00627915980294347,0.0241771247237921,0.0509295463562012,0.154489606618881
194,-0.167882934212685,-0.146137073636055,-0.00631427858024836,0.0328160040080547,0.0440432541072369,0.167028412222862
195,-0.187724366784096,-0.136007577180862,-0.0166226755827665,0.0300883781164885,0.0296137183904648,0.162858948111534
196,-0.210820361971855,-0.134503662586212,-0.0286787692457438,0.0195421408861876,0.0139209600165486,0.145508319139481
197,-0.230479925870895,-0.137175559997559,-0.0355286635458469,0.00785513874143362,0.0062276660464704,0.118829928338528
198,-0.239501640200615,-0.142926260828972,-0.0366681814193726,-0.000207996257813647,0.00972575042396784,0.0888755619525909
199,-0.235874652862549,-0.148797586560249,-0.0352093689143658,-0.00233263173140585,0.024865148589015,0.0670406520366669
200,-0.22062312066555,-0.147220104932785,-0.0311786476522684,0.00378035241737962,0.0523615069687366,0.0608354397118092
201,-0.200215056538582,-0.138704210519791,-0.027082584798336,0.0140185272321105,0.0800843462347984,0.0644038617610931
202,-0.185987621545792,-0.131133288145065,-0.028686486184597,0.0172555949538946,0.0902650654315948,0.0669728145003319
203,-0.182395279407501,-0.12679435312748,-0.0363769233226776,0.00871814414858818,0.0824580863118172,0.0654486492276192
204,-0.185046195983887,-0.122477054595947,-0.0465714149177074,-0.00552013469859958,0.0665080174803734,0.0625627487897873
205,-0.18722066283226,-0.115094184875488,-0.0570279732346535,-0.0170306991785765,0.0458402670919895,0.0620234794914722
206,-0.183710157871246,-0.104749888181686,-0.0680147111415863,-0.0228256862610579,0.0204059742391109,0.0662172362208366
207,-0.171289622783661,-0.0946422889828682,-0.0780244469642639,-0.0244864597916603,-0.00566213158890605,0.0756422579288483
208,-0.150429055094719,-0.0845868065953255,-0.0812437981367111,-0.0222733337432146,-0.0246446635574102,0.0903360620141029
209,-0.125055059790611,-0.0683076903223991,-0.0731449350714684,-0.0120748868212104,-0.0265668891370296,0.111678473651409
210,-0.0969213321805,-0.0434997119009495,-0.0552117303013802,0.00980795919895172,-0.00433005671948195,0.138295784592628
211,-0.0684894695878029,-0.0222741048783064,-0.0364655517041683,0.0366558209061623,0.0321278944611549,0.157327488064766
212,-0.0465287268161774,-0.0206974297761917,-0.0259699113667011,0.0540630631148815,0.0611863695085049,0.154234305024147
213,-0.037758082151413,-0.0364774875342846,-0.0235587451606989,0.054835107177496,0.0709148421883583,0.129262685775757
214,-0.0472581163048744,-0.05323700979352,-0.0245983228087425,0.0419026874005795,0.0634298846125603,0.0937523320317268
215,-0.0722932070493698,-0.061521802097559,-0.0259472895413637,0.0231767743825912,0.0501947626471519,0.061663243919611
216,-0.0972853824496269,-0.060194343328476,-0.0246671810746193,0.0116779915988445,0.0477244555950165,0.0466256476938725
217,-0.110602393746376,-0.0488366074860096,-0.0190179366618395,0.0165977869182825,0.06441730260849,0.052518080919981
218,-0.11514088511467,-0.0299399364739656,-0.00773251242935658,0.0348025858402252,0.0932390093803406,0.0702904313802719
219,-0.114881820976734,-0.0109755955636501,0.00772913545370102,0.0560698285698891,0.117617934942245,0.0875305086374283
220,-0.110899873077869,0.00326626189053059,0.0197024308145046,0.0711707249283791,0.123911634087563,0.0973445847630501
221,-0.108933500945568,0.013839797116816,0.01949811168015,0.0749033764004707,0.111806705594063,0.0978321582078934
222,-0.119038954377174,0.0182716120034456,0.000492511841002852,0.0613321997225285,0.0838378146290779,0.0838962718844414
223,-0.14252658188343,0.0108504295349121,-0.0358099974691868,0.0300880987197161,0.0416729189455509,0.0542278215289116
224,-0.167349606752396,-0.00419064098969102,-0.075144074857235,-0.00493219355121255,-0.00165036716498435,0.0219452083110809
225,-0.184302091598511,-0.0155482580885291,-0.102516628801823,-0.0291356407105923,-0.0320970937609673,0.00113254832103848
226,-0.191197335720062,-0.0157064739614725,-0.112428449094296,-0.0362187586724758,-0.0470862872898579,-0.00326634896919131
227,-0.187422767281532,-0.00380105036310852,-0.107340924441814,-0.0258422754704952,-0.0493251122534275,0.00939049292355776
228,-0.176024481654167,0.011877148412168,-0.0945628806948662,-0.00550693459808826,-0.0424633994698524,0.0347283743321896
229,-0.164861768484116,0.0196231920272112,-0.0818799361586571,0.0132482247427106,-0.0300675630569458,0.0622624307870865
230,-0.161796748638153,0.0174598190933466,-0.0721740126609802,0.024927256628871,-0.0121059315279126,0.0825198814272881
231,-0.165255844593048,0.0155330738052726,-0.0621091201901436,0.0319077484309673,0.0157966185361147,0.0924843996763229
232,-0.166152328252792,0.0184605121612549,-0.0483518354594707,0.0336141027510166,0.0507933683693409,0.0895940810441971
233,-0.156279817223549,0.020595608279109,-0.0324124991893768,0.0288325063884258,0.0794779658317566,0.0756496861577034
234,-0.136872813105583,0.0207536499947309,-0.0206169746816158,0.0235138349235058,0.0924780294299126,0.0644168630242348
235,-0.121776282787323,0.0210204012691975,-0.0173050630837679,0.0241598505526781,0.0919785648584366,0.0711197555065155
236,-0.122769445180893,0.0187551137059927,-0.0201258547604084,0.0306943077594042,0.0837409421801567,0.0943810120224953
237,-0.137896358966827,0.0109585886821151,-0.0266537629067898,0.0357868298888206,0.0683729201555252,0.1132527962327
238,-0.153903275728226,0.00341370888054371,-0.0332478322088718,0.0363941304385662,0.0481063351035118,0.114488169550896
239,-0.16061444580555,0.00213232124224305,-0.0355612114071846,0.0353334695100784,0.0293990951031446,0.104821562767029
240,-0.158266469836235,0.00633072340860963,-0.0332510434091091,0.0347239263355732,0.0150002967566252,0.0962227806448936
241,-0.152186334133148,0.0119744101539254,-0.0321738831698895,0.0336669534444809,0.000410264445235953,0.0904441028833389
242,-0.150713831186295,0.0110801178961992,-0.0424247942864895,0.0256305932998657,-0.021010072901845,0.077063761651516
243,-0.154922157526016,0.00425052037462592,-0.0630429685115814,0.0107939206063747,-0.0452511571347713,0.0541704148054123
244,-0.156257376074791,0.00138170644640923,-0.0834096446633339,-0.0020669512450695,-0.0612588003277779,0.0292979553341866
245,-0.148214906454086,0.00435095094144344,-0.0960464626550674,-0.00850379001349211,-0.0622178837656975,0.00654934719204903
246,-0.135968893766403,0.00447841826826334,-0.098961777985096,-0.0115220649167895,-0.0487605556845665,-0.0113128889352083
247,-0.13410197198391,-0.00589005136862397,-0.0964289531111717,-0.0165217015892267,-0.0285703167319298,-0.0223865751177073
248,-0.147901818156242,-0.0237558502703905,-0.093672089278698,-0.0238715503364801,-0.0100607825443149,-0.0253757294267416
249,-0.169219180941582,-0.0439780540764332,-0.0956675559282303,-0.0329943262040615,-0.0031866196077317,-0.0224672053009272
250,-0.188641011714935,-0.0638560205698013,-0.10632611066103,-0.046268031001091,-0.0157911870628595,-0.0203608386218548
251,-0.199470728635788,-0.0722874999046326,-0.117829814553261,-0.0585749261081219,-0.0384716652333736,-0.0180983729660511
252,-0.199733808636665,-0.0561593547463417,-0.116115733981133,-0.0604052282869816,-0.0503993667662144,-0.00795643217861652
253,-0.192693948745728,-0.0167729891836643,-0.0994056686758995,-0.0511809997260571,-0.0415714792907238,0.00957314018160105
254,-0.179670006036758,0.031043853610754,-0.0780428275465965,-0.0350655391812325,-0.0185188911855221,0.0291533078998327
255,-0.161306738853455,0.0717331990599632,-0.0608774051070213,-0.0150140067562461,0.00496346596628428,0.0525210909545422
256,-0.144645944237709,0.0974596962332726,-0.0510448627173901,0.00356225948780775,0.016039464622736,0.0802707970142365
257,-0.137350514531136,0.107502460479736,-0.0497323796153069,0.0143778529018164,0.0094500295817852,0.101401209831238
258,-0.140892341732979,0.102865427732468,-0.0575538128614426,0.0157416760921478,-0.00953424628823996,0.103799089789391
259,-0.150187268853188,0.0890330299735069,-0.0704189613461494,0.0114135108888149,-0.0274725947529078,0.0888115763664246
260,-0.156151294708252,0.0791391953825951,-0.0790185108780861,0.00652697728946805,-0.0305934529751539,0.067914254963398
261,-0.154076993465424,0.0796224772930145,-0.0782197639346123,0.00252695987001061,-0.0162238702178001,0.0492257662117481
262,-0.147602364420891,0.0847458094358444,-0.0697401240468025,0.000155950663611293,0.0056922035291791,0.0385069772601128
263,-0.143866375088692,0.0866100937128067,-0.059127364307642,0.000740706920623779,0.0204831268638372,0.0384538061916828
264,-0.146639287471771,0.0810283422470093,-0.0531530752778053,0.00292522856034338,0.0210104696452618,0.0418483167886734
265,-0.152436047792435,0.0714347884058952,-0.0544214509427547,0.00436793826520443,0.0126121956855059,0.0414596274495125
266,-0.154472932219505,0.0660805106163025,-0.0599871464073658,0.00363898067735136,0.00436046114191413,0.0400387980043888
267,-0.149093955755234,0.0687223225831985,-0.0631770417094231,0.00086179981008172,0.00322160799987614,0.0440262667834759
268,-0.13568589091301,0.0763258337974548,-0.0594486780464649,-0.00222694617696106,0.0112840514630079,0.05403071641922
269,-0.117815375328064,0.0828605070710182,-0.0530558973550797,-0.00492173479869962,0.0217842236161232,0.0645194798707962
270,-0.104138039052486,0.0849066898226738,-0.0507753826677799,-0.00810496974736452,0.0249379202723503,0.0706277787685394
271,-0.100626021623611,0.0832481384277344,-0.0542777292430401,-0.0134773533791304,0.0171279106289148,0.0701292380690575
272,-0.106713846325874,0.0789855942130089,-0.0628860369324684,-0.023280618712306,0.000864184345118701,0.0600175522267818
273,-0.11671207845211,0.0776049792766571,-0.0715037956833839,-0.0324634723365307,-0.014169336296618,0.0433019921183586
274,-0.12590403854847,0.0813299417495728,-0.0764498263597488,-0.03494006767869,-0.0190579649060965,0.0282907765358686
275,-0.134789928793907,0.0807265341281891,-0.0820060819387436,-0.0357047207653522,-0.0166415106505156,0.0205439869314432
276,-0.139930382370949,0.0759870782494545,-0.0853229612112045,-0.0371644869446754,-0.0111493244767189,0.0253933295607567
277,-0.13550215959549,0.0791003331542015,-0.0785495042800903,-0.0354977995157242,-0.00399367604404688,0.0388995632529259
278,-0.124647930264473,0.0907155498862267,-0.064572662115097,-0.030779892578721,0.00283491681329906,0.0470129102468491
279,-0.118357844650745,0.100508011877537,-0.0496565215289593,-0.0249020718038082,0.00950388610363007,0.0441532246768475
280,-0.124290511012077,0.104984320700169,-0.0340791568160057,-0.0185496285557747,0.0166351981461048,0.0389910154044628
281,-0.13885435461998,0.107009261846542,-0.0203529186546803,-0.0130928317084908,0.021874476224184,0.0399213060736656
282,-0.153264477849007,0.105473645031452,-0.0167237818241119,-0.0127003649249673,0.0202750582247972,0.0432419702410698
283,-0.15853163599968,0.10421646386385,-0.022602392360568,-0.0161351505666971,0.0150712402537465,0.0468066893517971
284,-0.152680799365044,0.108516678214073,-0.0299272164702415,-0.017532454803586,0.0126754837110639,0.0521732866764069
285,-0.147499546408653,0.11306980997324,-0.0364480800926685,-0.0174514558166265,0.0082153556868434,0.0555592887103558
286,-0.15367329120636,0.116220347583294,-0.0414924286305904,-0.0182794295251369,-0.00342820142395794,0.0589831843972206
287,-0.1659936606884,0.126352369785309,-0.0409133657813072,-0.0171656478196383,-0.014228074811399,0.0730018392205238
288,-0.172801673412323,0.143979087471962,-0.0331487469375134,-0.0102854752913117,-0.0128572154790163,0.100213453173637
289,-0.173334553837776,0.15428152680397,-0.024281295016408,-0.00110502215102315,-0.00250319088809192,0.126525193452835
290,-0.174676492810249,0.148744449019432,-0.0207344926893711,0.00272134621627629,0.00438092602416873,0.137343794107437
291,-0.181096091866493,0.134508043527603,-0.0238880068063736,-0.00295061129145324,0.00178676098585129,0.129639491438866
292,-0.190825924277306,0.11883932352066,-0.032301340252161,-0.0158817432820797,-0.00687026511877775,0.110622517764568
293,-0.197318434715271,0.103891171514988,-0.0428466387093067,-0.0304199364036322,-0.0149013726040721,0.0915415808558464
294,-0.196931466460228,0.089990496635437,-0.0532692410051823,-0.0445202775299549,-0.0192050077021122,0.0749665200710297
295,-0.188812389969826,0.0817980691790581,-0.0606928020715714,-0.0552021488547325,-0.0184148848056793,0.061367753893137
296,-0.173355847597122,0.0871530845761299,-0.061906710267067,-0.058830801397562,-0.0134597029536963,0.0552410669624805
297,-0.157866388559341,0.102473758161068,-0.0615380667150021,-0.0606476999819279,-0.0126800304278731,0.0517014265060425
298,-0.148600354790688,0.117655523121357,-0.0643274411559105,-0.0646206513047218,-0.0185337644070387,0.0421240665018559
299,-0.142807483673096,0.132240474224091,-0.0644029304385185,-0.0651456117630005,-0.0205278396606445,0.0311187505722046
300,-0.140241220593452,0.148465767502785,-0.0580884851515293,-0.0601650588214397,-0.0134689547121525,0.0267736688256264
301,-0.145471662282944,0.163089707493782,-0.0495676770806313,-0.0546485036611557,-0.000564340269193053,0.0260304361581802
302,-0.158870726823807,0.171297460794449,-0.0419621877372265,-0.0507923848927021,0.0144139267504215,0.0225952360779047
303,-0.177833706140518,0.170938208699226,-0.0370052643120289,-0.0479156114161015,0.0260416846722364,0.016872338950634
304,-0.19552056491375,0.166682630777359,-0.0359941981732845,-0.0478525198996067,0.0319782346487045,0.0146393906325102
305,-0.201448947191238,0.163969665765762,-0.0384931266307831,-0.0520794056355953,0.0333842225372791,0.0199001636356115
306,-0.194382190704346,0.159806802868843,-0.0458252839744091,-0.0585939474403858,0.0268100630491972,0.0278391316533089
307,-0.183847039937973,0.154225260019302,-0.0565650053322315,-0.0631886944174767,0.0110040865838528,0.0331517532467842
308,-0.178710803389549,0.154035791754723,-0.063609316945076,-0.0643648356199265,-0.00838014017790556,0.0374874509871006
309,-0.179843559861183,0.159317880868912,-0.0641121119260788,-0.0654835253953934,-0.0271204058080912,0.0427022464573383
310,-0.182475969195366,0.166006937623024,-0.0601204447448254,-0.0671324878931046,-0.0414865501224995,0.0494350008666515
311,-0.181059092283249,0.174794003367424,-0.0509179048240185,-0.0640922859311104,-0.0450033843517303,0.0574327893555164
312,-0.172480762004852,0.188002958893776,-0.0359063409268856,-0.0532369837164879,-0.0361296199262142,0.063235878944397
313,-0.162215054035187,0.201280817389488,-0.0226994939148426,-0.0414567403495312,-0.0235157664865255,0.0622572265565395
314,-0.157694593071938,0.207639142870903,-0.019830584526062,-0.0387826673686504,-0.0140553051605821,0.0556982457637787
315,-0.157651498913765,0.205799907445908,-0.0247932933270931,-0.0458188392221928,-0.00439472449943423,0.0522612407803535
316,-0.157663851976395,0.198001176118851,-0.028637608513236,-0.0560361482203007,0.0101505620405078,0.0553526058793068
317,-0.155119508504868,0.1899683624506,-0.0254424531012774,-0.0620741322636604,0.0303896684199572,0.0596588253974915
318,-0.14838233590126,0.189008101820946,-0.0183942578732967,-0.0613445863127708,0.051153052598238,0.0602532550692558
319,-0.142136871814728,0.191454619169235,-0.0189539715647697,-0.0622935891151428,0.0577764771878719,0.0499198623001575
320,-0.144969522953033,0.185171559453011,-0.0347179509699345,-0.0750745385885239,0.0380961075425148,0.024052370339632
321,-0.155728608369827,0.166688814759254,-0.0609389059245586,-0.0971034243702888,-0.000879926956258714,-0.00646467693150043
322,-0.164499133825302,0.142664954066277,-0.0844751223921776,-0.11488238722086,-0.0369984395802021,-0.0236539635807276
323,-0.164541959762573,0.123396754264832,-0.0925312340259552,-0.1153644323349,-0.0506558604538441,-0.0185093656182289
324,-0.157858043909073,0.117388151586056,-0.0818569287657738,-0.0970001593232155,-0.0377888642251492,0.00520888855680823
325,-0.153367131948471,0.124054878950119,-0.0610156208276749,-0.0721635818481445,-0.0116439424455166,0.0335768945515156
326,-0.15460216999054,0.137275859713554,-0.0387750454246998,-0.0536403506994247,0.0120907891541719,0.0538297519087791
327,-0.156085431575775,0.151299268007278,-0.0195858608931303,-0.0457615554332733,0.0254176761955023,0.0616140700876713
328,-0.152865260839462,0.162047147750854,-0.00596085237339139,-0.046472892165184,0.0273418743163347,0.0577488914132118
329,-0.142007052898407,0.169294252991676,0.00368171511217952,-0.049996767193079,0.0247795023024082,0.0481509640812874
330,-0.123936951160431,0.173772260546684,0.00999835971742868,-0.0535087436437607,0.0226898621767759,0.039457943290472
331,-0.104294940829277,0.177986994385719,0.0128568820655346,-0.0557861775159836,0.0201977696269751,0.0351262353360653
332,-0.0899731144309044,0.184067055583,0.0123942010104656,-0.055001363158226,0.015389196574688,0.0340084321796894
333,-0.0831694528460503,0.188051655888557,0.00645944522693753,-0.0510031878948212,0.00728537142276764,0.0333328880369663
334,-0.0821072310209274,0.186107873916626,-0.0041222982108593,-0.0441067442297935,-0.00197031861171126,0.0350036509335041
335,-0.086049884557724,0.177232220768929,-0.0150322038680315,-0.0374873243272305,-0.0113358171656728,0.0411637052893639
336,-0.0925966575741768,0.162152305245399,-0.0215604454278946,-0.0340670943260193,-0.0195044651627541,0.0528316646814346
337,-0.101916559040546,0.14197164773941,-0.0228280983865261,-0.0369559265673161,-0.0250246208161116,0.0686609297990799
338,-0.117883093655109,0.120230168104172,-0.0224254690110683,-0.050100851804018,-0.0290762688964605,0.0811812579631805
339,-0.136116728186607,0.108778320252895,-0.0209137611091137,-0.068462148308754,-0.0290319472551346,0.0860278829932213
340,-0.146927043795586,0.114496186375618,-0.0154521698132157,-0.0827497318387032,-0.022461561486125,0.0858901515603065
341,-0.147707179188728,0.128122821450233,-0.00667273160070181,-0.0913414880633354,-0.0138716083019972,0.0823538154363632
342,-0.145173817873001,0.134661063551903,-0.00072559667751193,-0.0994090214371681,-0.0106778824701905,0.0742846727371216
343,-0.144546344876289,0.128819540143013,0.000115098628157284,-0.106896013021469,-0.0159231126308441,0.0643844604492188
344,-0.143534645438194,0.117180168628693,-0.00321463355794549,-0.109884954988956,-0.0283625610172749,0.0545936301350594
345,-0.144594252109528,0.104193702340126,-0.017521146684885,-0.114231638610363,-0.0502868145704269,0.0391439907252789
346,-0.153314024209976,0.0915791094303131,-0.0420457608997822,-0.122699461877346,-0.0787187591195107,0.0178426224738359
347,-0.163751125335693,0.0842673778533936,-0.0590418726205826,-0.12558376789093,-0.0989554673433304,0.000241773159359582
348,-0.167233169078827,0.0830536484718323,-0.059820931404829,-0.119718730449677,-0.104316532611847,-0.00941841769963503
349,-0.160240113735199,0.0879383906722069,-0.0500923134386539,-0.10830345749855,-0.0984629765152931,-0.0107021722942591
350,-0.139200150966644,0.106455937027931,-0.0320013388991356,-0.0893155783414841,-0.0801520124077797,0.000339740217896178
351,-0.110978119075298,0.139426320791245,-0.0108108650892973,-0.0666660964488983,-0.051385760307312,0.0199575461447239
352,-0.092352032661438,0.172406554222107,0.00129716855008155,-0.0523383319377899,-0.0229977816343308,0.0342255942523479
353,-0.0889717116951942,0.194520279765129,0.00268863304518163,-0.0491167977452278,-0.000813988328445703,0.0364845581352711
354,-0.0934122428297997,0.206458002328873,0.00258615310303867,-0.0490545146167278,0.0156555119901896,0.0335272066295147
355,-0.0992507264018059,0.208056136965752,0.00357128796167672,-0.0491569079458714,0.0221999734640121,0.0303536932915449
356,-0.105279341340065,0.197947427630425,0.000776880129706115,-0.0529220923781395,0.0127873392775655,0.0257934648543596
357,-0.111758917570114,0.18021647632122,-0.00595210818573833,-0.0594220049679279,-0.00974506139755249,0.0226289927959442
358,-0.118913277983665,0.159675508737564,-0.0130936726927757,-0.0653009936213493,-0.0352791212499142,0.0242715608328581
359,-0.124474473297596,0.141379907727242,-0.0182111468166113,-0.0697415992617607,-0.0531798861920834,0.0303300991654396
360,-0.122260235249996,0.134381338953972,-0.016534274443984,-0.0691994801163673,-0.0552005283534527,0.0424499474465847
361,-0.110490024089813,0.141362637281418,-0.00608203886076808,-0.0605412870645523,-0.0405769422650337,0.0608647130429745
362,-0.0969594866037369,0.153436154127121,0.0051820483058691,-0.0500107742846012,-0.0172641072422266,0.0775473043322563
363,-0.0878317281603813,0.163346633315086,0.0113567290827632,-0.0444078966975212,0.00565255852416158,0.0850740969181061
364,-0.0840939581394196,0.169324398040771,0.0135592119768262,-0.0449798107147217,0.0214648023247719,0.0820067003369331
365,-0.08660738915205,0.171772122383118,0.0128576438874006,-0.0515443682670593,0.0298052821308374,0.0721405819058418
366,-0.0958838313817978,0.170894265174866,0.00904267560690641,-0.0627735704183578,0.0322190411388874,0.0621857531368732
367,-0.109646141529083,0.167464703321457,0.00449194386601448,-0.0749889090657234,0.0258690547198057,0.0553261376917362
368,-0.119433753192425,0.167235001921654,0.00650876108556986,-0.0818295031785965,0.0126891899853945,0.0526333935558796
369,-0.121971197426319,0.169822573661804,0.0139494156464934,-0.083794891834259,-0.00554222613573074,0.0509815886616707
370,-0.124238148331642,0.168639212846756,0.0186745934188366,-0.0865011736750603,-0.0281266923993826,0.0458811409771442
371,-0.12957489490509,0.165533170104027,0.0206353105604649,-0.0887094065546989,-0.0447631478309631,0.0386423096060753
372,-0.134836345911026,0.167379781603813,0.024088004603982,-0.0875746384263039,-0.0446537621319294,0.0324398949742317
373,-0.138401925563812,0.175524786114693,0.0303358156234026,-0.083705373108387,-0.0284059401601553,0.0294827520847321
374,-0.142970100045204,0.18220753967762,0.0353596992790699,-0.07951969653368,-0.00860891211777925,0.0287934299558401
375,-0.146956115961075,0.179453074932098,0.0359447635710239,-0.0770477950572968,0.000938972108997405,0.0278384201228619
376,-0.144329309463501,0.169251188635826,0.0355937443673611,-0.0736359506845474,-0.00275284145027399,0.0283685438334942
377,-0.137856304645538,0.158520296216011,0.0376535430550575,-0.0666098371148109,-0.0126561848446727,0.0329177342355251
378,-0.133628264069557,0.153871074318886,0.0409592986106873,-0.059559665620327,-0.0192782152444124,0.0394289940595627
379,-0.128880009055138,0.158566683530808,0.0438972115516663,-0.0548283942043781,-0.018675658851862,0.0450920425355434
380,-0.120384246110916,0.166252061724663,0.0459385439753532,-0.0491774007678032,-0.0128209153190255,0.0502124130725861
381,-0.110388822853565,0.168077126145363,0.0480719842016697,-0.0412976071238518,-0.000487436889670789,0.0560047402977943
382,-0.100507736206055,0.165469542145729,0.0536195635795593,-0.0320617258548737,0.0215710606426001,0.0655335187911987
383,-0.092037595808506,0.163791999220848,0.0608754120767117,-0.0233017131686211,0.0453282035887241,0.0801548510789871
384,-0.0853683277964592,0.162902653217316,0.064043402671814,-0.0196023508906364,0.056585468351841,0.0931857228279114
385,-0.0767339840531349,0.162148132920265,0.0647903457283974,-0.02193234115839,0.0551998913288116,0.0981335788965225
386,-0.0650486424565315,0.162785232067108,0.0663527026772499,-0.0272493679076433,0.0515119582414627,0.0946667492389679
387,-0.0545265339314938,0.168104067444801,0.0675383061170578,-0.0321438498795033,0.051417849957943,0.0867944061756134
388,-0.0494835935533047,0.178791865706444,0.0695367306470871,-0.0331890545785427,0.0544979050755501,0.079800046980381
389,-0.0501997917890549,0.188036307692528,0.0739911422133446,-0.0308466088026762,0.0555986575782299,0.075246274471283
390,-0.0502546019852161,0.189885705709457,0.0784717425704002,-0.0304083824157715,0.0494430921971798,0.0689855590462685
391,-0.0464300848543644,0.181948959827423,0.0816509276628494,-0.0359790809452534,0.0362621583044529,0.0555140823125839
392,-0.0457306914031506,0.164118513464928,0.0884908214211464,-0.0440086908638477,0.0222929194569588,0.0395250618457794
393,-0.0528946928679943,0.145046338438988,0.101649940013886,-0.0460848025977612,0.0163834691047668,0.0347700044512749
394,-0.0632329881191254,0.138683751225472,0.115853190422058,-0.0362668670713902,0.0259490571916103,0.0486781112849712
395,-0.0706213489174843,0.148795709013939,0.125905305147171,-0.0163367688655853,0.0495293661952019,0.0764976069331169
396,-0.0745155513286591,0.168017789721489,0.12821526825428,0.00332699459977448,0.0722976103425026,0.106954835355282
397,-0.0791805908083916,0.188801005482674,0.119901493191719,0.01306470669806,0.0780837833881378,0.130570441484451
398,-0.0900788232684135,0.205518871545792,0.102744057774544,0.0118190506473184,0.0641121119260788,0.14103439450264
399,-0.108640126883984,0.212662369012833,0.0833895206451416,0.00503768492490053,0.0403347350656986,0.135114654898643
400,-0.129595473408699,0.206226646900177,0.0671005174517632,-0.00307013466954231,0.0166760571300983,0.11693299561739
401,-0.145367547869682,0.187947764992714,0.0542142800986767,-0.0139565151184797,-0.00237080687656999,0.0949394404888153
402,-0.151761293411255,0.166676342487335,0.0454442352056503,-0.0286774188280106,-0.012814954854548,0.0744668990373611
403,-0.149900794029236,0.150442823767662,0.0419587641954422,-0.0450280420482159,-0.0137359388172627,0.0557308010756969
404,-0.140488460659981,0.143064334988594,0.0450157858431339,-0.0578414127230644,-0.00667494256049395,0.041592575609684
405,-0.12435957044363,0.14562651515007,0.0543461889028549,-0.061760451644659,0.00480737304314971,0.037460945546627
406,-0.105782300233841,0.153639301657677,0.0641694888472557,-0.0569518804550171,0.0128332935273647,0.0420912578701973
407,-0.0901012495160103,0.1595219373703,0.0687500461935997,-0.0486358553171158,0.0116472924128175,0.0486806966364384
408,-0.0807382389903069,0.164535567164421,0.0703728273510933,-0.0406863391399384,0.00418158480897546,0.0551722794771194
409,-0.076256237924099,0.173903807997704,0.0751265436410904,-0.0326901078224182,-0.000130858752527274,0.0649786219000816
410,-0.0770044028759003,0.178270310163498,0.0790038779377937,-0.0279970914125443,0.00093587429728359,0.0733645632863045
411,-0.0823369771242142,0.168919429183006,0.0765432640910149,-0.0290839578956366,0.00487413071095943,0.0757544860243797
412,-0.0856202989816666,0.155239909887314,0.0737828314304352,-0.0287133976817131,0.0137480059638619,0.0811003893613815
413,-0.0826499983668327,0.14781978726387,0.0778474062681198,-0.0206544902175665,0.0268550533801317,0.0967389792203903
414,-0.0735795646905899,0.148423433303833,0.0903053730726242,-0.00618517259135842,0.0408661738038063,0.119645833969116
415,-0.0632195323705673,0.153320774435997,0.107176147401333,0.00857090018689632,0.0528965070843697,0.141640901565552
416,-0.05914057046175,0.156485259532928,0.119635902345181,0.0153454467654228,0.0573963411152363,0.153144836425781
417,-0.0642935410141945,0.156535550951958,0.122913457453251,0.0113389883190393,0.051154799759388,0.152375355362892
418,-0.0779948309063911,0.151469230651855,0.118397019803524,0.000448395177954808,0.0370958410203457,0.145602598786354
419,-0.0974338427186012,0.135370671749115,0.108349978923798,-0.0128428554162383,0.0217912662774324,0.136941686272621
420,-0.111781090497971,0.115601114928722,0.101495295763016,-0.0208100862801075,0.0189583767205477,0.130400106310844
421,-0.111608371138573,0.108960911631584,0.108390659093857,-0.0159839857369661,0.0386763140559196,0.129978492856026
422,-0.103311061859131,0.11780957877636,0.125994116067886,-0.00296340161003172,0.0709079578518867,0.131158024072647
423,-0.100515551865101,0.131790488958359,0.142320841550827,0.00645238300785422,0.099205382168293,0.126427203416824
424,-0.107916548848152,0.14256788790226,0.148856431245804,0.00715097971260548,0.117109328508377,0.116343893110752
425,-0.118785969913006,0.146977007389069,0.14342637360096,0.00157684762962162,0.121894471347332,0.105933859944344
426,-0.122827924787998,0.146098285913467,0.129558563232422,-0.00806977320462465,0.113045088946819,0.0961706191301346
427,-0.114812649786472,0.141560614109039,0.111306674778461,-0.0218277722597122,0.0968650951981544,0.0814528465270996
428,-0.101683087646961,0.137956991791725,0.0890241265296936,-0.0363849513232708,0.079054556787014,0.0584621205925941
429,-0.0929068028926849,0.144244000315666,0.0674364194273949,-0.0426644459366798,0.0627284571528435,0.0372782796621323
430,-0.0890584513545036,0.15575784444809,0.0538388155400753,-0.0382577516138554,0.0502741597592831,0.0288085844367743
431,-0.0891372263431549,0.157560124993324,0.0473181642591953,-0.0324665382504463,0.042357474565506,0.0301434248685837
432,-0.0929398089647293,0.148897290229797,0.0447241775691509,-0.0318463854491711,0.0390926338732243,0.0340291298925877
433,-0.0971871092915535,0.144482091069222,0.0488803423941135,-0.0309945996850729,0.0404248237609863,0.0420044288039207
434,-0.0981005281209946,0.157044693827629,0.0651951432228088,-0.0198285598307848,0.0473923459649086,0.0598416216671467
435,-0.0975020825862885,0.179780334234238,0.0927325859665871,0.00143843737896532,0.0566764064133167,0.0840555652976036
436,-0.101383656263351,0.19209261238575,0.120008662343025,0.0206623673439026,0.0596094578504562,0.103477694094181
437,-0.107873879373074,0.186907216906548,0.134413570165634,0.030333174392581,0.0533249787986279,0.113139480352402
438,-0.110231339931488,0.172300904989243,0.131190001964569,0.0312912836670876,0.040410440415144,0.113409720361233
439,-0.107679359614849,0.15296958386898,0.114384450018406,0.0240601636469364,0.024169871583581,0.103773817420006
440,-0.101078651845455,0.133167609572411,0.0950095504522324,0.0123805953189731,0.0116189261898398,0.0907184705138206
441,-0.0925813913345337,0.119787164032459,0.0807288885116577,0.00127276848070323,0.00632533943280578,0.0850898995995522
442,-0.0885928198695183,0.113510116934776,0.0715125575661659,-0.0092434324324131,0.0035149825271219,0.0891407802700996
443,-0.0942453518509865,0.110916592180729,0.0671475976705551,-0.0182674638926983,0.000987968291155994,0.0972919538617134
444,-0.106703259050846,0.109971232712269,0.0677309185266495,-0.0229639187455177,0.00304603250697255,0.10363931208849
445,-0.11422660946846,0.111145168542862,0.0735074207186699,-0.0221797805279493,0.0155780641362071,0.108108356595039
446,-0.104797177016735,0.117366492748261,0.0871159806847572,-0.0145569927990437,0.0424116961658001,0.115371495485306
447,-0.0776775851845741,0.127434283494949,0.106211617588997,-0.00134960887953639,0.0778792575001717,0.123488642275333
448,-0.04569136723876,0.134580031037331,0.120705634355545,0.0107482401654124,0.107433751225472,0.12426844984293
449,-0.0222588293254375,0.137099102139473,0.123618319630623,0.0157546289265156,0.123799674212933,0.115637876093388
450,-0.0134615935385227,0.136609151959419,0.114243537187576,0.0101875644177198,0.128583043813705,0.0983905047178268
451,-0.0174298249185085,0.133330389857292,0.0990620106458664,-0.00138962722849101,0.123322777450085,0.0774186626076698
452,-0.0249509289860725,0.131115689873695,0.0906200036406517,-0.00532152876257896,0.110614314675331,0.0669324398040771
453,-0.0286392606794834,0.133793368935585,0.0947128534317017,0.00519904168322682,0.097798228263855,0.0764718353748322
454,-0.0233163964003325,0.142671674489975,0.108833938837051,0.0259658731520176,0.0949164927005768,0.102841585874558
455,-0.00824072957038879,0.157711759209633,0.125907748937607,0.046232957392931,0.0997090190649033,0.132862508296967
456,0.00879896059632301,0.175571009516716,0.138082593679428,0.0575184859335423,0.100255869328976,0.155043721199036
457,0.0219207461923361,0.188022240996361,0.144338622689247,0.0619292482733727,0.0936624780297279,0.167585283517838
458,0.0318804867565632,0.188804134726524,0.148830249905586,0.0653930082917213,0.0862150490283966,0.171720907092094
459,0.0395556427538395,0.181502908468246,0.151357069611549,0.0678246542811394,0.0809006989002228,0.167878940701485
460,0.0397165082395077,0.17064368724823,0.143029078841209,0.0614280290901661,0.069703035056591,0.153801634907722
461,0.0301770828664303,0.15756618976593,0.120058499276638,0.0422332659363747,0.0478873662650585,0.128800466656685
462,0.0187624841928482,0.14565597474575,0.0933430567383766,0.0181589256972075,0.0251438245177269,0.101130053400993
463,0.0092410072684288,0.13482291996479,0.0729453340172768,-0.00262631266377866,0.00947383511811495,0.0791802480816841
464,7.49967439332977E-05,0.122582219541073,0.0607233867049217,-0.0187300946563482,0.00230873306281865,0.0647906139492989
465,-0.00861695874482393,0.112548038363457,0.0560841113328934,-0.0314922668039799,0.00581389013677835,0.0565119758248329
466,-0.0171588975936174,0.110575132071972,0.0571580864489079,-0.0413469709455967,0.0180254280567169,0.051879558712244
467,-0.0235111080110073,0.11676786839962,0.0621731951832771,-0.0434334278106689,0.0314087495207787,0.052660908550024
468,-0.0231251493096352,0.12700654566288,0.0692069977521896,-0.0319053344428539,0.0400252491235733,0.0631729289889336
469,-0.0146818980574608,0.136334106326103,0.0772406235337257,-0.00919613242149353,0.0445597022771835,0.0816735178232193
470,-0.00377075490541756,0.136668547987938,0.0850629583001137,0.0125582627952099,0.0486220754683018,0.0972006246447563
471,0.00192248146049678,0.123975999653339,0.0896138474345207,0.0216014347970486,0.0528936162590981,0.0986155495047569
472,0.00182695931289345,0.106921352446079,0.0904708281159401,0.017709344625473,0.0558743961155415,0.0865664184093475
473,0.000568541057873517,0.0966025441884995,0.0898047313094139,0.00897866580635309,0.0560091249644756,0.0715211927890778
474,0.00210293405689299,0.0958918482065201,0.0901912897825241,0.00334264966659248,0.0543521754443645,0.064022496342659
475,0.00834050215780735,0.100600115954876,0.0931306183338165,0.00291152717545629,0.0547393895685673,0.0659038573503494
476,0.014588232152164,0.102528966963291,0.0950729995965958,0.0032029754947871,0.0561852976679802,0.0682956576347351
477,0.0137835945934057,0.0991887822747231,0.0955665856599808,0.00471602426841855,0.0559029206633568,0.0683812126517296
478,0.0057922312989831,0.094167023897171,0.0993159785866737,0.0110197803005576,0.0572111718356609,0.0725329369306564
479,-0.00630581751465797,0.0855413377285004,0.102904513478279,0.0147113623097539,0.0617268420755863,0.075684130191803
480,-0.0188250318169594,0.073699414730072,0.101387642323971,0.010259110480547,0.0670966058969498,0.0704509019851685
481,-0.0291646718978882,0.0669669955968857,0.096725158393383,0.00410571228712797,0.0700481906533241,0.0630645677447319
482,-0.0392854474484921,0.0691744908690453,0.0906747803092003,0.000269067124463618,0.0647126361727715,0.0595105029642582
483,-0.0484134592115879,0.080804742872715,0.0860068202018738,-0.00196388713084161,0.0508178509771824,0.0586012937128544
484,-0.0500476993620396,0.106227688491344,0.0871610641479492,0.000232942038564943,0.0359712913632393,0.0591201037168503
485,-0.0410282090306282,0.143806979060173,0.0943034961819649,0.00939743686467409,0.0261465068906546,0.0615641623735428
486,-0.0252218693494797,0.179503336548805,0.104639336466789,0.0203586220741272,0.024369640275836,0.0672977566719055
487,-0.00935334898531437,0.198678776621819,0.115430802106857,0.0255613084882498,0.0313023813068867,0.0776687264442444
488,0.00313066109083593,0.198525756597519,0.124475635588169,0.0262271165847778,0.0421572215855122,0.0924746915698051
489,0.0127248167991638,0.186645954847336,0.129226446151733,0.0277138371020556,0.0483652763068676,0.107683889567852
490,0.0180321745574474,0.169619619846344,0.126558467745781,0.0301412083208561,0.0453032664954662,0.115967735648155
491,0.0176615156233311,0.152053087949753,0.117770776152611,0.0319331735372543,0.0389623194932938,0.115012519061565
492,0.0135922348126769,0.141006112098694,0.109347030520439,0.0324460826814175,0.0387220680713654,0.110064119100571
493,0.0058909528888762,0.137333571910858,0.104557499289513,0.0295463725924492,0.0424426272511482,0.10387297719717
494,-0.00613961229100823,0.134019151329994,0.100568994879723,0.0215866565704346,0.040293026715517,0.0931479707360268
495,-0.0167587138712406,0.12931852042675,0.0977776348590851,0.0123675232753158,0.0335092470049858,0.0802103132009506
496,-0.0166081134229898,0.126597255468369,0.100755617022514,0.00887178163975477,0.0361384227871895,0.0777288973331451
497,-0.00719568133354187,0.12258855253458,0.106100417673588,0.0115429498255253,0.0539258792996407,0.0928578302264214
498,-0.00242226687259972,0.111136458814144,0.105179332196712,0.015242874622345,0.0753424018621445,0.11681816726923
499,-0.00897838734090328,0.0921755880117416,0.0953600406646729,0.0165528412908316,0.0876201912760735,0.132979795336723
500,-0.02457988075912,0.0676190033555031,0.076344795525074,0.00923961494117975,0.0838868692517281,0.128220498561859
501,-0.044400293380022,0.0448474511504173,0.0538405515253544,-0.00793602876365185,0.0672989711165428,0.107333265244961
502,-0.0620391070842743,0.0333631411194801,0.0391496792435646,-0.0263659134507179,0.0479576364159584,0.0838353708386421
503,-0.0754308924078941,0.0315310582518578,0.0350682362914085,-0.0395899564027786,0.0291059799492359,0.0612553469836712
504,-0.0840017423033714,0.0371541082859039,0.0388415269553661,-0.042703527957201,0.0123406173661351,0.0423208735883236
505,-0.0865361168980598,0.0540814734995365,0.0497342683374882,-0.0333739779889584,0.00250360486097634,0.032985407859087
506,-0.0817742347717285,0.080314002931118,0.0696093663573265,-0.0139439199119806,0.00609037140384316,0.0380745008587837
507,-0.0697051137685776,0.105826087296009,0.097045436501503,0.010071499273181,0.0254689548164606,0.0569626428186893
508,-0.0561195574700832,0.119078494608402,0.11993633210659,0.0283509436994791,0.0482486411929131,0.0777749493718147
509,-0.0495738908648491,0.111147992312908,0.123827502131462,0.0311432965099812,0.0551471151411533,0.0866464376449585
510,-0.050468273460865,0.0864101052284241,0.109968684613705,0.0202269908040762,0.0418739281594753,0.0837434902787209
511,-0.0501205027103424,0.0622901581227779,0.092718169093132,0.00648993393406272,0.0205887742340565,0.0796050652861595
512,-0.0423661880195141,0.0518199279904366,0.0817393288016319,-0.00359019939787686,0.00179616617970169,0.0796840116381645
513,-0.0262353383004665,0.0591710135340691,0.0820683017373085,-0.0066277701407671,-0.0088342223316431,0.0857577174901962
514,-0.00741664739325643,0.0790712162852287,0.0934703499078751,-0.00116106623318046,-0.00992147997021675,0.097678080201149
515,0.0033482383005321,0.0991665944457054,0.104768365621567,0.00806681253015995,-0.00613247090950608,0.11189416050911
516,0.00863560289144516,0.113948158919811,0.110880337655544,0.0215173121541739,0.00717945070937276,0.132264867424965
517,0.0184345785528421,0.121321976184845,0.117739759385586,0.0422760583460331,0.0377160385251045,0.159793943166733
518,0.0284184347838163,0.115481428802013,0.124246299266815,0.0620227195322514,0.0742146000266075,0.180194839835167
519,0.026956882327795,0.094899870455265,0.120571278035641,0.0677773654460907,0.0979775413870811,0.179916396737099
520,0.0115499645471573,0.0681872889399529,0.102539084851742,0.0548549257218838,0.101846881210804,0.1574537307024
521,-0.00789351854473352,0.054864514619112,0.0811919718980789,0.0326290018856525,0.0922268182039261,0.124782100319862
522,-0.0206458903849125,0.0654429271817207,0.0690947994589806,0.0132127916440368,0.0787823125720024,0.0955371335148811
523,-0.0238019749522209,0.0842458829283714,0.066108264029026,-0.00148374983109534,0.0656009688973427,0.0708057209849358
524,-0.0191707238554955,0.0914807990193367,0.0665391981601715,-0.0126775847747922,0.0551261305809021,0.0480356514453888
525,-0.0109807439148426,0.0828193947672844,0.0667335689067841,-0.0174520518630743,0.0510234497487545,0.0305998492985964
526,-0.00352678494527936,0.0629719868302345,0.0675664246082306,-0.0137840351089835,0.0536739118397236,0.0231272801756859
527,0.00296177575364709,0.0415200479328632,0.0743213295936584,-0.00203156122006476,0.0602056570351124,0.0282206907868385
528,0.0117286993190646,0.0281636044383049,0.0880807638168335,0.0155297201126814,0.0683503672480583,0.0436232276260853
529,0.0192152913659811,0.0185123961418867,0.0951775759458542,0.0255684442818165,0.0705638155341148,0.0551306903362274
530,0.0168388839811087,0.00493287201970816,0.0829238817095757,0.0165048725903034,0.0606717243790627,0.0524850785732269
531,0.00672530010342598,-0.00706713413819671,0.0593561232089996,-0.00181752257049084,0.0447837226092815,0.0451129414141178
532,-0.00143711839336902,-0.0130404159426689,0.0408694408833981,-0.0135579844936728,0.0288381576538086,0.0439787618815899
533,-0.00159433227963746,-0.0146784400567412,0.0379280149936676,-0.0127993850037456,0.0154212703928351,0.0517401956021786
534,0.00740433856844902,-0.0106713604182005,0.0508334152400494,-0.00135473336558789,0.00902822241187096,0.0675443261861801
535,0.0225523635745049,0.00187400553841144,0.0717275813221931,0.0167917981743813,0.0121949948370457,0.0898225978016853
536,0.0342197008430958,0.0195706617087126,0.0887115225195885,0.0341385491192341,0.0205332301557064,0.11320822685957
537,0.0308036059141159,0.0355480201542377,0.090573288500309,0.041316632181406,0.0260444860905409,0.12718865275383
538,0.0145303215831518,0.0467224940657616,0.0782775357365608,0.0372531525790691,0.0270326733589172,0.127808317542076
539,0.000990927335806191,0.052089586853981,0.0642000511288643,0.027419401332736,0.0268593598157167,0.120421625673771
540,-0.00236583617515862,0.0535986945033073,0.0569063946604729,0.0173971634358168,0.0274061318486929,0.112421356141567
541,-0.00230165291577578,0.0516167506575584,0.0513053275644779,0.00945098511874676,0.0252542812377214,0.106637343764305
542,-0.00444623176008463,0.0475289523601532,0.041545532643795,0.00385397812351584,0.0191947910934687,0.100936159491539
543,-0.0112791275605559,0.0460578314960003,0.0320502631366253,-0.000963295344263315,0.0176067464053631,0.0909242853522301
544,-0.0218752678483725,0.0427274443209171,0.0277558267116547,-0.00963502377271652,0.0267587751150131,0.0737838819622993
545,-0.0264930687844753,0.0357122235000134,0.0305481217801571,-0.0201436728239059,0.0419098772108555,0.0571593903005123
546,-0.0193937290459871,0.0356005467474461,0.0408345051109791,-0.022490918636322,0.0536954328417778,0.0555210635066032
547,-0.00383546901866794,0.0468139015138149,0.0565374940633774,-0.0101645141839981,0.0594485886394978,0.0746217593550682
548,0.0139424176886678,0.0570960938930511,0.0694193989038467,0.00921408832073212,0.0601405464112759,0.0995661020278931
549,0.0289354287087917,0.0540678650140762,0.071441575884819,0.0209393613040447,0.0568252764642239,0.108252994716167
550,0.0419455654919147,0.0430999509990215,0.0668623149394989,0.021888867020607,0.0552274398505688,0.0966909304261208
551,0.0531756766140461,0.0350639447569847,0.0620812252163887,0.0180695075541735,0.0579216070473194,0.0737804472446442
552,0.0591098591685295,0.0265983380377293,0.0553577318787575,0.0125289708375931,0.0611227639019489,0.0466901659965515
553,0.0588055923581123,0.00477968063205481,0.0434344336390495,0.00388440233655274,0.0610877312719822,0.0201027225703001
554,0.0573747456073761,-0.02832699008286,0.0308585651218891,-0.00654068123549223,0.0603296160697937,0.000693928624968976
555,0.062601812183857,-0.0512046217918396,0.0278643034398556,-0.0121638895943761,0.0662139728665352,-0.00260736490599811
556,0.0742762982845306,-0.0505306385457516,0.0359792150557041,-0.0113735226914287,0.0766566395759583,0.00996331218630075
557,0.086371622979641,-0.0319434516131878,0.0484192185103893,-0.00676852883771062,0.0817882046103477,0.0298477075994015
558,0.0981915593147278,-0.00584211433306336,0.0622051320970058,0.00360478274524212,0.078971303999424,0.0537602417171001
559,0.110176421701908,0.0191044248640537,0.0767121464014053,0.0190576985478401,0.0725871920585632,0.0822126939892769
560,0.116830810904503,0.0346023514866829,0.086015097796917,0.0313898213207722,0.06763856112957,0.110495373606682
561,0.116224728524685,0.0385994724929333,0.0842038840055466,0.0375091768801212,0.0705259963870049,0.13267819583416
562,0.115762121975422,0.0370994545519352,0.073155552148819,0.0407345332205296,0.0816374346613884,0.14667372405529
563,0.119005024433136,0.0299461651593447,0.0581903122365475,0.037605918943882,0.0865110456943512,0.147557139396667
564,0.123071119189262,0.016260402277112,0.0464650057256222,0.0269891414791346,0.0762920826673508,0.13653177022934
565,0.123473420739174,0.0094514349475503,0.0438582636415958,0.0196656044572592,0.0606322400271893,0.127810895442963
566,0.114265605807304,0.0171808749437332,0.0464727766811848,0.0199110023677349,0.0471118353307247,0.128034383058548
567,0.0966765284538269,0.0282879583537579,0.0462081842124462,0.0205993764102459,0.0334658473730087,0.130340233445168
568,0.0814999788999558,0.0346054024994373,0.0440462939441204,0.0212412439286709,0.0213008914142847,0.129765808582306
569,0.0767517015337944,0.0395641177892685,0.0488506555557251,0.0292851570993662,0.0172970313578844,0.128066167235374
570,0.0816512405872345,0.0454915724694729,0.0651733726263046,0.0479185022413731,0.0251130033284426,0.129232257604599
571,0.0904946550726891,0.0474537722766399,0.0854121521115303,0.0685875490307808,0.0413873232901096,0.130253657698631
572,0.097472071647644,0.039248064160347,0.0966802313923836,0.0777380988001823,0.056971650570631,0.122378043830395
573,0.100537002086639,0.0232187081128359,0.0940959677100182,0.0726325139403343,0.0662155374884605,0.105696029961109
574,0.103391967713833,0.00992592889815569,0.0831157267093658,0.0618557818233967,0.0716429576277733,0.0890290066599846
575,0.110268615186214,0.00603894842788577,0.0705496817827225,0.0520494319498539,0.0761929824948311,0.0786664038896561
576,0.117084302008152,0.00736021297052503,0.0575599782168865,0.0421458147466183,0.0762030407786369,0.0731135979294777
577,0.119348980486393,0.00830591283738613,0.0477011241018772,0.0339454673230648,0.0700305104255676,0.0694220140576363
578,0.119623988866806,0.00998605415225029,0.0474811755120754,0.0334424860775471,0.0619144774973392,0.0678308755159378
579,0.118311688303947,0.0122112575918436,0.0540320947766304,0.0385217070579529,0.0517439506947994,0.0680012106895447
580,0.112341500818729,0.0103241903707385,0.0600359886884689,0.0416641049087048,0.0386497974395752,0.0699554830789566
581,0.100379787385464,0.00326022319495678,0.0626459345221519,0.04034024477005,0.0289751514792442,0.0741819739341736
582,0.0830762833356857,-0.0065280101262033,0.0594664849340916,0.0355824083089828,0.0273927785456181,0.0772504881024361
583,0.0679799318313599,-0.0138910068199039,0.0533087737858295,0.0304978787899017,0.0337227657437325,0.0772258117794991
584,0.0675632134079933,-0.0126058058813214,0.0532871745526791,0.0302196275442839,0.0493520200252533,0.077852837741375
585,0.0820889696478844,-0.00458752643316984,0.0586482994258404,0.0341106466948986,0.0706809014081955,0.0817860886454582
586,0.09849913418293,0.00363934668712318,0.0614807121455669,0.037126611918211,0.087177686393261,0.0901474058628082
587,0.108657069504261,0.0132268266752362,0.0613977983593941,0.0398638807237148,0.0940871462225914,0.105193242430687
588,0.112772978842258,0.0264351405203342,0.0594823248684406,0.0449568443000317,0.0906834900379181,0.124961331486702
589,0.113472804427147,0.03613256290555,0.0540254265069962,0.0495534650981426,0.0764153450727463,0.142263039946556
590,0.116134136915207,0.0379228368401527,0.0467293336987495,0.0493780747056007,0.0575088150799274,0.150849252939224
591,0.124681137502193,0.0393562763929367,0.0415447875857353,0.0453803576529026,0.0417645871639252,0.148462846875191
592,0.135693043470383,0.046421654522419,0.0387377552688122,0.0393794290721416,0.0303353257477283,0.134960561990738
593,0.143154233694077,0.054371565580368,0.035407479852438,0.0291165765374899,0.0222025495022535,0.113199301064014
594,0.146593287587166,0.0580257847905159,0.0340184196829796,0.0180590264499187,0.0196562185883522,0.0928718969225883
595,0.147064343094826,0.0599146001040936,0.038884375244379,0.0148965455591679,0.0218699034303427,0.082381546497345
596,0.141603469848633,0.0618412606418133,0.0452137812972069,0.0186096802353859,0.0209860596805811,0.0790036991238594
597,0.128579035401344,0.0600320547819138,0.0461832657456398,0.0209392551332712,0.0130755035206676,0.0749300345778465
598,0.113212861120701,0.0558560155332088,0.0447975471615791,0.0204660147428513,0.005717599298805,0.0677530393004417
599,0.102477043867111,0.054979931563139,0.0463157743215561,0.021497180685401,0.00816945172846317,0.0603011325001717
600,0.0992801263928413,0.0563783533871174,0.050813514739275,0.0255647841840982,0.0229972302913666,0.058306697756052
601,0.103581644594669,0.0566604174673557,0.0583371594548225,0.0332237705588341,0.0472744442522526,0.0698249489068985
602,0.111887313425541,0.0547940917313099,0.0663481503725052,0.0445351675152779,0.0712080672383308,0.0942304581403732
603,0.119759909808636,0.0486083626747131,0.0680515617132187,0.0543280094861984,0.0840906649827957,0.117327004671097
604,0.130283161997795,0.0409682914614677,0.0626174956560135,0.0590558908879757,0.0859306007623672,0.129957303404808
605,0.145950183272362,0.035841066390276,0.0538131445646286,0.0599313080310822,0.0799345523118973,0.134903833270073
606,0.157680168747902,0.0258402172476053,0.0427131876349449,0.05605848133564,0.066148541867733,0.133410751819611
607,0.160062149167061,0.00740923499688506,0.034580834209919,0.0496510379016399,0.0538663975894451,0.126546815037727
608,0.159311980009079,-0.00881385896354914,0.037055030465126,0.0476120971143246,0.0569779686629772,0.11882221698761
609,0.159352257847786,-0.013820662163198,0.0464620888233185,0.0502693727612495,0.073096826672554,0.110251620411873
610,0.157632455229759,-0.0103823952376843,0.0499823577702045,0.0513418950140476,0.0846963673830032,0.0979730486869812
611,0.15229170024395,-0.00616786815226078,0.0410856753587723,0.0480895191431046,0.0787801966071129,0.0845510959625244
612,0.143462345004082,-0.00399837270379066,0.023674139752984,0.0403228178620338,0.055686466395855,0.0724993497133255
613,0.131081804633141,-0.00331416446715593,0.00456410739570856,0.0271267872303724,0.0240829270333052,0.0587355829775333
614,0.117213688790798,-0.00520924432203174,-0.00940078031271696,0.0116510977968574,-0.00414775079116225,0.0446889698505402
615,0.10570165514946,-0.00914736371487379,-0.0147993750870228,-0.00115921872202307,-0.020095206797123,0.0364797972142696
616,0.0978289693593979,-0.00897219963371754,-0.0158744398504496,-0.00938946008682251,-0.0235299468040466,0.03631791472435
617,0.0951084047555923,-0.000847494229674339,-0.0165656581521034,-0.0120144160464406,-0.0185366589576006,0.0451194010674953
618,0.101938143372536,0.0103821437805891,-0.0133413905277848,-0.00706511689350009,-0.00652397563681006,0.0622511953115463
619,0.11499597877264,0.0161863453686237,-0.00657327007502317,0.00115183694288135,0.00812830589711666,0.0766087993979454
620,0.124420017004013,0.0155033487826586,-0.00247371173463762,0.00522386655211449,0.0170293264091015,0.0769404247403145
621,0.130331382155418,0.0167327858507633,0.00144384987652302,0.00907503813505173,0.0196911357343197,0.0692513212561607
622,0.136688232421875,0.0209684073925018,0.0104863196611404,0.0177738852798939,0.0200606510043144,0.0620095059275627
623,0.142430156469345,0.0214636437594891,0.0238481890410185,0.02751325070858,0.0213247407227755,0.0550099536776543
624,0.146806135773659,0.0149220265448093,0.0360641106963158,0.0326535627245903,0.0264726113528013,0.0476627312600613
625,0.150162577629089,0.00132129504345357,0.0398408621549606,0.030000414699316,0.0347208455204964,0.0417448244988918
626,0.15221680700779,-0.0133387623354793,0.0343372449278831,0.0212121866643429,0.0416503623127937,0.0396010428667068
627,0.15379986166954,-0.0161284282803535,0.0274069420993328,0.0136766089126468,0.0443936623632908,0.0428859330713749
628,0.157215550541878,-0.00245853699743748,0.02760274335742,0.0150230722501874,0.0472168326377869,0.0539301559329033
629,0.159841641783714,0.0112066473811865,0.0321882404386997,0.0226858295500278,0.0535512790083885,0.0697940438985825
630,0.157625287771225,0.00819702446460724,0.0323824882507324,0.0287558119744062,0.0614376626908779,0.0834880173206329
631,0.154526814818382,-0.00642820261418819,0.0279235579073429,0.032361451536417,0.0712763071060181,0.0940883755683899
632,0.161954119801521,-0.0170274283736944,0.0248978789895773,0.0384489893913269,0.0868697538971901,0.103820249438286
633,0.188463613390923,-0.0159395765513182,0.0287591833621264,0.0494254380464554,0.109258271753788,0.111467242240906
634,0.225998595356941,-0.00726693822070956,0.0367440022528172,0.0575255826115608,0.127129316329956,0.109666131436825
635,0.252121359109879,0.000700470875017345,0.0357775948941708,0.0497825853526592,0.119559943675995,0.0893773883581162
636,0.253920495510101,0.00319141219370067,0.0193727798759937,0.0254012309014797,0.0814121887087822,0.0535500571131706
637,0.243138909339905,0.0038894705940038,-0.000946593878325075,-0.000635550008155406,0.0343773141503334,0.019853675737977
638,0.237757444381714,0.0109166530892253,-0.00883596390485764,-0.0136945247650146,0.00270695658400655,0.00431257393211126
639,0.24052757024765,0.0271923691034317,0.000740402843803167,-0.00908093992620707,-0.00690494338050485,0.0103189954534173
640,0.242315322160721,0.0469715297222137,0.0172191392630339,0.00806753244251013,-0.00169589393772185,0.0298267751932144
641,0.235288187861443,0.0603572614490986,0.0248985420912504,0.0256481617689133,0.007628601975739,0.048113077878952
642,0.221248090267181,0.0636962056159973,0.0213117673993111,0.0366422533988953,0.0173379462212324,0.0581866092979908
643,0.20979468524456,0.0617236159741879,0.017650818452239,0.0444409102201462,0.0337990447878838,0.0676541775465012
644,0.207794815301895,0.0594434104859829,0.0224005077034235,0.0533824563026428,0.0609042532742023,0.0853067860007286
645,0.2118771225214,0.056513749063015,0.0307531990110874,0.0605522841215134,0.086656428873539,0.10553864389658
646,0.215010151267052,0.0503776744008064,0.0347091928124428,0.0613992251455784,0.0976157411932945,0.113244950771332
647,0.215473219752312,0.0418897159397602,0.0366728864610195,0.0582290850579739,0.0985307544469833,0.1023183837533
648,0.213889673352242,0.0337124168872833,0.0406144000589848,0.0548656024038792,0.0982927605509758,0.0792282074689865
649,0.211579278111458,0.0278290789574385,0.0446785241365433,0.0520465038716793,0.0951531976461411,0.0566507652401924
650,0.212490275502205,0.0246709194034338,0.0461903139948845,0.0491863191127777,0.0841248109936714,0.0442821122705936
651,0.218529239296913,0.0199827495962381,0.0417617559432983,0.0443917438387871,0.0638180524110794,0.0395646877586842
652,0.227522954344749,0.0117141613736749,0.0310313664376736,0.0387328863143921,0.0406387075781822,0.0368958041071892
653,0.233876377344131,0.00465075904503465,0.0178277716040611,0.0343785919249058,0.024432934820652,0.0341555885970593
654,0.230875194072723,-0.000986867933534086,0.0035819923505187,0.0281672570854425,0.0164355169981718,0.0253042411059141
655,0.218941614031792,-0.00800259504467249,-0.00919975526630878,0.0180593952536583,0.0125450501218438,0.00825596507638693
656,0.20540452003479,-0.012696098536253,-0.0148294344544411,0.00953555293381214,0.0120854675769806,-0.00843948591500521
657,0.194754302501678,-0.0115335853770375,-0.0143086686730385,0.00679797399789095,0.0119895962998271,-0.0182252619415522
658,0.188056334853172,-0.00550020951777697,-0.0138589721173048,0.00641562789678574,0.00638868054375052,-0.0218396447598934
659,0.188063696026802,0.00235420372337103,-0.0138161303475499,0.00547039229422808,-0.0023986401502043,-0.0195963941514492
660,0.195823818445206,0.00628149602562189,-0.0115138245746493,0.00525508355349302,-0.0073605109937489,-0.0110460510477424
661,0.207832664251328,0.00547442957758904,-0.00568802747875452,0.00837563164532185,-0.0037780380807817,0.00232243747450411
662,0.219453722238541,0.00442570401355624,0.00436828285455704,0.0159371253103018,0.00978043209761381,0.0169935878366232
663,0.225615039467812,0.00233676796779037,0.0151691734790802,0.0256926976144314,0.0270681511610746,0.0283689722418785
664,0.221799314022064,-0.00400188518688083,0.0199966561049223,0.03374307975173,0.0380119383335114,0.0350694730877876
665,0.208661139011383,-0.0138022750616074,0.0159407667815685,0.0370443873107433,0.0386426672339439,0.036623302847147
666,0.191515386104584,-0.0225844196975231,0.00797480624169111,0.0364021137356758,0.032563254237175,0.0308750066906214
667,0.174240842461586,-0.0265835877507925,0.00269238371402025,0.0336129926145077,0.0229240395128727,0.0175142381340265
668,0.159140110015869,-0.0234840158373117,0.00067414779914543,0.0294597521424294,0.0102825621142983,0.000948671135120094
669,0.151359081268311,-0.00707679381594062,0.00113376090303063,0.0269258879125118,-0.00165877619292587,-0.00988347735255957
670,0.151321858167648,0.0203421022742987,0.00177510152570903,0.0246457140892744,-0.0114377718418837,-0.012556373141706
671,0.153173640370369,0.0421932265162468,0.000606696296017617,0.0192296616733074,-0.0190277528017759,-0.0107275759801269
672,0.154559761285782,0.0479102730751038,0.000280401203781366,0.0145742585882545,-0.0211079102009535,-0.00280285021290183
673,0.157410815358162,0.0429917424917221,0.00310637545771897,0.0182384476065636,-0.0153284845873713,0.014064016751945
674,0.161137416958809,0.0360646173357964,0.00752731552347541,0.0307885706424713,-0.00343010504730046,0.0330562256276608
675,0.160530775785446,0.0266873016953468,0.00774781499058008,0.0413947552442551,0.00789006985723972,0.0394368469715118
676,0.15530152618885,0.0131525648757815,0.00196019420400262,0.0418672263622284,0.0158811174333096,0.0279983393847942
677,0.150811240077019,-0.00191969366278499,-0.00434270780533552,0.0350223109126091,0.0249111410230398,0.0068585891276598
678,0.153507933020592,-0.01385597884655,-0.00283261761069298,0.0301808957010508,0.0412247814238071,-0.0105034364387393
679,0.166321828961372,-0.019184023141861,0.00933236069977283,0.0335163734853268,0.0636693388223648,-0.0145915979519486
680,0.181892573833466,-0.019961629062891,0.0215244833379984,0.0391094125807285,0.0781915858387947,-0.00853121373802423
681,0.187049090862274,-0.0239937044680119,0.0176050998270512,0.0330577902495861,0.0693911984562874,-0.00452791806310415
682,0.175823897123337,-0.0367154143750668,-0.00450279703363776,0.0100811589509249,0.0368198789656162,-0.00907289423048496
683,0.157506942749023,-0.0512589775025845,-0.0285888910293579,-0.0161670166999102,-0.00169158854987472,-0.0141199501231313
684,0.145136147737503,-0.0581085123121738,-0.0426830053329468,-0.0307564530521631,-0.0288503393530846,-0.0117882629856467
685,0.138011693954468,-0.0612340271472931,-0.0521951429545879,-0.0357031598687172,-0.0466831587255001,-0.00866579078137875
686,0.12897202372551,-0.0666671097278595,-0.0629654601216316,-0.0363531745970249,-0.0646394491195679,-0.00987736787647009
687,0.120187811553478,-0.0672412067651749,-0.0677099004387856,-0.0274868570268154,-0.0789424479007721,-0.00426027644425631
688,0.11794389039278,-0.0549762547016144,-0.0582825429737568,-0.00638159783557057,-0.0783866122364998,0.0161723010241985
689,0.123423926532269,-0.0324404947459698,-0.0381666161119938,0.0182235427200794,-0.0588277615606785,0.0416863262653351
690,0.132557794451714,-0.0102996286004782,-0.0194767788052559,0.0341050885617733,-0.0285615809261799,0.0574077591300011
691,0.140569508075714,0.0037198185455054,-0.0105043444782496,0.0355741418898106,-0.00113813753705472,0.058696161955595
692,0.145188331604004,0.0114164622500539,-0.00916128419339657,0.0268965978175402,0.0166944265365601,0.0514495074748993
693,0.147105723619461,0.0173502620309591,-0.00811213534325361,0.0182908363640308,0.0269819088280201,0.0433072783052921
694,0.149860069155693,0.0234831944108009,-0.00331823341548443,0.0164891816675663,0.0342152044177055,0.0371851697564125
695,0.155169412493706,0.0262681394815445,0.000717716000508517,0.0180373378098011,0.0382021442055702,0.029062032699585
696,0.162053868174553,0.0211731512099504,-0.000826986040920019,0.0183714404702187,0.0375827327370644,0.0175759680569172
697,0.169156491756439,0.0099053680896759,-0.00519591476768255,0.0181064307689667,0.0336803533136845,0.00822544377297163
698,0.173012360930443,-0.00170417025219649,-0.0080232284963131,0.0169037859886885,0.0269762650132179,0.00257140817120671
699,0.172774016857147,-0.00489649502560496,-0.00753113580867648,0.0170983746647835,0.0228525642305613,0.00220326078124344
700,0.172938600182533,0.00476994831115007,-0.00278566824272275,0.0237791892141104,0.0314128845930099,0.0149798560887575
701,0.174255311489105,0.016583701595664,0.00465885270386934,0.0324908718466759,0.0522704310715199,0.0390053279697895
702,0.174209326505661,0.0184274353086948,0.0106571149080992,0.0340321846306324,0.0735567882657051,0.0581201948225498
703,0.176095753908157,0.0154319405555725,0.0123814214020967,0.0283807702362537,0.0848802179098129,0.06190250441432
704,0.181123375892639,0.0178563706576824,0.00721160741522908,0.0205393582582474,0.0812068805098534,0.0528380200266838
705,0.184143289923668,0.0243332013487816,-0.00507722655311227,0.0145795410498977,0.0635580122470856,0.0389861017465591
706,0.183737501502037,0.0265608299523592,-0.0189243033528328,0.0131254987791181,0.0390293747186661,0.0279163047671318
707,0.182325080037117,0.0206423904746771,-0.0273161567747593,0.0151342488825321,0.0160577800124884,0.0220650397241116
708,0.184661343693733,0.0130721777677536,-0.0244175456464291,0.0218529086560011,0.00449295667931437,0.0223396494984627
709,0.190395325422287,0.00939094088971615,-0.0134842023253441,0.0322311781346798,0.00678332382813096,0.0258628204464912
710,0.193438023328781,0.00781731493771076,-0.00317894387990236,0.0390566997230053,0.0139098055660725,0.029150702059269
711,0.192994445562363,0.00887996517121792,0.00485505629330873,0.0406875461339951,0.0186276454478502,0.0367520526051521
712,0.186827331781387,0.0113354986533523,0.00591404922306538,0.0359804295003414,0.0160358063876629,0.0458368808031082
713,0.173245996236801,0.0132713317871094,-0.00399600155651569,0.0233750753104687,0.00575500400736928,0.0469750165939331
714,0.157163798809052,0.0177537649869919,-0.0156988818198442,0.00851560197770596,-0.00627630995586514,0.0398226007819176
715,0.141324296593666,0.0245622675865889,-0.0202026665210724,-0.0025696107186377,-0.0174154229462147,0.0287361163645983
716,0.126762300729752,0.0312505923211575,-0.0172856971621513,-0.0059168147854507,-0.025101063773036,0.0199397280812263
717,0.115539744496346,0.0388149209320545,-0.0111787533387542,-0.00133452948648483,-0.0254219099879265,0.017529983073473
718,0.105692118406296,0.0443000420928001,-0.00925952568650246,0.00276219518855214,-0.0231072492897511,0.0152117870748043
719,0.0941447913646698,0.0420354269444942,-0.0140869235619903,0.00053675752133131,-0.0251578707247972,0.00851412117481232
720,0.0812793374061584,0.0323373824357986,-0.0210542213171721,-0.00537282694131136,-0.0312414262443781,0.00223401072435081
721,0.0660959184169769,0.0175924934446812,-0.029173331335187,-0.0140208965167403,-0.0403333306312561,-0.00411221524700522
722,0.0489293411374092,0.000610019254963845,-0.039554625749588,-0.0241000130772591,-0.0513819381594658,-0.0138224381953478
723,0.0355673991143703,-0.0152446776628494,-0.0501740835607052,-0.0310450866818428,-0.061865359544754,-0.0229308120906353
724,0.0334750525653362,-0.0254410821944475,-0.0560560002923012,-0.0312705934047699,-0.0676474720239639,-0.0243088956922293
725,0.0436374694108963,-0.02684679441154,-0.0556598678231239,-0.0264816023409367,-0.0651569738984108,-0.0179451182484627
726,0.0605326145887375,-0.0201623272150755,-0.051593229174614,-0.0200379658490419,-0.0540468245744705,-0.00860039703547955
727,0.083627350628376,0.0018340926617384,-0.0383448302745819,-0.00637111067771912,-0.0300405453890562,0.00808234512805939
728,0.112477190792561,0.0428697727620602,-0.0121179930865765,0.0174772292375565,0.00843289587646723,0.0339975506067276
729,0.138525456190109,0.0824979841709137,0.0146472714841366,0.0396329574286938,0.0490625351667404,0.0538976825773716
730,0.156672045588493,0.102384924888611,0.0305422097444534,0.0512189641594887,0.0771787986159325,0.0576347038149834
731,0.168939486145973,0.104518480598927,0.0367543064057827,0.0541693232953548,0.0850835666060448,0.053303636610508
732,0.175214678049088,0.093055747449398,0.0348454564809799,0.0484522916376591,0.0699525773525238,0.0491040349006653
733,0.176629766821861,0.0736724436283112,0.0255245231091976,0.0361939892172813,0.0395354256033897,0.0470075979828835
734,0.179479315876961,0.0558946654200554,0.0158313401043415,0.0277293249964714,0.0111814634874463,0.0473541021347046
735,0.183289155364037,0.0410387329757214,0.010028013959527,0.0263821426779032,-0.00661533046513796,0.0450125858187675
736,0.180021196603775,0.0259507950395346,0.00441081961616874,0.0241000279784203,-0.0162509512156248,0.0340025499463081
737,0.166373074054718,0.0137646561488509,-0.00354555994272232,0.0161202233284712,-0.0190263576805592,0.0153992101550102
738,0.144993424415588,0.00779695808887482,-0.0124528650194407,0.00472848489880562,-0.016994297504425,-0.0062521155923605
739,0.119837053120136,0.00484470278024673,-0.0213722158223391,-0.00867056660354137,-0.0142918108031154,-0.027152843773365
740,0.0969865992665291,0.002682103542611,-0.0291928090155125,-0.0229424610733986,-0.0110005252063274,-0.0422017835080624
741,0.0848412811756134,0.0047175376676023,-0.0314782857894897,-0.0335400551557541,-0.00383519008755684,-0.046025387942791
742,0.0842390954494476,0.0118934419006109,-0.0267776288092136,-0.0386585518717766,0.00712659442797303,-0.0425263531506062
743,0.0880873277783394,0.0210608579218388,-0.0164918806403875,-0.0371845439076424,0.0205081440508366,-0.0375581681728363
744,0.0896973833441734,0.0261649005115032,-0.00464348215609789,-0.0298799742013216,0.029519384726882,-0.0321956127882004
745,0.0850062221288681,0.0202731378376484,-0.00103569298516959,-0.023521913215518,0.0219621602445841,-0.0293996054679155
746,0.0757886990904808,0.00522927474230528,-0.00913942977786064,-0.021110026165843,-0.000956689123995602,-0.0278047099709511
747,0.0715521946549416,-0.00749492365866899,-0.0197818968445063,-0.0187387764453888,-0.0219891294836998,-0.0201060865074396
748,0.0797217637300491,-0.00889834202826023,-0.0224215071648359,-0.0119041996076703,-0.0281060114502907,-0.00574450707063079
749,0.0944647938013077,-0.00333161093294621,-0.0168198496103287,-0.00277750892564654,-0.023499995470047,0.00485028279945254
750,0.109188005328178,0.00331111019477248,-0.00703078648075461,0.00500492192804813,-0.0157358627766371,0.00629310496151447
751,0.121861524879932,0.0100706843659282,0.00240993639454246,0.0107271075248718,-0.0101759964600205,0.00218927673995495
752,0.126123130321503,0.0116229392588139,0.0052900118753314,0.01218575052917,-0.0134825352579355,-0.00358418212272227
753,0.119838118553162,0.00558080477640033,0.0025394675321877,0.00978097878396511,-0.0220092926174402,-0.00507341139018536
754,0.110870040953159,-0.00150092807598412,0.000401525525376201,0.00721576763316989,-0.0232529006898403,0.00237557315267622
755,0.108948014676571,-0.00238265632651746,0.00221490627154708,0.00746150314807892,-0.0100882798433304,0.0189009737223387
756,0.115314930677414,0.00462768552824855,0.00580039899796247,0.00953145977109671,0.0114005906507373,0.0383672453463078
757,0.122042216360569,0.0147650297731161,0.00680542970076203,0.00959395430982113,0.0296053737401962,0.0474660620093346
758,0.123583950102329,0.0190509539097548,0.00441841362044215,0.00614745961502194,0.0401602946221828,0.037996631115675
759,0.123397499322891,0.0171873234212399,0.00219677947461605,0.00182184251025319,0.0445323772728443,0.019796147942543
760,0.126313909888268,0.0180370528250933,0.00384384859353304,0.00132455094717443,0.0428449027240276,0.0100248139351606
761,0.132690012454987,0.0239098779857159,0.0092061385512352,0.00611374294385314,0.0359305553138256,0.0138831976801157
762,0.142834916710854,0.0328602306544781,0.0169525276869535,0.0142157590016723,0.0292496122419834,0.0270076207816601
763,0.157232418656349,0.0429381132125854,0.0265049524605274,0.0235467832535505,0.025861207395792,0.0431712195277214
764,0.172205373644829,0.0489809438586235,0.035161666572094,0.031095739454031,0.0229410771280527,0.056085143238306
765,0.182889521121979,0.0490576215088367,0.041388213634491,0.034886222332716,0.0208416469395161,0.0641516596078873
766,0.18692122399807,0.0457210280001163,0.0462740361690521,0.0347462259232998,0.023209298029542,0.0673191770911217
767,0.183150380849838,0.0388531200587749,0.045348733663559,0.0301082246005535,0.0278557687997818,0.0628132522106171
768,0.173193976283073,0.0266229547560215,0.031292736530304,0.0218156799674034,0.0296105090528727,0.0536397732794285
769,0.164168030023575,0.0124420933425426,0.00913573615252972,0.0142765874043107,0.0287191607058048,0.0506765991449356
770,0.162239342927933,0.00379437417723238,-0.00777800241485238,0.0121682099997997,0.0268545150756836,0.0586583167314529
771,0.165534779429436,0.00392022030428052,-0.0142058804631233,0.0162105858325958,0.0229602605104446,0.0706478953361511
772,0.167183950543404,0.00962046254426241,-0.0145143559202552,0.0240639206022024,0.0157354306429625,0.0761973336338997
773,0.161696895956993,0.0161291360855103,-0.0160076748579741,0.0309865567833185,0.00356962019577622,0.068939708173275
774,0.149761468172073,0.0217962488532066,-0.0197237208485603,0.0324069224298,-0.0124150142073631,0.0510439723730087
775,0.134385094046593,0.0243816524744034,-0.0219338368624449,0.0263997502624989,-0.02956872433424,0.0286530908197165
776,0.120989456772804,0.0212900936603546,-0.0197173450142145,0.0165938641875982,-0.0422791466116905,0.0108356196433306
777,0.118107043206692,0.0181207358837128,-0.0110347289592028,0.0106645785272121,-0.0416029654443264,0.00910046882927418
778,0.125377923250198,0.022597249597311,0.000810392200946808,0.010690838098526,-0.0265497751533985,0.0235564317554235
779,0.130675300955772,0.0294551141560078,0.00791525933891535,0.01118806283921,-0.0074295443482697,0.0389386899769306
780,0.126264914870262,0.02803217433393,0.00904722977429628,0.00966789200901985,0.00517561100423336,0.0440953522920609
781,0.116959221661091,0.0164450872689486,0.00789158046245575,0.00876857247203588,0.00806301645934582,0.0380798391997814
782,0.111223608255386,0.000784773728810251,0.00372372008860111,0.0104009266942739,0.00474946992471814,0.0233357809484005
783,0.113958083093166,-0.0108511447906494,-0.00235098134726286,0.0161216948181391,0.00273287831805646,0.00899987481534481
784,0.122044906020164,-0.0155694987624884,-0.00797704979777336,0.0214687641710043,0.00231099361553788,0.00101266824640334
785,0.129998937249184,-0.0155416168272495,-0.0138371037319303,0.0181359220296144,-0.00462447665631771,-0.00473251426592469
786,0.134475603699684,-0.0186379607766867,-0.023311099037528,0.00186352559830993,-0.0238559804856777,-0.0153477322310209
787,0.135661512613297,-0.028909420594573,-0.0365949496626854,-0.0208952687680721,-0.0472821816802025,-0.0288401804864407
788,0.142210200428963,-0.0348181277513504,-0.0448049865663052,-0.0324025601148605,-0.0562296286225319,-0.0308524817228317
789,0.158545643091202,-0.028780872002244,-0.0441266931593418,-0.0281018503010273,-0.0478255189955235,-0.0191366318613291
790,0.17940616607666,-0.0197313763201237,-0.0404646135866642,-0.0210454370826483,-0.0363800562918186,-0.00939376372843981
791,0.201270207762718,-0.013125536032021,-0.033854927867651,-0.0142834559082985,-0.0285237561911345,-0.00674031209200621
792,0.219040378928185,-0.00542276725172997,-0.0204750020056963,-0.00232871528714895,-0.0215137489140034,-0.00319762411527336
793,0.222047433257103,-0.00196265801787376,-0.00838431622833014,0.0070407222956419,-0.0190223567187786,-0.0021708847489208
794,0.20813325047493,-0.00835462007671595,-0.00804030522704124,0.00476350169628859,-0.0251677185297012,-0.0111078461632133
795,0.188515529036522,-0.0150392698124051,-0.0161459911614656,-0.000566405709832907,-0.0336449220776558,-0.0215991530567408
796,0.173635631799698,-0.0150469541549683,-0.0243713408708572,0.00330663262866437,-0.0389227457344532,-0.0238037444651127
797,0.169511079788208,-0.00994682218879461,-0.026971997693181,0.0179796703159809,-0.0385245159268379,-0.016645023599267
798,0.178255975246429,-0.000150410414789803,-0.0220473781228065,0.0355740897357464,-0.0300970412790775,-0.00101117882877588
799,0.192660138010979,0.00972880609333515,-0.0150802480056882,0.0437577217817307,-0.0188021417707205,0.0154226664453745
800,0.204965978860855,0.0149177368730307,-0.00857059005647898,0.0407246872782707,-0.00777588179334998,0.0262504648417234
801,0.211493417620659,0.0149121209979057,0.000418382813222706,0.0344700142741203,0.00528401462361217,0.0334367491304874
802,0.208585202693939,0.00893915817141533,0.0105364816263318,0.0269399099051952,0.0163101330399513,0.0352690666913986
803,0.1950374096632,-0.00191570690367371,0.0170999504625797,0.0167940575629473,0.0202616099268198,0.0279430486261845
804,0.175496876239777,-0.0142379952594638,0.018406854942441,0.0095637459307909,0.0197212994098663,0.016933923587203
805,0.159774824976921,-0.0238989628851414,0.0182185750454664,0.0122962528839707,0.0183772966265678,0.0113608716055751
806,0.151541858911514,-0.0289938133209944,0.0173501782119274,0.0208819415420294,0.0121611971408129,0.0091841658577323
807,0.146437644958496,-0.0289475303143263,0.0126023096963763,0.027724577113986,-0.00303809973411262,0.00436101201921701
808,0.142818138003349,-0.0222752261906862,0.00529916258528829,0.0317902341485024,-0.0224979594349861,-0.00203090626746416
809,0.14438596367836,-0.00989880692213774,0.00229945476166904,0.0353902727365494,-0.0364949777722359,-0.00432176282629371
810,0.151835948228836,0.000560341111849993,0.00690666120499372,0.0396790876984596,-0.0400217026472092,-0.000364870036719367
811,0.158581346273422,0.00122593971900642,0.0134138781577349,0.0425613895058632,-0.0357619188725948,0.00452713062986732
812,0.157044947147369,-0.00625173002481461,0.0154251325875521,0.0432708412408829,-0.026988297700882,0.00595899112522602
813,0.143816396594048,-0.0169903468340635,0.0113335037603974,0.0424822978675365,-0.0151995066553354,0.00330745102837682
814,0.1224659755826,-0.0287879090756178,0.00337467528879642,0.0382473170757294,-0.000963100290391594,-0.00096774403937161
815,0.102724313735962,-0.0374930873513222,-0.00408201012760401,0.0297848172485828,0.0143989361822605,-0.00152749486733228
816,0.0936454683542252,-0.0360603928565979,-0.00809700880199671,0.0201217457652092,0.0252813305705786,0.00488041900098324
817,0.0945972576737404,-0.0245138499885798,-0.0099351555109024,0.0113696260377765,0.0237610302865505,0.0173749178647995
818,0.0986125767230988,-0.0124343410134315,-0.0103479996323586,0.00646979687735438,0.0113222030922771,0.0328268483281136
819,0.100458942353725,-0.00865534413605928,-0.00732555333524942,0.00692277448251843,-0.00226592901162803,0.0434189364314079
820,0.0962721109390259,-0.0154888760298491,-0.00180654763244092,0.00773521047085524,-0.0126492418348789,0.0398747138679028
821,0.0893625840544701,-0.0259107351303101,0.00452153012156487,0.00899825990200043,-0.0163617692887783,0.0274693351238966
822,0.0855465531349182,-0.0333532951772213,0.00846097804605961,0.0125120999291539,-0.0110160680487752,0.0170136615633965
823,0.0851763337850571,-0.0382667779922485,0.00685614347457886,0.0147025026381016,0.000775619060732424,0.00888788606971502
824,0.0870886594057083,-0.0419783256947994,0.00106269621755928,0.013409367762506,0.0165489837527275,-0.000641900580376387
825,0.0902600809931755,-0.0455299243330956,-0.00694641191512346,0.00738000590354204,0.0322339348495007,-0.0140498746186495
826,0.100739285349846,-0.0440042987465858,-0.00893849041312933,0.00367543357424438,0.0474797748029232,-0.024805024266243
827,0.12442222237587,-0.0323406383395195,0.00351120252162218,0.0130401197820902,0.0658577904105186,-0.022657098248601
828,0.15332955121994,-0.0144704598933458,0.0272437762469053,0.0338214263319969,0.0864349082112312,-0.00792113598436117
829,0.177637904882431,0.00767180835828185,0.056791365146637,0.0585906617343426,0.107728339731693,0.0144380042329431
830,0.19110880792141,0.0318843089044094,0.0823575109243393,0.0783937349915504,0.125081956386566,0.0353031791746616
831,0.184774339199066,0.0450815446674824,0.0869255214929581,0.0819029361009598,0.125770181417465,0.0401067361235619
832,0.159646168351173,0.0399726144969463,0.0685809478163719,0.0692049711942673,0.106486663222313,0.0288786999881268
833,0.127618998289108,0.0242352373898029,0.0404572039842606,0.0498307086527348,0.0772716403007507,0.0153087833896279
834,0.0988990515470505,0.0087170721963048,0.0129218911752105,0.0323192477226257,0.0479987189173698,0.0100536262616515
835,0.078240379691124,-0.00139277870766819,-0.00987751130014658,0.0209216587245464,0.0230365730822086,0.0140393646433949
836,0.0661023631691933,-0.0061045759357512,-0.0263143461197615,0.014074076898396,0.00518057215958834,0.0205867309123278
837,0.0656014457345009,-0.00610938621684909,-0.0316342078149319,0.0124102849513292,0.00186089426279068,0.0275038536638021
838,0.0749312713742256,-0.00973546598106623,-0.0292114485055208,0.0138893658295274,0.0115352850407362,0.0312276929616928
839,0.0850367695093155,-0.0249396804720163,-0.0282166041433811,0.0131191788241267,0.022906593978405,0.0274214614182711
840,0.0928847417235374,-0.0448445864021778,-0.0261764023452997,0.0106406277045608,0.0320211052894592,0.0207072906196117
841,0.10078739374876,-0.0583462528884411,-0.0181402526795864,0.00882942229509354,0.0402431599795818,0.0165091902017593
842,0.108934327960014,-0.0607584603130817,-0.00767814833670855,0.00865620095282793,0.0457978844642639,0.0170019175857306
843,0.114256963133812,-0.0531474500894547,-0.00255171884782612,0.00959196500480175,0.0429976545274258,0.0210465751588345
844,0.116873688995838,-0.0422778837382793,-0.00918222963809967,0.00667601404711604,0.029019620269537,0.0213054940104485
845,0.121657863259315,-0.0364847332239151,-0.0255853403359652,-0.00543601764366031,0.0116563849151134,0.0105101875960827
846,0.128200232982636,-0.0355619564652443,-0.0389788113534451,-0.0223484430462122,0.00452160369604826,-0.00666475668549538
847,0.128880485892296,-0.0349698662757874,-0.0415033213794231,-0.0362700335681438,0.0107352659106255,-0.0213228762149811
848,0.120916314423084,-0.0329006873071194,-0.0369200222194195,-0.0418722443282604,0.0222135912626982,-0.0301221031695604
849,0.110688872635365,-0.0273610353469849,-0.0288546923547983,-0.0333982668817043,0.0322298631072044,-0.0299420543015003
850,0.106122650206089,-0.0174043830484152,-0.0184933710843325,-0.0126259429380298,0.0383864343166351,-0.0194350648671389
851,0.108497232198715,-0.00638512335717678,-0.00977219268679619,0.00869809277355671,0.0371289402246475,-0.00499823829159141
852,0.111675322055817,0.000592919008340687,-0.007638537324965,0.0183115918189287,0.0244179051369429,0.00151272269431502
853,0.110720925033093,0.00206590094603598,-0.0126726636663079,0.0135182477533817,0.00433401390910149,-0.00582290720194578
854,0.108113415539265,0.000152253589476459,-0.0209102686494589,0.00373625592328608,-0.0129437325522304,-0.0185624714940786
855,0.111051268875599,-0.00137209589593112,-0.0262071304023266,0.000876562495250255,-0.0197920259088278,-0.0211479179561138
856,0.120708286762238,-0.00172743655275553,-0.0259950086474419,0.00713256234303117,-0.0167020671069622,-0.00783238932490349
857,0.132762730121613,-0.000837685656733811,-0.0194215346127748,0.0191645156592131,-0.00473628053441644,0.0167667753994465
858,0.142556697130203,0.00290414830669761,-0.00669709453359246,0.0327415727078915,0.0160651504993439,0.042954932898283
859,0.142130687832832,0.00582002149894834,0.00528535293415189,0.0402837470173836,0.0356067791581154,0.0571974068880081
860,0.130949392914772,0.00488983374089003,0.0125089352950454,0.0396398827433586,0.0439080819487572,0.0554230809211731
861,0.121291615068913,0.00359056587330997,0.0181460995227098,0.0354146137833595,0.0423076152801514,0.04503133893013
862,0.119245223701,0.00292984093539417,0.0207963660359383,0.0264950022101402,0.0334843993186951,0.0291735045611858
863,0.119696594774723,-0.000278964434983209,0.0182871539145708,0.011803631670773,0.0210092421621084,0.0115578379482031
864,0.118047446012497,-0.00609294837340713,0.0142609495669603,0.000554018595721573,0.0132533926516771,0.00503634242340922
865,0.112167939543724,-0.0114996619522572,0.0103946421295404,0.000404936377890408,0.0132664823904634,0.0145277567207813
866,0.101007424294949,-0.0161556992679834,0.00566154113039374,0.00691001443192363,0.0155684901401401,0.027956148609519
867,0.0801326036453247,-0.0275555811822414,-0.00614213431254029,0.00513287447392941,0.00853785127401352,0.0272346213459969
868,0.0530584380030632,-0.0442293547093868,-0.0249304194003344,-0.00822038389742374,-0.00702511612325907,0.0171020943671465
869,0.0369665324687958,-0.0500359013676643,-0.0358728654682636,-0.0166895445436239,-0.012719034217298,0.0211339853703976
870,0.0372437871992588,-0.0419171676039696,-0.0331940986216068,-0.0117113515734673,-0.00315728317946196,0.0373152159154415
871,0.0434317253530025,-0.0326138325035572,-0.0258612781763077,-0.00191470165736973,0.0113255130127072,0.0439431816339493
872,0.0468356721103191,-0.0328778810799122,-0.0204140804708004,0.00233208108693361,0.0245511084794998,0.03370176628232
873,0.0459867082536221,-0.0441342554986477,-0.0175745263695717,-0.00200798618607223,0.036237046122551,0.0126368291676044
874,0.0446870848536491,-0.0592435002326965,-0.0183583404868841,-0.0118759162724018,0.0462794117629528,-0.0106194028630853
875,0.0496531650424004,-0.0686606764793396,-0.0213431771844625,-0.019067695364356,0.0547162592411041,-0.0256050191819668
876,0.0618283376097679,-0.0695643499493599,-0.0242420956492424,-0.0185053423047066,0.0580445118248463,-0.0311445575207472
877,0.0735922232270241,-0.0660844296216965,-0.0270728319883347,-0.0120373638346791,0.0523473508656025,-0.0363527163863182
878,0.0779318511486053,-0.0626397803425789,-0.0296876411885023,-0.00279481103643775,0.0417821742594242,-0.0452576577663422
879,0.0731446892023087,-0.0624180361628532,-0.0348350815474987,0.00260627712123096,0.0299768634140491,-0.0558872297406197
880,0.0640308037400246,-0.0639804676175117,-0.043446633964777,-0.000821922207251191,0.0174835603684187,-0.0644863247871399
881,0.0572346895933151,-0.0623174645006657,-0.0491910986602306,-0.00847148336470127,0.00768290646374226,-0.0672323554754257
882,0.0561048872768879,-0.0546492151916027,-0.0451643243432045,-0.0103670815005898,0.00351012963801622,-0.0603945925831795
883,0.061148077249527,-0.0424357578158379,-0.0309422947466373,-0.00121798168402165,0.00539553258568048,-0.0423711910843849
884,0.06830845028162,-0.0329936295747757,-0.0139070358127356,0.0134284878149629,0.0106512242928147,-0.019460741430521
885,0.0716231092810631,-0.0338843166828156,-0.00289284577593207,0.0237073209136724,0.0145371994003654,-0.00104953593108803
886,0.0714553818106651,-0.0389059744775295,0.0033500911667943,0.02895094640553,0.0186142157763243,0.0131844310089946
887,0.0682699605822563,-0.0357339605689049,0.007197346072644,0.0313999392092228,0.0236763209104538,0.0250390991568565
888,0.0610937215387821,-0.022005895152688,0.0029783642385155,0.0283573232591152,0.025325208902359,0.0287434365600348
889,0.0572086907923222,-0.00274706585332751,-0.0106798643246293,0.0218111071735621,0.0252799596637487,0.0230474825948477
890,0.0606681704521179,0.0126353166997433,-0.0305962711572647,0.014666941948235,0.0264709070324898,0.0111052859574556
891,0.0676993504166603,0.0188670977950096,-0.0490242652595043,0.00902179349213839,0.0320459641516209,-0.000984194106422365
892,0.0710903406143188,0.0147780077531934,-0.0589314699172974,0.00664597470313311,0.0410146974027157,-0.0071315374225378
893,0.0609570443630219,-0.00468486035242677,-0.0653175637125969,0.00260838703252375,0.0432831719517708,-0.0115820160135627
894,0.0391495041549206,-0.036372821778059,-0.0722675397992134,-0.00599892111495137,0.0381333082914352,-0.0206276960670948
895,0.0190978068858385,-0.064555399119854,-0.0765604749321938,-0.0150533095002174,0.0343754850327969,-0.032562218606472
896,0.00955547858029604,-0.0759445056319237,-0.0765843689441681,-0.0205842964351177,0.0351256355643272,-0.0417941696941853
897,0.00966063421219587,-0.0692860707640648,-0.0727445334196091,-0.0213476940989494,0.0379419252276421,-0.0457582399249077
898,0.0134453792124987,-0.0546243749558926,-0.0669730678200722,-0.0188734959810972,0.0383713133633137,-0.0481202527880669
899,0.0193864367902279,-0.0416364073753357,-0.0598837099969387,-0.0138636687770486,0.0362907126545906,-0.0498232543468475
900,0.0298845432698727,-0.0315029732882977,-0.0484493635594845,-0.00322589161805809,0.0366824008524418,-0.0442819930613041
901,0.0423724018037319,-0.0237465314567089,-0.0335685014724731,0.0135452849790454,0.0405470132827759,-0.0320144630968571
902,0.0520328357815742,-0.0179615784436464,-0.0198638737201691,0.0319379605352879,0.0469415076076984,-0.0200100149959326
903,0.0551270619034767,-0.0142537355422974,-0.0112004224210978,0.045149639248848,0.0537785217165947,-0.00960052013397217
904,0.0496558211743832,-0.0145309120416641,-0.0114815086126328,0.0484625995159149,0.0551742203533649,0.00187908113002777
905,0.0370321609079838,-0.020958200097084,-0.0230076648294926,0.0423682704567909,0.0446287468075752,0.0121316704899073
906,0.0232821349054575,-0.0335926190018654,-0.0405152142047882,0.0319350399076939,0.0215357784181833,0.0142691656947136
907,0.0166429784148932,-0.0447360649704933,-0.0526876822113991,0.0255078338086605,-0.00254871696233749,0.00855608936399221
908,0.0178240556269884,-0.0474185422062874,-0.0577503517270088,0.0235345400869846,-0.0162361599504948,-0.00215867441147566
909,0.0216503757983446,-0.0439153015613556,-0.0613618157804012,0.0183002669364214,-0.0161239020526409,-0.0168596208095551
910,0.0258281137794256,-0.0382528640329838,-0.0630277916789055,0.0100812176242471,-0.000735276902560145,-0.0279125683009624
911,0.0311749763786793,-0.0316608175635338,-0.0605246238410473,0.00552977249026299,0.0240456033498049,-0.0268366802483797
912,0.0386149846017361,-0.0276939887553453,-0.0572227016091347,0.00275482190772891,0.0419815741479397,-0.0175815559923649
913,0.0468241795897484,-0.0312202069908381,-0.0574044734239578,-0.00560353975743055,0.042543888092041,-0.0115791158750653
914,0.051931943744421,-0.0392516888678074,-0.0608575828373432,-0.0197581090033054,0.0319980792701244,-0.012827736325562
915,0.0471026860177517,-0.0441200211644173,-0.0687808245420456,-0.0366406105458736,0.0172956679016352,-0.0199302397668362
916,0.0302302893251181,-0.041971929371357,-0.0818970128893852,-0.0514956638216972,-0.000207967910682783,-0.0311366450041533
917,0.0103324260562658,-0.0378805994987488,-0.0952731668949127,-0.0573220662772655,-0.0142787992954254,-0.0427740514278412
918,-0.000663679384160787,-0.0386911891400814,-0.10070363432169,-0.0506503283977509,-0.0181261207908392,-0.0500160604715347
919,0.00123900501057506,-0.04248221591115,-0.0920813530683517,-0.0319357365369797,-0.013549879193306,-0.0501576103270054
920,0.010863252915442,-0.0436960197985172,-0.073312021791935,-0.00630529457703233,-0.00618525175377727,-0.0444145798683167
921,0.0224724262952805,-0.0374940186738968,-0.0544131882488728,0.0174151118844748,0.00206526485271752,-0.0346710979938507
922,0.032049648463726,-0.0237040929496288,-0.0432269424200058,0.0307002402842045,0.00750826904550195,-0.0229543130844831
923,0.036291278898716,-0.00972047168761492,-0.0424293093383312,0.0296776089817286,0.00457218335941434,-0.0131764421239495
924,0.0355944335460663,-0.00268990430049598,-0.0499107427895069,0.0166210774332285,-0.00667420588433743,-0.0105407312512398
925,0.0335914939641953,-0.00322291138581932,-0.0605587288737297,-0.00144173228181899,-0.018918352201581,-0.0162038430571556
926,0.0320407152175903,-0.0113367596641183,-0.0693599954247475,-0.0162893496453762,-0.0232261940836906,-0.026867464184761
927,0.0313226245343685,-0.02495251968503,-0.0717828720808029,-0.019788634032011,-0.0156443957239389,-0.037387877702713
928,0.0336412042379379,-0.0347682870924473,-0.0650718212127686,-0.00799802597612143,0.00144889357034117,-0.0414455160498619
929,0.0388117767870426,-0.0386146418750286,-0.0574147962033749,0.00809040293097496,0.0173809882253408,-0.0415788181126118
930,0.0435193777084351,-0.0447936989367008,-0.0606533549726009,0.01196563616395,0.0203532241284847,-0.0495874509215355
931,0.0456498004496098,-0.0560151338577271,-0.0717744752764702,0.00215176586061716,0.0112125761806965,-0.0690137222409248
932,0.0439762622117996,-0.0676475092768669,-0.0803327485918999,-0.0121730035170913,-0.00269839982502162,-0.0925872102379799
933,0.0382628254592419,-0.0731503367424011,-0.0849074721336365,-0.026069076731801,-0.0176958050578833,-0.112464480102062
934,0.0310538001358509,-0.0690281689167023,-0.0901086702942848,-0.0395759120583534,-0.0297959856688976,-0.123698264360428
935,0.0256147049367428,-0.059431679546833,-0.0966384559869766,-0.0500165484845638,-0.03502381965518,-0.125555276870728
936,0.0227029714733362,-0.0509527996182442,-0.101063206791878,-0.0520275682210922,-0.0348188988864422,-0.119601830840111
937,0.0216268133372068,-0.0486460775136948,-0.10176894813776,-0.0457000397145748,-0.0340923070907593,-0.10784550011158
938,0.0224470738321543,-0.0559021383523941,-0.100239582359791,-0.0377865470945835,-0.0364044010639191,-0.0968086272478104
939,0.0251786652952433,-0.0670220628380775,-0.0948286205530167,-0.0299497433006763,-0.0392582304775715,-0.0890237241983414
940,0.0296670570969582,-0.0672703087329865,-0.0807959288358688,-0.0152931194752455,-0.03554343059659,-0.0748710408806801
941,0.0328984931111336,-0.0518228635191917,-0.0627264752984047,0.00422474183142185,-0.0272960178554058,-0.0516736395657063
942,0.0326096788048744,-0.0309373717755079,-0.0499466583132744,0.0189666207879782,-0.0216242764145136,-0.0286121517419815
943,0.0291274841874838,-0.0180522277951241,-0.0461303852498531,0.0235732942819595,-0.0202265232801437,-0.0161674562841654
944,0.0215539988130331,-0.0164361670613289,-0.0500023178756237,0.0179937649518251,-0.0215994399040937,-0.0200164820998907
945,0.0143794724717736,-0.0161139648407698,-0.0538280829787254,0.0110370898619294,-0.0187872406095266,-0.0318614020943642
946,0.0163368824869394,-0.0105003155767918,-0.0497601814568043,0.0119234062731266,-0.00602525006979704,-0.0387425795197487
947,0.029763825237751,-0.00469080358743668,-0.0373803414404392,0.0219613648951054,0.0141222849488258,-0.0351761803030968
948,0.0451778136193752,-0.00939282402396202,-0.0256584398448467,0.0343238525092602,0.0337313674390316,-0.0247649494558573
949,0.0476616658270359,-0.0309005193412304,-0.0269618388265371,0.0366559624671936,0.0418410897254944,-0.0171000305563211
950,0.037083063274622,-0.0578052513301373,-0.0378980338573456,0.0278889760375023,0.0368820019066334,-0.0121983122080565
951,0.0268092080950737,-0.0728811025619507,-0.0451374277472496,0.017035810276866,0.0267763622105122,-0.00643970724195242
952,0.0235320087522268,-0.0743774622678757,-0.050039429217577,0.00539493886753917,0.0130733838304877,-0.00916609074920416
953,0.025689996778965,-0.0669177249073982,-0.0602253191173077,-0.00876621995121241,-0.00437402538955212,-0.0270997434854507
954,0.0302445571869612,-0.0516825430095196,-0.0696674957871437,-0.0202103275805712,-0.0182273238897324,-0.0497449450194836
955,0.0332834385335445,-0.0359091497957706,-0.0710022523999214,-0.0256164502352476,-0.0246442034840584,-0.0655517801642418
956,0.0298660770058632,-0.031276173889637,-0.070591889321804,-0.0300481431186199,-0.0307555794715881,-0.0747791826725006
957,0.0226409342139959,-0.0351639650762081,-0.069546066224575,-0.0310361608862877,-0.0361824817955494,-0.0751892030239105
958,0.0193011667579412,-0.0373175852000713,-0.0608414076268673,-0.0218546651303768,-0.0322958752512932,-0.065359815955162
959,0.0187264811247587,-0.0417680591344833,-0.0505020059645176,-0.0107742287218571,-0.0205515939742327,-0.0586106590926647
960,0.0133979469537735,-0.0608886405825615,-0.0560645461082459,-0.0141656026244164,-0.0121292555704713,-0.0696288347244263
961,-0.0015757706714794,-0.0968937277793884,-0.0852464288473129,-0.0383432619273663,-0.0170242581516504,-0.0990720167756081
962,-0.0196345932781696,-0.133247122168541,-0.118728436529636,-0.0691891014575958,-0.028442969545722,-0.13054259121418
963,-0.027074221521616,-0.147470355033875,-0.130023837089539,-0.0847505405545235,-0.0304255019873381,-0.144103318452835
964,-0.0236117150634527,-0.135646849870682,-0.118039347231388,-0.0803096666932106,-0.023734275251627,-0.136182427406311
965,-0.019241489470005,-0.112061828374863,-0.0986339822411537,-0.0661545321345329,-0.0202313829213381,-0.116608403623104
966,-0.0179034397006035,-0.0897883847355843,-0.0833731293678284,-0.0508569069206715,-0.02286322042346,-0.0951562523841858
967,-0.0194611698389053,-0.072285957634449,-0.0761222913861275,-0.0379317104816437,-0.024606054648757,-0.0758266299962997
968,-0.0227222982794046,-0.0583788491785526,-0.0741055831313133,-0.0262177120894194,-0.0193095915019512,-0.0570419579744339
969,-0.0241716746240854,-0.0485514141619205,-0.0725682154297829,-0.0129155712202191,-0.0104151833802462,-0.0379552952945232
970,-0.0198600757867098,-0.0417645238339901,-0.0686289295554161,0.00227207713760436,-0.00464098807424307,-0.0188400633633137
971,-0.00900724716484547,-0.0342270769178867,-0.0616761483252048,0.0161081682890654,-0.00276891561225057,-0.00236894655972719
972,0.00423965556547046,-0.0268459990620613,-0.0539906434714794,0.0237572994083166,-0.00191532587632537,0.00457278033718467
973,0.0118477642536163,-0.0258570406585932,-0.0506547093391418,0.0207797568291426,-0.00331284943968058,-0.00171277101617306
974,0.0092667369171977,-0.0319819897413254,-0.0526102036237717,0.00734959589317441,-0.00910390261560678,-0.0167877860367298
975,0.00187944492790848,-0.0403215736150742,-0.0532891973853111,-0.00831138156354427,-0.014996599406004,-0.0323175154626369
976,-0.00401710253208876,-0.0494117476046085,-0.04922866076231,-0.0181806050240994,-0.0178092047572136,-0.042960200458765
977,-0.00602098600938916,-0.0562004745006561,-0.0419633537530899,-0.0175658445805311,-0.0176607668399811,-0.0443757325410843
978,-0.00155121646821499,-0.0570996850728989,-0.0341297276318073,-0.00558808911591768,-0.0143682574853301,-0.0347431376576424
979,0.0068581709638238,-0.0554755926132202,-0.0308044962584972,0.00884774886071682,-0.0111994622275233,-0.0215561985969543
980,0.013742852024734,-0.0535792112350464,-0.0349758453667164,0.0145186167210341,-0.0114708729088306,-0.0143727818503976
981,0.0185903497040272,-0.0500840097665787,-0.0440537519752979,0.0092410696670413,-0.0148052666336298,-0.0148607511073351
982,0.0198172498494387,-0.0486789532005787,-0.0559002049267292,-0.00385014479979873,-0.0229552425444126,-0.0217334143817425
983,0.0159444771707058,-0.0537485219538212,-0.0691353753209114,-0.0204464923590422,-0.0353900864720345,-0.0345299318432808
984,0.0100779980421066,-0.0640265271067619,-0.0815200135111809,-0.035242173820734,-0.0450792796909809,-0.0506386049091816
985,0.00478552049025893,-0.074628584086895,-0.0908297970890999,-0.0440371222794056,-0.0462240502238274,-0.0624799057841301
986,0.00086317170644179,-0.0805047452449799,-0.09220090508461,-0.0434727407991886,-0.0366386510431767,-0.0614795982837677
987,-0.00203493353910744,-0.0824420228600502,-0.0854586213827133,-0.0341508612036705,-0.0194594673812389,-0.0501859597861767
988,-0.00465144030749798,-0.0875556319952011,-0.0800114572048187,-0.0239442959427834,-0.00625815894454718,-0.0406109839677811
989,-0.00788774807006121,-0.0997879132628441,-0.0819762721657753,-0.0212790537625551,-0.00794555991888046,-0.0408469140529633
990,-0.0125652113929391,-0.11251575499773,-0.0863459706306458,-0.0256280992180109,-0.0219834931194782,-0.0486848540604115
991,-0.0194380003958941,-0.113606318831444,-0.0882387608289719,-0.0320197008550167,-0.0382471829652786,-0.0596362762153149
992,-0.0283804666250944,-0.0978470295667648,-0.0892996937036514,-0.039214413613081,-0.0502060949802399,-0.0732742920517921
993,-0.0338186249136925,-0.0735829547047615,-0.0894665271043777,-0.0458693578839302,-0.0560417249798775,-0.0867784917354584
994,-0.0315410383045673,-0.0554605089128017,-0.0864125043153763,-0.0515574142336845,-0.0594858601689339,-0.0981658175587654
995,-0.0272810533642769,-0.0485406368970871,-0.0802368968725204,-0.0573354214429855,-0.0648270770907402,-0.10894163697958
996,-0.0259347539395094,-0.0440688543021679,-0.0713703408837318,-0.0596769563853741,-0.0703095644712448,-0.115566894412041
997,-0.0251409765332937,-0.0340285301208496,-0.0618674084544182,-0.0553306378424168,-0.0734332948923111,-0.110643737018108
998,-0.0207234472036362,-0.0237748138606548,-0.0571675971150398,-0.0460976324975491,-0.0749943554401398,-0.0913299694657326
999,-0.0106942243874073,-0.0223602764308453,-0.0596087798476219,-0.034409299492836,-0.0742080435156822,-0.0618908330798149
1000,0.0011408805148676,-0.0261690206825733,-0.0646641775965691,-0.0211534351110458,-0.0687940716743469,-0.0303367730230093
1001,0.0068073789589107,-0.0294484961777925,-0.0698762312531471,-0.0106956586241722,-0.0620224177837372,-0.00707878079265356
1002,0.00232867756858468,-0.0347446240484715,-0.0780854076147079,-0.00872088596224785,-0.0584970973432064,-0.00150900927837938
