,AF3,AF4,Fp1,Fp2,AF7,AF8
0,-0.0740467458963394,-0.283374458551407,-0.034100241959095,0.00198359880596399,0.0364652648568153,-0.0425698906183243
1,-0.0723015740513802,-0.275870382785797,-0.0316705778241158,0.00562666263431311,0.0376689173281193,-0.0458115488290787
2,-0.0666229054331779,-0.266562402248383,-0.0292144361883402,0.00768383825197816,0.0348456799983978,-0.0448501631617546
3,-0.0592617765069008,-0.255693703889847,-0.0260850135236979,0.0086384005844593,0.0287607107311487,-0.0393882989883423
4,-0.0527440048754215,-0.244776278734207,-0.0236450918018818,0.00826540496200323,0.0209906660020351,-0.0326883941888809
5,-0.0466742813587189,-0.234020844101906,-0.0216667316854,0.00811406783759594,0.0143388966098428,-0.0266204159706831
6,-0.0407925471663475,-0.223488435149193,-0.0181580688804388,0.00955350883305073,0.0104592386633158,-0.0210013575851917
7,-0.0355714224278927,-0.213105753064156,-0.0111984061077237,0.0130750853568316,0.0110409827902913,-0.0149825681000948
8,-0.0314031802117825,-0.203018188476563,-0.00305221136659384,0.0173959545791149,0.0158414132893085,-0.00914554111659527
9,-0.0301874820142984,-0.196275547146797,1.95731317944592E-05,0.0189073011279106,0.0201724246144295,-0.00551706040278077
10,-0.0320108942687511,-0.19403600692749,-0.00138289120513946,0.0172677934169769,0.0232809279114008,-0.00262644025497139
11,-0.0345299951732159,-0.192700937390327,-0.000429124484071508,0.0153146851807833,0.0290808416903019,0.00167403393425047
12,-0.0374346859753132,-0.190030202269554,0.00417672470211983,0.0133484993129969,0.0365985035896301,0.00485533103346825
13,-0.0394259952008724,-0.184303224086761,0.0101713221520185,0.0124868899583817,0.0439242050051689,0.00678867800161242
14,-0.0371268056333065,-0.174189627170563,0.0147891622036695,0.0139363585039973,0.0516710951924324,0.00880973320454359
15,-0.0327500030398369,-0.164027988910675,0.0134586105123162,0.0142814684659243,0.0568226203322411,0.00636225147172809
16,-0.0318177938461304,-0.158542156219482,0.00601230468600988,0.0114139104261994,0.0559623390436172,-0.00471765268594027
17,-0.0352439023554325,-0.15618984401226,-0.00260158604942262,0.00704457936808467,0.04986722022295,-0.022814529016614
18,-0.0410600677132607,-0.153658375144005,-0.00799399707466364,0.00300402706488967,0.0419947504997253,-0.0428801588714123
19,-0.0468038022518158,-0.151671215891838,-0.00828441232442856,0.000656692835036665,0.0366678610444069,-0.0596058405935764
20,-0.0489515885710716,-0.150642171502113,-0.00361264264211059,0.00241908570751548,0.0375936888158321,-0.0672670006752014
21,-0.0449736714363098,-0.146513551473618,0.00467187399044633,0.00959670171141624,0.0469527803361416,-0.0615352727472782
22,-0.0359405986964703,-0.1360864341259,0.0150144193321466,0.0193658396601677,0.0625907629728317,-0.0448965504765511
23,-0.0276563353836536,-0.122354835271835,0.0241424925625324,0.0265948157757521,0.0751042738556862,-0.0260956306010485
24,-0.0246159136295319,-0.110596515238285,0.0288387443870306,0.0293156113475561,0.0754227861762047,-0.0119988322257996
25,-0.0236371513456106,-0.100393004715443,0.0312710776925087,0.0321273803710938,0.0650229901075363,-0.00133276067208499
26,-0.0226021409034729,-0.0906272828578949,0.0325915701687336,0.0371129401028156,0.0489591769874096,0.0069491732865572
27,-0.0261825006455183,-0.0863626152276993,0.0281046777963638,0.0380843058228493,0.0279375687241554,0.00786023680120707
28,-0.0349561646580696,-0.0893646404147148,0.0182808209210634,0.0320634953677654,0.00605961726978421,0.00145044294185936
29,-0.0421734042465687,-0.0935309529304504,0.010690045543015,0.0238238945603371,-0.00812602508813143,-0.00481266854330897
30,-0.0431177578866482,-0.0928143411874771,0.0102697797119617,0.0191317275166512,-0.0107533000409603,-0.00533682247623801
31,-0.0394568331539631,-0.0851504802703857,0.0169207621365786,0.0206213779747486,-0.00405896222218871,9.90797198028304E-05
32,-0.0373175702989101,-0.0729748532176018,0.025293592363596,0.0251481682062149,0.00549087952822447,0.00630425848066807
33,-0.0401415713131428,-0.0596677772700787,0.0301198475062847,0.0283602178096771,0.012741114012897,0.00822034757584333
34,-0.044129054993391,-0.0456448830664158,0.0325511358678341,0.030385235324502,0.0202525444328785,0.00702521950006485
35,-0.0450963750481606,-0.0323975421488285,0.0337298884987831,0.0310655329376459,0.0324311517179012,0.00473839091137052
36,-0.0438376702368259,-0.0226251445710659,0.032834205776453,0.0295082218945026,0.0494310781359673,0.00171976117417216
37,-0.0439169071614742,-0.015692476183176,0.0335217788815498,0.0287853069603443,0.069221056997776,0.000130093088955618
38,-0.0480405502021313,-0.00983868166804314,0.0400261394679546,0.0317974276840687,0.0883215591311455,0.000951777212321758
39,-0.0547665059566498,-0.00414278404787183,0.0494486577808857,0.0377666391432285,0.103611752390862,0.0028389988001436
40,-0.0596056133508682,0.00264301965944469,0.0552837140858173,0.0449505224823952,0.113750532269478,0.00431872485205531
41,-0.0611111856997013,0.00942297745496035,0.0526077710092068,0.0499525293707848,0.114259220659733,0.00281954393722117
42,-0.061435054987669,0.0132360011339188,0.0407756753265858,0.0486475303769112,0.101071156561375,-0.00284142186865211
43,-0.0613840073347092,0.015156620182097,0.026404457166791,0.0425231605768204,0.0809139087796211,-0.00833307579159737
44,-0.0612336099147797,0.0195289757102728,0.0176651868969202,0.0378233008086681,0.0662016347050667,-0.00807712320238352
45,-0.0640465542674065,0.0275039374828339,0.0145984459668398,0.0366995483636856,0.0588989481329918,-0.00311387958936393
46,-0.0734295248985291,0.0352133996784687,0.0101211667060852,0.0347206890583038,0.0483674257993698,-0.00087089475709945
47,-0.089095339179039,0.0387410260736942,0.000448229518951848,0.0280659627169371,0.0273141991347075,-0.0058939685113728
48,-0.106713704764843,0.0380419082939625,-0.0105752013623714,0.0178821943700314,0.000207057993975468,-0.0150687219575047
49,-0.121134407818317,0.0353381671011448,-0.0169326793402433,0.00788331497460604,-0.0237765982747078,-0.0228673163801432
50,-0.130138173699379,0.0324466787278652,-0.0160208996385336,0.00159825303126127,-0.0381065607070923,-0.0264160353690386
51,-0.13482803106308,0.0308744870126247,-0.00914694275707006,0.000425949430791661,-0.0404675826430321,-0.0258736666291952
52,-0.137377142906189,0.0322561599314213,0.00025043758796528,0.00187837111297995,-0.0323705188930035,-0.0236900728195906
53,-0.13960824906826,0.0373013876378536,0.00942658632993698,0.00377258285880089,-0.0163947809487581,-0.0215885527431965
54,-0.142692774534225,0.0435511842370033,0.0163668673485518,0.00663749780505896,0.00375173799693584,-0.0202780514955521
55,-0.147809192538261,0.0456858314573765,0.0178415235131979,0.00877412781119347,0.020743153989315,-0.0230502132326365
56,-0.154076144099236,0.04283457249403,0.0138160483911633,0.00859831646084785,0.0301966536790133,-0.0304717030376196
57,-0.159211307764053,0.0395781248807907,0.0079752579331398,0.00724787265062332,0.0330988802015781,-0.0369332320988178
58,-0.162640526890755,0.0384449809789658,0.00318438420072198,0.00552129512652755,0.030948581174016,-0.038397803902626
59,-0.164453715085983,0.0386796034872532,0.00155378773342818,0.00435953680425882,0.0259476192295551,-0.0357466824352741
60,-0.165433034300804,0.0402110442519188,0.00542679196223617,0.00550735276192427,0.0219905860722065,-0.0304964762181044
61,-0.167283371090889,0.0450685136020184,0.0154034653678536,0.00906369276344776,0.0217364486306906,-0.0236049499362707
62,-0.169480115175247,0.0545615777373314,0.0274435933679342,0.0135814063251019,0.0239423215389252,-0.0158426258713007
63,-0.169886350631714,0.0643896386027336,0.0342434421181679,0.0179510395973921,0.0243789050728083,-0.00813900120556355
64,-0.17006628215313,0.0656524002552032,0.029797675088048,0.0194028429687023,0.0178589373826981,-0.00478855101391673
65,-0.175224259495735,0.0534503385424614,0.012731715105474,0.0131819853559136,0.00138809811323881,-0.0106765264645219
66,-0.186729922890663,0.03194560110569,-0.0112461727112532,-0.00130610843189061,-0.021291496232152,-0.0238139033317566
67,-0.198124259710312,0.0122294100001454,-0.0300965011119843,-0.015799293294549,-0.0396623201668262,-0.0352808050811291
68,-0.202930837869644,0.00368279009126127,-0.0356753207743168,-0.0212701410055161,-0.0454721227288246,-0.0385688841342926
69,-0.202568680047989,0.00562857557088137,-0.0317452140152454,-0.0188607089221478,-0.0396619886159897,-0.0369263403117657
70,-0.201775342226028,0.0112824412062764,-0.0264834463596344,-0.0155602628365159,-0.0282697528600693,-0.0373801961541176
71,-0.201574891805649,0.0158804133534431,-0.0233021844178438,-0.0149037064984441,-0.0171089731156826,-0.041605107486248
72,-0.200747713446617,0.0183843076229095,-0.020720424130559,-0.0163793824613094,-0.00933135952800512,-0.0469549037516117
73,-0.198881447315216,0.0199959333986044,-0.0163696017116308,-0.0181798506528139,-0.00385470851324499,-0.0507125928997993
74,-0.196871131658554,0.0209444761276245,-0.0110496645793319,-0.0200586095452309,0.000590293435379863,-0.0524440594017506
75,-0.195590049028397,0.0204278491437435,-0.00709853321313858,-0.0222862847149372,0.00147020956501365,-0.0529283657670021
76,-0.193732559680939,0.0191731080412865,-0.00583439040929079,-0.0229483898729086,-0.00467106141149998,-0.0515971630811691
77,-0.189500287175179,0.0178356077522039,-0.00922775827348232,-0.021223708987236,-0.0183654334396124,-0.0482826568186283
78,-0.183142319321632,0.0158953685313463,-0.0173290632665157,-0.0189531333744526,-0.0357406213879585,-0.0441380217671394
79,-0.176832512021065,0.0129074119031429,-0.0264320559799671,-0.0181508101522923,-0.0510949417948723,-0.0413855351507664
80,-0.17109689116478,0.010281290858984,-0.0323359258472919,-0.0187204778194427,-0.0597116239368916,-0.0409546531736851
81,-0.165387526154518,0.0101666236296296,-0.0335116535425186,-0.0190961770713329,-0.0596995800733566,-0.0400745794177055
82,-0.161764219403267,0.0125622376799583,-0.0310455225408077,-0.0180334933102131,-0.053254920989275,-0.0349942557513714
83,-0.163452684879303,0.0149831883609295,-0.0278466604650021,-0.0160629395395517,-0.0465240441262722,-0.0256832744926214
84,-0.171584784984589,0.0146300895139575,-0.0286630839109421,-0.0162104330956936,-0.0469833202660084,-0.0179995074868202
85,-0.181270599365234,0.0124048907309771,-0.0349687039852142,-0.0187692977488041,-0.0542562715709209,-0.0171360168606043
86,-0.185204863548279,0.0109812738373876,-0.0431630164384842,-0.020569795742631,-0.0605466738343239,-0.0224275439977646
87,-0.183347523212433,0.00887394230812788,-0.050938792526722,-0.0229091197252274,-0.0643398314714432,-0.0319972857832909
88,-0.181036785244942,0.00339302746579051,-0.0586032457649708,-0.029492249712348,-0.0704579502344131,-0.0446360185742378
89,-0.178984701633453,-0.00217080698348582,-0.0641905590891838,-0.0368268117308617,-0.076465368270874,-0.0558378808200359
90,-0.173732548952103,-0.00263005821034312,-0.0647157654166222,-0.0384632833302021,-0.0740161463618279,-0.0604164563119411
91,-0.164693608880043,0.00175869895610958,-0.0612387470901012,-0.0353143773972988,-0.0618524327874184,-0.0598793141543865
92,-0.153838232159615,0.00803814083337784,-0.0569441877305508,-0.0322161950170994,-0.0455066524446011,-0.0593931041657925
93,-0.143170759081841,0.0134921278804541,-0.0535407140851021,-0.031099621206522,-0.0308298300951719,-0.0611663274466991
94,-0.135260209441185,0.0152215724810958,-0.0526158660650253,-0.0322432518005371,-0.0229197908192873,-0.0650032982230186
95,-0.131921038031578,0.0131815820932388,-0.055020272731781,-0.034406378865242,-0.0235365238040686,-0.0680467784404755
96,-0.131227046251297,0.0113594336435199,-0.0571349412202835,-0.0339470207691193,-0.0292870104312897,-0.0645713061094284
97,-0.128746181726456,0.0137737402692437,-0.053184911608696,-0.0281910728663206,-0.034387368708849,-0.0520348437130451
98,-0.121932663023472,0.0212773457169533,-0.0413973405957222,-0.0177817493677139,-0.0350381247699261,-0.034449927508831
99,-0.11214304715395,0.0304426345974207,-0.0260919891297817,-0.00685811601579189,-0.0323224887251854,-0.0192849207669497
100,-0.101923115551472,0.0367288067936897,-0.01391192805022,-0.000338121462846175,-0.0294707715511322,-0.0122807519510388
101,-0.0934018343687058,0.0382527895271778,-0.00960205495357513,-0.000485617929371074,-0.029364287853241,-0.0142551707103848
102,-0.0900956615805626,0.0341426581144333,-0.0159233063459396,-0.0087095107883215,-0.0351927280426025,-0.0245668850839138
103,-0.092928484082222,0.0258557591587305,-0.030286643654108,-0.0232678540050983,-0.0455732084810734,-0.040941197425127
104,-0.0978193059563637,0.0188058149069548,-0.0438684932887554,-0.0367451272904873,-0.0529391653835773,-0.0561769381165504
105,-0.100083187222481,0.0179440546780825,-0.0484550483524799,-0.0418300330638886,-0.050412654876709,-0.0625645369291306
106,-0.096911296248436,0.0239150002598763,-0.0415250845253468,-0.0366419330239296,-0.0366130471229553,-0.0586655773222446
107,-0.0890999212861061,0.033381387591362,-0.0279824249446392,-0.0263500679284334,-0.0169637147337198,-0.0501585975289345
108,-0.0798756927251816,0.0430952087044716,-0.0150396740064025,-0.0177438165992498,0.000999726937152445,-0.0425985306501389
109,-0.0713495686650276,0.0521538145840168,-0.00530999572947621,-0.0119740106165409,0.014083974994719,-0.0367036499083042
110,-0.0642879903316498,0.0601106137037277,0.00218352279625833,-0.00729029625654221,0.0220365431159735,-0.0318749323487282
111,-0.0598357617855072,0.0650205984711647,0.00574300019070506,-0.00622883439064026,0.0219026152044535,-0.0305530373007059
112,-0.0580406859517097,0.0669414103031158,0.00150806689634919,-0.0119784940034151,0.010548091493547,-0.0354047119617462
113,-0.0554695837199688,0.0690677240490913,-0.00919907167553902,-0.0213144831359386,-0.0085637429729104,-0.0440153069794178
114,-0.049673467874527,0.0703623965382576,-0.0214166268706322,-0.0297855921089649,-0.0287283733487129,-0.0509293116629124
115,-0.041599728167057,0.0681826397776604,-0.0308282021433115,-0.035573672503233,-0.0428575836122036,-0.0507425181567669
116,-0.0326441377401352,0.0651085525751114,-0.0346214585006237,-0.0376006476581097,-0.0450972653925419,-0.0424144193530083
117,-0.022993192076683,0.0655050128698349,-0.0317908637225628,-0.0354395061731339,-0.0364087820053101,-0.0299006085842848
118,-0.0138162905350327,0.0702402368187904,-0.0243632849305868,-0.0300238225609064,-0.0237669106572866,-0.0165264569222927
119,-0.0105982022359967,0.0744730606675148,-0.0200503822416067,-0.0266453493386507,-0.0151816578581929,-0.00736676482483745
120,-0.0152100659906864,0.0749427750706673,-0.0235428493469954,-0.0291206911206245,-0.0129205128178,-0.00662462366744876
121,-0.0214776135981083,0.07502681016922,-0.0300043076276779,-0.0335322953760624,-0.0144193777814507,-0.011652865447104
122,-0.0243077035993338,0.0769359394907951,-0.0337597243487835,-0.0355100631713867,-0.0187787525355816,-0.0176850147545338
123,-0.0235982537269592,0.0781723856925964,-0.0349604301154613,-0.0361551493406296,-0.0256608240306377,-0.0232133325189352
124,-0.0216374192386866,0.0765258595347404,-0.0374962240457535,-0.0398589074611664,-0.0340576656162739,-0.030590271577239
125,-0.0201193317770958,0.0734898447990417,-0.0421954803168774,-0.0480574294924736,-0.0426270663738251,-0.0407463423907757
126,-0.0194785799831152,0.0722308605909348,-0.0452478416264057,-0.0568768829107285,-0.0493305288255215,-0.0502947084605694
127,-0.0189578831195831,0.074889287352562,-0.0434973388910294,-0.0610270127654076,-0.0517318844795227,-0.0542227290570736
128,-0.0164087302982807,0.0813174545764923,-0.0380396284162998,-0.0584461875259876,-0.0485248044133186,-0.0499196387827396
129,-0.0106573672965169,0.0889016687870026,-0.032035693526268,-0.0521854721009731,-0.0412511862814426,-0.0407016016542912
130,-0.00318578397855163,0.0951198786497116,-0.0269437450915575,-0.0467326194047928,-0.0318705439567566,-0.0331832803785801
131,0.00325391604565084,0.0997761934995651,-0.0226695723831654,-0.0437664575874805,-0.0207934509962797,-0.0308099221438169
132,0.00666768290102482,0.103395350277424,-0.0204302445054054,-0.0433266200125217,-0.0101089756935835,-0.0318313650786877
133,0.00545325595885515,0.104604743421078,-0.0228783488273621,-0.0459370277822018,-0.0045502264983952,-0.0337029732763767
134,-0.0001010684427456,0.103623367846012,-0.0288395751267672,-0.0502680838108063,-0.00727019365876913,-0.0354443229734898
135,-0.00612569926306605,0.10454011708498,-0.0331633351743221,-0.0528855845332146,-0.0173976719379425,-0.0352838039398193
136,-0.00878557097166777,0.108813300728798,-0.0325274728238583,-0.0517681576311588,-0.0311203673481941,-0.0324355997145176
137,-0.00721316505223513,0.113530926406384,-0.0275043789297342,-0.0471500344574451,-0.0441673845052719,-0.0295351166278124
138,-0.00191765942145139,0.118251778185368,-0.0201324932277203,-0.0395634956657887,-0.0526880398392677,-0.0267721880227327
139,0.00644091097638011,0.125765055418015,-0.0117122381925583,-0.0289175193756819,-0.0534732043743134,-0.0196080021560192
140,0.015143328346312,0.135611012578011,-0.00334807834587991,-0.0178051684051752,-0.0474682301282883,-0.00856440979987383
141,0.0209173895418644,0.14444787800312,0.00402860855683684,-0.0112518519163132,-0.0388770326972008,-0.00109504151623696
142,0.0220590140670538,0.149761214852333,0.0080694081261754,-0.0122313732281327,-0.0310693457722664,-0.00258926744572818
143,0.0198927503079176,0.151356905698776,0.00727989617735147,-0.0187617056071758,-0.0242056883871555,-0.0114922299981117
144,0.0197054874151945,0.150461792945862,0.00321401725523174,-0.0264986548572779,-0.0176023710519075,-0.0228467136621475
145,0.0255754347890615,0.14777934551239,-0.00256336759775877,-0.0325804986059666,-0.0133218979462981,-0.032451469451189
146,0.0371400155127048,0.146305084228516,-0.00622121477499604,-0.0329568274319172,-0.0115547925233841,-0.0347818769514561
147,0.051128763705492,0.148806363344193,-0.00369604071602225,-0.0260153636336327,-0.0113982250913978,-0.0279454309493303
148,0.0635349527001381,0.152768567204475,0.0029142526909709,-0.0171894859522581,-0.014981928281486,-0.0188251845538616
149,0.0713057368993759,0.154337719082832,0.00797260832041502,-0.0119384862482548,-0.0227592196315527,-0.0142508530989289
150,0.0741124153137207,0.153648138046265,0.00905485264956951,-0.0105384215712547,-0.0299804899841547,-0.0133483586832881
151,0.072955496609211,0.151752814650536,0.00627455301582813,-0.0126814339309931,-0.032918956130743,-0.0139372441917658
152,0.068338543176651,0.148077487945557,0.000131401786347851,-0.0189797300845385,-0.0338874943554401,-0.0170837864279747
153,0.0629563853144646,0.14368861913681,-0.00629105512052774,-0.0270188320428133,-0.0363745056092739,-0.0221613645553589
154,0.0618774518370628,0.141097158193588,-0.00875971093773842,-0.0324334241449833,-0.0387298539280891,-0.0260220970958471
155,0.0670288279652596,0.141538441181183,-0.00592532195150852,-0.0331937372684479,-0.0353539735078812,-0.0274049583822489
156,0.0742040574550629,0.145332142710686,-0.000261824869085103,-0.0310238394886255,-0.0249765980988741,-0.0290485601872206
157,0.0782781466841698,0.151386111974716,0.00426039658486843,-0.0296005848795176,-0.0137828616425395,-0.0339793562889099
158,0.0784853026270866,0.154352650046349,0.00497976876795292,-0.0316773653030396,-0.00871512945741415,-0.0412182696163654
159,0.0768415927886963,0.149696782231331,0.00174138834699988,-0.0367961525917053,-0.0119757996872067,-0.0468820855021477
160,0.0753170549869537,0.140593633055687,-0.00338325230404735,-0.0419605411589146,-0.0212265402078629,-0.0479576624929905
161,0.0746032670140266,0.132866427302361,-0.00884644966572523,-0.0452623330056667,-0.0326810479164124,-0.044695109128952
162,0.0732868686318398,0.128571659326553,-0.0152630638331175,-0.0473504140973091,-0.0438419878482819,-0.0402772165834904
163,0.0711924582719803,0.128552839159966,-0.0200453530997038,-0.047849714756012,-0.0507224351167679,-0.0364136509597301
164,0.0700371637940407,0.132629841566086,-0.0181401129812002,-0.0453636832535267,-0.0482465326786041,-0.0323780849575996
165,0.0700266435742378,0.138395056128502,-0.009861103259027,-0.0400429703295231,-0.0359348729252815,-0.0280439537018538
166,0.0686313956975937,0.1425921022892,-0.00262354360893369,-0.0353923588991165,-0.021438280120492,-0.0263936556875706
167,0.0635638311505318,0.142809182405472,-0.00201963819563389,-0.0356020554900169,-0.0156653579324484,-0.0302334222942591
168,0.0569322295486927,0.140847459435463,-0.00371522037312388,-0.0388361588120461,-0.020722184330225,-0.0359964035451412
169,0.0514752566814423,0.139760598540306,-0.00351201789453626,-0.0418126583099365,-0.0310397520661354,-0.0399106442928314
170,0.0485768280923367,0.141469672322273,-0.00272941263392568,-0.043620441108942,-0.0413378849625587,-0.0420754589140415
171,0.0496226511895657,0.147365733981133,-0.00147987226955593,-0.042852096259594,-0.048521101474762,-0.0420512519776821
172,0.054673757404089,0.156354829668999,0.00137506891041994,-0.0388960726559162,-0.0518669635057449,-0.0393875762820244
173,0.0625190660357475,0.165742114186287,0.00560866203159094,-0.0328723900020123,-0.0508360974490643,-0.034839790314436
174,0.0697411075234413,0.172496199607849,0.00883555132895708,-0.0270215589553118,-0.0459495410323143,-0.0284504201263189
175,0.0741914659738541,0.176208257675171,0.0103702303022146,-0.021266108378768,-0.0389728806912899,-0.0170269273221493
176,0.075970858335495,0.178509846329689,0.0120288152247667,-0.01445522159338,-0.0306924991309643,-0.000182365387445316
177,0.0745526403188705,0.179616034030914,0.014809406362474,-0.0082423510029912,-0.0201884582638741,0.0154827386140823
178,0.0696690827608109,0.179532468318939,0.0178305357694626,-0.00603441381826997,-0.00797422602772713,0.0227554626762867
179,0.0617696531116962,0.178439810872078,0.019618347287178,-0.0103978412225842,0.000948450062423944,0.0173922441899776
180,0.0534577332437038,0.176558911800385,0.0214451588690281,-0.0177889633923769,0.00234444160014391,0.000813878374174237
181,0.0474509857594967,0.17496845126152,0.0244447384029627,-0.021687064319849,-0.00334760965779424,-0.0196580812335014
182,0.0449854768812656,0.176692426204681,0.0273328870534897,-0.0204250793904066,-0.0126221170648932,-0.0351830497384071
183,0.0461181327700615,0.183767899870873,0.0274678338319063,-0.0168554559350014,-0.0233578458428383,-0.0412176959216595
184,0.0480891950428486,0.192664921283722,0.0211005117744207,-0.0159020703285933,-0.0362235903739929,-0.0412232801318169
185,0.0478225536644459,0.197931870818138,0.00720138335600495,-0.0213232636451721,-0.0503464341163635,-0.041761226952076
186,0.0460725501179695,0.199650317430496,-0.00911100395023823,-0.030824726447463,-0.0620455592870712,-0.0442417785525322
187,0.0457981713116169,0.202776461839676,-0.0205582603812218,-0.0381517820060253,-0.0680719316005707,-0.0444056391716003
188,0.0477233789861202,0.211096867918968,-0.0239367634057999,-0.040095616132021,-0.0675416365265846,-0.0391997620463371
189,0.0477927289903164,0.222066149115562,-0.0224714577198029,-0.0399190932512283,-0.0643386319279671,-0.0330960154533386
190,0.0416098460555077,0.230788171291351,-0.0215082541108131,-0.0422874391078949,-0.0638373196125031,-0.0317552499473095
191,0.0341949127614498,0.24031437933445,-0.0192823354154825,-0.0435311198234558,-0.0616061389446259,-0.0300446599721909
192,0.0354300811886787,0.256624728441238,-0.0101270321756601,-0.035945862531662,-0.0481965728104115,-0.0200007017701864
193,0.0458789505064487,0.277726054191589,0.00482002599164844,-0.0205917321145535,-0.0241141300648451,-0.00406120996922255
194,0.0567906722426414,0.295374006032944,0.0183717850595713,-0.00671325204893947,-0.000682483252603561,0.00910545233637095
195,0.0606295466423035,0.303592175245285,0.0247377250343561,-0.000538454274646938,0.0106394961476326,0.0141410604119301
196,0.0555117577314377,0.302403092384338,0.0207547973841429,-0.00274218712002039,0.00567356031388044,0.0113706970587373
197,0.0451454482972622,0.295356512069702,0.00644799554720521,-0.0122771076858044,-0.013943181373179,0.00445513101294637
198,0.0361694805324078,0.289066106081009,-0.0112388534471393,-0.0246385205537081,-0.0421966165304184,-0.00235246401280165
199,0.0315187610685825,0.290603160858154,-0.0236943121999502,-0.0336130075156689,-0.0699372515082359,-0.00657740468159318
200,0.0296617764979601,0.298956334590912,-0.0283334106206894,-0.0368253067135811,-0.0893569812178612,-0.00820014905184507
201,0.0281651746481657,0.305673867464066,-0.0279928296804428,-0.0365669205784798,-0.0979253053665161,-0.00971370283514261
202,0.0265136882662773,0.306121677160263,-0.0252888798713684,-0.0359624177217484,-0.0968474596738815,-0.0136659825220704
203,0.0274937450885773,0.302679181098938,-0.0194112546741962,-0.0349274985492229,-0.0863556787371635,-0.0179543476551771
204,0.0321973599493504,0.29796838760376,-0.0109357889741659,-0.0327961593866348,-0.0687238946557045,-0.0198093354701996
205,0.0368621349334717,0.291811913251877,-0.00506506441161036,-0.0314151681959629,-0.0515709854662418,-0.0214727334678173
206,0.0381531193852425,0.283932060003281,-0.00516476202756166,-0.0316807515919209,-0.0408882945775986,-0.0246110614389181
207,0.0358535945415497,0.274921625852585,-0.00827114190906286,-0.0320260562002659,-0.0371740646660328,-0.0260287411510944
208,0.0313381068408489,0.266099274158478,-0.0100072864443064,-0.0309915170073509,-0.0379527248442173,-0.0215526558458805
209,0.0258735157549381,0.258201897144318,-0.0102020632475615,-0.0297115910798311,-0.0407039187848568,-0.0125890355557203
210,0.0195740684866905,0.249940022826195,-0.0117700211703777,-0.0312417820096016,-0.0456325300037861,-0.00672426214441657
211,0.0125949280336499,0.239909425377846,-0.0169968344271183,-0.0372270755469799,-0.053355447947979,-0.0102662108838558
212,0.00703659653663635,0.23033618927002,-0.0242961924523115,-0.0444489046931267,-0.0603289045393467,-0.0206057466566563
213,0.00626672245562077,0.225538358092308,-0.0283260773867369,-0.0467130094766617,-0.0608578473329544,-0.0281267687678337
214,0.00971190631389618,0.224439606070518,-0.0265327636152506,-0.043590884655714,-0.0538689866662025,-0.0286886058747768
215,0.0126908151432872,0.22246515750885,-0.0203872323036194,-0.0398623608052731,-0.0431548990309238,-0.0260855723172426
216,0.0134015521034598,0.218483537435532,-0.011951670050621,-0.0376378074288368,-0.0334457904100418,-0.022731214761734
217,0.0139679033309221,0.21307997405529,-0.00519995996728539,-0.035990335047245,-0.0293882135301828,-0.0170834753662348
218,0.0170812122523785,0.207451641559601,-0.00396885070949793,-0.0334096029400826,-0.0321215726435184,-0.00814503524452448
219,0.0244910698384047,0.205209165811539,-0.00723201455548406,-0.0292815957218409,-0.0368097871541977,0.00210672477260232
220,0.034169677644968,0.207009389996529,-0.0122760683298111,-0.0254371631890535,-0.0394182689487934,0.00979292858392
221,0.0412127673625946,0.207613408565521,-0.0186054743826389,-0.0249083153903484,-0.0415688268840313,0.011544524691999
222,0.0433479957282543,0.202315106987953,-0.0254268050193787,-0.0293835066258907,-0.0455156862735748,0.00616316217929125
223,0.0422333776950836,0.191014438867569,-0.0320227928459644,-0.0378074385225773,-0.0504280813038349,-0.00523734092712402
224,0.0388977825641632,0.176055714488029,-0.041142899543047,-0.0482996292412281,-0.0542781837284565,-0.0210488066077232
225,0.0322350263595581,0.159833431243896,-0.0544361621141434,-0.0597827285528183,-0.0554483272135258,-0.0396621488034725
226,0.0246235430240631,0.145730763673782,-0.0659727528691292,-0.0688442215323448,-0.0520647503435612,-0.0556594617664814
227,0.0196112487465143,0.134361892938614,-0.0703680440783501,-0.0736333578824997,-0.0466848835349083,-0.0649558082222939
228,0.0161475036293268,0.122660428285599,-0.0697632059454918,-0.0772363394498825,-0.0458330847322941,-0.0702581629157066
229,0.0156536158174276,0.115018963813782,-0.064057357609272,-0.0777265727519989,-0.0464235320687294,-0.0700844153761864
230,0.0215383972972631,0.118413306772709,-0.0512100271880627,-0.0704619139432907,-0.0403431132435799,-0.0597031749784946
231,0.0294834598898888,0.12704698741436,-0.0362059511244297,-0.0590570531785488,-0.0292926449328661,-0.0445013530552387
232,0.0326146930456162,0.130258679389954,-0.0258646253496408,-0.0498831085860729,-0.0197958555072546,-0.0343677029013634
233,0.0312271937727928,0.127038761973381,-0.0203852951526642,-0.0439614839851856,-0.0157452914863825,-0.031055711209774
234,0.0289294943213463,0.122096672654152,-0.0167561899870634,-0.0397650301456451,-0.0194547828286886,-0.0306323282420635
235,0.0256764497607946,0.117363147437572,-0.0151448398828506,-0.0371312946081162,-0.0291868485510349,-0.0301615744829178
236,0.0210145507007837,0.114079959690571,-0.0146238608285785,-0.0347384475171566,-0.0371113941073418,-0.025724396109581
237,0.0166019089519978,0.113187119364738,-0.0123349269852042,-0.0310656521469355,-0.038046907633543,-0.0151568418368697
238,0.0140253519639373,0.112525500357151,-0.00987480022013187,-0.0288643464446068,-0.0342146903276443,-0.00358411972410977
239,0.0138683998957276,0.109756372869015,-0.0118796480819583,-0.0323922783136368,-0.0304047670215368,0.001839769189246
240,0.0144588872790337,0.104884907603264,-0.0197811052203178,-0.0410607866942883,-0.0313395634293556,-0.000563498411793262
241,0.0130649758502841,0.0987976044416428,-0.0301863979548216,-0.0504188127815723,-0.0394238270819187,-0.00791331473737955
242,0.00970660243183374,0.0934844985604286,-0.0374533645808697,-0.0570521466434002,-0.0519194267690182,-0.0171526540070772
243,0.00607319222763181,0.0905522555112839,-0.0388703159987926,-0.0598375909030437,-0.0627228692173958,-0.0264634005725384
244,0.00268341018818319,0.08926922082901,-0.0368518754839897,-0.0586507245898247,-0.0661122500896454,-0.0334681309759617
245,-0.000484599557239562,0.0894563794136047,-0.034079659730196,-0.0528744868934155,-0.0602315030992031,-0.034214474260807
246,-0.00342012569308281,0.0914922580122948,-0.0288824904710054,-0.0421198382973671,-0.0472385510802269,-0.0272035505622625
247,-0.00884455256164074,0.0916477218270302,-0.0212107934057713,-0.0312684662640095,-0.0334450602531433,-0.0187370777130127
248,-0.0206257253885269,0.0838153585791588,-0.0176558848470449,-0.0294332429766655,-0.0291927084326744,-0.0182715374976397
249,-0.0340219810605049,0.0709578320384026,-0.0191440898925066,-0.0358933545649052,-0.0358604229986668,-0.0240588784217834
250,-0.0412427075207233,0.060515433549881,-0.0221295189112425,-0.0433491282165051,-0.0452444776892662,-0.0287433564662933
251,-0.041715569794178,0.0524106286466122,-0.028021264821291,-0.0505034103989601,-0.0511549450457096,-0.0320106968283653
252,-0.0357546992599964,0.0471499525010586,-0.0331201814115047,-0.0540117174386978,-0.0467708595097065,-0.0314292758703232
253,-0.0243228506296873,0.048051506280899,-0.0308230277150869,-0.0491829104721546,-0.0295188874006271,-0.0223508048802614
254,-0.013868167065084,0.0509403720498085,-0.0246024206280708,-0.0412109196186066,-0.0110434740781784,-0.00991354044526815
255,-0.0100402971729636,0.0469035021960735,-0.0239218827337027,-0.0397529937326908,-0.00766505906358361,-0.004256178624928
256,-0.0106780594214797,0.0352720357477665,-0.0309929493814707,-0.0455954633653164,-0.0214965157210827,-0.00522523652762175
257,-0.00919488538056612,0.0244235377758741,-0.0374912470579147,-0.0495765134692192,-0.0392494648694992,-0.00248349108733237
258,-0.00401581265032291,0.0190431214869022,-0.0372604988515377,-0.0472131818532944,-0.0500590056180954,0.00700090220198035
259,0.00141822511795908,0.0183716062456369,-0.0316085703670979,-0.0420434884727001,-0.0514513663947582,0.017262676730752
260,0.00660314876586199,0.0244744457304478,-0.0219234954565763,-0.0351007059216499,-0.0433925911784172,0.0269134566187859
261,0.0114259878173471,0.0364164784550667,-0.0104886535555124,-0.0267805103212595,-0.0299426708370447,0.0363950841128826
262,0.0125622609630227,0.0439757257699966,-0.00159130664542317,-0.0212192740291357,-0.0172221828252077,0.0416079871356487
263,0.0101314187049866,0.0409670099616051,0.00482497503980994,-0.0199092067778111,-0.0058335792273283,0.0406402163207531
264,0.00683951890096068,0.0319175720214844,0.0105433650314808,-0.0208265818655491,0.00414078496396542,0.0343972034752369
265,0.0025410286616534,0.0228375587612391,0.01312296371907,-0.0231794826686382,0.00841224100440741,0.0237076617777348
266,-0.00309086032211781,0.0163825359195471,0.0105020748451352,-0.0262174177914858,0.00662285089492798,0.0125683778896928
267,-0.00713029643520713,0.0132988160476089,0.00606341054663062,-0.0278172772377729,0.00496836006641388,0.00757868448272347
268,-0.00566037837415934,0.012850777246058,0.00502086151391268,-0.0268644113093615,0.00777097837999463,0.0119503373280168
269,0.000508886005263776,0.0113015305250883,0.00780468108132482,-0.0256914179772139,0.0114151863381267,0.0205727573484182
270,0.00587799400091171,0.00550136575475335,0.0108831143006682,-0.0276343021541834,0.0105815306305885,0.0248744655400515
271,0.0059525091201067,-0.00314880744554102,0.0113841248676181,-0.0325259044766426,0.00631354469805956,0.0226130783557892
272,0.0017960995901376,-0.010906670242548,0.00829779729247093,-0.0367873981595039,0.0034612372983247,0.0196221023797989
273,-0.0022313219960779,-0.0157478582113981,0.00242090178653598,-0.0385938473045826,0.00319234910421073,0.0204696152359247
274,-0.00438856100663543,-0.0182660184800625,-0.00309480796568096,-0.0388293750584126,0.00215317704714835,0.0235340856015682
275,-0.00406478531658649,-0.0184389166533947,-0.00459205452352762,-0.0363746844232082,-0.00138508854433894,0.0275057386606932
276,-0.000353183102561161,-0.0166282076388597,-0.00309926923364401,-0.0306874569505453,-0.00694236345589161,0.0316994413733482
277,0.00514709763228893,-0.0163069944828749,-0.00326577504165471,-0.0248560663312674,-0.0140350358560681,0.0326007530093193
278,0.0102109555155039,-0.0201077330857515,-0.00635422440245748,-0.0209742952138186,-0.0197862777858973,0.0286891218274832
279,0.013496863655746,-0.0269758049398661,-0.0100183757022023,-0.0191497802734375,-0.0207191985100508,0.0228341482579708
280,0.0142130609601736,-0.0337169617414474,-0.0118382116779685,-0.0190763082355261,-0.0165765061974525,0.0192915741354227
281,0.0132509814575315,-0.037220623344183,-0.00996273010969162,-0.0201163683086634,-0.00802956335246563,0.0213192701339722
282,0.0125876842066646,-0.0366138219833374,-0.00396505417302251,-0.0217043925076723,0.00522601092234254,0.0279907900840044
283,0.0135810729116201,-0.0327516533434391,0.00490946276113391,-0.0222399048507214,0.0223031081259251,0.0351707600057125
284,0.0160013381391764,-0.0274554882198572,0.0153866074979305,-0.0194537583738565,0.0392160825431347,0.0401737503707409
285,0.0185578800737858,-0.0248982906341553,0.0247211884707212,-0.0142372250556946,0.0486987493932247,0.0409814491868019
286,0.0199573170393705,-0.0282227117568254,0.0284301787614822,-0.0101297115907073,0.0453589111566544,0.0358680263161659
287,0.0194000527262688,-0.0347520597279072,0.0256019253283739,-0.00902799889445305,0.0315376296639442,0.0266016405075789
288,0.0171262547373772,-0.0401396304368973,0.0196498595178127,-0.010434758849442,0.0147643629461527,0.0176239963620901
289,0.0152139756828547,-0.0428859815001488,0.014340678229928,-0.0118272118270397,0.0021162077318877,0.0128499222919345
290,0.0165367461740971,-0.0435635820031166,0.0114782433956862,-0.0108961034566164,-0.00316780596040189,0.0127903204411268
291,0.0218281093984842,-0.043580636382103,0.0112278508022428,-0.00771059421822429,-0.00180866569280624,0.0148039162158966
292,0.0285989157855511,-0.0445228405296803,0.0126169119030237,-0.00428466079756618,0.00325291324406862,0.0152725111693144
293,0.0343752503395081,-0.0448363348841667,0.0147592201828957,-0.00197310140356421,0.00961432792246342,0.0130808213725686
294,0.038774561136961,-0.0407605655491352,0.0176753029227257,-0.000460595969343558,0.0150872897356749,0.0106986481696367
295,0.0431932881474495,-0.033910047262907,0.0217959564179182,0.00165349722374231,0.0175374131649733,0.0112592689692974
296,0.0503950156271458,-0.0282602570950985,0.0283568650484085,0.00771797774359584,0.0188407395035028,0.0179933272302151
297,0.0600498206913471,-0.0233821850270033,0.0375859513878822,0.018988449126482,0.0220435503870249,0.0312324836850166
298,0.0673445239663124,-0.0178533159196377,0.046754214912653,0.0309296119958162,0.0268771387636662,0.0459506809711456
299,0.0690141022205353,-0.0123515427112579,0.0526231378316879,0.0382888205349445,0.0320165157318115,0.0572438277304173
300,0.0666737332940102,-0.00812218990176916,0.0544403344392776,0.0403892248868942,0.0376515947282314,0.0645596012473106
301,0.0643609166145325,-0.00611905846744776,0.0530476681888103,0.0396988093852997,0.0458309985697269,0.0704649016261101
302,0.0631083250045776,-0.00746470969170332,0.0490790419280529,0.0377982892096043,0.0562262125313282,0.0764535143971443
303,0.0595495887100697,-0.0124542089179158,0.0428661331534386,0.0342644304037094,0.062059361487627,0.0792354196310043
304,0.0529190227389336,-0.0185606125742197,0.0352582149207592,0.0297857001423836,0.0567996948957443,0.0763388723134995
305,0.04621696844697,-0.0236155297607183,0.0265169870108366,0.0254501476883888,0.0403804555535316,0.0689124464988709
306,0.0411839932203293,-0.0288907121866941,0.0169227570295334,0.0198743939399719,0.017049903050065,0.0565139576792717
307,0.0377481505274773,-0.0369639508426189,0.0071900887414813,0.0105652455240488,-0.00855127908289433,0.0377704128623009
308,0.0345309525728226,-0.0489875189960003,-0.00290291616693139,-0.00235699932090938,-0.0326062999665737,0.014688678085804
309,0.0300715528428555,-0.0634094104170799,-0.0127944881096482,-0.0146650578826666,-0.0513340309262276,-0.00629656808450818
310,0.0243654064834118,-0.0769533440470696,-0.0207159705460072,-0.0223101284354925,-0.062358133494854,-0.0180141106247902
311,0.0173780582845211,-0.0870005041360855,-0.0264863092452288,-0.0251728501170874,-0.0661754235625267,-0.0192141737788916
312,0.00891979690641165,-0.0924252271652222,-0.0313058495521545,-0.0251511484384537,-0.0654653161764145,-0.0146567691117525
313,0.000971790170297027,-0.0922892466187477,-0.0340753570199013,-0.022677518427372,-0.0619634352624416,-0.0082640266045928
314,-0.00369689450599253,-0.0866351500153542,-0.032339308410883,-0.016918832436204,-0.0554593577980995,-0.0016556978225708
315,-0.00372517947107553,-0.0766148492693901,-0.0252802576869726,-0.00689242826774716,-0.0454582385718822,0.00583341531455517
316,0.00145505671389401,-0.0635984390974045,-0.0133670717477798,0.00777593348175287,-0.0313003696501255,0.0166459139436483
317,0.00895071588456631,-0.0532461479306221,-0.00101897586137056,0.0221332963556051,-0.0164089910686016,0.0275658965110779
318,0.0140994023531675,-0.0514619536697865,0.00555788446217775,0.0289935134351254,-0.0062912218272686,0.033060546964407
319,0.0177614036947489,-0.0558586679399014,0.00674157496541739,0.028508260846138,-0.000378125056158751,0.0349364727735519
320,0.021782984957099,-0.0623936168849468,0.00493623875081539,0.0240302905440331,0.00113548489753157,0.035576406866312
321,0.0231575667858124,-0.0710842087864876,-0.00108566542621702,0.0165646448731422,-0.00561456056311727,0.0325255952775478
322,0.0183842778205872,-0.0834826305508614,-0.0127509357407689,0.00626534223556519,-0.0193686708807945,0.0228229649364948
323,0.0107613699510694,-0.0969622433185577,-0.0254640560597181,-0.00351332197897136,-0.0305945556610823,0.0105605702847242
324,0.00680895894765854,-0.105422049760818,-0.0320767648518085,-0.00759022543206811,-0.032603669911623,0.00464995857328177
325,0.00696520647034049,-0.109080716967583,-0.0323266088962555,-0.0058517805300653,-0.0307201147079468,0.00538536254316568
326,0.00921924877911806,-0.111686363816261,-0.0272275544703007,-0.000255817227298394,-0.0300033967941999,0.00747542269527912
327,0.0118444161489606,-0.114407576620579,-0.0178531818091869,0.00643814262002707,-0.0299069657921791,0.00816767290234566
328,0.0137335490435362,-0.115911297500134,-0.00900993775576353,0.0112619325518608,-0.0291140973567963,0.00796005502343178
329,0.0174962356686592,-0.11247731000185,-0.00373801426030695,0.0150642851367593,-0.0257003027945757,0.0101743889972568
330,0.024132989346981,-0.105873622000217,-0.00285095791332424,0.0174680463969707,-0.021386981010437,0.014227882027626
331,0.0300427675247192,-0.104810766875744,-0.00498725473880768,0.0163403544574976,-0.019902516156435,0.0151968700811267
332,0.0324683263897896,-0.112639337778091,-0.00602814787998796,0.0133445998653769,-0.0207775309681892,0.0116768507286906
333,0.0313248373568058,-0.125899508595467,-0.00548505363985896,0.0105921011418104,-0.0221819747239351,0.00557697750627995
334,0.0288141146302223,-0.139852091670036,-0.00533815287053585,0.00854289624840021,-0.0225140918046236,-0.000357868178980425
335,0.0285214241594076,-0.149348452687263,-0.00373165332712233,0.00855997111648321,-0.0194200873374939,-0.00217606662772596
336,0.0311772897839546,-0.151984632015228,0.00117061019409448,0.0115595059469342,-0.0123880179598928,0.00248588784597814
337,0.0329769439995289,-0.151080772280693,0.00633759703487158,0.0152390692383051,-0.00459538353607059,0.0101487170904875
338,0.0296800713986158,-0.153363808989525,0.00728678191080689,0.0145709495991468,-0.00115861312951893,0.01242829952389
339,0.0218473616987467,-0.161029279232025,0.00369708519428968,0.00837071519345045,-0.00324549013748765,0.00525463372468948
340,0.0141027513891459,-0.168753772974014,-0.00081683584721759,0.00170367525424808,-0.0068468963727355,-0.00625859200954437
341,0.00869980733841658,-0.171729743480682,-0.0042003714479506,-0.0011474909260869,-0.0087455241009593,-0.015589845366776
342,0.00433074124157429,-0.170660629868507,-0.00736447144299746,-0.000157516871695407,-0.00994983036071062,-0.0207948610186577
343,-0.000324609864037484,-0.169998332858086,-0.0120762893930078,0.00141291774343699,-0.0152830788865685,-0.0236991979181767
344,-0.00382804800756276,-0.171598806977272,-0.0172806512564421,0.00262258760631084,-0.0254312120378017,-0.02506373077631
345,-0.00309925945475698,-0.171781361103058,-0.0183934178203344,0.00763245532289147,-0.0335538275539875,-0.0220475047826767
346,0.00135108409449458,-0.169463813304901,-0.0147363655269146,0.0164891015738249,-0.0366193205118179,-0.0143753541633487
347,0.0087271872907877,-0.166159361600876,-0.0090445876121521,0.0252491477876902,-0.0359130129218102,-0.00345989526249468
348,0.0184133686125278,-0.16362988948822,-0.00458604423329234,0.0302058421075344,-0.0340187028050423,0.00770079204812646
349,0.0256505757570267,-0.16470667719841,-0.00493125151842833,0.0276966840028763,-0.0361689068377018,0.0124379089102149
350,0.0272453296929598,-0.16830238699913,-0.0103557724505663,0.0185666754841805,-0.0440991148352623,0.00851400010287762
351,0.0250098668038845,-0.171526953577995,-0.0183156915009022,0.00780826201662421,-0.0538791380822659,-0.000712172244675457
352,0.0213324911892414,-0.174107924103737,-0.0255283322185278,-0.000576646998524666,-0.0605624504387379,-0.0122699979692698
353,0.0178887974470854,-0.175727099180222,-0.0290400348603725,-0.00508162146434188,-0.0616589449346066,-0.0231974646449089
354,0.0177676286548376,-0.175151690840721,-0.0276275128126144,-0.00532979099079967,-0.0567669980227947,-0.0286692585796118
355,0.0217002853751183,-0.173784762620926,-0.0241290628910065,-0.00314233545213938,-0.0486905016005039,-0.0272714849561453
356,0.0265257507562637,-0.174000263214111,-0.0213479176163673,-0.000891116680577397,-0.0410971492528915,-0.0221714023500681
357,0.0296476874500513,-0.176261022686958,-0.0183629095554352,0.000495487067382783,-0.0346616953611374,-0.0168947447091341
358,0.0307871680706739,-0.180120632052422,-0.0147868134081364,6.29752103122883E-05,-0.0294957086443901,-0.0144255151972175
359,0.0309455413371325,-0.183526366949081,-0.0116555849090219,-0.00144458678551018,-0.0262273270636797,-0.0147578092291951
360,0.0323264263570309,-0.182793453335762,-0.00794196408241987,0.00019458684255369,-0.0232344958931208,-0.0125038335099816
361,0.036978654563427,-0.177278369665146,-0.00244398089125752,0.00765375467017293,-0.0186182167381048,-0.00383718172088265
362,0.0429250001907349,-0.171519905328751,0.00227600382640958,0.0168311428278685,-0.0147079760208726,0.00570004619657993
363,0.0468943268060684,-0.169867396354675,0.00283990241587162,0.0210915468633175,-0.0142788793891668,0.00776921911165118
364,0.0483667925000191,-0.172883301973343,-0.00152927835006267,0.0175507534295321,-0.0174560248851776,0.000272092729574069
365,0.0471228137612343,-0.179369926452637,-0.0100515289232135,0.00696753244847059,-0.0247127488255501,-0.0144152408465743
366,0.0444768294692039,-0.187584742903709,-0.0207082647830248,-0.00724456086754799,-0.0346431955695152,-0.0321613103151321
367,0.0444618612527847,-0.194508641958237,-0.0288096573203802,-0.0191407427191734,-0.0419669449329376,-0.0474140308797359
368,0.0484961830079556,-0.197197675704956,-0.0292650461196899,-0.0232593342661858,-0.0430262573063374,-0.0559228584170341
369,0.0539978072047234,-0.195582777261734,-0.0220354106277227,-0.0186598151922226,-0.0393143408000469,-0.0559990257024765
370,0.0584684833884239,-0.192661359906197,-0.013112417422235,-0.00999852642416954,-0.034861084073782,-0.0482240170240402
371,0.0625264346599579,-0.190091609954834,-0.00760121317580342,-0.00198015524074435,-0.0309075769037008,-0.0354249812662601
372,0.066097266972065,-0.187694847583771,-0.00677882693707943,0.00354724796488881,-0.0266315415501595,-0.0234705116599798
373,0.0663249418139458,-0.186364606022835,-0.0105787171050906,0.00627578003332019,-0.022268358618021,-0.0169950034469366
374,0.0642209649085999,-0.185595065355301,-0.0162343289703131,0.00774746993556619,-0.0166806783527136,-0.0149881336838007
375,0.0652877986431122,-0.180435955524445,-0.0170139018446207,0.0106370616704226,-0.0069983946159482,-0.0142292957752943
376,0.0712797045707703,-0.16720025241375,-0.00856471061706543,0.0158849526196718,0.00544140581041574,-0.0134596461430192
377,0.075662799179554,-0.153007194399834,0.00254029617644846,0.0184287596493959,0.0118539938703179,-0.0169292148202658
378,0.0719339922070503,-0.147535175085068,0.00689012790098786,0.0132537437602878,0.00663323979824781,-0.0286397878080606
379,0.0628465786576271,-0.150378927588463,0.00442584557458758,0.00326424604281783,-0.00506332842633128,-0.0448832958936691
380,0.0557018294930458,-0.1561339199543,0.000178614020114765,-0.00561959855258465,-0.0150596108287573,-0.0593557320535183
381,0.0550488606095314,-0.159895330667496,-0.00167900894302875,-0.00911271199584007,-0.0182092525064945,-0.0670937448740005
382,0.0609866753220558,-0.158635392785072,0.000266116257989779,-0.0059912521392107,-0.0140005731955171,-0.0657456666231155
383,0.0708878934383392,-0.153169199824333,0.00360843189992011,0.000960843695793301,-0.00627284264191985,-0.0577473752200603
384,0.0836580172181129,-0.145015493035316,0.00780573626980186,0.00926124677062035,0.00283700111322105,-0.04618189483881
385,0.0992655605077744,-0.13512310385704,0.0157449301332235,0.018031058833003,0.0147018078714609,-0.0330524109303951
386,0.113555423915386,-0.126314043998718,0.0261843949556351,0.0241070948541164,0.0282814726233482,-0.022758312523365
387,0.121543355286121,-0.120463833212852,0.0341805443167686,0.0254602916538715,0.0415174998342991,-0.018215786665678
388,0.124560594558716,-0.11637282371521,0.0375890545547009,0.0251944065093994,0.0541494004428387,-0.0167460460215807
389,0.125581666827202,-0.114241532981396,0.0356783866882324,0.0252675246447325,0.0619457773864269,-0.0154132489115
390,0.124869719147682,-0.115376427769661,0.0290363039821386,0.0244915690273046,0.0608476661145687,-0.0136434063315392
391,0.123957924544811,-0.117459513247013,0.0223587546497583,0.02439802326262,0.0559750162065029,-0.00976954959332943
392,0.124793484807014,-0.117365412414074,0.0195017512887716,0.0275445468723774,0.0536819659173489,-0.00295216357335448
393,0.127318486571312,-0.115388445556164,0.0210202019661665,0.0336503945291042,0.052161518484354,0.00341972266323864
394,0.131551370024681,-0.112352505326271,0.0273765735328197,0.041507001966238,0.0471735969185829,0.005224643740803
395,0.13518662750721,-0.109485760331154,0.036055650562048,0.0470084249973297,0.036151472479105,-0.00157383980695158
396,0.133659914135933,-0.109279789030552,0.0419015288352966,0.0452890656888485,0.0190816503018141,-0.019194457679987
397,0.129299744963646,-0.109848506748676,0.0455620363354683,0.0398127846419811,0.00416974257677794,-0.0414356105029583
398,0.128207206726074,-0.107618868350983,0.0491131842136383,0.0364600084722042,0.000211506805499084,-0.059781551361084
399,0.130865693092346,-0.103132367134094,0.0501686185598373,0.0359402410686016,0.00712077599018812,-0.0722807943820953
400,0.131551459431648,-0.101119004189968,0.046089842915535,0.0351499244570732,0.0181190669536591,-0.0854329317808151
401,0.124189876019955,-0.106006421148777,0.0368836969137192,0.0287460926920176,0.0254870858043432,-0.107141189277172
402,0.111681744456291,-0.114041447639465,0.0277556236833334,0.0171336717903614,0.0292311515659094,-0.133776128292084
403,0.102687284350395,-0.117850057780743,0.0241874810308218,0.00749107450246811,0.0345815755426884,-0.154611870646477
404,0.102395638823509,-0.115214437246323,0.0255423281341791,0.00422131875529885,0.0420385152101517,-0.164917811751366
405,0.110728189349175,-0.108779653906822,0.0284628625959158,0.00647131586447358,0.0476092174649239,-0.167533814907074
406,0.122905910015106,-0.102691195905209,0.0314361900091171,0.0123431188985705,0.0483953878283501,-0.165716603398323
407,0.132444396615028,-0.0996912866830826,0.033425185829401,0.0198021978139877,0.0437103137373924,-0.160094320774078
408,0.136047929525375,-0.0998383387923241,0.0321706384420395,0.0256546288728714,0.034775622189045,-0.153025522828102
409,0.135787397623062,-0.10093117505312,0.0274844393134117,0.0282007791101933,0.0257846526801586,-0.14778470993042
410,0.136176198720932,-0.100685454905033,0.0223399475216866,0.0284526888281107,0.0221162755042315,-0.143964305520058
411,0.139308199286461,-0.0989204272627831,0.0194118916988373,0.0276073794811964,0.0263574402779341,-0.139392927289009
412,0.14449468255043,-0.0955099388957024,0.0202663019299507,0.0273654200136662,0.0385174080729485,-0.132099717855453
413,0.148708090186119,-0.0892169401049614,0.0250001735985279,0.028692377731204,0.0546630956232548,-0.121920637786388
414,0.149248361587524,-0.0803278014063835,0.0324285477399826,0.0309426859021187,0.0669769123196602,-0.110813781619072
415,0.148558259010315,-0.0718578770756722,0.0417291037738323,0.0345152802765369,0.0717953592538834,-0.0996666699647903
416,0.150121241807938,-0.0670507624745369,0.0509890355169773,0.0395111478865147,0.0706419944763184,-0.0894605591893196
417,0.149764060974121,-0.0690857246518135,0.0539146400988102,0.0415316931903362,0.0614863447844982,-0.0852569565176964
418,0.141743823885918,-0.079199530184269,0.0458196587860584,0.035860113799572,0.0418655537068844,-0.0904458165168762
419,0.131172820925713,-0.0909235030412674,0.0331876836717129,0.0265793837606907,0.0205524731427431,-0.09739750623703
420,0.125523492693901,-0.0962811559438705,0.0253846012055874,0.0213848222047091,0.0098953889682889,-0.0964384004473686
421,0.123955853283405,-0.0944852232933044,0.0234731994569302,0.0219743307679892,0.011905767954886,-0.0874472185969353
422,0.121953435242176,-0.0905268043279648,0.0218077972531319,0.0236267987638712,0.0185708478093147,-0.0768472775816917
423,0.11839997023344,-0.0878044217824936,0.0177779942750931,0.0228441786020994,0.0238718390464783,-0.0685051158070564
424,0.11472325026989,-0.0857954621315002,0.0136509165167809,0.0205863323062658,0.0286861639469862,-0.0627765357494354
425,0.110142067074776,-0.0842935889959335,0.00852328259497881,0.0170910898596048,0.0327997617423534,-0.0616765432059765
426,0.1054992005229,-0.0821380689740181,0.00151294248644263,0.0137499449774623,0.0347125567495823,-0.0640985444188118
427,0.104630433022976,-0.0786178782582283,-0.00540275173261762,0.0124565372243524,0.0332648605108261,-0.0649707391858101
428,0.108198113739491,-0.0759502276778221,-0.0105710420757532,0.0122401593253016,0.0271404981613159,-0.0614598989486694
429,0.111947357654572,-0.0762268006801605,-0.012296442873776,0.0117510305717587,0.0187094267457724,-0.0550101660192013
430,0.111288793385029,-0.0792705416679382,-0.00920972879976034,0.0110451215878129,0.0134058613330126,-0.0497536323964596
431,0.105066247284412,-0.0829059705138206,-0.00285600870847702,0.0106873363256454,0.0127429272979498,-0.0481971763074398
432,0.0940167531371117,-0.086824931204319,0.000218005705391988,0.00842699781060219,0.0113388178870082,-0.0515488013625145
433,0.0809371173381805,-0.0920952185988426,-0.00402386486530304,0.00205145427025855,0.0048323986120522,-0.0584786869585514
434,0.0714633613824844,-0.0959707871079445,-0.0106027033179998,-0.00510044582188129,-0.00477112829685211,-0.0626910105347633
435,0.0696172416210175,-0.0946645066142082,-0.0128597365692258,-0.00796659383922815,-0.0135713666677475,-0.0596954859793186
436,0.0760745704174042,-0.0879465192556381,-0.00731341168284416,-0.00433194218203425,-0.0161970648914576,-0.0500154159963131
437,0.0880654975771904,-0.0790384709835052,0.00467556389048696,0.00387596618384123,-0.00872620940208435,-0.0372267700731754
438,0.0994757413864136,-0.0718356370925903,0.0164626333862543,0.0117296325042844,0.00482530286535621,-0.02536715939641
439,0.105332501232624,-0.0675908997654915,0.0219926610589027,0.0162109714001417,0.0165625084191561,-0.0147798769176006
440,0.104621097445488,-0.0661773085594177,0.0188257750123739,0.016985721886158,0.0214316137135029,-0.00536203570663929
441,0.101536259055138,-0.0660651326179504,0.0101528177037835,0.0158268194645643,0.0208255089819431,0.00172577786725014
442,0.101981371641159,-0.0639261156320572,0.00272968458011746,0.0167132169008255,0.0203239861875772,0.0079619288444519
443,0.105492606759071,-0.059758435934782,-0.00163745018653572,0.0211911890655756,0.0221495628356934,0.0148486392572522
444,0.107234545052052,-0.0561475306749344,-0.00532518792897463,0.0264809280633926,0.0246950443834066,0.02198800817132
445,0.105737276375294,-0.0532617382705212,-0.0084858750924468,0.0304792281240225,0.0262297131121159,0.029186449944973
446,0.102518022060394,-0.0511275455355644,-0.00988567154854536,0.0335171930491924,0.024769626557827,0.034904383122921
447,0.0996306613087654,-0.0502652712166309,-0.00785973481833935,0.0360591150820255,0.0217435378581285,0.0367804169654846
448,0.0992021709680557,-0.0492539890110493,-0.000300808809697628,0.0384661816060543,0.0238801799714565,0.0349851585924625
449,0.101215451955795,-0.0464955754578114,0.0119807990267873,0.0408566743135452,0.0345484651625156,0.0319883525371552
450,0.105118304491043,-0.0411329343914986,0.026394072920084,0.0442388169467449,0.0508316345512867,0.0312212016433477
451,0.110821045935154,-0.0337062068283558,0.0399477444589138,0.049679908901453,0.0669199079275131,0.0345839969813824
452,0.114921279251575,-0.0282279178500175,0.0469354242086411,0.053906973451376,0.0747506618499756,0.0385160520672798
453,0.112832427024841,-0.0297522693872452,0.0420372001826763,0.0510614179074764,0.0690863952040672,0.0366968847811222
454,0.104830980300903,-0.039148174226284,0.0262107327580452,0.0399988293647766,0.051790926605463,0.02868009544909
455,0.0986285880208015,-0.0494538359344006,0.0104035632684827,0.0285770744085312,0.0320386774837971,0.02293536439538
456,0.100904628634453,-0.0522078536450863,0.00609994260594249,0.0245673917233944,0.0191206764429808,0.0251165274530649
457,0.108771607279778,-0.0466843694448471,0.0104970131069422,0.0257560275495052,0.0139575209468603,0.0300351027399302
458,0.118064433336258,-0.0371363423764706,0.0125356176868081,0.0267248619347811,0.0143718831241131,0.03158138692379
459,0.130409464240074,-0.0264808461070061,0.00902443379163742,0.0274541582912207,0.0196698792278767,0.030697476118803
460,0.146723508834839,-0.0165302194654942,0.00410824874415994,0.0300669223070145,0.0259645152837038,0.0304671805351973
461,0.162388265132904,-0.00962549168616533,0.000340255355695263,0.0336943790316582,0.0276406072080135,0.0307430289685726
462,0.171397551894188,-0.0057182339951396,-0.0021800899412483,0.0356794111430645,0.023461451753974,0.030035188421607
463,0.173014163970947,-0.00301455613225698,-0.00364382611587644,0.0352485291659832,0.0152561599388719,0.0290178321301937
464,0.173633798956871,-0.000134893110953271,-0.000781688664574176,0.0374470017850399,0.00819863472133875,0.0332664661109447
465,0.178691834211349,0.00430500879883766,0.0102814454585314,0.047308299690485,0.00897251907736063,0.046799473464489
466,0.187489226460457,0.0105548109859228,0.0280510373413563,0.0617770738899708,0.0192313548177481,0.0649009048938751
467,0.196175172924995,0.0162718947976828,0.0464387983083725,0.0723170563578606,0.0343124307692051,0.0781897529959679
468,0.200646251440048,0.018321493640542,0.0577830374240875,0.0716744288802147,0.0451590642333031,0.0806444883346558
469,0.200009867548943,0.0178560577332973,0.0593604221940041,0.0610301718115807,0.046234518289566,0.0759279727935791
470,0.194626435637474,0.0173065736889839,0.0534716285765171,0.0465439818799496,0.0390251390635967,0.0704994723200798
471,0.184547707438469,0.015528317540884,0.0426908358931541,0.0317080616950989,0.0280515104532242,0.0655782148241997
472,0.172911688685417,0.0118598183616996,0.0306999105960131,0.0191629771143198,0.0199266690760851,0.0616310425102711
473,0.163800612092018,0.00825769640505314,0.0220719333738089,0.0115945572033525,0.0205159652978182,0.0611581727862358
474,0.157271414995193,0.00499983644112945,0.0181534178555012,0.00767024559900165,0.0279169306159019,0.0645122528076172
475,0.150411516427994,0.000232251768466085,0.016509996727109,0.0028200801461935,0.0336694605648518,0.0677305534482002
476,0.142702609300613,-0.00452153710648417,0.0166215486824512,-0.00370171735994518,0.0340811312198639,0.0684905201196671
477,0.134688168764114,-0.0068508917465806,0.0197957549244165,-0.00956617388874292,0.0311558023095131,0.0669937655329704
478,0.125301033258438,-0.00918165873736143,0.024658840149641,-0.0156028075143695,0.0263315979391336,0.061117596924305
479,0.116239570081234,-0.0126229636371136,0.0294285044074059,-0.0225829016417265,0.0214132182300091,0.0519688688218594
480,0.112389415502548,-0.0133868772536516,0.0333640575408936,-0.0272518675774336,0.018385611474514,0.0466412678360939
481,0.114608645439148,-0.0123076196759939,0.0325592532753944,-0.0289061814546585,0.0155967278406024,0.0474783144891262
482,0.118797339498997,-0.0151235973462462,0.022668095305562,-0.0317217819392681,0.0100234933197498,0.0502919219434261
483,0.122939325869083,-0.0217672940343618,0.00722298119217157,-0.0361956618726254,0.0040307748131454,0.0536129213869572
484,0.127752602100372,-0.0270574055612087,-0.00483760982751846,-0.0377126969397068,0.0035334296990186,0.0593845285475254
485,0.132972851395607,-0.0278346780687571,-0.00814341567456722,-0.0332666337490082,0.010965958237648,0.068137913942337
486,0.136512398719788,-0.025650268420577,-0.00462919007986784,-0.0256619527935982,0.0216567330062389,0.0750209540128708
487,0.137127235531807,-0.024826742708683,-0.000971638364717364,-0.0209625829011202,0.0263127163052559,0.0732266381382942
488,0.136547610163689,-0.0266413185745478,-0.00180205272044986,-0.0215681958943605,0.021069198846817,0.0631117448210716
489,0.135702908039093,-0.0290467441082001,-0.00656570540741086,-0.0257538687437773,0.0104020275175571,0.0504345111548901
490,0.134887620806694,-0.0297303162515163,-0.0104171354323626,-0.0297438018023968,0.00158094533253461,0.0410419963300228
491,0.134546309709549,-0.028920691460371,-0.0103884814307094,-0.0314431935548782,-0.00321921915747225,0.037188246846199
492,0.135966688394547,-0.0282352305948734,-0.00784159637987614,-0.0317310430109501,-0.00705046532675624,0.0380015857517719
493,0.143119230866432,-0.0259280018508434,-0.0023685812484473,-0.0287489667534828,-0.00923237297683954,0.0454385168850422
494,0.154478847980499,-0.0206527877599001,0.00626382930204272,-0.0205889381468296,-0.00766001269221306,0.0601217672228813
495,0.161647006869316,-0.015363022685051,0.0154716474935412,-0.0111062340438366,-0.00350049114786088,0.0757672414183617
496,0.160660699009895,-0.0127337956801057,0.0238054618239403,-0.00498046260327101,0.00271302252076566,0.0858823880553246
497,0.156256049871445,-0.0106139210984111,0.0323316492140293,-0.000362086633685976,0.0135176908224821,0.0915902554988861
498,0.153310328722,-0.00610798271372914,0.0416147895157337,0.00586845632642508,0.0295960810035467,0.0968464687466621
499,0.150858893990517,-0.000948209955822676,0.0490843169391155,0.0103858476504683,0.0449360199272633,0.101460203528404
500,0.146693050861359,0.00106299424078316,0.050199631601572,0.00813009217381477,0.0513988025486469,0.103631012141705
501,0.139938175678253,-0.00175552035216242,0.0418086126446724,-0.00187791313510388,0.04542376101017,0.101453647017479
502,0.131359174847603,-0.00745284790173173,0.0261292140930891,-0.0160709619522095,0.0300140734761953,0.0937195122241974
503,0.124798879027367,-0.0118669653311372,0.0110380472615361,-0.0279556624591351,0.0147837661206722,0.0832183733582497
504,0.124911561608315,-0.0114717902615666,0.003511170623824,-0.0324841625988483,0.0100202187895775,0.0752919018268585
505,0.131119102239609,-0.00571057107299566,0.00184519193135202,-0.0311429332941771,0.0160702560096979,0.0718530118465424
506,0.137929022312164,0.00134125526528805,-0.000467831938294694,-0.0293648485094309,0.0253705400973558,0.070458360016346
507,0.141099244356155,0.00279196654446423,-0.0059590507298708,-0.0307362210005522,0.0304440837353468,0.0675601959228516
508,0.138448402285576,-0.00470985379070044,-0.0140427593141794,-0.0364144332706928,0.0257123149931431,0.0606531724333763
509,0.131201639771461,-0.0163178127259016,-0.0220944341272116,-0.0432267673313618,0.0117688458412886,0.0531006865203381
510,0.123158909380436,-0.0254824385046959,-0.0282305460423231,-0.0473635084927082,-0.00677396170794964,0.0490664541721344
511,0.116991877555847,-0.0310930274426937,-0.0331825166940689,-0.0489417426288128,-0.0264178495854139,0.04716856777668
512,0.114894360303879,-0.0332720726728439,-0.0348457433283329,-0.046745028346777,-0.0416358113288879,0.047647800296545
513,0.116640716791153,-0.0306629184633493,-0.0307431053370237,-0.0393992699682713,-0.0466683767735958,0.0523240119218826
514,0.118985585868359,-0.0238004624843597,-0.0230681635439396,-0.0302151758223772,-0.0410102754831314,0.0593351051211357
515,0.120139077305794,-0.015504932962358,-0.0144074186682701,-0.0224075336009264,-0.0281767789274454,0.0651819482445717
516,0.120067924261093,-0.00858095195144415,-0.00612158700823784,-0.0164205525070429,-0.0125035541132092,0.0672052651643753
517,0.118843585252762,-0.00419082632288337,-0.000544799026101828,-0.0132363149896264,0.00214340351521969,0.0647125020623207
518,0.116828970611095,-0.00109921349212527,0.0025302420835942,-0.0129812536761165,0.0137375667691231,0.0599359311163425
519,0.113554179668427,0.00194037740584463,0.00514011364430189,-0.0146344164386392,0.0217723920941353,0.0553328581154346
520,0.105859689414501,0.00152524712029845,0.00357966800220311,-0.0208168439567089,0.0235509891062975,0.0483031421899796
521,0.0929096862673759,-0.00539092626422644,-0.00539052952080965,-0.0316787734627724,0.0177630167454481,0.0370495431125164
522,0.0815209895372391,-0.0132070621475577,-0.0149439191445708,-0.0385754443705082,0.0100622056052089,0.0285405945032835
523,0.0782168954610825,-0.0150966038927436,-0.0179864168167114,-0.0358235947787762,0.00473054172471166,0.0287773404270411
524,0.0822034478187561,-0.0114028733223677,-0.0157504770904779,-0.0275177489966154,0.00017734088760335,0.0353711284697056
525,0.0881127268075943,-0.0057243574410677,-0.0119386333972216,-0.0195100232958794,-0.0040789064951241,0.0437843799591064
526,0.0908904448151588,-0.000203520554350689,-0.00746288942173123,-0.0133654167875648,-0.0053672599606216,0.0527037158608437
527,0.0892544090747833,0.00461176550015807,-0.00298295053653419,-0.00836253631860018,-0.00256488053128123,0.0629269927740097
528,0.0867546126246452,0.0093030771240592,0.00138571416027844,-0.00338817178271711,0.00291520799510181,0.075390912592411
529,0.0877462550997734,0.014497946947813,0.00807275250554085,0.00290193548426032,0.00925796944648027,0.0900751948356628
530,0.0892781540751457,0.0170472767204046,0.0151628348976374,0.00762520730495453,0.0117121171206236,0.10104139149189
531,0.0852146744728088,0.0141782267019153,0.0184218529611826,0.00704905390739441,0.00736440904438496,0.10118493437767
532,0.0787388756871223,0.0112145291641355,0.0196019187569618,0.00473380228504539,0.00224660360254347,0.0944593027234077
533,0.0786365568637848,0.0138508686795831,0.0207960791885853,0.00556846940889955,0.00175016676075757,0.0890124216675758
534,0.0854025855660439,0.0190699975937605,0.0193560346961021,0.00798759236931801,0.00240502459928393,0.0846848264336586
535,0.0904335007071495,0.0204997062683105,0.0125080356374383,0.00757546769455075,-0.00150002760346979,0.0780780911445618
536,0.0871550664305687,0.0162349045276642,0.00062289519701153,0.00246154889464378,-0.010673108510673,0.0692242830991745
537,0.0770799517631531,0.00942335370928049,-0.0133439879864454,-0.00493510952219367,-0.0202347058802843,0.0605390109121799
538,0.0664986595511436,0.00372157874517143,-0.0244403276592493,-0.0107298772782087,-0.0245856866240501,0.054793581366539
539,0.0604975149035454,0.00120996951591223,-0.0278984867036343,-0.0138206593692303,-0.0222584400326014,0.0524141229689121
540,0.0596818402409554,0.00357380183413625,-0.0231111794710159,-0.0145947271957994,-0.0151608111336827,0.0521191507577896
541,0.06067780777812,0.0097038745880127,-0.0154449744150043,-0.0146666551008821,-0.00708541972562671,0.052121564745903
542,0.0593539886176586,0.0148360664024949,-0.0106699671596289,-0.0166957266628742,-0.00215503526851535,0.0502054691314697
543,0.0548776052892208,0.0170520879328251,-0.00690119853243232,-0.0193073377013206,0.00104371865745634,0.0472192391753197
544,0.0503790378570557,0.0198010262101889,0.00195051555056125,-0.0179535448551178,0.0111432950943708,0.0470496118068695
545,0.0478661395609379,0.0248325057327747,0.0150560243055224,-0.0124975442886353,0.0315869376063347,0.0497827902436256
546,0.0458894819021225,0.0300303101539612,0.0249805059283972,-0.00693760113790631,0.0521150417625904,0.051872581243515
547,0.0431406572461128,0.0353689938783646,0.0273855738341808,-0.00317532825283706,0.0599282048642635,0.0532048083841801
548,0.038267083466053,0.0413936637341976,0.0225997809320688,-0.00298733543604612,0.0504357069730759,0.0534036085009575
549,0.031712856143713,0.0459503382444382,0.0157315526157618,-0.00646368646994233,0.0308947283774614,0.0511287823319435
550,0.0271059442311525,0.0475695542991161,0.0138985551893711,-0.00894462410360575,0.0144403222948313,0.0492069311439991
551,0.0265124328434467,0.0477389916777611,0.0181567203253508,-0.00747942691668868,0.00655777007341385,0.0505834072828293
552,0.0297550372779369,0.0488616935908794,0.0244324263185263,-0.00282167503610253,0.00463931309059262,0.0567821301519871
553,0.0353148579597473,0.0505671836435795,0.0291144028306007,0.00333384703844786,0.00512858154252172,0.0684158429503441
554,0.0402650609612465,0.0503733605146408,0.0318646058440208,0.00930526480078697,0.00579327577725053,0.0815208479762077
555,0.0418778508901596,0.0475072786211967,0.0325558371841908,0.013008140027523,0.0051788417622447,0.0887886583805084
556,0.0395748689770699,0.0447638034820557,0.0292527657002211,0.012998366728425,0.00326440017670393,0.0865736529231071
557,0.0334098376333714,0.0445056110620499,0.0217493232339621,0.00921959150582552,0.000315142766339704,0.076055072247982
558,0.0233210176229477,0.0451439507305622,0.0129638817161322,0.00244609196670353,-0.00363963516429067,0.0603475496172905
559,0.010383490473032,0.0433096550405025,0.00592846656218171,-0.00515604019165039,-0.00691937888041139,0.0435118973255157
560,-0.00472495378926396,0.0366957411170006,0.00117716973181814,-0.0115028992295265,-0.00932937208563089,0.0286171901971102
561,-0.0206733793020248,0.0272078681737185,-0.00227101496420801,-0.015725726261735,-0.0134499277919531,0.0171965584158897
562,-0.0322306901216507,0.0213424488902092,-0.00432429788634181,-0.0154293021187186,-0.01794758066535,0.011454832740128
563,-0.0333945043385029,0.0239934548735619,-0.00298943161033094,-0.00800365302711725,-0.017626391723752,0.0134039195254445
564,-0.0254933480173349,0.0327850356698036,0.00144125521183014,0.00335594965144992,-0.0122003946453333,0.0209511294960976
565,-0.0186879001557827,0.0396393574774265,0.00258118216879666,0.00951293669641018,-0.00866134651005268,0.0271806810051203
566,-0.0203922763466835,0.0399154014885426,-0.00384137872606516,0.00606933981180191,-0.0110464533790946,0.0280781425535679
567,-0.0275116227567196,0.0375653244554996,-0.0120096364989877,-0.000307615147903562,-0.0132678905501962,0.0287829767912626
568,-0.0348090901970863,0.0372924916446209,-0.0152040217071772,-0.00238934042863548,-0.00989596731960773,0.0341801643371582
569,-0.0395086072385311,0.0403394028544426,-0.0115130692720413,0.00145618652459234,-0.00259843445383012,0.0429763868451118
570,-0.0400012023746967,0.0458981953561306,-0.00258464156650007,0.00959615875035524,0.0039435694925487,0.0522636398673058
571,-0.0385467410087585,0.0501441322267056,0.00473682442680001,0.0170385502278805,0.0045030782930553,0.0586681887507439
572,-0.0394912250339985,0.0491784773766994,0.00515972310677171,0.0196169968694448,-0.00188023096416146,0.0603582747280598
573,-0.0426240004599094,0.0442407466471195,0.00162036623805761,0.0190603658556938,-0.00943506881594658,0.0599738582968712
574,-0.0443995594978333,0.0399101600050926,-0.00112494872882962,0.0186509285122156,-0.0126844486221671,0.0599773488938808
575,-0.0436528474092484,0.038986649364233,-0.00166308332700282,0.0188589058816433,-0.0116829555481672,0.059085626155138
576,-0.0423618257045746,0.0408924929797649,-0.000738686532713473,0.0187638867646456,-0.0102134747430682,0.0544439367949963
577,-0.0436700731515884,0.0428644679486752,-0.000994360656477511,0.0169796869158745,-0.0123768877238035,0.0438991114497185
578,-0.0466522537171841,0.0445384085178375,-0.00260508782230318,0.01482645701617,-0.0154343200847507,0.0309014301747084
579,-0.0474502444267273,0.0471601858735085,-0.00281524634920061,0.0144208585843444,-0.0134092075750232,0.0212221760302782
580,-0.0460535511374474,0.0499312281608582,-0.000964781327638775,0.0143465148285031,-0.00805056560784578,0.0153786679729819
581,-0.0466631278395653,0.0507560148835182,0.000966451538261026,0.0129102366045117,-0.0070307282730937,0.0102299246937037
582,-0.0527303479611874,0.0472976453602314,-0.000110316861537285,0.00997882802039385,-0.0152237974107265,0.00300278305076063
583,-0.060091894119978,0.0425724014639854,-0.00235764868557453,0.00854934379458427,-0.0260045807808638,-0.00297696981579065
584,-0.0615527592599392,0.0437082350254059,0.00104062224272639,0.0125610390678048,-0.0259645935148001,-0.00153847620822489
585,-0.0573462396860123,0.0508515164256096,0.0102856075391173,0.0197391826659441,-0.0119535913690925,0.00591648742556572
586,-0.0527743436396122,0.057599738240242,0.0175427533686161,0.0234089884907007,0.00558831822127104,0.012361285276711
587,-0.050217442214489,0.0608664900064468,0.018663177266717,0.0215354263782501,0.0171850267797709,0.0142134102061391
588,-0.0483570173382759,0.0636973232030869,0.0167649127542973,0.0180399864912033,0.0225635506212711,0.0133168417960405
589,-0.0473537258803844,0.0670461729168892,0.0141822965815663,0.0144313396885991,0.0234769005328417,0.0112063307315111
590,-0.0490385890007019,0.0662145167589188,0.00975182931870222,0.00904522836208344,0.0201681107282639,0.0082433307543397
591,-0.0536598041653633,0.0588812567293644,0.00271543813869357,0.0017189682694152,0.0127723636105657,0.00577039318159223
592,-0.0581916347146034,0.0491212271153927,-0.00497984234243631,-0.00506737176328897,0.00252192514017224,0.00646042916923761
593,-0.0584205724298954,0.0419943444430828,-0.0108391884714365,-0.00781647954136133,-0.00764056853950024,0.0122957248240709
594,-0.0541552938520908,0.0376965254545212,-0.0148549480363727,-0.00662966910749674,-0.0167488362640142,0.0202412270009518
595,-0.0486970841884613,0.0329827293753624,-0.0181206949055195,-0.00472349673509598,-0.0252514574676752,0.024561895057559
596,-0.0448456816375256,0.0260779485106468,-0.0216326285153627,-0.0040643117390573,-0.0316257625818253,0.0223732609301806
597,-0.0431545451283455,0.0180507022887468,-0.0250476058572531,-0.00407365523278713,-0.0332857929170132,0.0157836880534887
598,-0.0428702980279922,0.0113813932985067,-0.0254641566425562,-0.0031374404206872,-0.0294560045003891,0.0104429963976145
599,-0.0443357601761818,0.00736485468223691,-0.0218499954789877,-0.00163037283346057,-0.0230191834270954,0.00917109567672014
600,-0.0463190078735352,0.00707300566136837,-0.0151006327942014,4.72164610982873E-05,-0.0154838552698493,0.0104986373335123
601,-0.0471561066806316,0.0108842132613063,-0.00649277679622173,0.00218482199124992,-0.00822011101990938,0.0119063425809145
602,-0.0481319949030876,0.0165409259498119,0.00136403657961637,0.00435342732816935,-0.0061973612755537,0.0118097234517336
603,-0.0477917790412903,0.0237600561231375,0.00882064737379551,0.00970568135380745,-0.00886650010943413,0.0140386233106256
604,-0.0448586903512478,0.0318285375833511,0.0152923027053475,0.0190529655665159,-0.0119073940441012,0.0214846171438694
605,-0.0421326793730259,0.0367307662963867,0.0172582473605871,0.0268430653959513,-0.0144304530695081,0.0300548989325762
606,-0.0404701754450798,0.0373916476964951,0.0149527583271265,0.0303835552185774,-0.0166760664433241,0.035930871963501
607,-0.0390347316861153,0.036607351154089,0.0104800025001168,0.0306016243994236,-0.019030474126339,0.0379905477166176
608,-0.0389122813940048,0.0359599627554417,0.00439803022891283,0.0273772440850735,-0.0216799341142178,0.035879272967577
609,-0.0414696075022221,0.034790500998497,-0.00236766925081611,0.0211070347577333,-0.0235544685274363,0.0320297740399837
610,-0.0445765890181065,0.0339131318032742,-0.00737681472674012,0.0153251523151994,-0.0225944183766842,0.0312428586184978
611,-0.044379148632288,0.0346959717571735,-0.00906051602214575,0.0133279655128717,-0.0183061379939318,0.0341710224747658
612,-0.0425166189670563,0.0352944768965244,-0.00928397197276354,0.0132330795750022,-0.0133181773126125,0.035456158220768
613,-0.0435276851058006,0.0337457098066807,-0.0106189167127013,0.0110665252432227,-0.00924570113420486,0.0314835347235203
614,-0.0463511310517788,0.0313814617693424,-0.0116233723238111,0.00637758383527398,-0.00566858984529972,0.0243228878825903
615,-0.0470866002142429,0.0296487659215927,-0.00939209666103125,0.00120868813246489,-0.00442638294771314,0.0164848659187555
616,-0.0425785779953003,0.0310363490134478,-0.00152765226084739,0.000728477782104164,-0.00283139920793474,0.0119412718340755
617,-0.0336123108863831,0.0366609357297421,0.0106610506772995,0.00798757001757622,0.00488395616412163,0.0138140060007572
618,-0.0256680976599455,0.0417527370154858,0.019860053434968,0.0171712841838598,0.0156398173421621,0.0179583840072155
619,-0.0220061149448156,0.0425064899027348,0.0215274300426245,0.0219066217541695,0.0222418662160635,0.0192992594093084
620,-0.0228497199714184,0.0392604023218155,0.0166286788880825,0.0201663319021463,0.0205382034182549,0.0157121196389198
621,-0.026681849732995,0.0343405269086361,0.0084765600040555,0.0139255039393902,0.0124142654240131,0.00857038982212543
622,-0.0312515422701836,0.0303984452039003,0.00115702650509775,0.00850174017250538,0.00415888009592891,0.00262972200289369
623,-0.0354291088879108,0.0288340989500284,-0.00176481122616678,0.00767085608094931,0.000501286238431931,0.00118374940939248
624,-0.0380661450326443,0.0309514012187719,0.00171709840651602,0.0120515711605549,0.00362604879774153,0.00507149938493967
625,-0.038444247096777,0.0366258360445499,0.00839109532535076,0.0191482733935118,0.011649957858026,0.0129906106740236
626,-0.0374147482216358,0.041895542293787,0.0116364452987909,0.0238961707800627,0.0185999292880297,0.0211673397570848
627,-0.0349752008914948,0.0437754243612289,0.00950201973319054,0.0237988904118538,0.0203740913420916,0.0270861256867647
628,-0.0298004895448685,0.0438708178699017,0.00486056506633759,0.0204980038106442,0.017644053325057,0.0312951728701591
629,-0.0241834186017513,0.0419881828129292,-0.0023450287990272,0.0137133365496993,0.010838758200407,0.0338314883410931
630,-0.0219652336090803,0.0361935496330261,-0.0125794839113951,0.00271122390404344,-1.28441445212957E-06,0.0345163755118847
631,-0.0228336974978447,0.0292105134576559,-0.0208813734352589,-0.00839442666620016,-0.0111890761181712,0.0343846008181572
632,-0.0244898777455091,0.0255454182624817,-0.0224553346633911,-0.0147474575787783,-0.0184020008891821,0.0343683622777462
633,-0.0251259040087461,0.0269277561455965,-0.0174623746424913,-0.0155600812286139,-0.0200061351060867,0.0342295840382576
634,-0.0259578134864569,0.0313631556928158,-0.0118472082540393,-0.0149863325059414,-0.0194390472024679,0.0300349332392216
635,-0.0313146375119686,0.0337833017110825,-0.0127245550975204,-0.0177959036082029,-0.0222906619310379,0.0177275221794844
636,-0.0408064723014832,0.0306871142238379,-0.0180270653218031,-0.0225961562246084,-0.0262704212218523,0.00103650253731757
637,-0.0472217053174973,0.0239518340677023,-0.0188457146286964,-0.0238547679036856,-0.0233407150954008,-0.0113291162997484
638,-0.0460077226161957,0.0168218798935413,-0.0128831909969449,-0.020787725225091,-0.0131355011835694,-0.0169618017971516
639,-0.040578305721283,0.0102456463500857,-0.00490980641916394,-0.0175242405384779,-0.00135666190180928,-0.0199661385267973
640,-0.0360627807676792,0.0058055822737515,0.00289119081571698,-0.0151948323473334,0.0113510517403483,-0.0215920601040125
641,-0.0338410474359989,0.00635651359334588,0.0120697282254696,-0.0109223434701562,0.0260257981717587,-0.0191267803311348
642,-0.0337576940655708,0.012337108142674,0.0229332000017166,-0.00340657308697701,0.0381928831338882,-0.0111657474189997
643,-0.0363131836056709,0.0193706806749105,0.0306373201310635,0.00324112083762884,0.0407570861279964,-0.0020549176260829
644,-0.0406369343400002,0.023073073476553,0.0305966585874558,0.00542600033804774,0.0327013619244099,0.00288720382377505
645,-0.0432567447423935,0.0251785255968571,0.0258710216730833,0.00678164279088378,0.0213549863547087,0.0062339217402041
646,-0.044121976941824,0.0257335267961025,0.0165225062519312,0.00740833953022957,0.00839844811707735,0.00875372532755136
647,-0.0476526506245136,0.0198631174862385,-0.00279856333509088,0.000545576738659292,-0.0122867058962584,0.00388742727227509
648,-0.052829273045063,0.00942919310182333,-0.0264070704579353,-0.0121213449165225,-0.0372091569006443,-0.00731983408331871
649,-0.0531385168433189,0.00272013386711478,-0.0408959612250328,-0.0206926502287388,-0.0538167878985405,-0.0152720818296075
650,-0.0464734509587288,0.00375377526506782,-0.0411344431340694,-0.0204379390925169,-0.0547338649630547,-0.0148662142455578
651,-0.0390061847865582,0.0084844920784235,-0.033753652125597,-0.0162068195641041,-0.0436096116900444,-0.0106670651584864
652,-0.0385105311870575,0.0104679577052593,-0.0298606976866722,-0.0163526404649019,-0.0310509391129017,-0.0110886506736279
653,-0.0451919659972191,0.00899477675557137,-0.0330227054655552,-0.0228823367506266,-0.0233417619019747,-0.0175470188260078
654,-0.05343147367239,0.00789386685937643,-0.0373976342380047,-0.030238464474678,-0.0186120178550482,-0.0228724032640457
655,-0.0602024272084236,0.00858268328011036,-0.0380885303020477,-0.0342008844017982,-0.0149952927604318,-0.0221069268882275
656,-0.0644537508487701,0.0113039445132017,-0.0339183248579502,-0.0337277799844742,-0.0117762666195631,-0.0161781292408705
657,-0.0655612573027611,0.014625808224082,-0.0275748688727617,-0.0303386654704809,-0.00904838088899851,-0.00980324670672417
658,-0.064449742436409,0.0134193282574415,-0.0247987508773804,-0.028263607993722,-0.00908614043146372,-0.0086661409586668
659,-0.062143363058567,0.00565416133031249,-0.0270748902112246,-0.0291241705417633,-0.0105985272675753,-0.0129271745681763
660,-0.0606503859162331,-0.0055228378623724,-0.0313385426998138,-0.0316081568598747,-0.0104982294142246,-0.0176595356315374
661,-0.0610382407903671,-0.0158531442284584,-0.0335939340293407,-0.0337824821472168,-0.00951372366398573,-0.0186950899660587
662,-0.0623302683234215,-0.0226086340844631,-0.0313275791704655,-0.0343995466828346,-0.0107254302129149,-0.0172716546803713
663,-0.0627313405275345,-0.0236986987292767,-0.0240378510206938,-0.0325467847287655,-0.0144521798938513,-0.0156347900629044
664,-0.0613436438143253,-0.0188014358282089,-0.0149280084297061,-0.0285178702324629,-0.018713416531682,-0.0130771193653345
665,-0.0597584620118141,-0.0113718779757619,-0.00929163862019777,-0.0249510817229748,-0.0226310174912214,-0.0100193154066801
666,-0.0590588711202145,-0.00540265999734402,-0.00735239218920469,-0.0231756865978241,-0.0239527113735676,-0.00817257259041071
667,-0.0586253590881824,-0.00340118003077805,-0.00661386316642165,-0.0217214934527874,-0.0206208564341068,-0.00818903744220734
668,-0.0585629679262638,-0.00627536466345191,-0.00793531257659197,-0.0205551534891129,-0.0161555856466293,-0.0105859162285924
669,-0.0601317062973976,-0.013478678651154,-0.0148193789646029,-0.0243865102529526,-0.0173379182815552,-0.0172064024955034
670,-0.0636382773518562,-0.0228475406765938,-0.0278102643787861,-0.035337507724762,-0.0258115604519844,-0.0271983575075865
671,-0.0672625973820686,-0.0304255913943052,-0.0420972146093845,-0.047197375446558,-0.0363679006695747,-0.0350626297295094
672,-0.0685045495629311,-0.0348843559622765,-0.0539940223097801,-0.0547120086848736,-0.0455459244549274,-0.0378312095999718
673,-0.067753478884697,-0.0396654382348061,-0.063940666615963,-0.0597420148551464,-0.0548280999064446,-0.0380163639783859
674,-0.0677304118871689,-0.0465213991701603,-0.0717836171388626,-0.0640421137213707,-0.0641302391886711,-0.0373297408223152
675,-0.0697421655058861,-0.0524329170584679,-0.0755711868405342,-0.066339299082756,-0.070059172809124,-0.0348759181797504
676,-0.074017733335495,-0.0551051422953606,-0.0741619542241097,-0.0670090019702911,-0.0701781287789345,-0.0321268774569035
677,-0.0783383995294571,-0.0542658418416977,-0.0673080533742905,-0.0655723437666893,-0.0623030290007591,-0.030497008934617
678,-0.0778443217277527,-0.0487071610987186,-0.0548665970563889,-0.0588115267455578,-0.04421766102314,-0.0260238330811262
679,-0.069883331656456,-0.0380508713424206,-0.0377706401050091,-0.0458635687828064,-0.0179655607789755,-0.0139073459431529
680,-0.0564557649195194,-0.0254984889179468,-0.0198312867432833,-0.0304245408624411,0.0105438278988004,0.00305284769274294
681,-0.0429061576724052,-0.0148542653769255,-0.00698001403361559,-0.0185514595359564,0.0349828749895096,0.0155392419546843
682,-0.0331596545875072,-0.0071627520956099,-0.0019160503288731,-0.0132198156788945,0.0501283630728722,0.0186598729342222
683,-0.0270072873681784,-0.00384362158365548,-0.0017738213064149,-0.0120839346200228,0.0521215386688709,0.0154699515551329
684,-0.0227236784994602,-0.00580204371362925,-0.00257866200990975,-0.0112120220437646,0.04169911891222,0.0110775986686349
685,-0.019653957337141,-0.0103178070858121,-0.00289453729055822,-0.00926082953810692,0.0261660479009151,0.00826163683086634
686,-0.0175605323165655,-0.01359030790627,-0.0024122002068907,-0.00666790455579758,0.0144534017890692,0.00808574445545673
687,-0.0152707658708096,-0.0138145461678505,-0.0016717107500881,-0.00355314556509256,0.0102246375754476,0.0102935787290335
688,-0.0117313656955957,-0.0123284524306655,-0.00278784357942641,-0.00177622598130256,0.00960685964673758,0.0116020357236266
689,-0.00655113998800516,-0.0100199431180954,-0.0046580214984715,-0.0019490874838084,0.00826229155063629,0.0110963815823197
690,-0.00170275324489921,-0.00754118990153074,-0.00512153888121247,-0.00260411947965622,0.00447968346998096,0.0108572700992227
691,-0.000452301785117015,-0.00638600252568722,-0.00596609665080905,-0.0034837166313082,-0.00273729022592306,0.0103925690054893
692,-0.00331018539145589,-0.00642202561721206,-0.00932570733129978,-0.00429546367377043,-0.0124176610261202,0.00845446158200502
693,-0.00953559763729572,-0.00867015589028597,-0.016447376459837,-0.00619968306273222,-0.0231186971068382,0.00492746289819479
694,-0.0171876195818186,-0.0140469092875719,-0.0262475181370974,-0.0102390479296446,-0.0321718379855156,0.00106489274185151
695,-0.0227319076657295,-0.0203626230359077,-0.0340213030576706,-0.0139393974095583,-0.0352708362042904,-0.00184302835259587
696,-0.0230513755232096,-0.0239288173615932,-0.0340283550322056,-0.0130039798095822,-0.0285019669681787,-0.00200856407172978
697,-0.0179123319685459,-0.0227974373847246,-0.0251803062856197,-0.00629165349528193,-0.0122333113104105,0.0024310948792845
698,-0.0118598137050867,-0.0199613682925701,-0.0143608218058944,0.00113760936073959,0.00566741824150085,0.00888543669134378
699,-0.0076789646409452,-0.0178836211562157,-0.00657390616834164,0.00561626674607396,0.0186087787151337,0.0145526062697172
700,-0.00349632301367819,-0.0154521018266678,-0.000488687481265515,0.0083279199898243,0.0267241057008505,0.0192219223827124
701,5.27319534739945E-05,-0.0140335960313678,0.00304582808166742,0.00869699846953154,0.0299244076013565,0.0200681425631046
702,0.000929413479752839,-0.0152080059051514,0.00241878675296903,0.00582321546971798,0.027212418615818,0.0149521948769689
703,0.00103847810532898,-0.0157609842717648,0.00145731645170599,0.00352494255639613,0.0227399617433548,0.00785951595753431
704,0.00234828540123999,-0.0127600869163871,0.00343390367925167,0.00522302696481347,0.0224109198898077,0.00365629349835217
705,0.00336374412290752,-0.00823088921606541,0.00542054325342178,0.00852576643228531,0.0255856979638338,0.00235776044428349
706,0.00129986356478184,-0.00711969705298543,0.00267345830798149,0.00873025413602591,0.025720177218318,0.000160858835442923
707,-0.00307311466895044,-0.0107847275212407,-0.00418509496375918,0.00582228787243366,0.0196750462055206,-0.00394557323306799
708,-0.00569969043135643,-0.014353615231812,-0.00922519993036985,0.0046325046569109,0.0115717770531774,-0.00577099109068513
709,-0.00676106056198478,-0.0147372325882316,-0.0103265549987555,0.00637854356318712,0.0043005533516407,-0.00399432005360723
710,-0.0103596653789282,-0.0150557048618793,-0.0114906756207347,0.00736394803971052,-0.00367523240856826,-0.00228840135969222
711,-0.0158228687942028,-0.0165721476078033,-0.0132385604083538,0.00778984185308218,-0.00935958884656429,-0.00141326454468071
712,-0.0159870460629463,-0.0144309885799885,-0.0087773846462369,0.0127271739766002,-0.00429592095315456,0.00298984814435244
713,-0.0106340199708939,-0.00991327036172152,0.00130717689171433,0.0186377912759781,0.00885984115302563,0.00906616728752851
714,-0.00904537551105022,-0.0122441295534372,0.00519312918186188,0.015267888084054,0.016365235671401,0.00942077673971653
715,-0.0134877441450953,-0.0220092236995697,-0.00101537315640599,0.00484326621517539,0.0153834540396929,0.00634649349376559
716,-0.0171549748629332,-0.029588608071208,-0.00786551088094711,0.000139985626447015,0.0154865579679608,0.00871681235730648
717,-0.0144897801801562,-0.0288605485111475,-0.00680141244083643,0.00723250629380345,0.0219910759478807,0.0189432688057423
718,-0.00460010999813676,-0.0220694858580828,0.00138038152363151,0.0217878352850676,0.0313717909157276,0.0315156653523445
719,0.00885842647403479,-0.0140270860865712,0.0101490058004856,0.0364516824483871,0.037582702934742,0.0400175303220749
720,0.0173038486391306,-0.00951437186449766,0.0104198511689901,0.0428647249937058,0.0338943041861057,0.0388374291360378
721,0.0150204319506884,-0.00996574014425278,-0.00277112354524434,0.035911813378334,0.0169062111526728,0.0253298673778772
722,0.0068356990814209,-0.0117016918957233,-0.0222252327948809,0.0212112609297037,-0.0053296685218811,0.00619397033005953
723,0.00100303837098181,-0.0128268012776971,-0.0358165539801121,0.00945404171943665,-0.0186869893223047,-0.00779459159821272
724,-0.000384512095479295,-0.0142767084762454,-0.0388935841619968,0.00568266864866018,-0.0184048004448414,-0.0122917946428061
725,-0.000470320810563862,-0.0151315797120333,-0.0337706543505192,0.00854640174657106,-0.0110406437888741,-0.00832858495414257
726,-0.00129153474699706,-0.0133052105084062,-0.0233715698122978,0.0153353586792946,-0.00345130381174386,0.00295196264050901
727,-0.00269625941291451,-0.00925696920603514,-0.0108045050874352,0.0237360205501318,0.00198640557937324,0.0183070562779903
728,-0.003947997931391,-0.00532402098178864,0.000868074072059244,0.0315812006592751,0.00615581311285496,0.0319233573973179
729,-0.00436733104288578,-0.00243634660728276,0.0109347347170115,0.0375179126858711,0.0112288938835263,0.0390426404774189
730,-0.00367081491276622,0.000388710817787796,0.0200244169682264,0.0423972494900227,0.0189839452505112,0.0386567786335945
731,-0.000748742430005223,0.0044198646210134,0.0274717099964619,0.0485145896673203,0.0303247440606356,0.0338175855576992
732,0.00446951994672418,0.00987197365611792,0.0322474502027035,0.0556473322212696,0.044057659804821,0.0282082911580801
733,0.0071561960503459,0.0139826312661171,0.0327065400779247,0.0579579956829548,0.054403692483902,0.0210663061589003
734,0.00253053731285036,0.0135849360376596,0.0277598313987255,0.0505941286683083,0.0553392246365547,0.0101529844105244
735,-0.00774797052145004,0.00923716276884079,0.0198164749890566,0.0369767509400845,0.0471360981464386,-0.00280467933043838
736,-0.0187683273106813,0.00332586630247533,0.0114745367318392,0.0233373995870352,0.0340243987739086,-0.0144893089309335
737,-0.0252703428268433,-0.000346264685504138,0.00567429279908538,0.0147456210106611,0.0215969290584326,-0.0197621434926987
738,-0.0245183203369379,0.000286451220745221,0.00459009781479836,0.0128151020035148,0.0120610231533647,-0.0158870853483677
739,-0.0188660211861134,0.00350401946343482,0.00789023656398058,0.0155860176309943,0.00405378034338355,-0.00674842530861497
740,-0.0134138334542513,0.007790791336447,0.0146043859422207,0.0218669790774584,-0.00201742863282561,0.00284019624814391
741,-0.0125133330002427,0.0117058837786317,0.0204774215817451,0.0287940260022879,-0.00661611929535866,0.00857318285852671
742,-0.0168974325060844,0.0139007214456797,0.0204862207174301,0.0316619724035263,-0.0117156021296978,0.00677514309063554
743,-0.0257294680923224,0.0129184070974588,0.0119488537311554,0.0271288435906172,-0.0191119629889727,-0.00468574278056622
744,-0.0359501428902149,0.0090009793639183,-0.00268523604609072,0.0172079298645258,-0.0260424204170704,-0.0231790244579315
745,-0.0411093197762966,0.00675074243918061,-0.0150181828066707,0.00961277261376381,-0.0256566870957613,-0.0397177487611771
746,-0.0384273529052734,0.0102600734680891,-0.0192016884684563,0.00935768894851208,-0.0177740640938282,-0.0466235466301441
747,-0.0313982143998146,0.0191982500255108,-0.0153573732823133,0.0153452586382627,-0.00875349994748831,-0.0417442545294762
748,-0.0254667941480875,0.0287746172398329,-0.0077350945211947,0.022758387029171,-0.00472295517101884,-0.0286786314100027
749,-0.0220639798790216,0.0351781658828259,1.40236752486089E-05,0.0291835963726044,-0.00556972064077854,-0.0123643800616264
750,-0.0158797819167376,0.0412910729646683,0.00925010349601507,0.0381411574780941,-0.00331302406266332,0.00729207275435328
751,-0.00302255665883422,0.0504381619393826,0.0214197635650635,0.0505333431065083,0.00623796507716179,0.0289735570549965
752,0.0107353338971734,0.0597524531185627,0.0319961160421371,0.0593384467065334,0.0158837791532278,0.0439875945448875
753,0.0171849615871906,0.0655728131532669,0.0361545830965042,0.0591853521764278,0.018959628418088,0.0464832000434399
754,0.0150116914883256,0.0674057975411415,0.0347306504845619,0.0532377809286118,0.0178540498018265,0.0400765910744667
755,0.00756515795364976,0.0657055005431175,0.030247125774622,0.0470515117049217,0.0162020064890385,0.0310562811791897
756,-0.00185200816486031,0.0618263445794582,0.0252862442284822,0.0428461320698261,0.0143206445500255,0.0225286893546581
757,-0.0114702899008989,0.0569980964064598,0.0222300663590431,0.0395443961024284,0.0111893732100725,0.0139161581173539
758,-0.0200040154159069,0.0526679791510105,0.0213148836046457,0.0356978252530098,0.00716050667688251,0.00551670184358954
759,-0.0258698873221874,0.0502607487142086,0.0198464747518301,0.0308929681777954,0.00425967900082469,4.81201495858841E-05
760,-0.0281576029956341,0.0481898188591003,0.0140705462545156,0.0252637360244989,0.00366288656368852,-0.00221003615297377
761,-0.0261082910001278,0.0457842089235783,0.00572927854955196,0.0212974734604359,0.00730546191334724,-0.00336095923557878
762,-0.0192802306264639,0.0464593805372715,0.0029576092492789,0.0229018237441778,0.0179487895220518,-0.00367473275400698
763,-0.011224671266973,0.0503567531704903,0.0091969408094883,0.0290393643081188,0.0320499092340469,-0.00335979671217501
764,-0.00727488286793232,0.0525979548692703,0.0184162501245737,0.0337477698922157,0.0406327061355114,-0.00409493129700422
765,-0.00745842838659883,0.0521451756358147,0.024220235645771,0.0348200164735317,0.0390190184116364,-0.00515671260654926
766,-0.00855133589357138,0.0516907311975956,0.023678245022893,0.0339700132608414,0.0284743290394545,-0.00574519857764244
767,-0.00808895565569401,0.0527003221213818,0.0181426238268614,0.0328894332051277,0.0147420149296522,-0.00637677032500505
768,-0.00498446635901928,0.0548628866672516,0.0133533291518688,0.0331450738012791,0.00455022044479847,-0.00623452616855502
769,-0.000551889068447053,0.0558658018708229,0.0125515898689628,0.0347148180007935,-0.000582807930186391,-0.00494269514456391
770,0.00476103229448199,0.0548996515572071,0.0158847626298666,0.0374421440064907,-0.00128864019643515,-0.00161233195103705
771,0.0121840750798583,0.0539630204439163,0.0226162932813168,0.0414645709097385,0.00261838687583804,0.00502986507490277
772,0.020823011174798,0.0544109046459198,0.0298203658312559,0.0455853082239628,0.00947900302708149,0.0136304125189781
773,0.0276399310678244,0.0556712113320827,0.033805288374424,0.0478309951722622,0.0159552283585072,0.0214028637856245
774,0.0304964743554592,0.0552462376654148,0.0327714085578918,0.0459950193762779,0.018985016271472,0.0245515201240778
775,0.0304283984005451,0.0520745366811752,0.0284940470010042,0.0402211174368858,0.018972696736455,0.0200404860079288
776,0.0298483483493328,0.0497650541365147,0.0253187511116266,0.0340833179652691,0.0202491991221905,0.0104733258485794
777,0.031829372048378,0.0515221804380417,0.0278054308146238,0.0317574329674244,0.0265508219599724,0.00286622997373343
778,0.0397326238453388,0.0568932890892029,0.0377901718020439,0.0362634509801865,0.0389834046363831,0.00264883995987475
779,0.0512701570987701,0.0642610341310501,0.0515467077493668,0.0468042194843292,0.055350448936224,0.009294169023633
780,0.061254795640707,0.0726548358798027,0.0643445923924446,0.0599348098039627,0.0719168707728386,0.020189018920064
781,0.0686229467391968,0.0807893648743629,0.0738016217947006,0.0729974284768105,0.0849613323807716,0.0351565927267075
782,0.0738250613212585,0.0847622230648994,0.0772118344902992,0.0828971713781357,0.0903606563806534,0.0519235692918301
783,0.0757487639784813,0.081056036055088,0.0728400051593781,0.0868681743741035,0.0874692797660828,0.0652207210659981
784,0.0746795758605003,0.0719713494181633,0.0630343854427338,0.0854428261518478,0.0806819424033165,0.0726970434188843
785,0.0742307230830193,0.0645199194550514,0.0539834871888161,0.0822931379079819,0.0757661163806915,0.0758556127548218
786,0.0757447555661201,0.0629405155777931,0.0498626939952374,0.0803517550230026,0.0743105113506317,0.0750620290637016
787,0.0765043795108795,0.0658139437437058,0.0505700074136257,0.0808650180697441,0.0738396048545837,0.0695417523384094
788,0.0745507851243019,0.0694059878587723,0.0550062023103237,0.0830037817358971,0.0733309239149094,0.0596872307360172
789,0.0707020238041878,0.0716779157519341,0.0622762702405453,0.0842448696494102,0.07553631067276,0.0480695180594921
790,0.0673689991235733,0.0743528679013252,0.0720506310462952,0.0857907384634018,0.0833931416273117,0.0402658618986607
791,0.0652365982532501,0.0775878950953484,0.0814263895153999,0.0890493541955948,0.0919708758592606,0.0380444079637527
792,0.0639300495386124,0.0779502615332603,0.0874133408069611,0.092074990272522,0.0926873832941055,0.0384770110249519
793,0.0638266503810883,0.0739998519420624,0.0910995677113533,0.0941512435674667,0.0844007506966591,0.040831059217453
794,0.0638060420751572,0.0663660392165184,0.0915555357933044,0.0942169800400734,0.071571983397007,0.0448946245014668
795,0.0626208558678627,0.056568056344986,0.0863738059997559,0.0906339287757874,0.059158232063055,0.0500967167317867
796,0.0609661936759949,0.0475092940032482,0.0771891549229622,0.085033118724823,0.0501238815486431,0.0570370815694332
797,0.0618749335408211,0.0423305667936802,0.068901926279068,0.0821453034877777,0.046056542545557,0.0657728314399719
798,0.0682343319058418,0.0423258617520332,0.0657845661044121,0.0846651643514633,0.0484879948198795,0.0742058306932449
799,0.0768412947654724,0.0449363067746162,0.0673934146761894,0.0894767493009567,0.0554135665297508,0.0783952996134758
800,0.0814235061407089,0.0465753450989723,0.0707572102546692,0.0924956426024437,0.0626240819692612,0.0766242295503616
801,0.0793802961707115,0.0455469600856304,0.07395189255476,0.0921234935522079,0.0672163739800453,0.070451557636261
802,0.0707741975784302,0.0407612062990665,0.0748804584145546,0.0876301601529121,0.0660169050097466,0.0616174042224884
803,0.0567606501281261,0.0314848199486732,0.0723991617560387,0.0792329907417297,0.0576005689799786,0.0515864342451096
804,0.040157426148653,0.0188514105975628,0.0670609325170517,0.0679892376065254,0.0455907061696053,0.0411143861711025
805,0.0271270573139191,0.00856812763959169,0.0618343949317932,0.0584217421710491,0.0386164784431458,0.0326795503497124
806,0.0227222386747599,0.00634929537773132,0.0609478503465652,0.0563989914953709,0.0443487092852592,0.0304639469832182
807,0.0238556005060673,0.0106540052220225,0.0640330910682678,0.0608218312263489,0.0615066438913345,0.0343608669936657
808,0.0257878284901381,0.0156680047512054,0.0669336095452309,0.0652021691203117,0.0812699943780899,0.0394672527909279
809,0.0303297303617001,0.0180590339004993,0.0688493028283119,0.0665605291724205,0.0962058156728745,0.0419471375644207
810,0.0413094200193882,0.0216157920658588,0.0743623077869415,0.0692215859889984,0.106372192502022,0.0449809730052948
811,0.0561427101492882,0.0305343437939882,0.084306113421917,0.076401561498642,0.11363023519516,0.0517672300338745
812,0.0674941018223763,0.0421228893101215,0.0926490128040314,0.0842526778578758,0.115611046552658,0.0573277212679386
813,0.070696085691452,0.0525473393499851,0.0953738540410995,0.0883062034845352,0.108332172036171,0.0560418106615543
814,0.064639039337635,0.0574901923537254,0.0919264927506447,0.0866357237100601,0.0896939262747765,0.0471470430493355
815,0.0518358945846558,0.0529841519892216,0.0832541435956955,0.0800513923168182,0.0640191361308098,0.0344695001840591
816,0.0395944863557816,0.0434601977467537,0.0747150927782059,0.0738589316606522,0.0429696552455425,0.0265625007450581
817,0.0321466289460659,0.0351923182606697,0.0705669447779655,0.0713789612054825,0.0331043042242527,0.0273701529949903
818,0.0281433146446943,0.0292527806013823,0.0703404918313026,0.0714471414685249,0.031727708876133,0.0328526608645916
819,0.0273417569696903,0.0265143346041441,0.0733080208301544,0.0737657845020294,0.0365014784038067,0.0397565588355064
820,0.0277429763227701,0.0256342254579067,0.0762802883982658,0.0758669674396515,0.0447200201451778,0.0454489700496197
821,0.0249821394681931,0.023085817694664,0.0762247890233994,0.0741377025842667,0.0527965649962425,0.048166710883379
822,0.0203268192708492,0.0204185154289007,0.077073872089386,0.0721310377120972,0.0618490390479565,0.0520551241934299
823,0.017672423273325,0.0197227299213409,0.0813115909695625,0.0739331617951393,0.0722375512123108,0.0593870729207993
824,0.0168996639549732,0.0191295631229877,0.0844008550047874,0.0767610445618629,0.0798035934567451,0.0664111748337746
825,0.0164049342274666,0.0181937292218208,0.0831882208585739,0.0775608047842979,0.0816181525588036,0.0714782476425171
826,0.0150738945230842,0.0174362305551767,0.0785075351595879,0.0756690576672554,0.0767891108989716,0.0745391920208931
827,0.0141925662755966,0.0180171653628349,0.0749050229787827,0.0736359804868698,0.0690811574459076,0.0763684287667274
828,0.0151800503954291,0.0206639301031828,0.0762085914611816,0.0741905570030212,0.0653740987181664,0.0777444913983345
829,0.0152278421446681,0.0226212274283171,0.0795893743634224,0.0745387449860573,0.0663292780518532,0.0751606673002243
830,0.0123305320739746,0.0226115509867668,0.0818470790982246,0.0724936574697495,0.0679892972111702,0.0666028931736946
831,0.00684849172830582,0.0223545860499144,0.0824446752667427,0.0695184320211411,0.0679090917110443,0.0546153858304024
832,-0.00128110207151622,0.0221377685666084,0.0802347138524055,0.0656263381242752,0.0651834756135941,0.0419797450304031
833,-0.0117411473765969,0.0193445533514023,0.0736099928617477,0.0583893805742264,0.0572960376739502,0.0298776794224977
834,-0.0235451217740774,0.0122579047456384,0.0618201345205307,0.0473018027842045,0.0440870858728886,0.0187069568783045
835,-0.0323246903717518,0.00575715955346823,0.0494452193379402,0.0386087782680988,0.0351121723651886,0.012508625164628
836,-0.0311487857252359,0.00787075515836477,0.0451660715043545,0.040680818259716,0.0393532961606979,0.0178337674587965
837,-0.0199608877301216,0.0185937285423279,0.0502300187945366,0.0521416217088699,0.0509468615055084,0.0329340770840645
838,-0.00562132988125086,0.0302708484232426,0.0581269636750221,0.0641799792647362,0.0584803745150566,0.048955861479044
839,0.00648961123079062,0.0383961945772171,0.064909465610981,0.0727990344166756,0.0592639148235321,0.0609957315027714
840,0.0130266146734357,0.0422397144138813,0.0684110894799232,0.0772392302751541,0.0544125251471996,0.0662979930639267
841,0.0131802372634411,0.0415904000401497,0.0661260560154915,0.076077401638031,0.04518011957407,0.0625083595514297
842,0.0113913118839264,0.0395900420844555,0.0610903985798359,0.0719430148601532,0.0376021228730679,0.0538711808621883
843,0.0134174106642604,0.0415187813341618,0.0600479282438755,0.0711184814572334,0.038240272551775,0.0490989871323109
844,0.0196704361587763,0.0480918698012829,0.0641193687915802,0.0760074108839035,0.0466109663248062,0.0518279708921909
845,0.0260766465216875,0.0556526780128479,0.0695024952292442,0.0838638916611671,0.0570329912006855,0.0599944964051247
846,0.029266394674778,0.0614335760474205,0.0732403099536896,0.0908234044909477,0.0640652477741241,0.0699129328131676
847,0.0262075960636139,0.0620088428258896,0.0707869306206703,0.0905804708600044,0.0628137663006783,0.0739570334553719
848,0.0165997371077538,0.0549874342978001,0.0597231723368168,0.0792288705706596,0.0531854182481766,0.0669310539960861
849,0.00700538465753198,0.0451632887125015,0.0470639690756798,0.0637665838003159,0.0438550263643265,0.0545581541955471
850,0.00303218653425574,0.040043231099844,0.041423823684454,0.0546262860298157,0.0428047329187393,0.045305572450161
851,0.00155874411575496,0.0405965857207775,0.0431714579463005,0.0531938709318638,0.0484805144369602,0.0405710563063622
852,-0.00317549332976341,0.0418010242283344,0.0470491908490658,0.0535177178680897,0.0550554618239403,0.0366098992526531
853,-0.0119405779987574,0.0401287414133549,0.0489390976727009,0.0516264028847218,0.0593991540372372,0.0311467349529266
854,-0.0215938538312912,0.0355879776179791,0.047378059476614,0.0478244051337242,0.0603053867816925,0.0254151523113251
855,-0.0273140352219343,0.0315323732793331,0.044879425317049,0.046257022768259,0.0593883953988552,0.0236254520714283
856,-0.0269869565963745,0.0306966938078403,0.0447606667876244,0.0498646795749664,0.0582850277423859,0.0264672171324492
857,-0.0226892232894897,0.0319264158606529,0.0465621761977673,0.0557796359062195,0.0551739260554314,0.0293037798255682
858,-0.0161786321550608,0.0346532203257084,0.0488644577562809,0.0609591715037823,0.0495033822953701,0.0306383427232504
859,-0.0105671267956495,0.0382026396691799,0.0488333255052567,0.0628082156181335,0.0408015139400959,0.0300338007509708
860,-0.00727789429947734,0.0428035333752632,0.0464634597301483,0.0613003820180893,0.0303949415683746,0.0287697091698647
861,-0.00366920162923634,0.0490063093602657,0.046564806252718,0.0609434507787228,0.0237952806055546,0.0314330570399761
862,-0.000453456479590386,0.053558100014925,0.049378365278244,0.0624246820807457,0.0228001698851585,0.0369956977665424
863,-0.00302883912809193,0.0525436401367188,0.0486248731613159,0.059376560151577,0.0218870341777802,0.037884458899498
864,-0.0146100549027324,0.043718408793211,0.0387831032276154,0.0464021898806095,0.0140295531600714,0.0284249410033226
865,-0.0280133076012135,0.0317199304699898,0.0244123712182045,0.0306639652699232,0.0030405055731535,0.0148990238085389
866,-0.0327978953719139,0.0257700178772211,0.0151385944336653,0.0234750602394342,3.11382027575746E-05,0.0081291813403368
867,-0.0289428252726793,0.0260328482836485,0.0109013924375176,0.023008743301034,0.00497528212144971,0.0066187153570354
868,-0.0211427100002766,0.0266991686075926,0.00751297641545534,0.0229851324111223,0.0095673194155097,0.00476934062317014
869,-0.0115071889013052,0.0260153524577618,0.00602748384699225,0.0229930896311998,0.00899537838995457,0.00289529841393232
870,-0.00233499379828572,0.0244474243372679,0.00683924602344632,0.0231244470924139,0.00293580163270235,0.000975741422735155
871,0.00425125053152442,0.0225908141583204,0.00762646878138185,0.0231232456862926,-0.00473605748265982,-0.00167179584968835
872,0.00984520278871059,0.0221702232956886,0.00827437918633223,0.0241805370897055,-0.0079708993434906,-0.00333986966870725
873,0.0183279030025005,0.0235759690403938,0.00967380404472351,0.0259939171373844,-0.00416469154879451,-0.00330994441173971
874,0.029795965179801,0.0249505452811718,0.0113353542983532,0.0266180727630854,0.00434253783896565,-0.0028273316565901
875,0.0400288328528404,0.0263263434171677,0.0146089028567076,0.0270164348185062,0.0154823334887624,0.0003828180488199
876,0.0434087328612804,0.0274871438741684,0.0196578186005354,0.0281266178935766,0.0264766551554203,0.00827793404459953
877,0.0370363742113113,0.0251928139477968,0.0222783964127302,0.0262166503816843,0.0312213730067015,0.0150264902040362
878,0.0248221606016159,0.0179750416427851,0.0191969983279705,0.018121624365449,0.0265098568052053,0.0132356164976954
879,0.0133074717596173,0.00738921528682113,0.00954179558902979,0.00493540428578854,0.013989376835525,0.00162289605941623
880,0.00796926487237215,-0.00193819776177406,-0.00312708178535104,-0.00733642326667905,-0.00120517436880618,-0.0122994733974338
881,0.011855055578053,-0.00426935683935881,-0.0105752227827907,-0.010908093303442,-0.0128336241468787,-0.0162023063749075
882,0.02033706381917,-0.00167782069183886,-0.012196522206068,-0.00784706044942141,-0.0224728714674711,-0.0089141707867384
883,0.0261805634945631,-0.000810986559372395,-0.0154681522399187,-0.00726442923769355,-0.0350465103983879,-0.00155408587306738
884,0.0290876757353544,-0.00247842143289745,-0.0217379964888096,-0.010859178379178,-0.0471368655562401,-0.00061579851899296
885,0.0315086878836155,-0.00364932022057474,-0.02566940151155,-0.0137488450855017,-0.0519011318683624,-0.00425069546326995
886,0.0317120812833309,-0.00383554678410292,-0.0251321941614151,-0.0143807241693139,-0.0490795224905014,-0.0101153329014778
887,0.0277052000164986,-0.00471900077536702,-0.0221852995455265,-0.0153088588267565,-0.0436758622527123,-0.0175568498671055
888,0.0217709857970476,-0.0071354596875608,-0.0195701643824577,-0.0178882982581854,-0.0391000919044018,-0.0254103001207113
889,0.0185039509087801,-0.00998456217348576,-0.0187970008701086,-0.0207202881574631,-0.0340962968766689,-0.0307301413267851
890,0.0215093940496445,-0.0109132062643766,-0.0184929352253675,-0.0213499926030636,-0.0254744868725538,-0.0309080872684717
891,0.0287859551608562,-0.011616381816566,-0.0194060187786818,-0.0215547550469637,-0.0158790573477745,-0.029868058860302
892,0.0355948284268379,-0.0153198335319757,-0.0228403583168983,-0.0245898086577654,-0.0096523417159915,-0.0327715910971165
893,0.0400326959788799,-0.0209677517414093,-0.0264373458921909,-0.0293699521571398,-0.00628690095618367,-0.0388889312744141
894,0.0429465249180794,-0.0258959215134382,-0.029009971767664,-0.0334694311022758,-0.005423822440207,-0.0444192700088024
895,0.046409722417593,-0.0282443407922983,-0.0311654452234507,-0.0355824753642082,-0.00798552576452494,-0.0448774322867393
896,0.0493345782160759,-0.0293659940361977,-0.0338821522891521,-0.0369534865021706,-0.0147770214825869,-0.0406343750655651
897,0.0502016842365265,-0.0312743708491325,-0.0373886786401272,-0.0386455692350864,-0.0251609832048416,-0.0362614989280701
898,0.0521712861955166,-0.0326868407428265,-0.0408769398927689,-0.0400485955178738,-0.0368360057473183,-0.0345244109630585
899,0.0595803372561932,-0.0309022217988968,-0.042111124843359,-0.0407247021794319,-0.0454833880066872,-0.0346071533858776
900,0.0700666755437851,-0.0265468619763851,-0.0402461290359497,-0.0407202206552029,-0.0484386309981346,-0.0355205200612545
901,0.0766664296388626,-0.0226223040372133,-0.0375039093196392,-0.0395805202424526,-0.0475617162883282,-0.03763722255826
902,0.0777671933174133,-0.0179894138127565,-0.0351708047091961,-0.035989910364151,-0.044410802423954,-0.0389393493533134
903,0.076187290251255,-0.00983627513051033,-0.0336076430976391,-0.0300969909876585,-0.0403286777436733,-0.0366109721362591
904,0.074360653758049,-0.00042138624121435,-0.0316291376948357,-0.0232279449701309,-0.0364617444574833,-0.0303991567343473
905,0.0710585489869118,0.00300767016597092,-0.0285250041633844,-0.0192649867385626,-0.0341406054794788,-0.0256229136139154
906,0.0655365958809853,-0.000539604341611266,-0.0233174059540033,-0.0193595048040152,-0.0323052778840065,-0.0258038155734539
907,0.0623526349663734,-0.00289264763705432,-0.0140428431332111,-0.0182001534849405,-0.0265017300844193,-0.0260235257446766
908,0.0644393116235733,-0.00147504603955895,-0.00421401765197515,-0.0141085535287857,-0.0182042494416237,-0.0233344957232475
909,0.0705674663186073,-0.00144623941741884,0.00100982177536935,-0.00932274013757706,-0.0127476286143065,-0.0183494407683611
910,0.0785542950034142,-0.00414763577282429,0.00128985173068941,-0.00397805869579315,-0.0105886226519942,-0.00878165755420923
911,0.0846916660666466,-0.00790293980389833,-0.00283077917993069,0.000134259520564228,-0.0113977454602718,0.00509631307795644
912,0.0863424837589264,-0.0128492536023259,-0.0102902874350548,-0.000478603033116087,-0.0157928057014942,0.0169265754520893
913,0.0861377120018005,-0.0162134505808353,-0.0156037956476212,-0.00387547141872346,-0.0192027557641268,0.022442540153861
914,0.0870459452271461,-0.0141110522672534,-0.0150346579030156,-0.00578237837180495,-0.0164826326072216,0.0215021539479494
915,0.0880894139409065,-0.00717781996354461,-0.0115915024653077,-0.00629624584689736,-0.00951604824513197,0.0137739945203066
916,0.0872295126318932,0.000762087118346244,-0.00967506133019924,-0.00798747502267361,-0.00416073156520724,-0.000780304952058941
917,0.0838800817728043,0.00532266683876514,-0.0107788108289242,-0.0125829381868243,-0.00385552458465099,-0.0193139985203743
918,0.07916509360075,0.00471836421638727,-0.0139747578650713,-0.019437225535512,-0.00784311816096306,-0.0355717204511166
919,0.0728877782821655,-0.000539570115506649,-0.0193535294383764,-0.0276219062507153,-0.0140192592516541,-0.0461423955857754
920,0.0664588063955307,-0.00723269442096353,-0.0245638899505138,-0.0344283878803253,-0.0177598483860493,-0.0511578097939491
921,0.0651957169175148,-0.00976420938968658,-0.0237459354102612,-0.0345771089196205,-0.0145308841019869,-0.0499644055962563
922,0.0696391463279724,-0.00767313409596682,-0.0187064502388239,-0.0291877724230289,-0.00808519404381514,-0.045403927564621
923,0.0751843154430389,-0.00494825001806021,-0.016930814832449,-0.0249943602830172,-0.00510621536523104,-0.042277418076992
924,0.0790850892663002,-0.00386063987389207,-0.0207095891237259,-0.0251056998968124,-0.00694503961130977,-0.0416031330823898
925,0.080924317240715,-0.00550067843869329,-0.0272903628647327,-0.0283000636845827,-0.0115835247561336,-0.042540367692709
926,0.0807787328958511,-0.0100696729496121,-0.0331446751952171,-0.0325179062783718,-0.015880711376667,-0.0441229976713657
927,0.0785845369100571,-0.0161536261439323,-0.037401307374239,-0.0371909253299236,-0.0169616434723139,-0.0457576774060726
928,0.0752717480063438,-0.0210526995360851,-0.0401583798229694,-0.0414325781166554,-0.0133666135370731,-0.0459956750273705
929,0.0732539519667625,-0.0226788800209761,-0.0402091704308987,-0.0433458425104618,-0.00595409097149968,-0.0422345846891403
930,0.0742043182253838,-0.0205075517296791,-0.036340493708849,-0.0414088219404221,0.00233889254741371,-0.0329251810908318
931,0.076917827129364,-0.0143132535740733,-0.0287600588053465,-0.0354548841714859,0.00822234433144331,-0.0185716673731804
932,0.0793192684650421,-0.0054676802828908,-0.0200607068836689,-0.0271718818694353,0.00961729697883129,-0.00259022554382682
933,0.0808491408824921,0.00260529387742281,-0.0131769450381398,-0.0175735577940941,0.00717842299491167,0.00998379662632942
934,0.0824357941746712,0.00820691790431738,-0.00863334164023399,-0.0068837022408843,0.00378483929671347,0.0177310388535261
935,0.0850533470511436,0.0122032277286053,-0.00561699597164989,0.00314103835262358,0.00159868435002863,0.0233322028070688
936,0.0863770842552185,0.0143440281972289,-0.00560885993763804,0.00854881014674902,-0.000346511020325124,0.0258820131421089
937,0.083174429833889,0.0138166761025786,-0.00960209406912327,0.0072868661954999,-0.00226807058788836,0.0225133262574673
938,0.0752691850066185,0.0112070795148611,-0.0157155357301235,0.0011278527090326,-0.00269453856162727,0.0142226815223694
939,0.0651622489094734,0.00939226895570755,-0.0219707041978836,-0.00687813246622682,-0.00181328190956265,0.00466919038444757
940,0.0575479865074158,0.0117636537179351,-0.0252340622246265,-0.0122055867686868,0.00188056367915124,-0.000656506337691098
941,0.0556542165577412,0.0155193125829101,-0.0228801593184471,-0.011872953735292,0.0111153507605195,0.00187049806118011
942,0.0587423406541348,0.0149295860901475,-0.0165185201913118,-0.00729159312322736,0.0235652793198824,0.00999010261148214
943,0.0635421127080917,0.00901983678340912,-0.0106403501704335,-0.00188943336252123,0.0318352803587914,0.0165834557265043
944,0.0664934441447258,0.000350004120264202,-0.00805247388780117,0.0015588829992339,0.0307276975363493,0.0156432762742043
945,0.0667848810553551,-0.00821450911462307,-0.00772008160129189,0.00158172636292875,0.0221242159605026,0.00681827962398529
946,0.0650908648967743,-0.0149646466597915,-0.00854768231511116,-0.00270577939227223,0.0116993123665452,-0.00627219816669822
947,0.0609863623976707,-0.0191490650177002,-0.0116415563970804,-0.00998354703187943,0.00309429224580526,-0.0185781195759773
948,0.0543654821813107,-0.0214481540024281,-0.0174719542264938,-0.0162808615714312,-0.00354372547008097,-0.0262193698436022
949,0.0472083576023579,-0.0227245278656483,-0.0234838351607323,-0.0178595893085003,-0.00803187675774097,-0.0267001986503601
950,0.0419823937118053,-0.0226605646312237,-0.027153143659234,-0.0149263944476843,-0.00958601012825966,-0.0199420358985662
951,0.0388326421380043,-0.0218304321169853,-0.0288899205625057,-0.0117154587060213,-0.00836005620658398,-0.0105877360329032
952,0.0366320572793484,-0.0212835986167192,-0.0298006311058998,-0.0104767251759768,-0.00447193300351501,-0.00304537150077522
953,0.0354312434792519,-0.0213547479361296,-0.0307405218482018,-0.00890054740011692,0.000571801036130637,0.00285606202669442
954,0.0354170277714729,-0.0226286053657532,-0.0332473367452621,-0.00592708541080356,0.00203154259361327,0.00794496014714241
955,0.0354660004377365,-0.0239096339792013,-0.036737859249115,-0.00385871669277549,-0.00270900456234813,0.0110370563343167
956,0.033611886203289,-0.0222157128155231,-0.0377735495567322,-0.00441298587247729,-0.0109911691397429,0.0101733105257154
957,0.0298463441431522,-0.0154774868860841,-0.0332001373171806,-0.00629350868985057,-0.0181258115917444,0.00610976107418537
958,0.0269438568502665,-0.00339206727221608,-0.0229472611099482,-0.00563577516004443,-0.0200380776077509,0.00295610027387738
959,0.0268790144473314,0.0118384538218379,-0.0101233823224902,5.62429886485916E-05,-0.0149347065016627,0.00328078959137201
960,0.0300814397633076,0.0276200510561466,0.00402025086805224,0.00990575458854437,-0.00223810086026788,0.00897199939936399
961,0.0361935198307037,0.0415956154465675,0.0186494421213865,0.0210250616073608,0.0183174926787615,0.0219754558056593
962,0.0434462688863277,0.0499037653207779,0.0288611315190792,0.0291325282305479,0.0440021045506001,0.03801079839468
963,0.0499646887183189,0.0508779622614384,0.0312985256314278,0.0311926212161779,0.0672855600714684,0.0484369769692421
964,0.0558442622423172,0.0491562150418758,0.0291377305984497,0.0295583512634039,0.0825337842106819,0.0503559224307537
965,0.0611801967024803,0.048620093613863,0.027219295501709,0.0293146576732397,0.089876689016819,0.0477311164140701
966,0.0641738399863243,0.0470283851027489,0.0272222366183996,0.0329945422708988,0.0902971848845482,0.0458461903035641
967,0.0642467960715294,0.0429833009839058,0.0285427905619144,0.0397647060453892,0.0843473598361015,0.0470563434064388
968,0.0627312734723091,0.0382196269929409,0.0287837777286768,0.0456706956028938,0.0728627815842628,0.0488287657499313
969,0.0593726709485054,0.0324073657393456,0.0235435701906681,0.0451035127043724,0.0559706874191761,0.0459141805768013
970,0.0547427386045456,0.0256567355245352,0.012449792586267,0.0378668047487736,0.0368599556386471,0.0375589244067669
971,0.0544989220798016,0.023007495328784,0.00370654393918812,0.0332935452461243,0.0243007075041533,0.0317912325263023
972,0.0612498857080936,0.0264201276004314,0.00418009422719479,0.0377271212637424,0.0221117604523897,0.034152876585722
973,0.0683149620890617,0.0307225417345762,0.0110317319631577,0.0457310676574707,0.024919580668211,0.0399813093245029
974,0.0692310109734535,0.0321904122829437,0.0168846044689417,0.0501763746142387,0.0282287038862705,0.0429186709225178
975,0.0658252313733101,0.03275191411376,0.0188619066029787,0.0508807338774204,0.0330090038478374,0.0417319647967815
976,0.0624619983136654,0.033994521945715,0.0185018442571163,0.0495799146592617,0.0396412201225758,0.0373769663274288
977,0.0598965100944042,0.034044623374939,0.0169595833867788,0.0457624047994614,0.0449380874633789,0.0308131892234087
978,0.0564980879426003,0.031372893601656,0.0166045725345612,0.0404529720544815,0.0465348586440086,0.0243270732462406
979,0.0510504320263863,0.0262614004313946,0.0205781925469637,0.0371067486703396,0.0458971448242664,0.0208279527723789
980,0.0444793179631233,0.019601296633482,0.0278027299791574,0.0376006513834,0.0473333448171616,0.021696612238884
981,0.0391433425247669,0.0119500840082765,0.0324534140527248,0.0394756197929382,0.0530609376728535,0.0249239597469568
982,0.0342536829411983,0.00177718780469149,0.027340529486537,0.0365435071289539,0.0569230541586876,0.0254972223192453
983,0.0257614776492119,-0.011885286308825,0.011475850827992,0.0253192447125912,0.0501518733799458,0.0200158432126045
984,0.0156358908861876,-0.0228274613618851,-0.00375706050544977,0.0140118440613151,0.0368067808449268,0.014312656596303
985,0.00962692499160767,-0.0239099524915218,-0.0071139931678772,0.0136818466708064,0.0287331566214561,0.0174271538853645
986,0.00741713400930166,-0.0172304064035416,-0.000815198814962059,0.023406196385622,0.0283927991986275,0.0287572853267193
987,0.00369870406575501,-0.0104580307379365,0.00517770508304238,0.033986046910286,0.0285138860344887,0.0415394753217697
988,-0.00457980344071984,-0.00774272624403238,0.00550350826233625,0.0388777628540993,0.0238958820700645,0.0518468283116817
989,-0.0149912945926189,-0.00876376964151859,0.00261009880341589,0.0375221185386181,0.0174387861043215,0.0577033497393131
990,-0.0242324247956276,-0.0120964664965868,0.00040508309029974,0.0329733230173588,0.0143904834985733,0.0582238882780075
991,-0.0297270584851503,-0.0129510667175055,0.00202511320821941,0.0305442586541176,0.0166437644511461,0.0561521649360657
