,AF3,AF4,Fp1,Fp2,AF7,AF8
0,0.0726376250386238,-0.00939245894551277,0.022574033588171,0.00964133348315954,0.0708638653159142,0.0463008880615234
1,0.0731658488512039,-0.00684245117008686,0.0219644829630852,0.00552137475460768,0.0607921853661537,0.0551997572183609
2,0.0673758164048195,-0.0109479716047645,0.014031283557415,-0.00444343406707048,0.0341876409947872,0.0558088719844818
3,0.0659066736698151,-0.0155822234228253,0.00737292552366853,-0.00939389131963253,0.00993864517658949,0.0582997314631939
4,0.0688479691743851,-0.0160894263535738,0.00593947852030396,-0.00676461402326822,-0.00078965350985527,0.0646305605769157
5,0.0690980032086372,-0.0178807508200407,0.0063020559027791,-0.00491288118064404,-0.00204931711778045,0.0651920065283775
6,0.066585049033165,-0.0218426659703255,0.00767233408987522,-0.00635398644953966,0.00359326996840537,0.0562909096479416
7,0.0657291039824486,-0.0228410828858614,0.0114042311906815,-0.00668902555480599,0.0186593607068062,0.0440640412271023
8,0.0679793953895569,-0.0192729253321886,0.0153565555810928,-0.0043458417057991,0.0412106178700924,0.0341090001165867
9,0.0741885602474213,-0.0116083351895213,0.0178718063980341,0.000275246711680666,0.0645929500460625,0.0282234456390142
10,0.0826004147529602,-0.00194109906442463,0.0194962937384844,0.00497036427259445,0.0808864161372185,0.0267330948263407
11,0.0845036059617996,0.00477686105296016,0.0191903337836266,0.00299327587708831,0.0825478062033653,0.0257788561284542
12,0.077119879424572,0.0107441116124392,0.0204862505197525,-0.00528122438117862,0.0721536427736282,0.0240338835865259
13,0.0670018121600151,0.0192912630736828,0.0271743275225163,-0.0103784939274192,0.0583858415484428,0.0252885296940804
14,0.0593619644641876,0.02374517172575,0.0347889959812164,-0.00694308616220951,0.0455527566373348,0.0301948804408312
15,0.0577681884169579,0.0210182946175337,0.0403557196259499,0.00285573792643845,0.036912627518177,0.0373678803443909
16,0.063003771007061,0.0180769115686417,0.0458180345594883,0.0131756281480193,0.0338979698717594,0.0454312860965729
17,0.0704771727323532,0.0200632512569427,0.0502053499221802,0.0203435551375151,0.032926619052887,0.0514883249998093
18,0.0754183977842331,0.0240734405815601,0.0493170619010925,0.0234507471323013,0.0282186567783356,0.052239753305912
19,0.0793011114001274,0.0273189526051283,0.0444826744496822,0.0225174203515053,0.0212683193385601,0.049725167453289
20,0.0862889289855957,0.0320626236498356,0.0416602902114391,0.0199221093207598,0.0208840370178223,0.0507012829184532
21,0.0945804342627525,0.0390890575945377,0.0416062958538532,0.0186493787914515,0.0297536160796881,0.0568889044225216
22,0.0977930128574371,0.0448693372309208,0.0406937673687935,0.017835944890976,0.0412439927458763,0.0624160878360271
23,0.0914293602108955,0.0432981625199318,0.0358462408185005,0.0119690923020244,0.046357836574316,0.05948156863451
24,0.0795387923717499,0.0338076017796993,0.0302606262266636,0.00253681885078549,0.0447371490299702,0.0497431010007858
25,0.0701145827770233,0.0232891738414764,0.0301733277738094,-0.000917115423362702,0.0417854152619839,0.0422070249915123
26,0.0631655752658844,0.0161358937621117,0.0333320610225201,0.00345679163001478,0.0356698855757713,0.0381363779306412
27,0.0576430223882198,0.0155684519559145,0.0359589792788029,0.0126096298918128,0.0274662300944328,0.0368993356823921
28,0.0564271658658981,0.0239717084914446,0.0400650277733803,0.0245199017226696,0.0249773506075144,0.0425926111638546
29,0.056906420737505,0.0360527634620667,0.0458849966526031,0.0333797372877598,0.0273748692125082,0.0536377914249897
30,0.0550182983279228,0.044893067330122,0.0513662956655025,0.0357691757380962,0.0297010280191898,0.0631501749157906
31,0.0522798448801041,0.0486915782094002,0.0555420815944672,0.0342363752424717,0.0317948684096336,0.0676309913396835
32,0.0495121665298939,0.0477632842957973,0.058150265365839,0.0310859475284815,0.0326377265155315,0.0674325227737427
33,0.043821357190609,0.0423265695571899,0.0576820075511932,0.0260204263031483,0.029139606282115,0.06223264336586
34,0.0325882509350777,0.0324244163930416,0.0495964922010899,0.0168753359466791,0.019993344321847,0.0497098825871944
35,0.0166403073817492,0.0186456125229597,0.0314140319824219,0.00279537262395024,0.00505058281123638,0.0298245716840029
36,0.0025980556383729,0.00444867322221398,0.00984303746372461,-0.0114005273208022,-0.0135294245555997,0.00964128505438566
37,-0.00265252450481057,-0.00594252208247781,-0.00489291222766042,-0.0190158262848854,-0.0324312150478363,-0.00143602048046887
38,0.00166488764807582,-0.0109768658876419,-0.00783343147486448,-0.0173360295593739,-0.0492478497326374,-0.000232426507864147
39,0.0135326916351914,-0.0118533903732896,0.000124851663713343,-0.00846403744071722,-0.0596364997327328,0.00977140013128519
40,0.0283791795372963,-0.0113960271701217,0.0117393787950277,0.00042783422395587,-0.0613044537603855,0.0212160926312208
41,0.0425345301628113,-0.00747605506330729,0.023253807798028,0.00710076186805964,-0.0534731484949589,0.0315734148025513
42,0.0549313351511955,0.00307816360145807,0.0370844565331936,0.0166542083024979,-0.0361753888428211,0.0435595102608204
43,0.060814555734396,0.0140327280387282,0.0487626381218433,0.0280966442078352,-0.0166900772601366,0.0549228973686695
44,0.0573576688766479,0.017342634499073,0.0519066117703915,0.0361308082938194,-0.0025295119266957,0.0612645000219345
45,0.0489358119666576,0.0120887318626046,0.0487696751952171,0.039382491260767,0.00620250776410103,0.0608863197267056
46,0.0406746491789818,0.00134681921917945,0.0451829880475998,0.0377155616879463,0.0115405153483152,0.0519776605069637
47,0.0368166901171207,-0.0104845510795712,0.0445630252361298,0.0323853120207787,0.015247942879796,0.0353974886238575
48,0.0379447415471077,-0.0191248301416636,0.0447826758027077,0.0269760638475418,0.016708966344595,0.0171600002795458
49,0.0369420275092125,-0.0205379594117403,0.0407955087721348,0.0234648287296295,0.0125320320948958,0.00433690333738923
50,0.0281085930764675,-0.0135867921635509,0.0328653864562511,0.0219455491751432,0.00346909742802382,0.000977314775809646
51,0.0150386607274413,-0.004017592407763,0.0264228172600269,0.0230503305792809,-0.0039684628136456,0.00626588752493262
52,0.00462118396535516,0.00323258643038571,0.0249980743974447,0.0256991162896156,-0.00377044780179858,0.0156025206670165
53,-0.000448990525910631,0.0100278034806252,0.0282622314989567,0.0272659305483103,0.00654591247439384,0.024907385930419
54,-0.000639966398011893,0.0176372025161982,0.0345123112201691,0.0277241226285696,0.0265304148197174,0.0322791486978531
55,0.000357251206878573,0.0196388494223356,0.0397495366632938,0.0252841785550117,0.0466378405690193,0.0330491065979004
56,-0.0012037301203236,0.0116191562265158,0.0427367575466633,0.0196627974510193,0.0545500554144382,0.0260490421205759
57,-0.00283076707273722,-0.000343876861734316,0.0470561496913433,0.0176214668899775,0.0509517714381218,0.0206474028527737
58,-0.00317704910412431,-0.0104176737368107,0.0519900359213352,0.0215496383607388,0.0425396151840687,0.0233390536159277
59,-0.00477372575551271,-0.0163663718849421,0.0566627942025661,0.028551772236824,0.0329625681042671,0.0318190455436707
60,-0.00388405565172434,-0.0121510364115238,0.0671640038490295,0.0393465422093868,0.0297074187546968,0.0448572561144829
61,0.00462998962029815,0.00439505465328693,0.083373911678791,0.0521250404417515,0.0384508818387985,0.0599683150649071
62,0.0163437686860561,0.0234064292162657,0.0929785892367363,0.059468325227499,0.0514996200799942,0.0688890740275383
63,0.0238572433590889,0.0346995480358601,0.0889183804392815,0.0579243674874306,0.0577451400458813,0.067590519785881
64,0.025206295773387,0.0372386798262596,0.0773138329386711,0.0510037280619144,0.0541916228830814,0.0602910481393337
65,0.0221257917582989,0.0339320749044418,0.0657974630594254,0.0434503220021725,0.0431781597435474,0.0516982153058052
66,0.017808785662055,0.0285330843180418,0.0575522407889366,0.0378439128398895,0.0302450079470873,0.0446577519178391
67,0.0138166574761271,0.0241020359098911,0.0520913489162922,0.0325914844870567,0.0195132922381163,0.0398275777697563
68,0.0100386701524258,0.0198348499834538,0.0469845496118069,0.0239139571785927,0.00944389216601849,0.0356716811656952
69,0.00840938650071621,0.0154476370662451,0.0423099473118782,0.0140133909881115,0.000516780535690486,0.0341579653322697
70,0.0100650619715452,0.0130662051960826,0.039104800671339,0.00972617696970701,-0.00164087966550142,0.0392573662102222
71,0.0155982067808509,0.0151990577578545,0.0387314707040787,0.0147118913009763,0.00766553496941924,0.0503660999238491
72,0.0249764211475849,0.0217188093811274,0.0422813445329666,0.0255463067442179,0.0256748422980309,0.0602649673819542
73,0.0341459661722183,0.0283995438367128,0.0486513189971447,0.0355009697377682,0.0440092459321022,0.0632384046912193
74,0.0408648252487183,0.0344545356929302,0.0585595481097698,0.0439066179096699,0.0603582412004471,0.0648044645786285
75,0.0459768809378147,0.0404797717928886,0.0708489716053009,0.0529432334005833,0.0766333416104317,0.069686196744442
76,0.0486229136586189,0.0423349514603615,0.0797066912055016,0.060149397701025,0.0903884097933769,0.0727993547916412
77,0.0464448444545269,0.0378968268632889,0.082785852253437,0.061990562826395,0.0968457236886024,0.0708390697836876
78,0.0385074466466904,0.0294201653450727,0.083127424120903,0.0592503063380718,0.0930403098464012,0.065789707005024
79,0.027712581679225,0.0183917041867971,0.0811622589826584,0.0547662861645222,0.0808271244168282,0.0585710406303406
80,0.0187283791601658,0.00959350075572729,0.0746828764677048,0.0503396242856979,0.0679315999150276,0.0511557459831238
81,0.0123040610924363,0.00849687494337559,0.064478226006031,0.0458257235586643,0.0602353885769844,0.0469197928905487
82,0.00571174174547195,0.00975958351045847,0.0518130958080292,0.0381621308624744,0.0542707480490208,0.0442965142428875
83,-0.000860455154906958,0.00639412412419915,0.0386370941996574,0.026720080524683,0.0454145036637783,0.0403762944042683
84,-0.00486551318317652,0.00173558993265033,0.0293363425880671,0.0172845479100943,0.0360935218632221,0.0358314886689186
85,-0.00653822580352426,0.00025558692868799,0.0257566031068563,0.0145787810906768,0.0296445228159428,0.0311479102820158
86,-0.00706072803586721,0.00130611239001155,0.0279823411256075,0.0180034246295691,0.0268306080251932,0.0273916944861412
87,-0.00412042438983917,0.0069109364412725,0.0370572097599506,0.0260172709822655,0.0298758111894131,0.0293280053883791
88,0.00228061759844422,0.0184940323233604,0.0478482507169247,0.0339905470609665,0.0375379323959351,0.0369943417608738
89,0.0100674349814653,0.0302798561751843,0.0539419464766979,0.037208866328001,0.0458498559892178,0.043862484395504
90,0.0181618668138981,0.0332974642515183,0.0545069761574268,0.0335180349647999,0.0527576617896557,0.0415603704750538
91,0.0223540384322405,0.0239576045423746,0.049862302839756,0.0222502872347832,0.0554079115390778,0.0261367075145245
92,0.0224710069596767,0.0100994957610965,0.0429852604866028,0.0104767745360732,0.0536620654165745,0.00707431603223085
93,0.0244368128478527,0.00202180002816021,0.0369644425809383,0.00586233800277114,0.0508183613419533,-0.00371874892152846
94,0.0294828787446022,0.00087444408563897,0.0292468257248402,0.00490103475749493,0.0477430000901222,-0.00737835979089141
95,0.0354440659284592,0.00252062757499516,0.0197375267744064,0.00242313859052956,0.0462343655526638,-0.00918687228113413
96,0.0408680737018585,0.00456641055643559,0.0133857969194651,0.000321397208608687,0.0488857701420784,-0.00842955894768238
97,0.0439958088099957,0.0071782860904932,0.0118239875882864,0.000983533798716962,0.0525749623775482,-0.00360721745528281
98,0.0478437542915344,0.0141125516965985,0.0168278776109219,0.00645149778574705,0.0562360771000385,0.00901059806346893
99,0.0563074722886086,0.0281114615499973,0.0289054997265339,0.0177062228322029,0.0623515769839287,0.0328923501074314
100,0.0672660619020462,0.0466678701341152,0.044428076595068,0.0317312851548195,0.0712363719940186,0.0627137571573257
101,0.0763282403349876,0.0657161325216293,0.0622326768934727,0.0452339239418507,0.0823131650686264,0.091126374900341
102,0.0781095996499062,0.0813770517706871,0.0777919664978981,0.0552339889109135,0.0898433104157448,0.112684324383736
103,0.0687386393547058,0.0910796076059341,0.0815755873918533,0.0592364333570004,0.0850970968604088,0.12309006601572
104,0.0522645823657513,0.096403069794178,0.0732592567801476,0.0601326450705528,0.0684372335672379,0.1265479773283
105,0.0375258177518845,0.100959971547127,0.0620364174246788,0.0630327388644218,0.0496270731091499,0.131182342767715
106,0.0305463206022978,0.105582773685455,0.0532361157238483,0.0675321891903877,0.0363175831735134,0.136993020772934
107,0.0323500670492649,0.107484802603722,0.0453976206481457,0.0691202953457832,0.0279459599405527,0.137611448764801
108,0.0408335626125336,0.104844994843006,0.0383803769946098,0.0661461353302002,0.0223891939967871,0.13007764518261
109,0.0512572899460793,0.0992858707904816,0.0345962271094322,0.0612530149519444,0.019611606374383,0.117332860827446
110,0.0564223416149616,0.0930740535259247,0.0322594381868839,0.0559424422681332,0.0173708405345678,0.102586805820465
111,0.0524884909391403,0.0858243927359581,0.0264110639691353,0.0490461923182011,0.0124346483498812,0.0859547853469849
112,0.0423102229833603,0.0759054496884346,0.0172231998294592,0.0405059941112995,0.00695509649813175,0.0677952468395233
113,0.0296750515699387,0.0648986920714378,0.00937390048056841,0.0321498177945614,0.00598782720044255,0.0515169091522694
114,0.0164557676762342,0.0547500513494015,0.00480498187243938,0.0255377590656281,0.00811358354985714,0.040270134806633
115,0.00803814176470041,0.0464936196804047,0.0042411801405251,0.0226669777184725,0.0106138419359922,0.0370556153357029
116,0.0100614046677947,0.042495783418417,0.00740303238853812,0.0253306906670332,0.0166521146893501,0.0428380109369755
117,0.0214995313435793,0.044211782515049,0.0118857361376286,0.0332017913460732,0.028404800221324,0.0538644604384899
118,0.0357689820230007,0.0489021055400372,0.0153918880969286,0.0420293919742107,0.0405460335314274,0.0650744065642357
119,0.0474109910428524,0.0532561801373959,0.0180148128420115,0.0480640046298504,0.0497426241636276,0.0750400274991989
120,0.0557653047144413,0.0567091293632984,0.0225119348615408,0.0524368062615395,0.0595271587371826,0.0854229107499123
121,0.0554156042635441,0.0537057593464851,0.0255301967263222,0.050947081297636,0.0633979663252831,0.0910962522029877
122,0.0417230539023876,0.0417430065572262,0.0232706759124994,0.0405053943395615,0.0524989292025566,0.0875034481287003
123,0.0251721739768982,0.0332906469702721,0.022131260484457,0.0326308161020279,0.0371277406811714,0.082730732858181
124,0.0167021490633488,0.0392443761229515,0.0257629808038473,0.0362526513636112,0.0312872938811779,0.0835426524281502
125,0.0151905324310064,0.0558150224387646,0.0301935840398073,0.0450797565281391,0.0351922437548637,0.0860587656497955
126,0.0202476214617491,0.0744832530617714,0.0363430567085743,0.0531689524650574,0.0450676642358303,0.0893101170659065
127,0.0326714850962162,0.0872048288583755,0.0441292002797127,0.0594888739287853,0.056354146450758,0.0961911231279373
128,0.0461256913840771,0.0890155285596848,0.0462204925715923,0.0611451640725136,0.0619633346796036,0.105424150824547
129,0.0534147135913372,0.0846286192536354,0.0399429239332676,0.0580950826406479,0.0585830099880695,0.115344829857349
130,0.0529329776763916,0.0817809998989105,0.0289293266832829,0.053825318813324,0.0472852848470211,0.124097540974617
131,0.0492328628897667,0.0837030783295631,0.0181369166821241,0.0505530126392841,0.034370057284832,0.13090093433857
132,0.0462720356881619,0.089947447180748,0.011378351598978,0.0471455045044422,0.0275573898106813,0.136747300624847
133,0.0438787452876568,0.0974900647997856,0.00958673376590014,0.0428881831467152,0.0269358605146408,0.140902385115623
134,0.0437785908579826,0.102459944784641,0.0124282436445355,0.0410918891429901,0.0280933231115341,0.140823096036911
135,0.047596637159586,0.100934706628323,0.0168910287320614,0.0421438924968243,0.0289524793624878,0.132043480873108
136,0.0532364398241043,0.0940782949328423,0.0206760857254267,0.0430316366255283,0.0327555984258652,0.115989856421947
137,0.0576382763683796,0.0909431874752045,0.0259155463427305,0.0444590710103512,0.0447790361940861,0.102447263896465
138,0.055965356528759,0.094284676015377,0.0312418155372143,0.0456222258508205,0.0606794357299805,0.0950181782245636
139,0.046008262783289,0.0966096669435501,0.0351148881018162,0.0442521683871746,0.0717290639877319,0.0917398557066917
140,0.0330979786813259,0.0941757038235664,0.0399541296064854,0.0430362224578857,0.0762994512915611,0.0938258394598961
141,0.0239401068538427,0.0905062705278397,0.0455557517707348,0.0451892539858818,0.0765434876084328,0.101603247225285
142,0.0201284494251013,0.0896447151899338,0.0508115403354168,0.0502999201416969,0.0746292918920517,0.111241728067398
143,0.0178861301392317,0.0919060409069061,0.0541853681206703,0.0544951483607292,0.070557489991188,0.116430051624775
144,0.014762875624001,0.095151349902153,0.0534646734595299,0.0558730065822601,0.0649824067950249,0.115203879773617
145,0.0115035893395543,0.0980705097317696,0.0499277412891388,0.0572281777858734,0.0622098073363304,0.113274060189724
146,0.00634469790384173,0.099264919757843,0.0456207618117332,0.0576623491942883,0.0643304437398911,0.113922841846943
147,-0.00211040512658656,0.0967199429869652,0.0396191105246544,0.0526040717959404,0.0684459432959557,0.11312310397625
148,-0.00850678887218237,0.0924187749624252,0.033300407230854,0.0435093306005001,0.0715775117278099,0.109738871455193
149,-0.00914134085178375,0.0893572717905045,0.0313276723027229,0.0352872870862484,0.0725311636924744,0.105817437171936
150,-0.00853159464895725,0.0873944014310837,0.0344644486904144,0.0308362934738398,0.0706012919545174,0.100667640566826
151,-0.00973672699183226,0.0854969322681427,0.0364040397107601,0.0302627328783274,0.0644888132810593,0.0938338786363602
152,-0.0124652031809092,0.0811624526977539,0.0297696441411972,0.0293823461979628,0.0515282042324543,0.0867631360888481
153,-0.0139984181150794,0.075711764395237,0.0189220495522022,0.0297500155866146,0.0361731573939323,0.086311399936676
154,-0.00874836929142475,0.0739712789654732,0.0139095289632678,0.0381336286664009,0.0273772105574608,0.0987886860966682
155,0.00263266265392303,0.0740475282073021,0.01336077041924,0.0511310957372189,0.0234394073486328,0.117675647139549
156,0.0159674417227507,0.0729719623923302,0.013511449098587,0.0613092593848705,0.0210584532469511,0.133112445473671
157,0.0295068006962538,0.0722543001174927,0.0168894212692976,0.0653038769960403,0.0237241014838219,0.140306547284126
158,0.0379013568162918,0.0702701881527901,0.0226055551320314,0.0594738386571407,0.0307046510279179,0.133788123726845
159,0.0389226078987122,0.0670705288648605,0.0281172133982182,0.0459005609154701,0.0409453064203262,0.115989081561565
160,0.0379139520227909,0.0671770721673965,0.0327426008880138,0.0334259793162346,0.0568027347326279,0.0993784889578819
161,0.0380245894193649,0.0710790380835533,0.0364863499999046,0.0284755025058985,0.0758473873138428,0.0911677628755569
162,0.0402319394052029,0.0774698778986931,0.043299563229084,0.0331344939768314,0.0945046097040176,0.0921323820948601
163,0.0432726442813873,0.0847147777676582,0.0538175478577614,0.043721791356802,0.108707673847675,0.0998250171542168
164,0.0431064367294312,0.0903378278017044,0.0614404231309891,0.0528448149561882,0.111721768975258,0.108206436038017
165,0.0398123785853386,0.0975807383656502,0.0632679611444473,0.0577861107885838,0.10425528138876,0.114504680037498
166,0.0356311611831188,0.108454845845699,0.0611680373549461,0.059877835214138,0.0928625538945198,0.119028709828854
167,0.0318637602031231,0.115429125726223,0.0569786168634892,0.0607663691043854,0.0808461681008339,0.120578519999981
168,0.0310877412557602,0.114214710891247,0.0521562770009041,0.0614374317228794,0.0689908936619759,0.118428215384483
169,0.0334886573255062,0.109715312719345,0.0447767674922943,0.0601650550961494,0.0557543449103832,0.114475756883621
170,0.0358071066439152,0.106994308531284,0.0325112007558346,0.0553337521851063,0.0395304746925831,0.113176323473454
171,0.0371336713433266,0.106652677059174,0.0196107234805822,0.0492732897400856,0.0239467117935419,0.115940898656845
172,0.0414781235158443,0.108939737081528,0.0175159554928541,0.0488827973604202,0.0199769511818886,0.122624464333057
173,0.0493510030210018,0.114441208541393,0.0302742719650269,0.0568290390074253,0.0339482240378857,0.133313924074173
174,0.0522504709661007,0.11706554889679,0.0432062670588493,0.0635240375995636,0.0540542975068092,0.139264196157455
175,0.0465296730399132,0.111466832458973,0.0451120063662529,0.0627657100558281,0.0679503306746483,0.134529709815979
176,0.037577148526907,0.100928127765656,0.0405506081879139,0.0592046156525612,0.0749123394489288,0.125219225883484
177,0.0271077379584312,0.0878283381462097,0.0321012586355209,0.0526421442627907,0.0718593895435333,0.112325988709927
178,0.0168382674455643,0.0736168771982193,0.0210871994495392,0.0407348982989788,0.0585138499736786,0.0939769968390465
179,0.013036628253758,0.0621284283697605,0.0144857205450535,0.0287921279668808,0.0442515052855015,0.0758705213665962
180,0.016207518056035,0.0546162836253643,0.0144082121551037,0.0233575273305178,0.0351341180503368,0.0629639774560928
181,0.0213714297860861,0.0523794889450073,0.0167640652507544,0.0277657546103001,0.0330785252153873,0.057169146835804
182,0.0256405938416719,0.0573796592652798,0.0210795924067497,0.0403748005628586,0.0412682928144932,0.0599631667137146
183,0.0311374813318253,0.0697738379240036,0.0334711335599422,0.0568293444812298,0.0614672675728798,0.0723268687725067
184,0.0406832508742809,0.0871599018573761,0.0545772612094879,0.0727867037057877,0.0893421545624733,0.0928561016917229
185,0.049124900251627,0.102325476706028,0.0711321830749512,0.0813473239541054,0.112197011709213,0.115104883909225
186,0.0498023182153702,0.109539106488228,0.0733126997947693,0.0798643976449966,0.119438089430332,0.134154424071312
187,0.0438905581831932,0.1091687977314,0.0657789930701256,0.0742561817169189,0.112907432019711,0.149277523159981
188,0.035392876714468,0.103474199771881,0.0564028918743134,0.0705924406647682,0.101006031036377,0.157942846417427
189,0.0258919280022383,0.0946928039193153,0.04874587059021,0.0686734840273857,0.0892940610647202,0.155354216694832
190,0.0172128286212683,0.0868560522794724,0.044082947075367,0.0663770586252213,0.0807479098439217,0.142787978053093
191,0.00890599936246872,0.0811720341444016,0.0387381240725517,0.0614986754953861,0.074312187731266,0.126246303319931
192,0.000359342811862007,0.0768816769123077,0.0303659904748201,0.0546070896089077,0.0691089183092117,0.111963666975498
193,-0.00411534262821078,0.0758400931954384,0.0246916525065899,0.0511629283428192,0.0687158480286598,0.10499919205904
194,-0.00252472190186381,0.0770518705248833,0.0252487622201443,0.0526913516223431,0.073556050658226,0.103192940354347
195,0.00271528982557356,0.0770778954029083,0.0305611751973629,0.0559686906635761,0.0823033601045609,0.100999034941196
196,0.00814346503466368,0.0734995007514954,0.0367810353636742,0.0576003976166248,0.093622200191021,0.0961432456970215
197,0.0114486170932651,0.0658491179347038,0.0389592200517654,0.056010939180851,0.102684572339058,0.0897034108638763
198,0.0105733061209321,0.0554613955318928,0.0341743305325508,0.0499348528683186,0.103003337979317,0.0815341249108315
199,0.0050174118950963,0.0449009947478771,0.0242997724562883,0.0394185744225979,0.0939820259809494,0.0726484134793282
200,0.00152321252971888,0.0408873111009598,0.0162703059613705,0.0314352922141552,0.0847405269742012,0.0719340518116951
201,0.00645745964720845,0.0499968491494656,0.0154357720166445,0.0334398858249187,0.0838149562478065,0.0848181620240211
202,0.0136443274095654,0.0656914040446281,0.0176775716245174,0.0409143790602684,0.0878255739808083,0.0992971062660217
203,0.0139164142310619,0.0731886997818947,0.0166703090071678,0.0441373065114021,0.089413620531559,0.099928006529808
204,0.00862094014883041,0.0676023885607719,0.0134952589869499,0.0425661392509937,0.0882763341069222,0.086697168648243
205,0.00439166976138949,0.0575766526162624,0.0127173634245992,0.0433787927031517,0.0884206891059875,0.0720565542578697
206,0.0016299010021612,0.0497538857161999,0.0127550633624196,0.0467475242912769,0.0884152799844742,0.0637734606862068
207,-0.00505274860188365,0.0384571067988873,0.00428670644760132,0.0426229797303677,0.0802232176065445,0.0566823594272137
208,-0.0130491899326444,0.0236084740608931,-0.012622993439436,0.030817361548543,0.0658059567213058,0.049217451363802
209,-0.0132992118597031,0.0175374001264572,-0.0258146803826094,0.0230937339365482,0.0572499074041843,0.0485190562903881
210,-0.00483461329713464,0.0248750541359186,-0.028848621994257,0.0249193515628576,0.0582005605101585,0.055395994335413
211,0.00939198583364487,0.0393984168767929,-0.0204305704683065,0.0357234179973602,0.0672630444169044,0.0666881203651428
212,0.0273931697010994,0.0535476878285408,-0.0022395527921617,0.0510976351797581,0.0823629572987556,0.0794032365083694
213,0.0414193868637085,0.0609025992453098,0.0145126190036535,0.0603531524538994,0.09388467669487,0.0850190073251724
214,0.0453133769333363,0.0622440204024315,0.0220963414758444,0.0597309991717339,0.0965593680739403,0.0799425542354584
215,0.0433350428938866,0.0638001710176468,0.0240234117954969,0.0563081465661526,0.09542416036129,0.0712074339389801
216,0.0414372980594635,0.0664309784770012,0.0229081399738789,0.0544147565960884,0.0936752930283546,0.0643912777304649
217,0.0404688715934753,0.0686995312571526,0.0194769892841578,0.0537254586815834,0.0919709205627441,0.0615066215395927
218,0.0381208620965481,0.071435734629631,0.0184707846492529,0.0542253069579601,0.0931781753897667,0.063032291829586
219,0.0308382883667946,0.0713259726762772,0.0215718504041433,0.0527769587934017,0.0972475111484528,0.0643481686711311
220,0.0198606792837381,0.065389022231102,0.0242514964193106,0.0467125736176968,0.0996468886733055,0.0622883662581444
221,0.0123864281922579,0.0585169270634651,0.0246477648615837,0.0412186831235886,0.0969551280140877,0.0612980462610722
222,0.0105380089953542,0.0547734126448631,0.0223792027682066,0.0403843335807323,0.0866576358675957,0.0634815096855164
223,0.00941376388072968,0.0507120601832867,0.0148261040449142,0.0403693206608295,0.0673418790102005,0.0632914826273918
224,0.00774390436708927,0.0436651781201363,0.00622215028852224,0.0413809269666672,0.047230564057827,0.0602136366069317
225,0.00836707092821598,0.0361199900507927,0.0066387876868248,0.0483444333076477,0.0392373688519001,0.0614348351955414
226,0.010586354881525,0.0302832704037428,0.0173821449279785,0.05744793638587,0.0435790009796619,0.0683061927556992
227,0.0124787148088217,0.0275242645293474,0.0315375439822674,0.0629700645804405,0.0519189350306988,0.0767861232161522
228,0.0152800884097815,0.0289962701499462,0.0434798002243042,0.0658516138792038,0.0598783493041992,0.0852625817060471
229,0.0176656171679497,0.0322209149599075,0.0472819097340107,0.063872903585434,0.0630616545677185,0.0897443667054176
230,0.0114075895398855,0.0315731689333916,0.0362439304590225,0.0511037483811378,0.0542671903967857,0.0820532292127609
231,-0.00541022093966603,0.0264157596975565,0.0161562040448189,0.0325100123882294,0.0363171398639679,0.0643192231655121
232,-0.0232842359691858,0.0203537810593843,0.000741512281820178,0.0196820180863142,0.0205949600785971,0.0473566725850105
233,-0.0357435084879398,0.0152709279209375,-0.00692856125533581,0.014963686466217,0.0115752341225743,0.0356837026774883
234,-0.0423298701643944,0.0115038119256496,-0.011042557656765,0.0141889015212655,0.00795469526201487,0.0285959206521511
235,-0.0436740517616272,0.00614050682634115,-0.0143285533413291,0.0129226287826896,0.00830090511590242,0.021810632199049
236,-0.0427449271082878,-0.00323367980308831,-0.0169448964297771,0.0079672709107399,0.0107501307502389,0.0100320857018232
237,-0.0435690730810165,-0.0121116880327463,-0.0184890851378441,0.000137853698106483,0.0125752305611968,-0.00518323527649045
238,-0.0443468764424324,-0.00876204390078783,-0.0174340363591909,-0.00402779178693891,0.015985606238246,-0.0128157716244459
239,-0.0404089502990246,0.014459871686995,-0.0134226782247424,0.00053891958668828,0.0253778006881475,-0.00512204645201564
240,-0.0325952991843224,0.0463947951793671,-0.00985732022672892,0.0114329848438501,0.0367146953940392,0.0113865295425057
241,-0.0251061748713255,0.066447027027607,-0.00742421112954617,0.0243726000189781,0.042879443615675,0.0267336517572403
242,-0.0213750768452883,0.0663801580667496,-0.0052359108813107,0.035298515111208,0.0410535074770451,0.0355939082801342
243,-0.0216930638998747,0.0524575263261795,-0.00450680730864406,0.0407237932085991,0.0337236858904362,0.0367914140224457
244,-0.023180702701211,0.034082543104887,-0.0049233129248023,0.0404590107500553,0.0279590301215649,0.0330798402428627
245,-0.0254447236657143,0.0152944456785917,-0.00602237647399306,0.0351939238607883,0.0251599047333002,0.025173244997859
246,-0.0309224259108305,-0.00388149777427316,-0.00893526338040829,0.0256365966051817,0.0187330488115549,0.0119854472577572
247,-0.0382087044417858,-0.020391296595335,-0.0119950883090496,0.0157666932791471,0.00780512997880578,-0.0020588634070009
248,-0.0437668077647686,-0.0301664788275957,-0.0124726975336671,0.00851645227521658,-5.30677862116136E-05,-0.012000685557723
249,-0.0461998917162418,-0.0307192020118237,-0.00909180007874966,0.0045722839422524,0.00148077984340489,-0.0162636768072844
250,-0.0459860600531101,-0.02260647341609,-0.00254313182085752,0.0054877195507288,0.00793029181659222,-0.015166474506259
251,-0.0469242408871651,-0.0143584404140711,-8.74919569469057E-05,0.0080129262059927,0.00367670506238937,-0.0146784195676446
252,-0.0498210676014423,-0.0108660357072949,-0.00504953553900123,0.00954568851739168,-0.0169070549309254,-0.0166458059102297
253,-0.0499621853232384,-0.0067096664570272,-0.0103225335478783,0.0139360316097736,-0.0404716916382313,-0.0150730824097991
254,-0.0458482168614864,-0.000123590478324331,-0.0130605949088931,0.0219953060150146,-0.054966002702713,-0.0101277660578489
255,-0.0391888730227947,0.00434373784810305,-0.0169050376862288,0.0290081799030304,-0.0579366832971573,-0.00595091842114925
256,-0.03025165759027,0.00292715267278254,-0.0221747886389494,0.0302208699285984,-0.049422275274992,-0.00300291716121137
257,-0.0176273696124554,-0.00100399635266513,-0.0229306146502495,0.0274615101516247,-0.0297464150935411,-0.000293285906082019
258,-0.00436627259477973,-0.00189718138426542,-0.0157954636961222,0.0264914184808731,-0.00556329265236855,9.295524796471E-05
259,0.000268579111434519,-0.00317539414390922,-0.00758248334750533,0.0267796721309423,0.0087846489623189,-0.00771802617236972
260,-0.00620410405099392,-0.00822859723120928,-0.0055945604108274,0.0244695730507374,0.0063542970456183,-0.0250988826155663
261,-0.0173236168920994,-0.0139564666897058,-0.0106935705989599,0.0177099406719208,-0.00679684523493052,-0.047330342233181
262,-0.0298546012490988,-0.018797729164362,-0.021754564717412,0.00505506992340088,-0.0235388297587633,-0.0710574239492416
263,-0.0450452119112015,-0.0255578365176916,-0.0375585630536079,-0.0131354229524732,-0.041328139603138,-0.0971251875162125
264,-0.0603657998144627,-0.0353201404213905,-0.0533025451004505,-0.0316191054880619,-0.0560598969459534,-0.123752720654011
265,-0.0696343705058098,-0.0426738001406193,-0.0605573356151581,-0.0425753332674503,-0.0616710260510445,-0.140346422791481
266,-0.0726698487997055,-0.0441916733980179,-0.0588454753160477,-0.0448184497654438,-0.0611663162708282,-0.140379950404167
267,-0.0732627585530281,-0.0436515808105469,-0.0571530014276505,-0.0439013540744781,-0.0636962205171585,-0.130244597792625
268,-0.0704582184553146,-0.044876366853714,-0.0601054392755032,-0.0430093556642532,-0.0715578347444534,-0.119008108973503
269,-0.0606991872191429,-0.0458888858556747,-0.0624018162488937,-0.0391212143003941,-0.0783463269472122,-0.109751842916012
270,-0.0446424074470997,-0.042729027569294,-0.056585781276226,-0.0279436577111483,-0.075543999671936,-0.101943984627724
271,-0.0299227088689804,-0.0363903976976871,-0.0436301976442337,-0.0128820016980171,-0.0624915175139904,-0.0978120639920235
272,-0.0253335367888212,-0.0320558212697506,-0.0325992070138454,-0.00279232859611511,-0.0478792823851109,-0.100025832653046
273,-0.0296392999589443,-0.0316232815384865,-0.0277640987187624,0.000290188181679696,-0.0374086499214172,-0.103509314358234
274,-0.0338866747915745,-0.0332636572420597,-0.0261321533471346,-0.000379870645701885,-0.032404687255621,-0.101975284516811
275,-0.0343973562121391,-0.0373227596282959,-0.0262276418507099,-0.00493274396285415,-0.0367408990859985,-0.0986058339476585
276,-0.0334119722247124,-0.0454725101590157,-0.0282552167773247,-0.0145571827888489,-0.0517889000475407,-0.100259818136692
277,-0.0336208641529083,-0.0586479157209396,-0.0327877625823021,-0.0284909941256046,-0.0731912702322006,-0.110361866652966
278,-0.0322251953184605,-0.0704634562134743,-0.0359908640384674,-0.0383066460490227,-0.0886953249573708,-0.121671043336391
279,-0.0229710433632135,-0.0681396573781967,-0.0294081084430218,-0.0322061888873577,-0.0854067206382751,-0.119112521409988
280,-0.00811729300767183,-0.0494629703462124,-0.0137909539043903,-0.0134677160531282,-0.0678215101361275,-0.10007268935442
281,0.00466442760080099,-0.0254505388438702,0.00028583942912519,0.00427461368963122,-0.0506852865219116,-0.0770714208483696
282,0.013627652078867,-0.00767767522484064,0.00557298352941871,0.0156265459954739,-0.039075180888176,-0.0607171393930912
283,0.0201993528753519,-0.0017954099457711,0.000780399306677282,0.0192855764180422,-0.0310009233653545,-0.0552370883524418
284,0.0227798018604517,-0.00787613075226545,-0.0120142223313451,0.0114841070026159,-0.0273402016609907,-0.063062846660614
285,0.0203915759921074,-0.0210928823798895,-0.0256960596889257,-0.00368545413948596,-0.0291002653539181,-0.0818955823779106
286,0.0161269251257181,-0.0323229841887951,-0.0314044132828712,-0.0144770191982389,-0.032631941139698,-0.103950157761574
287,0.0133419381454587,-0.0355471298098564,-0.0276631508022547,-0.0162877514958382,-0.0347902551293373,-0.124717868864536
288,0.0127380909398198,-0.0337789990007877,-0.0208677314221859,-0.0138269793242216,-0.0382663868367672,-0.145854383707047
289,0.0137849301099777,-0.0309519805014133,-0.0165868196636438,-0.0113303996622562,-0.0448173731565475,-0.167685315012932
290,0.0134761659428477,-0.0299422554671764,-0.0185898393392563,-0.0131277246400714,-0.0539166070520878,-0.189755216240883
291,0.00595914525911212,-0.0383667759597301,-0.0302331130951643,-0.0251703206449747,-0.0671561807394028,-0.213179722428322
292,-0.00995973590761423,-0.0594978481531143,-0.0481358505785465,-0.0452851466834545,-0.0826471149921417,-0.234822571277618
293,-0.029212549328804,-0.0838120728731155,-0.0628778263926506,-0.0629871860146523,-0.0941157713532448,-0.24867844581604
294,-0.0458226054906845,-0.0971484407782555,-0.0668923407793045,-0.0697099715471268,-0.0965146198868752,-0.250724315643311
295,-0.0531924366950989,-0.0937211662530899,-0.0580258555710316,-0.0635997280478477,-0.0896164402365685,-0.240008100867271
296,-0.047197237610817,-0.0809619948267937,-0.0404655002057552,-0.0481488294899464,-0.0784207358956337,-0.220273181796074
297,-0.0304726287722588,-0.0690556764602661,-0.0211644284427166,-0.027091134339571,-0.0671996101737022,-0.19696643948555
298,-0.0130800530314446,-0.0644497871398926,-0.00796895939856768,-0.00714612659066916,-0.060198862105608,-0.176808789372444
299,-0.00511407712474465,-0.0691345036029816,-0.006115997210145,0.00320841977372766,-0.0607947148382664,-0.165766820311546
300,-0.00491445744410157,-0.0741318315267563,-0.0113429790362716,0.00536997430026531,-0.0639947503805161,-0.161319270730019
301,-0.00299023860134184,-0.0674051269888878,-0.0148573061451316,0.00779751595109701,-0.0607636235654354,-0.154613196849823
302,0.00500590819865465,-0.0491204112768173,-0.0123582351952791,0.0148458331823349,-0.0483891479671001,-0.141732349991798
303,0.0148364109918475,-0.0314359106123447,-0.00549900066107512,0.0234160162508488,-0.0339859388768673,-0.129844665527344
304,0.0202080328017473,-0.0267707277089357,0.00134120357688516,0.0267897844314575,-0.0274885520339012,-0.128838256001472
305,0.0173134543001652,-0.0383621640503407,0.00337202125228941,0.0191468968987465,-0.0343516878783703,-0.142532184720039
306,0.00730913318693638,-0.0581756420433521,-0.000656245043501258,0.00272064749151468,-0.0501159392297268,-0.164388746023178
307,-0.00492603052407503,-0.0733804777264595,-0.00841975957155228,-0.0113337142392993,-0.0649165511131287,-0.18216772377491
308,-0.0168350879102945,-0.0783688724040985,-0.0191765651106834,-0.0173892639577389,-0.0768406912684441,-0.192677289247513
309,-0.0246422030031681,-0.074117511510849,-0.0291734673082829,-0.016984086483717,-0.0861260518431664,-0.196929112076759
310,-0.0224432572722435,-0.0616773590445518,-0.0311624389141798,-0.0106601938605309,-0.0892802402377129,-0.190826073288918
311,-0.0101820612326264,-0.0441237054765224,-0.0238345935940742,0.000438163173384964,-0.086663082242012,-0.172300413250923
312,0.00524227181449533,-0.0284901671111584,-0.0137733332812786,0.0114311901852489,-0.082514114677906,-0.146119818091393
313,0.0155418924987316,-0.0232669748365879,-0.00995229929685593,0.0134835904464126,-0.0798359140753746,-0.124672807753086
314,0.0207631178200245,-0.0289470385760069,-0.0119046755135059,0.00423130672425032,-0.0747288465499878,-0.118608348071575
315,0.0264530200511217,-0.0362544693052769,-0.00920974742621183,-0.00724122393876314,-0.0621233135461807,-0.125906884670258
316,0.031023696064949,-0.0387241318821907,0.00095321808476001,-0.0129711534827948,-0.0471555590629578,-0.137504711747169
317,0.0282186791300774,-0.0391663275659084,0.00842155050486326,-0.0150173576548696,-0.0401444621384144,-0.149108454585075
318,0.0176656227558851,-0.041373398154974,0.00504286726936698,-0.0184297617524862,-0.0448101460933685,-0.160847097635269
319,0.00719204312190413,-0.0406983233988285,-0.00517704011872411,-0.0202091932296753,-0.0551726706326008,-0.166412070393562
320,0.00166959199123085,-0.0342769324779511,-0.0157688520848751,-0.0159289743751287,-0.0661362558603287,-0.159321069717407
321,-0.00344526069238782,-0.0304140672087669,-0.0257183909416199,-0.00966550037264824,-0.0794522017240524,-0.145183518528938
322,-0.0104019800201058,-0.0331173129379749,-0.0326810106635094,-0.00643285037949681,-0.0939257070422173,-0.132801577448845
323,-0.0151732927188277,-0.0364114195108414,-0.0335542485117912,-0.00657761329784989,-0.10486875474453,-0.125521928071976
324,-0.0159730073064566,-0.036993246525526,-0.0295384526252747,-0.00756008457392454,-0.110536970198154,-0.12220761179924
325,-0.0125351753085852,-0.0355035699903965,-0.0211952142417431,-0.00283979624509811,-0.108930148184299,-0.117164395749569
326,-0.0041866609826684,-0.0309403017163277,-0.00708504253998399,0.0115255378186703,-0.0969709455966949,-0.105042368173599
327,0.00642361957579851,-0.023081885650754,0.0107509959489107,0.0299974735826254,-0.0770807042717934,-0.0873153135180473
328,0.0133039895445108,-0.0171124748885632,0.0246383249759674,0.0424358956515789,-0.0600186139345169,-0.0731695517897606
329,0.0138861062005162,-0.0168221071362495,0.0291733108460903,0.0448532328009605,-0.0532697848975658,-0.067642405629158
330,0.0117139685899019,-0.019495103508234,0.0265316981822252,0.0423697829246521,-0.0524083785712719,-0.0652985647320747
331,0.0105732847005129,-0.0228932294994593,0.0204479061067104,0.0397421941161156,-0.0497475489974022,-0.0620877556502819
332,0.00995983090251684,-0.0272295884788036,0.0125275328755379,0.0363633595407009,-0.0431642793118954,-0.0586764104664326
333,0.00423717731609941,-0.0335102006793022,0.0030730573926121,0.0288991648703814,-0.0370736829936504,-0.058058824390173
334,-0.00996767450124025,-0.0425670221447945,-0.00697857094928622,0.0165180135518312,-0.0358529426157475,-0.0632603541016579
335,-0.0267633236944675,-0.0515619441866875,-0.0139484461396933,0.00559307122603059,-0.036320473998785,-0.0701305270195007
336,-0.0384541563689709,-0.0557712912559509,-0.0123985940590501,0.00389995332807302,-0.0319527201354504,-0.0714382156729698
337,-0.041881050914526,-0.0529871396720409,7.35295179765671E-05,0.0128247179090977,-0.0209072753787041,-0.0648632049560547
338,-0.0364861115813255,-0.0453038513660431,0.0179183930158615,0.0272086206823587,-0.00660407403483987,-0.0532487295567989
339,-0.0249841827899218,-0.0380780808627605,0.0308528300374746,0.0380797646939754,0.0040276013314724,-0.0435456223785877
340,-0.0135557577013969,-0.0346627682447433,0.0323226526379585,0.0380065366625786,0.00352092110551894,-0.0422618351876736
341,-0.00542272999882698,-0.0327066071331501,0.024784529581666,0.0281646475195885,-0.00884993188083172,-0.0488015823066235
342,0.00353687792085111,-0.0283955633640289,0.0168864447623491,0.017745241522789,-0.0251082554459572,-0.0547088943421841
343,0.0176080092787743,-0.021246338263154,0.0158472042530775,0.0155090289190412,-0.0345024801790714,-0.0502201803028584
344,0.0305666010826826,-0.0159091632813215,0.021073205396533,0.0198799706995487,-0.0341969393193722,-0.0374581813812256
345,0.0303937140852213,-0.0199334193021059,0.0252407528460026,0.0198964048177004,-0.0326910503208637,-0.0308610126376152
346,0.0153092574328184,-0.0318642370402813,0.0250315871089697,0.0126687325537205,-0.0355833955109119,-0.0360870324075222
347,-0.00607791775837541,-0.042358435690403,0.0210022758692503,0.00438078679144382,-0.0422313176095486,-0.0467155165970325
348,-0.023305231705308,-0.0448932088911533,0.0146527076140046,-0.000969939166679978,-0.0500532500445843,-0.0549496859312058
349,-0.0298726316541433,-0.0370616689324379,0.0105969356372952,-0.00203969702124596,-0.0544729232788086,-0.0560962483286858
350,-0.0285690780729055,-0.0241620391607285,0.0100888190791011,-0.000843094137962908,-0.0553639456629753,-0.0539304129779339
351,-0.0260574147105217,-0.017772264778614,0.00910008698701859,-0.00172477774322033,-0.0561575517058373,-0.0554594583809376
352,-0.0253288019448519,-0.0234199818223715,0.00572014320641756,-0.00686080893501639,-0.0560182370245457,-0.060426726937294
353,-0.0245240684598684,-0.0330025963485241,0.00602116668596864,-0.0116475867107511,-0.045971293002367,-0.0599595941603184
354,-0.0198069345206022,-0.034110251814127,0.0172788370400667,-0.00809853803366423,-0.0177497342228889,-0.0449676178395748
355,-0.0118063278496265,-0.0260404981672764,0.0344403088092804,0.00277574174106121,0.0191463120281696,-0.0183760654181242
356,-0.00441904133185744,-0.0166163146495819,0.0464460477232933,0.013837356120348,0.0457360483705997,0.00857429299503565
357,-0.000976843643002212,-0.0108479717746377,0.0488715767860413,0.0219410676509142,0.0538613013923168,0.0289201810956001
358,-0.00333165260963142,-0.0112286768853664,0.0421488508582115,0.0257378071546555,0.0463505983352661,0.0389223024249077
359,-0.00772347487509251,-0.015720434486866,0.0314660705626011,0.0267323553562164,0.0319782681763172,0.0385883711278439
360,-0.00799634959548712,-0.0179954506456852,0.0250392146408558,0.0288704298436642,0.0194477215409279,0.0341050922870636
361,-0.00647718645632267,-0.019304558634758,0.0217028129845858,0.0287546645849943,0.00761444773525,0.0261140428483486
362,-0.0124304741621017,-0.0251146517693996,0.0131632378324866,0.0216289628297091,-0.00881012622267008,0.0102841015905142
363,-0.0277313720434904,-0.0324946418404579,-0.000720424810424447,0.0121051101014018,-0.0260981284081936,-0.00957659631967545
364,-0.0429311357438564,-0.0351306460797787,-0.012556572444737,0.00610142666846514,-0.0341505855321884,-0.0247393120080233
365,-0.0460643693804741,-0.0304060243070126,-0.0130780218169093,0.00730617577210069,-0.0241081174463034,-0.0266907811164856
366,-0.0359972380101681,-0.0211760234087706,0.000898772908840328,0.0169639587402344,0.00207568355835974,-0.0131735699251294
367,-0.0248055793344975,-0.0134969083592296,0.0200650785118341,0.0294627342373133,0.0304073002189398,0.00651239510625601
368,-0.0215219631791115,-0.00989281758666039,0.0343233272433281,0.0376351848244667,0.0511082410812378,0.0224906727671623
369,-0.0242277644574642,-0.00852655805647373,0.0421466045081615,0.0384391658008099,0.0639409646391869,0.0333614125847816
370,-0.0289218313992023,-0.00768445851281285,0.0439013913273811,0.0318420715630054,0.0690934583544731,0.0405587926506996
371,-0.0345145612955093,-0.0086455512791872,0.0368497595191002,0.0192287676036358,0.0658966600894928,0.0417101308703423
372,-0.0388686209917068,-0.0137544311583042,0.0211125835776329,0.00374251883476973,0.0581914484500885,0.0347503684461117
373,-0.0385910347104073,-0.0235012732446194,0.00263183563947678,-0.0109087694436312,0.051174845546484,0.0220115594565868
374,-0.0345021039247513,-0.0356658697128296,-0.0117287887260318,-0.0223527308553457,0.046531904488802,0.00728905433788896
375,-0.0311703402549028,-0.0454724393785,-0.0192998889833689,-0.0298853050917387,0.0435439124703407,-0.00585692562162876
376,-0.0281776767224073,-0.0470891110599041,-0.0203465726226568,-0.0318149104714394,0.0434713177382946,-0.0122459260746837
377,-0.0225218050181866,-0.0397136434912682,-0.016994908452034,-0.0267669539898634,0.0476779229938984,-0.00865626335144043
378,-0.0160308815538883,-0.0287167504429817,-0.0135954841971397,-0.0167927425354719,0.0531207546591759,0.00306345662102103
379,-0.00967886671423912,-0.0186573751270771,-0.011799767613411,-0.00469660107046366,0.0563117675483227,0.0188376158475876
380,-0.00162763951811939,-0.0118659315630794,-0.0101278126239777,0.00558037776499987,0.0555035173892975,0.0318737849593163
381,0.0073225824162364,-0.00821937248110771,-0.00693528540432453,0.0115416292101145,0.0513720326125622,0.0370777510106564
382,0.0115463305264711,-0.00715164234861732,-0.00360435014590621,0.0139156589284539,0.0449254885315895,0.0337647944688797
383,0.00694366497918963,-0.00813564565032721,-0.00342355947941542,0.0129511514678597,0.0362845808267593,0.024227999150753
384,-0.00333845219574869,-0.00785758532583714,-0.0079643726348877,0.00795717909932137,0.0258118454366922,0.0144755495712161
385,-0.014633122831583,-0.00728073948994279,-0.0179716851562262,-0.00151431071572006,0.0123243341222405,0.00841571018099785
386,-0.0238038115203381,-0.0141715621575713,-0.032747495919466,-0.0144366668537259,-0.00356925139203668,0.00395578471943736
387,-0.0268233697861433,-0.0307754166424274,-0.0479110404849052,-0.0275692827999592,-0.0164418909698725,-0.00066179211717099
388,-0.022524930536747,-0.0479878112673759,-0.0570680685341358,-0.0363943874835968,-0.0198725759983063,-0.00426841853186488
389,-0.0134932976216078,-0.0555677376687527,-0.0559606961905956,-0.0367446020245552,-0.00917159207165241,-0.00642875442281365
390,-0.000951627967879176,-0.0523464605212212,-0.0449996590614319,-0.0276669189333916,0.0149959130212665,-0.00600903201848269
391,0.0109220584854484,-0.0460541509091854,-0.0311935041099787,-0.0154848909005523,0.0405540950596333,-0.00390823930501938
392,0.0125276828184724,-0.0451564826071262,-0.0237092655152082,-0.00965668261051178,0.0515042096376419,-0.00634474726393819
393,0.00109474663622677,-0.0507746301591396,-0.0247884374111891,-0.0122741889208555,0.0443952083587646,-0.0160850826650858
394,-0.0145987197756767,-0.0568021088838577,-0.030263114720583,-0.0178925693035126,0.0294729769229889,-0.0279655940830708
395,-0.0260460954159498,-0.0582971572875977,-0.0374636016786098,-0.0227442253381014,0.0163959860801697,-0.0363535135984421
396,-0.0302358735352755,-0.0547688491642475,-0.0440700724720955,-0.0244797319173813,0.00890695117413998,-0.0378992669284344
397,-0.0287192519754171,-0.0488398931920528,-0.047723401337862,-0.0215646121650934,0.00542065035551786,-0.0323808453977108
398,-0.0264892391860485,-0.0443692021071911,-0.0485643185675144,-0.01650320738554,0.00169230613391846,-0.022603502497077
399,-0.0245772413909435,-0.0401817187666893,-0.0442204251885414,-0.0102880885824561,0.00016889204562176,-0.00841791275888681
400,-0.0236065834760666,-0.0356715843081474,-0.0352606624364853,-0.00542072905227542,0.00375048536807299,0.00692737894132733
401,-0.0265311058610678,-0.0357000455260277,-0.0286901835352182,-0.00802343711256981,0.0088922306895256,0.0142407044768333
402,-0.0293219424784184,-0.0404464602470398,-0.0265036337077618,-0.0169740561395884,0.0122106401249766,0.0110056651756167
403,-0.0260559543967247,-0.0444462150335312,-0.0239827670156956,-0.0247880909591913,0.0115400273352861,0.00207192031666636
404,-0.0207058303058147,-0.0468436554074287,-0.0216129012405872,-0.0302505381405354,0.00317745027132332,-0.0110293459147215
405,-0.0194229185581207,-0.0506705939769745,-0.0246313530951738,-0.0370013825595379,-0.0130765689536929,-0.0276655536144972
406,-0.0177106857299805,-0.0531525239348412,-0.0304599162191153,-0.04207743704319,-0.0275643896311522,-0.0387146882712841
407,-0.0111547354608774,-0.0512072332203388,-0.034815602004528,-0.0417045652866364,-0.0321523919701576,-0.0371776409447193
408,-0.00568935181945562,-0.0481381379067898,-0.0398577377200127,-0.0381418541073799,-0.029340697452426,-0.0270687788724899
409,-0.00551602570340037,-0.0463156253099442,-0.0462991036474705,-0.0335343964397907,-0.023065447807312,-0.0150514487177134
410,-0.00481673935428262,-0.0424395427107811,-0.0482177697122097,-0.0260075498372316,-0.0121929664164782,-0.00335924327373505
411,0.00232524191960692,-0.0333674699068069,-0.040238905698061,-0.0140524543821812,0.0042724278755486,0.00704366806894541
412,0.0124875502660871,-0.0238047372549772,-0.0267296861857176,-0.00230493047274649,0.0212495978921652,0.0111605944111943
413,0.0191414449363947,-0.0221620369702578,-0.0163295790553093,0.00247744098305702,0.0320780910551548,0.00484970724210143
414,0.0206893533468246,-0.0301802735775709,-0.0106357419863343,-0.000129541775095277,0.0360295958817005,-0.00910833664238453
415,0.0171287134289742,-0.0430462099611759,-0.00665411632508039,-0.00567065924406052,0.0343293026089668,-0.0221807863563299
416,0.00797196757048368,-0.0555823221802711,-0.00465637631714344,-0.0110527202486992,0.0248059909790754,-0.0254117287695408
417,-0.00375087070278823,-0.063785620033741,-0.00621900195255876,-0.0148225883021951,0.00740709668025374,-0.0173679925501347
418,-0.0133168185129762,-0.0667213276028633,-0.0117586608976126,-0.017903994768858,-0.0139356208965182,-0.00695051485672593
419,-0.0178341642022133,-0.0642463639378548,-0.0201206486672163,-0.0216627381742001,-0.0337128415703774,-0.00251665129326284
420,-0.0168585404753685,-0.0538259223103523,-0.0273210760205984,-0.0241277068853378,-0.0458582416176796,-0.00325241941027343
421,-0.0141499890014529,-0.0400533452630043,-0.0317383296787739,-0.023632038384676,-0.050351943820715,-0.00677688373252749
422,-0.0144793400540948,-0.0354912988841534,-0.0360920391976833,-0.0217927638441324,-0.0532449409365654,-0.0131597416475415
423,-0.0168457105755806,-0.0439239479601383,-0.0405573323369026,-0.0204820912331343,-0.055061437189579,-0.0183501318097115
424,-0.0158598944544792,-0.0552422627806664,-0.0402884408831596,-0.0191448871046305,-0.0501800291240215,-0.0179484933614731
425,-0.00443788105621934,-0.0561836436390877,-0.0271094758063555,-0.0128570571541786,-0.0339988097548485,-0.0106788594275713
426,0.0182059202343225,-0.0450878143310547,-0.00187649868894368,-0.000431136082625017,-0.0104956924915314,0.00140767951961607
427,0.0406002178788185,-0.0334405899047852,0.0190702099353075,0.00897893588989973,0.00760341202840209,0.0103270644322038
428,0.0544742755591869,-0.0295423585921526,0.0252353437244892,0.0107340160757303,0.0137824388220906,0.0126234125345945
429,0.0638436675071716,-0.0304365213960409,0.0242631696164608,0.0119089772924781,0.0133470539003611,0.0147134559229016
430,0.0726475045084953,-0.0300674568861723,0.0271249040961266,0.0179593898355961,0.0128847407177091,0.0211741998791695
431,0.0757098793983459,-0.0289721172302961,0.0327135659754276,0.0233153756707907,0.0104335201904178,0.0261347852647305
432,0.0647773146629334,-0.0331468395888805,0.0309851113706827,0.0179838892072439,-0.00184921955224127,0.0187586974352598
433,0.0420606583356857,-0.0423348136246204,0.0204749573022127,0.0029756361618638,-0.0225219260901213,3.44742693414446E-05
434,0.021926011890173,-0.0486519820988178,0.0126039320603013,-0.00932120066136122,-0.0378041341900826,-0.0145241627469659
435,0.0159724671393633,-0.0491056181490421,0.0149246072396636,-0.0124587249010801,-0.0391010120511055,-0.015369170345366
436,0.0233798865228891,-0.0468980893492699,0.0234052650630474,-0.0102351577952504,-0.0291967056691647,-0.00742748053744435
437,0.0339719392359257,-0.0444514788687229,0.0310594383627176,-0.00721117667853832,-0.0142803201451898,0.00118609552737325
438,0.0378688275814056,-0.0420200265944004,0.0344557277858257,-0.0051861647516489,-0.0003626890538726,0.00828163418918848
439,0.0353529155254364,-0.0383797101676464,0.0343119949102402,-0.00393971893936396,0.0102907894179225,0.0174032654613256
440,0.0334333293139935,-0.0337808579206467,0.0324354693293571,-0.0029260041192174,0.0192588232457638,0.0296064484864473
441,0.0317480750381947,-0.0330736339092255,0.0274636466056108,-0.00438652234151959,0.0249617155641317,0.038852620869875
442,0.0243466626852751,-0.0394536107778549,0.019087839871645,-0.0094973323866725,0.0262549296021461,0.0406387373805046
443,0.0119775962084532,-0.0477471686899662,0.0122559098526835,-0.0136464815586805,0.0270272213965654,0.0391148440539837
444,-0.000268643751041964,-0.0510556548833847,0.0104369465261698,-0.0125888800248504,0.026341587305069,0.0411460250616074
445,-0.0109591148793697,-0.0508999116718769,0.0105223907157779,-0.00790630746632814,0.016465974971652,0.0461877733469009
446,-0.0202995110303164,-0.0533528923988342,0.00830565206706524,-0.00216489401645958,-0.0035076648928225,0.0497372634708881
447,-0.0279230270534754,-0.0587152130901814,0.00319186877459288,0.00296914880163968,-0.0251481309533119,0.0508878529071808
448,-0.0322309657931328,-0.0604270584881306,-0.0015597203746438,0.00601336872205138,-0.0406852699816227,0.0508225485682487
449,-0.0281431749463081,-0.0527669601142406,0.0001948853750946,0.00930185802280903,-0.04609165340662,0.0519854426383972
450,-0.0157229881733656,-0.0403259247541428,0.008779251947999,0.0134736727923155,-0.0435652807354927,0.0525867789983749
451,-0.00288668926805258,-0.031608447432518,0.0170456543564796,0.0145663125440478,-0.0387218147516251,0.0471795126795769
452,0.00375444302335382,-0.0291087739169598,0.0189027786254883,0.0091259777545929,-0.0337585993111134,0.0341337360441685
453,0.00440046563744545,-0.0303502902388573,0.0153913330286741,-0.00134181452449411,-0.0273884031921625,0.0182726923376322
454,0.00642545940354466,-0.0303828325122595,0.0156381502747536,-0.0076725110411644,-0.0164899826049805,0.0104046827182174
455,0.0117834070697427,-0.0311237685382366,0.0235334560275078,-0.00621921708807349,-0.00433657318353653,0.0117484712973237
456,0.0147843481972814,-0.0360152050852776,0.0343913584947586,-0.00132561754435301,0.00260876095853746,0.0142123075202107
457,0.0138501664623618,-0.0384620316326618,0.0448768101632595,0.00556563818827271,0.00379675556905568,0.0170861650258303
458,0.00972220487892628,-0.0347407720983028,0.0516709722578526,0.0116722425445914,-0.0011396196205169,0.02103759534657
459,0.00489666406065226,-0.0299394689500332,0.0529656074941158,0.0141919553279877,-0.0104221636429429,0.024271622300148
460,0.00274420878849924,-0.0302251018583775,0.0477285608649254,0.0128807118162513,-0.0198762603104115,0.0249768048524857
461,0.0025593088939786,-0.0373593792319298,0.0353358387947083,0.00793222803622484,-0.0279511753469706,0.0207746103405952
462,0.00307364482432604,-0.0480251610279083,0.0208039954304695,0.00232806033454835,-0.0335311405360699,0.0117657678201795
463,0.00756531022489071,-0.0573562420904636,0.0108744157478213,7.92151695350185E-05,-0.0358658023178577,0.00247722817584872
464,0.0203874427825212,-0.0605391822755337,0.00911937281489372,0.00304658571258187,-0.0346419103443623,0.000208927973289974
465,0.0366044454276562,-0.0575530827045441,0.0133314123377204,0.00771051924675703,-0.0310079362243414,0.00454984558746219
466,0.0433850772678852,-0.0551987029612064,0.0148867247626185,0.00636934023350477,-0.0316470414400101,0.00421104906126857
467,0.0372349843382835,-0.0576675720512867,0.00938336830586195,-0.00174046109896153,-0.0420012101531029,-0.00581597443670034
468,0.0268273130059242,-0.0622489154338837,0.00276502245105803,-0.00909091252833605,-0.0578030794858933,-0.0181242879480124
469,0.0165213495492935,-0.066846638917923,-0.00117656018119305,-0.0129605801776052,-0.0737876668572426,-0.0279002394527197
470,0.00641393475234509,-0.0710720866918564,-0.00330736208707094,-0.0155626740306616,-0.0870852246880531,-0.0353540405631065
471,0.00080477970186621,-0.0704844668507576,-0.000763927411753684,-0.0153567418456078,-0.0919670313596725,-0.0370334833860397
472,0.00258440501056612,-0.0602781176567078,0.00869845878332853,-0.0104086706414819,-0.084820993244648,-0.0284034982323647
473,0.00884729996323586,-0.0469275750219822,0.020982364192605,-0.00491235964000225,-0.0703046768903732,-0.0127423563972116
474,0.0146271325647831,-0.0430850572884083,0.0297118313610554,-0.00441176677122712,-0.0567402429878712,0.000629622139967978
475,0.0160058904439211,-0.0526347011327744,0.0306535270065069,-0.0094113377854228,-0.0485228411853313,0.00546143762767315
476,0.0115227764472365,-0.071415551006794,0.0226181987673044,-0.0183877758681774,-0.0469486489892006,-0.000536146922968328
477,0.00480151036754251,-0.0922665148973465,0.0097318273037672,-0.029169337823987,-0.0528247617185116,-0.0164152476936579
478,0.0018911570077762,-0.107634037733078,-0.00067243620287627,-0.0373981967568398,-0.064593680202961,-0.0359804220497608
479,0.00219957623630762,-0.115518011152744,-0.00729577662423253,-0.0420891083776951,-0.0779637768864632,-0.0530989319086075
480,-0.0018293506000191,-0.121051900088787,-0.0162858199328184,-0.0503062643110752,-0.089605987071991,-0.0687367990612984
481,-0.013955794274807,-0.127646490931511,-0.0309268143028021,-0.0671288967132568,-0.0998559966683388,-0.0858853533864021
482,-0.0282458830624819,-0.130162224173546,-0.0454185493290424,-0.08428043872118,-0.109483011066914,-0.0990109518170357
483,-0.037743054330349,-0.12568998336792,-0.0538579635322094,-0.0922480747103691,-0.120092123746872,-0.102030739188194
484,-0.0407656989991665,-0.119128294289112,-0.0573673136532307,-0.0933536067605019,-0.133553519845009,-0.0996286198496819
485,-0.0389410257339478,-0.114402882754803,-0.0603940226137638,-0.0937115475535393,-0.147149980068207,-0.0985534340143204
486,-0.0386194847524166,-0.113946370780468,-0.0686170682311058,-0.0967243611812592,-0.160178914666176,-0.100328162312508
487,-0.0437215678393841,-0.117537498474121,-0.0829003378748894,-0.101586230099201,-0.175257280468941,-0.102323599159718
488,-0.0498919971287251,-0.120956182479858,-0.0957662239670753,-0.10345570743084,-0.189490541815758,-0.100818887352943
489,-0.0519688911736012,-0.121932871639729,-0.100249536335468,-0.0994702130556107,-0.196781575679779,-0.0958109125494957
490,-0.0490696169435978,-0.12131179869175,-0.0963272750377655,-0.0922578573226929,-0.195831403136253,-0.0917490497231483
491,-0.0439331158995628,-0.120264105498791,-0.0878317952156067,-0.086647056043148,-0.188563838601112,-0.092710018157959
492,-0.0432643108069897,-0.122127771377563,-0.0819949582219124,-0.0879451185464859,-0.178571596741676,-0.102288484573364
493,-0.0513241812586784,-0.127849265933037,-0.0839822366833687,-0.0974110141396523,-0.17034175992012,-0.121174812316895
494,-0.0631714165210724,-0.130406826734543,-0.0876068919897079,-0.107630349695683,-0.164322271943092,-0.140948921442032
495,-0.0750608444213867,-0.126994639635086,-0.0871195197105408,-0.114180728793144,-0.161346793174744,-0.154446020722389
496,-0.0875284150242805,-0.121968165040016,-0.085371769964695,-0.118819296360016,-0.162841483950615,-0.16145732998848
497,-0.0962132513523102,-0.115696310997009,-0.0828900039196014,-0.118774317204952,-0.164169162511826,-0.159686371684074
498,-0.0950154587626457,-0.105171613395214,-0.0755111649632454,-0.109305039048195,-0.157820850610733,-0.145175635814667
499,-0.0849681571125984,-0.0910841301083565,-0.0633060857653618,-0.093001589179039,-0.143193006515503,-0.120520681142807
500,-0.0732708647847176,-0.0769331157207489,-0.0514784827828407,-0.0767284706234932,-0.129455327987671,-0.0940917879343033
501,-0.0668703615665436,-0.0648613125085831,-0.0431112982332706,-0.0641103759407997,-0.124794259667397,-0.072619803249836
502,-0.0687752813100815,-0.0554443635046482,-0.0378572419285774,-0.056437112390995,-0.127363920211792,-0.0585694722831249
503,-0.0781670734286308,-0.0493135526776314,-0.0368555039167404,-0.0557920709252357,-0.132210671901703,-0.0528391934931278
504,-0.0914114117622375,-0.0462549142539501,-0.0418298728764057,-0.0622782334685326,-0.138655185699463,-0.0551867857575417
505,-0.103188000619411,-0.0427610166370869,-0.0491163022816181,-0.0699639096856117,-0.145349904894829,-0.0609430894255638
506,-0.111028999090195,-0.0364845246076584,-0.0520436502993107,-0.0727785006165504,-0.148778066039085,-0.0641276389360428
507,-0.116839289665222,-0.0302696749567986,-0.0491116940975189,-0.0714152529835701,-0.147698476910591,-0.0642128884792328
508,-0.122722752392292,-0.0285838078707457,-0.0473496280610561,-0.0711162984371185,-0.14403447508812,-0.0666242614388466
509,-0.126415222883224,-0.031094528734684,-0.0522640347480774,-0.0739070847630501,-0.138009250164032,-0.073220893740654
510,-0.123120225965977,-0.0316758714616299,-0.0579579062759876,-0.075116753578186,-0.125378325581551,-0.0771694257855415
511,-0.115280792117119,-0.0275419075042009,-0.0578767322003841,-0.0720894187688828,-0.106355622410774,-0.0752651765942574
512,-0.109974950551987,-0.0207341946661472,-0.0525369681417942,-0.0661056712269783,-0.0879528522491455,-0.0707457587122917
513,-0.107167683541775,-0.0115665458142757,-0.0436734743416309,-0.0573300644755363,-0.0751159265637398,-0.0642624273896217
514,-0.10240576416254,-0.000225330382818356,-0.0330560319125652,-0.0475034937262535,-0.0676316544413567,-0.0543164946138859
515,-0.0948114842176437,0.010621827095747,-0.0231250524520874,-0.0397568456828594,-0.0633079931139946,-0.0393567085266113
516,-0.0854489803314209,0.0201202537864447,-0.0152739100158215,-0.0336515717208385,-0.0608338378369808,-0.0177518241107464
517,-0.0741606056690216,0.0300562493503094,-0.00927219167351723,-0.0263856332749128,-0.0597685799002647,0.00859836582094431
518,-0.0640091821551323,0.0389675460755825,-0.00565222650766373,-0.0200750734657049,-0.0625572204589844,0.0321682617068291
519,-0.0595464743673801,0.0451680012047291,-0.00438269274309278,-0.018021946772933,-0.0707503482699394,0.0477573797106743
520,-0.0606358870863914,0.0506632477045059,-0.00245973793789744,-0.0184732433408499,-0.0794678628444672,0.0558075308799744
521,-0.0642781555652618,0.0568124987185001,0.00262141181156039,-0.0195063464343548,-0.0831437632441521,0.0561738312244415
522,-0.0680947303771973,0.0628440901637077,0.00851297285407782,-0.0217780414968729,-0.0819597095251083,0.0479812882840633
523,-0.0736929997801781,0.0658953711390495,0.00792724546045065,-0.02757284976542,-0.0820516794919968,0.0318531505763531
524,-0.0824711993336678,0.0644572004675865,-0.00165279943030328,-0.0363232456147671,-0.0862390249967575,0.0119111081585288
525,-0.0895213484764099,0.0613076873123646,-0.012576712295413,-0.0427408032119274,-0.0880428850650787,-0.00465768110007048
526,-0.0909491181373596,0.0586336217820644,-0.0173875670880079,-0.0441474951803684,-0.0824325904250145,-0.0139177674427629
527,-0.08940589427948,0.0564080215990543,-0.0163314994424582,-0.0427960716187954,-0.0718580260872841,-0.0163099449127913
528,-0.0883928760886192,0.0554615557193756,-0.0136841638013721,-0.0413381159305573,-0.0594049617648125,-0.0133843254297972
529,-0.085538774728775,0.0595121048390865,-0.00985412858426571,-0.0377487167716026,-0.0437164716422558,-0.00359115633182228
530,-0.0768995806574821,0.0703991800546646,-0.00277318502776325,-0.0287598613649607,-0.0248787477612495,0.0141124483197927
531,-0.065383069217205,0.0830017477273941,0.00419239792972803,-0.0182073824107647,-0.0095185125246644,0.0326394997537136
532,-0.0583098344504833,0.089068278670311,0.00447670463472605,-0.014122418127954,-0.00486175715923309,0.0417589098215103
533,-0.0578671842813492,0.086536705493927,-0.00149240659084171,-0.0175703503191471,-0.00881789159029722,0.0394184254109859
534,-0.0560717917978764,0.0836029723286629,-0.00417135190218687,-0.0192686356604099,-0.00820554606616497,0.0359020680189133
535,-0.0434794947504997,0.0866344049572945,0.00284512038342655,-0.0117688663303852,0.00621508667245507,0.0422850400209427
536,-0.0218872837722301,0.0921709686517715,0.0149472765624523,0.00107925420161337,0.0290339346975088,0.057892344892025
537,-0.00490377563983202,0.0931699872016907,0.0217800289392471,0.00923227425664663,0.0466814897954464,0.072199635207653
538,-0.00251590786501765,0.0871205702424049,0.0213189665228128,0.00987263768911362,0.0520509891211987,0.0797313898801804
539,-0.0071706036105752,0.0809642747044563,0.025492113083601,0.0136441309005022,0.0543379299342632,0.0879241153597832
540,-0.00765994936227798,0.0803210288286209,0.0384019166231155,0.0255564842373133,0.062244638800621,0.0973575860261917
541,-0.00526208756491542,0.0807443037629128,0.0479432158172131,0.0345411002635956,0.0703323483467102,0.0965148210525513
542,-0.00276185758411884,0.0798900350928307,0.0480781756341457,0.0339989736676216,0.0751669406890869,0.0854616686701775
543,0.00238933134824038,0.0817757844924927,0.0432383827865124,0.0295039918273687,0.0805210098624229,0.0764308050274849
544,0.00885735265910625,0.0879806876182556,0.0358335748314857,0.0255120377987623,0.0863023921847343,0.0749512016773224
545,0.00898168049752712,0.092139795422554,0.0229569673538208,0.0187532193958759,0.0856644511222839,0.0744637846946716
546,0.00042522419244051,0.0876590460538864,0.00479648727923632,0.00810024328529835,0.0770143941044807,0.0706434696912766
547,-0.00991842057555914,0.0779861211776733,-0.0116308815777302,-0.00176729448139668,0.0682660117745399,0.0683596804738045
548,-0.0153118213638663,0.0706854090094566,-0.0204247962683439,-0.00863902643322945,0.0639443099498749,0.0711206123232841
549,-0.0103170890361071,0.071315661072731,-0.0175778921693563,-0.00933797750622034,0.0663371831178665,0.0807451754808426
550,0.00448097521439195,0.0797589868307114,-0.0041719451546669,-0.00171899329870939,0.0762793123722076,0.0959775671362877
551,0.0192515328526497,0.0883402600884438,0.0106739597395062,0.00828178972005844,0.0887027308344841,0.108110919594765
552,0.0280099585652351,0.0915580838918686,0.0206300672143698,0.014986933209002,0.101091139018536,0.111685685813427
553,0.0316066704690456,0.0904841348528862,0.0255077015608549,0.0169857703149319,0.113353200256824,0.108720235526562
554,0.0329973809421062,0.0887796655297279,0.027562452480197,0.0151063799858093,0.123809657990932,0.102950528264046
555,0.0349659882485867,0.0881838649511337,0.0273903273046017,0.0105303060263395,0.129609197378159,0.0957324877381325
556,0.0368100292980671,0.0876185670495033,0.0231050178408623,0.00406901491805911,0.128917276859283,0.0871698632836342
557,0.0361967533826828,0.086759939789772,0.0155864804983139,-0.00108311453368515,0.12372150272131,0.0806758627295494
558,0.0305129457265139,0.0830322653055191,0.00545803690329194,-0.00434776814654469,0.113935254514217,0.0767281204462051
559,0.0192875396460295,0.0731949359178543,-0.00711264600977302,-0.00847928412258625,0.0986145958304405,0.0720031410455704
560,0.0071638454683125,0.0609733611345291,-0.0171887762844563,-0.0126755153760314,0.0839099958539009,0.0690297111868858
561,0.000233456245041452,0.0524852424860001,-0.019846823066473,-0.0144721660763025,0.079465426504612,0.0717415660619736
562,0.00199111807160079,0.0497376136481762,-0.0150807732716203,-0.0140438629314303,0.0886806473135948,0.0774413496255875
563,0.0140927881002426,0.0540515370666981,-0.00373613019473851,-0.00977853126823902,0.107952751219273,0.0840116813778877
564,0.0306096468120813,0.0621456280350685,0.00790436938405037,-0.0021320900414139,0.125669255852699,0.0892156735062599
565,0.039731752127409,0.0665766447782516,0.010454841889441,0.00341118755750358,0.128614753484726,0.0885436832904816
566,0.0417476519942284,0.0686566382646561,0.00808906089514494,0.00756256794556975,0.119338005781174,0.0862546339631081
567,0.0452895946800709,0.074320949614048,0.0103540094569325,0.0146419676020741,0.109397500753403,0.0901088491082191
568,0.0513617694377899,0.0836590230464935,0.0172039661556482,0.0233031548559666,0.103897035121918,0.0998637899756432
569,0.0546109341084957,0.0919595062732697,0.0221522934734821,0.0277038831263781,0.100537538528442,0.109159275889397
570,0.0520318038761616,0.0964750424027443,0.0216111335903406,0.0258492231369019,0.0964628905057907,0.114599414169788
571,0.0449977181851864,0.0974204018712044,0.0161716677248478,0.021364513784647,0.0915743336081505,0.117801241576672
572,0.0364325530827045,0.0952901765704155,0.00668435217812657,0.0172261856496334,0.0860807821154594,0.120306722819805
573,0.0306113343685865,0.0928106084465981,-0.00269177323207259,0.0156902000308037,0.0821930840611458,0.123461805284023
574,0.0326715596020222,0.0945906862616539,-0.00405470328405499,0.0204129014164209,0.0853379741311073,0.129616305232048
575,0.0441440902650356,0.101921200752258,0.00699064554646611,0.0331881232559681,0.0985340625047684,0.140241414308548
576,0.0589802078902721,0.109515175223351,0.0250211805105209,0.0482085682451725,0.116306267678738,0.15122152864933
577,0.070392444729805,0.112342394888401,0.0413379296660423,0.0575619749724865,0.131609827280045,0.156580030918121
578,0.0748774781823158,0.108912438154221,0.0497870482504368,0.0571338087320328,0.140383422374725,0.152999147772789
579,0.0704777389764786,0.0999860316514969,0.0473576635122299,0.0467363223433495,0.139746963977814,0.140420883893967
580,0.059429656714201,0.0883553922176361,0.0377857983112335,0.031356580555439,0.132466703653336,0.122865378856659
581,0.0450976304709911,0.0746810436248779,0.0265098009258509,0.0166915655136108,0.124541334807873,0.104099057614803
582,0.031512800604105,0.0613092370331287,0.0184213295578957,0.00816243048757315,0.122563242912292,0.0896895155310631
583,0.0250298418104649,0.054035022854805,0.0180905126035213,0.0102160684764385,0.131105422973633,0.0861784070730209
584,0.0290164668112993,0.0557986982166767,0.0251283515244722,0.0220554582774639,0.14591321349144,0.0951401591300964
585,0.0411223657429218,0.0645169988274574,0.0354686118662357,0.0377026945352554,0.157584577798843,0.114091001451015
586,0.055452823638916,0.0750408992171288,0.044088251888752,0.0501750484108925,0.161026045680046,0.137862607836723
587,0.0673641562461853,0.0841737985610962,0.0483377613127232,0.0580057688057423,0.158798158168793,0.160365417599678
588,0.0737241804599762,0.0895544588565826,0.0471585020422935,0.0608236715197563,0.152211084961891,0.173299416899681
589,0.0709804743528366,0.0873987972736359,0.0381924994289875,0.0537694096565247,0.137406632304192,0.168093383312225
590,0.0602506622672081,0.0785092264413834,0.0234908480197191,0.0372349396348,0.116614647209644,0.145806655287743
591,0.0477585233747959,0.0699499845504761,0.0117243798449636,0.0208039376884699,0.100454032421112,0.117830075323582
592,0.0368930511176586,0.0675431936979294,0.0097758499905467,0.0117637943476439,0.0959276109933853,0.0940965563058853
593,0.0294533837586641,0.0710910186171532,0.0192529819905758,0.0111273908987641,0.103192955255508,0.0790985077619553
594,0.0292476359754801,0.0753987282514572,0.0367377959191799,0.0169313810765743,0.118717715144157,0.0733991488814354
595,0.0345378592610359,0.0730767697095871,0.0504391938447952,0.0221469532698393,0.131740361452103,0.0706894919276237
596,0.0416613444685936,0.0654595643281937,0.0529220439493656,0.0234310198575258,0.134514674544334,0.0690451264381409
597,0.053249929100275,0.0642491355538368,0.051498856395483,0.0273229274898767,0.132218167185783,0.0764965265989304
598,0.0678554624319077,0.0722995474934578,0.0514037497341633,0.0351341813802719,0.128453403711319,0.0927035436034203
599,0.0773743316531181,0.080717071890831,0.0489889904856682,0.0403943993151188,0.120791614055634,0.107423417270184
600,0.0784953087568283,0.0844380781054497,0.0441301912069321,0.041388388723135,0.110916785895824,0.11566948145628
601,0.0740004852414131,0.0840251892805099,0.0401905365288258,0.0402781255543232,0.102353036403656,0.117496125400066
602,0.0652714595198631,0.0783011689782143,0.0350787900388241,0.0361607559025288,0.0929614007472992,0.111217387020588
603,0.0525800660252571,0.0668401792645454,0.0268798302859068,0.0290721114724875,0.0799648836255074,0.0981515944004059
604,0.0419085659086704,0.0557324513792992,0.0217949599027634,0.0248688813298941,0.0694527253508568,0.0874684974551201
605,0.0401514768600464,0.0513414442539215,0.0250608827918768,0.0276859682053328,0.070068821310997,0.0870882645249367
606,0.045789510011673,0.0521992035210133,0.0325314104557037,0.0334501937031746,0.0802418738603592,0.0950209051370621
607,0.0507109872996807,0.0513907894492149,0.0348394736647606,0.0338878706097603,0.0876889005303383,0.101045966148376
608,0.0481414273381233,0.0451259538531303,0.0272022467106581,0.0256058219820261,0.0818736180663109,0.0959988310933113
609,0.036650974303484,0.0353425815701485,0.0129596441984177,0.0123932715505362,0.0635330006480217,0.0794002190232277
610,0.0200020223855972,0.0265104882419109,-0.000265211681835353,0.000463121978100389,0.0427050180733204,0.0590746663510799
611,0.00611046701669693,0.0241982359439135,-0.00484282989054918,-0.00432024104520679,0.0311254188418388,0.0460382290184498
612,0.00129243987612426,0.0302116665989161,0.00132764177396894,0.000583584769628942,0.0342960134148598,0.0462115295231342
613,0.00328562175855041,0.0380888059735298,0.0119449077174068,0.0105511425063014,0.0477982349693775,0.054376844316721
614,0.0037492208648473,0.0383424907922745,0.0169109888374805,0.0153207331895828,0.0605445504188538,0.0577280819416046
615,-6.02155250817304E-06,0.029012955725193,0.0132428342476487,0.0109507655724883,0.0662532821297646,0.0510090552270412
616,-0.00219766492955387,0.0159577950835228,0.0065474659204483,0.00337408040650189,0.0683129727840424,0.0415769480168819
617,0.00232210708782077,0.00609791418537498,0.00374387437477708,-0.000387000472983345,0.0736925229430199,0.0390021055936813
618,0.013579223304987,0.00587386917322874,0.0103815207257867,0.00537873385474086,0.0867018476128578,0.0486228801310062
619,0.0256842318922281,0.0154330767691135,0.0252146404236555,0.0209020283073187,0.102649740874767,0.0673292279243469
620,0.0315132290124893,0.0269580762833357,0.0410610102117062,0.0391630604863167,0.112245425581932,0.087117150425911
621,0.0300427190959454,0.0342394672334194,0.053311862051487,0.0534301958978176,0.111704476177692,0.103059411048889
622,0.0241516102105379,0.0363874323666096,0.0592770911753178,0.0592765174806118,0.102290540933609,0.11222130805254
623,0.0180462952703238,0.0372462943196297,0.0588636621832848,0.0567214228212833,0.0897782370448112,0.115380309522152
624,0.0155257415026426,0.0432885326445103,0.0565227456390858,0.0521258562803268,0.0819899216294289,0.117673777043819
625,0.0150844939053059,0.0561222545802593,0.0537398755550385,0.0505001880228519,0.0805041790008545,0.119068115949631
626,0.0116860624402761,0.0693438202142715,0.0462300516664982,0.0496970415115356,0.080163985490799,0.112699784338474
627,0.00290394271723926,0.0754994451999664,0.0310803204774857,0.0441217049956322,0.0753765925765038,0.0965876504778862
628,-0.0068849646486342,0.0777701660990715,0.0145567236468196,0.0349857732653618,0.0679097026586533,0.0813628360629082
629,-0.0107994582504034,0.0867757871747017,0.00759163172915578,0.0296618361026049,0.0649228468537331,0.0787501558661461
630,-0.0105365263298154,0.0998144447803497,0.0101198339834809,0.0274385586380959,0.0652088597416878,0.0843617990612984
631,-0.0123722786083817,0.10329207777977,0.0138836754485965,0.0218843780457973,0.062519758939743,0.0861335471272469
632,-0.0170595180243254,0.0945723652839661,0.016174616292119,0.0137580176815391,0.0578309111297131,0.0814031437039375
633,-0.0220893509685993,0.0824686512351036,0.0197264477610588,0.00931856315582991,0.0558354780077934,0.0757887735962868
634,-0.0263266693800688,0.0740780234336853,0.0265206824988127,0.0104080177843571,0.0581751205027103,0.0743056982755661
635,-0.0311575010418892,0.0694137439131737,0.0333891808986664,0.0117294611409307,0.0620087794959545,0.0761748552322388
636,-0.0378838144242764,0.0669522285461426,0.0362786166369915,0.0102334739640355,0.0642366036772728,0.0781075581908226
637,-0.0446912720799446,0.0694088637828827,0.0368333011865616,0.0105269746854901,0.0662154480814934,0.0798745006322861
638,-0.0479253903031349,0.0785951837897301,0.0379885733127594,0.0161525644361973,0.0697109028697014,0.0818905904889107
639,-0.0445226617157459,0.091584101319313,0.0401354469358921,0.0246457159519196,0.0741008818149567,0.0833586007356644
640,-0.0353823602199554,0.104641489684582,0.0429475903511047,0.0323713682591915,0.0782960429787636,0.0849330201745033
641,-0.0239885244518518,0.115718081593513,0.0469046756625175,0.0389423854649067,0.08235003054142,0.0883568972349167
642,-0.0109059605747461,0.124796397984028,0.0544300526380539,0.0468501150608063,0.0880660340189934,0.0946367383003235
643,0.00325182010419667,0.131162166595459,0.0654023215174675,0.0558800585567951,0.0940704196691513,0.101569510996342
644,0.0150514170527458,0.133138433098793,0.0745448544621468,0.0633415579795837,0.0958071574568748,0.105239130556583
645,0.0232898816466331,0.133228316903114,0.0786547511816025,0.070003554224968,0.0931239724159241,0.107258558273315
646,0.031822394579649,0.13816349208355,0.0820052102208138,0.0804714486002922,0.0917986482381821,0.115548267960548
647,0.0402030237019062,0.147684440016747,0.0867530703544617,0.093092642724514,0.0918340384960175,0.128937661647797
648,0.0412677936255932,0.152962908148766,0.0888318866491318,0.0985289588570595,0.0861096233129501,0.136356964707375
649,0.035864595323801,0.153039485216141,0.0899326503276825,0.0953294113278389,0.077988974750042,0.138003557920456
650,0.0317484214901924,0.153532385826111,0.093656986951828,0.0893906429409981,0.0773974657058716,0.140906646847725
651,0.0316198319196701,0.156398877501488,0.0978732258081436,0.0855897590517998,0.0862250551581383,0.146429106593132
652,0.0339374542236328,0.161357134580612,0.100292958319187,0.0871065706014633,0.0993436574935913,0.153284028172493
653,0.0367679782211781,0.16366882622242,0.0988446027040482,0.090271383523941,0.106870800256729,0.156317144632339
654,0.0416967496275902,0.161638393998146,0.0963879078626633,0.0917441621422768,0.104936845600605,0.155606999993324
655,0.0540068484842777,0.165015652775764,0.103608757257462,0.0992713570594788,0.103862263262272,0.163688912987709
656,0.0718387216329575,0.17860534787178,0.122661896049976,0.117492906749249,0.111178524792194,0.185101538896561
657,0.0819229036569595,0.189135149121284,0.137380212545395,0.13312754034996,0.116824381053448,0.202984422445297
658,0.0764403790235519,0.184222504496574,0.133242502808571,0.13263076543808,0.109361261129379,0.202899590134621
659,0.0614588186144829,0.167456984519959,0.114580236375332,0.119218952953815,0.0910759121179581,0.18983855843544
660,0.0483282990753651,0.151371940970421,0.0977670550346375,0.106111988425255,0.0738065615296364,0.177123129367828
661,0.0487034469842911,0.149863585829735,0.098526269197464,0.106472849845886,0.0726926550269127,0.177282929420471
662,0.0639579594135284,0.164963409304619,0.116909772157669,0.12147281318903,0.0907255932688713,0.191557571291924
663,0.0854881033301353,0.187427192926407,0.141932547092438,0.144481226801872,0.118986815214157,0.211661100387573
664,0.106368966400623,0.20909795165062,0.166156381368637,0.169728696346283,0.149732783436775,0.229517996311188
665,0.124179147183895,0.22573447227478,0.186135023832321,0.190393969416618,0.17737603187561,0.240048512816429
666,0.140171155333519,0.237150594592094,0.200511053204536,0.202687531709671,0.197627544403076,0.244009420275688
667,0.153111472725868,0.242829024791718,0.206100031733513,0.204562053084373,0.205486625432968,0.240551114082336
668,0.160530507564545,0.243158012628555,0.202374756336212,0.197537258267403,0.201182797551155,0.229196324944496
669,0.163612067699432,0.241087034344673,0.196069180965424,0.189067080616951,0.192549899220467,0.215256839990616
670,0.16287162899971,0.2357217669487,0.191220387816429,0.18237116932869,0.184207484126091,0.200273737311363
671,0.158041730523109,0.224906787276268,0.185651898384094,0.175525516271591,0.175236999988556,0.183035030961037
672,0.152854532003403,0.213004916906357,0.179413110017776,0.170381516218185,0.167189136147499,0.168007239699364
673,0.152468770742416,0.207167133688927,0.17661564052105,0.17195338010788,0.165212735533714,0.162336438894272
674,0.157171815633774,0.208125486969948,0.179619655013084,0.180324614048004,0.171195521950722,0.168268248438835
675,0.163197636604309,0.21066065132618,0.187267139554024,0.189693063497543,0.182505398988724,0.181412190198898
676,0.167517587542534,0.210584968328476,0.196367859840393,0.195048704743385,0.194435015320778,0.194519847631454
677,0.171880438923836,0.208938047289848,0.204720586538315,0.198221489787102,0.203712716698647,0.204428479075432
678,0.181184753775597,0.210823580622673,0.212988451123238,0.205384761095047,0.21159939467907,0.21419084072113
679,0.19413685798645,0.21708545088768,0.219796717166901,0.216346129775047,0.217065498232841,0.22325898706913
680,0.204329907894135,0.22338493168354,0.222567602992058,0.225613623857498,0.216431617736816,0.227526262402534
681,0.208822354674339,0.227577894926071,0.222302496433258,0.231014013290405,0.210708379745483,0.227711513638496
682,0.207710415124893,0.229634031653404,0.2199866771698,0.232815772294998,0.203647315502167,0.225839659571648
683,0.204919278621674,0.232156053185463,0.217844754457474,0.234667554497719,0.201147794723511,0.22516593337059
684,0.203813210129738,0.235766738653183,0.216422900557518,0.237798601388931,0.204342514276505,0.226458683609962
685,0.202665030956268,0.235901281237602,0.212199419736862,0.237618446350098,0.206888347864151,0.225348010659218
686,0.202263370156288,0.232367172837257,0.206890746951103,0.235023409128189,0.207573488354683,0.222836762666702
687,0.203452840447426,0.227405846118927,0.202711939811707,0.232332423329353,0.207650676369667,0.220929101109505
688,0.203465387225151,0.221530735492706,0.19854998588562,0.228362843394279,0.20689445734024,0.217802494764328
689,0.202661827206612,0.218093439936638,0.196822017431259,0.225851625204086,0.208585247397423,0.215783387422562
690,0.2001633644104,0.215618029236794,0.195404574275017,0.223812162876129,0.209666877985001,0.213535264134407
691,0.194093570113182,0.208623081445694,0.188555508852005,0.216993525624275,0.203269228339195,0.206390872597694
692,0.190200850367546,0.200733363628387,0.180800169706345,0.209798231720924,0.194731280207634,0.201518222689629
693,0.190228089690208,0.194904059171677,0.175985440611839,0.205980241298676,0.189226850867271,0.203924417495728
694,0.186278432607651,0.185265839099884,0.167812705039978,0.198931902647018,0.18162576854229,0.204167380928993
695,0.176396861672401,0.17051874101162,0.15444178879261,0.186019226908684,0.171775415539742,0.196086600422859
696,0.16818043589592,0.157596051692963,0.143075123429298,0.173562362790108,0.167024120688438,0.184624627232552
697,0.166017219424248,0.149788722395897,0.137900680303574,0.165809944272041,0.168472394347191,0.173873797059059
698,0.168585583567619,0.146528348326683,0.139327704906464,0.164043322205544,0.173144459724426,0.165649995207787
699,0.173143774271011,0.148536667227745,0.14652818441391,0.168970808386803,0.179586380720139,0.163231715559959
700,0.175364419817925,0.153514713048935,0.15494978427887,0.17695851624012,0.185499891638756,0.165904268622398
701,0.172447144985199,0.157563745975494,0.16046230494976,0.183307036757469,0.191349044442177,0.169028416275978
702,0.164389178156853,0.159124031662941,0.160648584365845,0.185596257448196,0.197079926729202,0.168662697076797
703,0.15252485871315,0.157415390014648,0.15475244820118,0.182117789983749,0.198216035962105,0.163258850574493
704,0.139227285981178,0.152229502797127,0.146394565701485,0.173144280910492,0.193169802427292,0.154463768005371
705,0.127120703458786,0.14528888463974,0.141402080655098,0.163126423954964,0.18609607219696,0.146346539258957
706,0.117504745721817,0.138329371809959,0.140701428055763,0.155530318617821,0.179212957620621,0.141295656561852
707,0.110664494335651,0.132165551185608,0.139859035611153,0.149884909391403,0.170615807175636,0.139692813158035
708,0.10803497582674,0.128880694508553,0.137516021728516,0.147405564785004,0.161523342132568,0.142990708351135
709,0.110845439136028,0.12913903594017,0.135544776916504,0.149969905614853,0.15510655939579,0.150377288460732
710,0.116669945418835,0.128901973366737,0.13230212032795,0.153935775160789,0.1495481133461,0.156241327524185
711,0.122729353606701,0.126905515789986,0.128233388066292,0.156209096312523,0.144527330994606,0.159656316041946
712,0.126165211200714,0.12577024102211,0.127262160181999,0.157481968402863,0.142817661166191,0.163483738899231
713,0.122125409543514,0.124512940645218,0.128742143511772,0.156319633126259,0.142680779099464,0.164903819561005
714,0.111441358923912,0.12137196958065,0.131142422556877,0.153050512075424,0.142684444785118,0.163371250033379
715,0.100303210318089,0.116730637848377,0.134208559989929,0.150988906621933,0.143388077616692,0.163891732692719
716,0.0928511023521423,0.111644998192787,0.136219874024391,0.151166945695877,0.143708676099777,0.168419003486633
717,0.0920884981751442,0.108506873250008,0.137992769479752,0.154321298003197,0.145293623209,0.176084280014038
718,0.0994488149881363,0.109877981245518,0.143364489078522,0.162092179059982,0.152595803141594,0.185912132263184
719,0.109402410686016,0.113579489290714,0.151309683918953,0.170970797538757,0.163331180810928,0.192201107740402
720,0.113292917609215,0.113871276378632,0.155764654278755,0.173884555697441,0.169336244463921,0.187618866562843
721,0.10933742672205,0.109013617038727,0.154508471488953,0.169731304049492,0.167830228805542,0.173203632235527
722,0.103896394371986,0.103021435439587,0.151401400566101,0.16438302397728,0.163143530488014,0.157372757792473
723,0.1026301831007,0.100182913243771,0.150916412472725,0.163338720798492,0.160174459218979,0.14794696867466
724,0.103755258023739,0.101129755377769,0.154565632343292,0.167339846491814,0.160519689321518,0.147920846939087
725,0.0994876623153687,0.101411074399948,0.158493533730507,0.171054437756538,0.160259157419205,0.15211509168148
726,0.0825503021478653,0.0931460931897163,0.154585272073746,0.165790468454361,0.152988851070404,0.149040430784225
727,0.0566198378801346,0.0762457102537155,0.14215587079525,0.151655197143555,0.141921803355217,0.136338517069817
728,0.0314941145479679,0.0571290627121925,0.126415207982063,0.134955823421478,0.133989974856377,0.120637901127338
729,0.00942379795014858,0.0367876626551151,0.107198297977448,0.11659087240696,0.12512768805027,0.104911290109158
730,-0.00783443823456764,0.0182860475033522,0.0874987468123436,0.101475603878498,0.112711898982525,0.0950234159827232
731,-0.0151534881442785,0.0085572637617588,0.0747324973344803,0.0964159891009331,0.101944498717785,0.0963843315839767
732,-0.0132202403619885,0.00901481416076422,0.0695707499980927,0.0974845960736275,0.0948441624641418,0.102839291095734
733,-0.00997793115675449,0.0148973967880011,0.0659556239843369,0.0962863117456436,0.0874583497643471,0.102646633982658
734,-0.0119829326868057,0.0176158268004656,0.058409970253706,0.0888147056102753,0.0767413303256035,0.0903955101966858
735,-0.0145686473697424,0.0145038766786456,0.0504376478493214,0.0793094709515572,0.0712039917707443,0.0746552273631096
736,-0.0102762524038553,0.0111200334504247,0.0494776032865047,0.0748438164591789,0.0801517441868782,0.0659824684262276
737,-0.00458985846489668,0.00577705260366201,0.0511675588786602,0.0717943534255028,0.0924418568611145,0.059045784175396
738,-0.00726493913680315,-0.00866254605352879,0.0453376546502113,0.0608584061264992,0.0896786823868752,0.0437822006642818
739,-0.0135226352140307,-0.025293942540884,0.0365935750305653,0.0465368255972862,0.0748792514204979,0.0270734950900078
740,-0.0145178353413939,-0.0325208343565464,0.0343055985867977,0.0385457761585712,0.0613807067275047,0.0194857884198427
741,-0.00930760148912668,-0.0295173153281212,0.039315901696682,0.0385601818561554,0.0533473193645477,0.0206679068505764
742,-0.000710945168975741,-0.0222880858927965,0.0482480973005295,0.0432163551449776,0.0478793270885944,0.0256813950836658
743,0.00914857350289822,-0.0138649996370077,0.0595682598650455,0.0507275387644768,0.0435380078852177,0.0338610000908375
744,0.0211258418858051,-0.00183694227598608,0.0745702162384987,0.0636455938220024,0.0436988696455956,0.0487164631485939
745,0.0310833994299173,0.00920139346271753,0.0864270776510239,0.0772762224078178,0.0461448989808559,0.064009815454483
746,0.033904105424881,0.0128303421661258,0.0880354791879654,0.08389563113451,0.0472252145409584,0.0714598894119263
747,0.0313233621418476,0.0115925772115588,0.0823896825313568,0.0832441300153732,0.0487325824797153,0.0726999789476395
748,0.0276920702308416,0.0110777784138918,0.0757787302136421,0.0795968174934387,0.0527738742530346,0.0723882466554642
749,0.0271749962121248,0.0145888533443213,0.0741867125034332,0.0784869566559792,0.060823492705822,0.0743030682206154
750,0.0327476225793362,0.0236395373940468,0.0815865024924278,0.0839278250932693,0.0746603235602379,0.0829133465886116
751,0.0453814193606377,0.0381713882088661,0.0974840298295021,0.0963663384318352,0.0942547470331192,0.100413024425507
752,0.0639885887503624,0.0557974725961685,0.117450438439846,0.112715616822243,0.115671709179878,0.123228512704372
753,0.0847409665584564,0.0718584507703781,0.134920835494995,0.127270460128784,0.13247711956501,0.143372178077698
754,0.102941855788231,0.082085408270359,0.145971715450287,0.135429754853249,0.140282303094864,0.153704211115837
755,0.119587682187557,0.0896322429180145,0.155756697058678,0.140756726264954,0.143887832760811,0.157115146517754
756,0.137937247753143,0.0997288003563881,0.16930989921093,0.149088367819786,0.150881558656693,0.161597818136215
757,0.154161155223846,0.107905060052872,0.180109798908234,0.156886771321297,0.158362880349159,0.166054844856262
758,0.166180610656738,0.110641725361347,0.184045419096947,0.161502197384834,0.162275671958923,0.16803614795208
759,0.179588750004768,0.112643040716648,0.186350226402283,0.1679427921772,0.166760981082916,0.171417504549026
760,0.194462493062019,0.113269358873367,0.186668023467064,0.175240114331245,0.172711968421936,0.174747109413147
761,0.205920517444611,0.108274511992931,0.180938214063644,0.17787666618824,0.175282567739487,0.173915803432465
762,0.216265052556992,0.101463697850704,0.173053726553917,0.177366241812706,0.172864153981209,0.172391280531883
763,0.23126982152462,0.0996491238474846,0.17005717754364,0.178249329328537,0.167919784784317,0.174190521240234
764,0.251907110214233,0.103274501860142,0.173631891608238,0.181173861026764,0.164623215794563,0.177157416939735
765,0.276658564805985,0.109203763306141,0.182487517595291,0.185546740889549,0.167360037565231,0.179672211408615
766,0.302289605140686,0.116755239665508,0.195489585399628,0.192185968160629,0.175569891929626,0.185288161039352
767,0.323984384536743,0.128775969147682,0.211940884590149,0.203728556632996,0.185868948698044,0.199823126196861
768,0.33995857834816,0.146933078765869,0.230858281254768,0.221568077802658,0.197027787566185,0.22359511256218
769,0.350509077310562,0.165913417935371,0.249109789729118,0.241044774651527,0.206986740231514,0.247075408697128
770,0.357106477022171,0.179570153355598,0.264655888080597,0.256614297628403,0.215011686086655,0.262542873620987
771,0.362508803606033,0.187476471066475,0.276454329490662,0.266184329986572,0.223088532686234,0.270682126283646
772,0.367601424455643,0.191420033574104,0.282862335443497,0.269693672657013,0.233086511492729,0.274705976247787
773,0.373031109571457,0.194444909691811,0.286867260932922,0.271977096796036,0.248739644885063,0.28001007437706
774,0.380099505186081,0.199513152241707,0.293724775314331,0.280230730772018,0.270722478628159,0.291830599308014
775,0.388335525989532,0.206185847520828,0.303558975458145,0.295367985963821,0.291130781173706,0.308930963277817
776,0.395947188138962,0.211502328515053,0.31218808889389,0.310066908597946,0.299628585577011,0.323896199464798
777,0.401356518268585,0.213307932019234,0.316387265920639,0.317375779151917,0.292724907398224,0.33141365647316
778,0.405504137277603,0.213960587978363,0.318011224269867,0.319788217544556,0.278543502092361,0.335223436355591
779,0.408729940652847,0.215292438864708,0.319376826286316,0.321052432060242,0.26796817779541,0.338766157627106
780,0.408454149961472,0.214086577296257,0.318655967712402,0.318688452243805,0.264266073703766,0.339955598115921
781,0.405402451753616,0.210180908441544,0.315556108951569,0.312852025032043,0.266329228878021,0.339995115995407
782,0.401991248130798,0.209284886717796,0.312442779541016,0.30754029750824,0.270897269248962,0.341279685497284
783,0.396999567747116,0.21284893155098,0.309238106012344,0.30328580737114,0.271856993436813,0.341501146554947
784,0.38891413807869,0.215206578373909,0.304490834474564,0.297936886548996,0.266108274459839,0.336966067552567
785,0.37761777639389,0.213224038481712,0.299150288105011,0.291414648294449,0.256744027137756,0.327386438846588
786,0.361098438501358,0.206823587417603,0.294249534606934,0.283334642648697,0.246055513620377,0.314083307981491
787,0.339939177036285,0.196440488100052,0.289865791797638,0.273022472858429,0.23441556096077,0.298978865146637
788,0.320823788642883,0.186016052961349,0.285751044750214,0.264018565416336,0.226972386240959,0.285575479269028
789,0.308185040950775,0.178464308381081,0.280272215604782,0.259489506483078,0.228388473391533,0.274668514728546
790,0.30376672744751,0.175046816468239,0.275179594755173,0.259645998477936,0.236981764435768,0.267009198665619
791,0.307788014411926,0.175807312130928,0.27212917804718,0.262135207653046,0.245824351906776,0.263131260871887
792,0.315314471721649,0.176687255501747,0.267598301172256,0.262909471988678,0.246701672673225,0.259116739034653
793,0.323368608951569,0.176745980978012,0.262397676706314,0.263254523277283,0.240272790193558,0.255154937505722
794,0.333413362503052,0.177924618124962,0.259701430797577,0.265732616186142,0.233398854732513,0.254844963550568
795,0.345970660448074,0.18081733584404,0.259105563163757,0.268594115972519,0.230556607246399,0.257883489131927
796,0.358176738023758,0.185270577669144,0.260411590337753,0.269922316074371,0.232740595936775,0.261339575052261
797,0.36245059967041,0.186067938804626,0.260051935911179,0.26584130525589,0.234823867678642,0.259212911128998
798,0.353334695100784,0.177219942212105,0.252390086650848,0.252699315547943,0.229621917009354,0.247011557221413
799,0.333760470151901,0.15971551835537,0.237536579370499,0.233598381280899,0.214158311486244,0.228283822536469
800,0.309199333190918,0.138210207223892,0.218862637877464,0.213967815041542,0.188407450914383,0.208920747041702
801,0.282104432582855,0.115689381957054,0.197685852646828,0.194344252347946,0.15460216999054,0.189280465245247
802,0.255902498960495,0.0961559489369392,0.177050396800041,0.175176173448563,0.120307579636574,0.170744046568871
803,0.235876172780991,0.0832718312740326,0.161510869860649,0.160356163978577,0.094046376645565,0.15846386551857
804,0.219353169202805,0.0717096403241158,0.147319763898849,0.14730241894722,0.073785237967968,0.148435577750206
805,0.201672911643982,0.0570705831050873,0.131412237882614,0.133197039365768,0.055123258382082,0.134918004274368
806,0.187612906098366,0.0444642081856728,0.12125750631094,0.123799651861191,0.0420176088809967,0.123134128749371
807,0.180598825216293,0.0356764607131481,0.120362862944603,0.120763286948204,0.0367618165910244,0.118910752236843
808,0.174745723605156,0.0257948264479637,0.121287323534489,0.118001163005829,0.0345637314021587,0.120812185108662
809,0.159564286470413,0.00890897493809462,0.112366005778313,0.107364669442177,0.0256418026983738,0.119200132787228
810,0.130415961146355,-0.0161532331258059,0.089600682258606,0.085641086101532,0.00441777892410755,0.105025447905064
811,0.0927551314234734,-0.0449088253080845,0.0595362260937691,0.0557648725807667,-0.0247975718230009,0.0770132690668106
812,0.0554391928017139,-0.0728485807776451,0.0287609603255987,0.0214930512011051,-0.0543072111904621,0.0388935841619968
813,0.0259113982319832,-0.0966898947954178,0.00110549898818135,-0.0110722156241536,-0.076910674571991,-0.000275237776804715
814,0.00216648681089282,-0.118891000747681,-0.0253787823021412,-0.0406715199351311,-0.0945278182625771,-0.0355955883860588
815,-0.0219725705683231,-0.142671182751656,-0.0542742572724819,-0.0703520923852921,-0.113370597362518,-0.0672929584980011
816,-0.0426444262266159,-0.163176670670509,-0.0805768221616745,-0.0953514501452446,-0.12943734228611,-0.0905373319983482
817,-0.0537317246198654,-0.177018523216248,-0.0980166718363762,-0.109534993767738,-0.137009188532829,-0.102768547832966
818,-0.0563850663602352,-0.187744408845901,-0.107764981687069,-0.114984519779682,-0.136847823858261,-0.110285989940166
819,-0.0544084720313549,-0.198367342352867,-0.113374635577202,-0.117320895195007,-0.132316455245018,-0.11792379617691
820,-0.0538712330162525,-0.211419269442558,-0.119333729147911,-0.122210562229156,-0.132584318518639,-0.126586109399796
821,-0.0650435239076614,-0.231383606791496,-0.134420812129974,-0.136994883418083,-0.151071965694427,-0.142099425196648
822,-0.0904135853052139,-0.255587130784988,-0.160176053643227,-0.161147028207779,-0.187707930803299,-0.166705623269081
823,-0.119569055736065,-0.276137232780457,-0.187317788600922,-0.184371098875999,-0.228032052516937,-0.193723767995834
824,-0.141327023506165,-0.290574461221695,-0.208874762058258,-0.200826704502106,-0.260498583316803,-0.217764377593994
825,-0.151346936821938,-0.300326228141785,-0.224071472883224,-0.212590366601944,-0.281870603561401,-0.237363293766975
826,-0.151633709669113,-0.306325942277908,-0.234177321195602,-0.22256001830101,-0.293911695480347,-0.252346456050873
827,-0.147728353738785,-0.308636426925659,-0.240596458315849,-0.231608495116234,-0.299884825944901,-0.262260556221008
828,-0.145348444581032,-0.307490289211273,-0.244649171829224,-0.239606395363808,-0.301098495721817,-0.266114741563797
829,-0.147213235497475,-0.304228186607361,-0.244799882173538,-0.244267731904984,-0.295675575733185,-0.262688994407654
830,-0.154212102293968,-0.302463918924332,-0.239415943622589,-0.244134902954102,-0.284997165203094,-0.25399124622345
831,-0.166592106223106,-0.305696129798889,-0.23308102786541,-0.24236573278904,-0.277160853147507,-0.246052592992783
832,-0.181678459048271,-0.313290446996689,-0.232381477952003,-0.243060663342476,-0.278783738613129,-0.243501752614975
833,-0.194076746702194,-0.321062564849854,-0.236857280135155,-0.246341064572334,-0.28800243139267,-0.246256411075592
834,-0.199698209762573,-0.325390845537186,-0.240475818514824,-0.248795032501221,-0.297366797924042,-0.250886380672455
835,-0.200519293546677,-0.326808750629425,-0.24068683385849,-0.249400183558464,-0.302474826574326,-0.255460441112518
836,-0.200966462492943,-0.326982885599136,-0.238603442907333,-0.249791756272316,-0.302789509296417,-0.259649187326431
837,-0.200150340795517,-0.323370516300201,-0.23429448902607,-0.248636066913605,-0.297022938728333,-0.260049611330032
838,-0.195551112294197,-0.314059108495712,-0.228855803608894,-0.244350045919418,-0.286952048540115,-0.254378974437714
839,-0.18891604244709,-0.302920550107956,-0.225123211741447,-0.239251330494881,-0.27871111035347,-0.24616003036499
840,-0.181222707033157,-0.294490456581116,-0.223156914114952,-0.235305204987526,-0.274164259433746,-0.239113062620163
841,-0.171864405274391,-0.291487634181976,-0.221542522311211,-0.233516559004784,-0.271275013685226,-0.235936164855957
842,-0.164838522672653,-0.295863747596741,-0.220978260040283,-0.235599830746651,-0.270308792591095,-0.239862576127052
843,-0.164017647504807,-0.304999619722366,-0.219886377453804,-0.239363253116608,-0.270759552717209,-0.248916417360306
844,-0.16696335375309,-0.311417311429977,-0.214602068066597,-0.239559382200241,-0.270161420106888,-0.25557079911232
845,-0.171637520194054,-0.3123639523983,-0.207855254411697,-0.236520007252693,-0.268413424491882,-0.25636950135231
846,-0.179401576519012,-0.312624156475067,-0.205227449536324,-0.235315531492233,-0.266864031553268,-0.254909157752991
847,-0.188928782939911,-0.315098434686661,-0.206375300884247,-0.236517980694771,-0.265732049942017,-0.254731208086014
848,-0.197969153523445,-0.319535791873932,-0.210368543863297,-0.238125666975975,-0.266853123903275,-0.257580995559692
849,-0.206575945019722,-0.32538765668869,-0.217996522784233,-0.240000829100609,-0.27283039689064,-0.263201057910919
850,-0.215846717357636,-0.331584692001343,-0.228202983736992,-0.242906853556633,-0.283992260694504,-0.270318597555161
851,-0.225518718361855,-0.336765170097351,-0.238145440816879,-0.246519774198532,-0.296866714954376,-0.278381615877151
852,-0.232861131429672,-0.339608639478683,-0.24416771531105,-0.248428016901016,-0.305893570184708,-0.285419791936874
853,-0.236532226204872,-0.340769797563553,-0.245390355587006,-0.248238384723663,-0.308900892734528,-0.289748698472977
854,-0.236544817686081,-0.340937048196793,-0.243683636188507,-0.2476776689291,-0.307369410991669,-0.289986252784729
855,-0.235559850931168,-0.342438727617264,-0.244561806321144,-0.251275956630707,-0.308508962392807,-0.289668202400208
856,-0.239186435937881,-0.348651707172394,-0.253341794013977,-0.263746500015259,-0.31956347823143,-0.296862781047821
857,-0.246832519769669,-0.355966061353683,-0.265427887439728,-0.280123740434647,-0.335349321365356,-0.309733748435974
858,-0.251716524362564,-0.358526259660721,-0.273426949977875,-0.291367441415787,-0.346324861049652,-0.319042265415192
859,-0.250756144523621,-0.356360584497452,-0.277020692825317,-0.295110464096069,-0.350894719362259,-0.32099062204361
860,-0.24902231991291,-0.353545397520065,-0.279887199401855,-0.294808954000473,-0.353359013795853,-0.318703860044479
861,-0.253744661808014,-0.352865368127823,-0.284437894821167,-0.294651001691818,-0.356775045394897,-0.316536486148834
862,-0.263944357633591,-0.352155417203903,-0.288744568824768,-0.294535785913467,-0.359029799699783,-0.314037322998047
863,-0.273577064275742,-0.348111718893051,-0.289350748062134,-0.291944831609726,-0.357338607311249,-0.308613330125809
864,-0.283417403697968,-0.343930780887604,-0.287966430187225,-0.290221720933914,-0.354531019926071,-0.30511674284935
865,-0.297958612442017,-0.34600043296814,-0.289048194885254,-0.295892238616943,-0.354267328977585,-0.312636137008667
866,-0.316024303436279,-0.354690849781036,-0.294161260128021,-0.309464186429977,-0.355484783649445,-0.33162134885788
867,-0.333720594644547,-0.365554481744766,-0.303845643997192,-0.32699728012085,-0.358268141746521,-0.354624539613724
868,-0.346466451883316,-0.371738076210022,-0.314879477024078,-0.34124094247818,-0.363179713487625,-0.370940834283829
869,-0.351472288370132,-0.369286507368088,-0.321780234575272,-0.346489429473877,-0.368673741817474,-0.374399274587631
870,-0.350888341665268,-0.360669553279877,-0.322250336408615,-0.343504011631012,-0.372511595487595,-0.367701947689056
871,-0.346535682678223,-0.347646117210388,-0.315229266881943,-0.333734780550003,-0.370315760374069,-0.35403048992157
872,-0.343240916728973,-0.334863156080246,-0.306682080030441,-0.323621720075607,-0.363566637039185,-0.341778963804245
873,-0.348578780889511,-0.33025535941124,-0.306318670511246,-0.322540283203125,-0.35881096124649,-0.341914385557175
874,-0.361929446458817,-0.333258002996445,-0.313624531030655,-0.329379707574844,-0.356593906879425,-0.352044552564621
875,-0.378064066171646,-0.339073657989502,-0.323983609676361,-0.339211165904999,-0.357218503952026,-0.36497038602829
876,-0.389394551515579,-0.341869682073593,-0.331889152526855,-0.346633970737457,-0.358750909566879,-0.373467952013016
877,-0.388446509838104,-0.33593225479126,-0.330918729305267,-0.344875782728195,-0.354044675827026,-0.370268017053604
878,-0.379990726709366,-0.326593369245529,-0.324642539024353,-0.337575614452362,-0.344080030918121,-0.36117097735405
879,-0.371741265058517,-0.320780605077744,-0.318866699934006,-0.331511676311493,-0.332638740539551,-0.353755950927734
880,-0.366979211568832,-0.319769471883774,-0.316529959440231,-0.32950958609581,-0.32275253534317,-0.349963426589966
881,-0.370895266532898,-0.326299995183945,-0.32206118106842,-0.335251301527023,-0.322525799274445,-0.355116546154022
882,-0.384212642908096,-0.339457452297211,-0.334168493747711,-0.34785184264183,-0.334398955106735,-0.370430499315262
883,-0.404075860977173,-0.356721013784409,-0.351364940404892,-0.365751177072525,-0.355051696300507,-0.39341476559639
884,-0.426667183637619,-0.376631170511246,-0.373720556497574,-0.387461811304092,-0.378555923700333,-0.419609367847443
885,-0.44565537571907,-0.3954858481884,-0.397356688976288,-0.408271968364716,-0.39665099978447,-0.442434340715408
886,-0.458937078714371,-0.412054598331451,-0.420718878507614,-0.427064955234528,-0.40852627158165,-0.461584001779556
887,-0.463935822248459,-0.422594398260117,-0.438245058059692,-0.438993215560913,-0.414630502462387,-0.474163413047791
888,-0.458495795726776,-0.422201007604599,-0.444181978702545,-0.43963760137558,-0.415717780590057,-0.475906610488892
889,-0.449281424283981,-0.415363013744354,-0.44601982831955,-0.437075525522232,-0.419585168361664,-0.473577499389648
890,-0.440722942352295,-0.408108025789261,-0.450353294610977,-0.43708997964859,-0.428293645381927,-0.473631173372269
891,-0.429994702339172,-0.400623798370361,-0.453015923500061,-0.436134099960327,-0.434701293706894,-0.474725842475891
892,-0.415267467498779,-0.392559975385666,-0.450160920619965,-0.431841492652893,-0.434497207403183,-0.474654823541641
893,-0.398221880197525,-0.385246217250824,-0.443605124950409,-0.425977528095245,-0.429572820663452,-0.473070353269577
894,-0.381170928478241,-0.3775375187397,-0.434935867786407,-0.418412089347839,-0.422334790229797,-0.467900067567825
895,-0.366657197475433,-0.367282062768936,-0.425024926662445,-0.408058971166611,-0.415298163890839,-0.457054495811462
896,-0.356350421905518,-0.355338752269745,-0.414786279201508,-0.396360039710999,-0.410039603710175,-0.442093461751938
897,-0.347034186124802,-0.34216371178627,-0.402461647987366,-0.383226752281189,-0.402851670980453,-0.424379736185074
898,-0.334686815738678,-0.326287508010864,-0.387191444635391,-0.36798220872879,-0.389867842197418,-0.404747247695923
899,-0.321016907691956,-0.309643030166626,-0.372539281845093,-0.354577124118805,-0.37399223446846,-0.388336509466171
900,-0.309249222278595,-0.296334832906723,-0.362827271223068,-0.347669899463654,-0.360064446926117,-0.380011528730392
901,-0.298477232456207,-0.286031872034073,-0.357571363449097,-0.34510400891304,-0.347576647996902,-0.376933395862579
902,-0.286814719438553,-0.276964962482452,-0.352885216474533,-0.341692626476288,-0.335231691598892,-0.374902307987213
903,-0.270546734333038,-0.26693269610405,-0.343852370977402,-0.332672357559204,-0.321947425603867,-0.370138466358185
904,-0.241847708821297,-0.249337717890739,-0.323878079652786,-0.311209410429001,-0.300730317831039,-0.353676617145538
905,-0.197408258914948,-0.219653502106667,-0.288521558046341,-0.27426490187645,-0.264578431844711,-0.31940621137619
906,-0.144830405712128,-0.180229738354683,-0.239175423979759,-0.226229459047318,-0.215585380792618,-0.271302223205566
907,-0.0992686450481415,-0.13941878080368,-0.186427995562553,-0.17748236656189,-0.165999040007591,-0.22081732749939
908,-0.0728053972125053,-0.109511092305183,-0.147910639643669,-0.142223238945007,-0.131418362259865,-0.18281202018261
909,-0.0611793212592602,-0.0919647067785263,-0.129472255706787,-0.123262345790863,-0.114363864064217,-0.161402761936188
910,-0.051324900239706,-0.0779412761330605,-0.122851021587849,-0.112055204808712,-0.106485575437546,-0.148858219385147
911,-0.0375865884125233,-0.0655545368790627,-0.121408559381962,-0.104969896376133,-0.103938437998295,-0.141133517026901
912,-0.0210112296044827,-0.0597644336521626,-0.122635394334793,-0.103253230452538,-0.105941623449326,-0.140597984194756
913,-0.00116935197729617,-0.0631909519433975,-0.124311625957489,-0.105942644178867,-0.108908854424953,-0.148529246449471
914,0.0305446051061153,-0.0685317069292068,-0.11871001124382,-0.104042574763298,-0.102503463625908,-0.154905378818512
915,0.0804062336683273,-0.0683650672435761,-0.102740556001663,-0.0917675942182541,-0.0808518752455711,-0.150465577840805
916,0.139075711369514,-0.0673762112855911,-0.0882978960871696,-0.0781674385070801,-0.0540443994104862,-0.142365306615829
917,0.19332130253315,-0.0692987143993378,-0.0819143950939178,-0.0702078863978386,-0.0325168631970882,-0.137287214398384
918,0.237146630883217,-0.0707949623465538,-0.0777087658643723,-0.0652073100209236,-0.0186618100851774,-0.132826790213585
919,0.267030417919159,-0.0735874846577644,-0.074618399143219,-0.0632283836603165,-0.0156482830643654,-0.13024714589119
920,0.281400144100189,-0.0846459418535233,-0.077637679874897,-0.068376325070858,-0.0279429070651531,-0.135495483875275
921,0.285356223583221,-0.104519136250019,-0.0857855230569839,-0.0798166543245316,-0.0529492944478989,-0.148179948329926
922,0.287245601415634,-0.12845940887928,-0.0956805348396301,-0.0931369364261627,-0.0816888585686684,-0.162098914384842
923,0.296160906553268,-0.151515141129494,-0.106914065778255,-0.104372180998325,-0.105473920702934,-0.170887306332588
924,0.318713158369064,-0.169586807489395,-0.117449179291725,-0.110866785049438,-0.120134599506855,-0.1718420535326
925,0.348955541849136,-0.182694956660271,-0.125353634357452,-0.114804826676846,-0.127455353736877,-0.169696763157845
926,0.374540448188782,-0.191232532262802,-0.129930585622787,-0.118426218628883,-0.129649206995964,-0.166822612285614
927,0.392533630132675,-0.19474433362484,-0.131470039486885,-0.119634516537189,-0.129593297839165,-0.159737750887871
928,0.408595889806747,-0.195391699671745,-0.130047500133514,-0.115255579352379,-0.131005048751831,-0.149107694625854
929,0.425756007432938,-0.195918038487434,-0.125652119517326,-0.10602381080389,-0.133727476000786,-0.140772014856339
930,0.445361495018005,-0.194428235292435,-0.118255980312824,-0.0946536362171173,-0.132639288902283,-0.13570399582386
931,0.471686393022537,-0.185497298836708,-0.104549162089825,-0.079330749809742,-0.121806003153324,-0.127729624509811
932,0.5,-0.167624309659004,-0.083486832678318,-0.0578549429774284,-0.102239951491356,-0.113310948014259
933,0.5,-0.141532838344574,-0.0578053891658783,-0.0319865047931671,-0.076204352080822,-0.0921711847186089
934,0.5,-0.110540106892586,-0.0289731752127409,-0.00462857354432344,-0.0425681732594967,-0.0649927780032158
935,0.5,-0.0813256651163101,0.00332730612717569,0.0239550769329071,-0.00374406622722745,-0.0331265553832054
936,0.5,-0.0564352422952652,0.0372340492904186,0.0536208525300026,0.033094696700573,0.00297012738883495
937,0.5,-0.0381032340228558,0.0649184137582779,0.0784527286887169,0.0589440129697323,0.0379167124629021
938,0.5,-0.0298281144350767,0.0800197198987007,0.0915591791272163,0.0702802389860153,0.0619125626981258
939,0.5,-0.0296207442879677,0.0849097594618797,0.0922297388315201,0.0728150233626366,0.0705156400799751
940,0.5,-0.0317499861121178,0.0862621963024139,0.0854074060916901,0.075117863714695,0.0685544684529305
941,0.5,-0.0309960171580315,0.0893535763025284,0.0780514180660248,0.0833317413926125,0.0656813308596611
942,0.5,-0.0252605248242617,0.0963319391012192,0.0756470933556557,0.0989995673298836,0.0681652650237083
943,0.5,-0.0151317827403545,0.108194842934608,0.0812766328454018,0.120276942849159,0.0773676559329033
944,0.5,-0.000122821234981529,0.127632170915604,0.0974379926919937,0.146502733230591,0.0946276783943176
945,0.5,0.0195511262863874,0.154979631304741,0.122994303703308,0.176614478230476,0.119098328053951
946,0.5,0.0399815328419209,0.183540210127831,0.150358706712723,0.204917773604393,0.145352825522423
947,0.5,0.0557488761842251,0.202730461955071,0.170760199427605,0.222246542572975,0.166524365544319
948,0.5,0.0651310235261917,0.208755627274513,0.180552139878273,0.22410374879837,0.179250612854958
949,0.5,0.0730815455317497,0.210971519351006,0.183864310383797,0.217571943998337,0.187851414084435
950,0.5,0.0845094248652458,0.219242781400681,0.186886206269264,0.213434129953384,0.198156982660294
951,0.5,0.0958426147699356,0.229234546422958,0.188796281814575,0.213570132851601,0.206890672445297
952,0.5,0.0966261029243469,0.22755429148674,0.181772336363792,0.209562838077545,0.202576413750649
953,0.5,0.0808448866009712,0.207229807972908,0.161356970667839,0.194119110703468,0.180015057325363
954,0.5,0.0534908846020699,0.174043878912926,0.133541092276573,0.170554667711258,0.147812873125076
955,0.5,0.023678520694375,0.140350192785263,0.107802279293537,0.147204607725143,0.118079625070095
956,0.5,-0.00217644241638482,0.11529017239809,0.0896312296390533,0.129088878631592,0.0975288450717926
957,0.5,-0.0229312721639872,0.0993318185210228,0.0791624486446381,0.116051241755486,0.086374320089817
958,0.5,-0.0422137528657913,0.0874410346150398,0.0722080022096634,0.103619940578938,0.0801225900650024
959,0.5,-0.0625628978013992,0.0760385021567345,0.0638305991888046,0.0866989865899086,0.0739118903875351
960,0.5,-0.0827060490846634,0.0634298995137215,0.0495658479630947,0.0637207850813866,0.0644926205277443
961,0.5,-0.099062480032444,0.0490636974573135,0.0295000728219748,0.0404163897037506,0.0526893474161625
962,0.5,-0.106730073690414,0.0366387479007244,0.0123677598312497,0.0278783440589905,0.0445618592202663
963,0.5,-0.102063737809658,0.031397856771946,0.00742060644552112,0.0308665558695793,0.0451455414295197
964,0.5,-0.0874737575650215,0.0334451645612717,0.0139030460268259,0.0418912619352341,0.0520736202597618
965,0.5,-0.0711460188031197,0.0385894440114498,0.0238386876881123,0.0507466495037079,0.0585057325661182
966,0.5,-0.0597466491162777,0.043973870575428,0.0315379314124584,0.0543969459831715,0.0613791644573212
967,0.5,-0.0528056509792805,0.0502017959952354,0.0368113443255425,0.0549212209880352,0.0630563870072365
968,0.5,-0.04282046854496,0.061124924570322,0.0443408824503422,0.0569346807897091,0.0687399804592133
969,0.5,-0.0249260198324919,0.0777711495757103,0.0566315427422524,0.0638761073350906,0.0803621411323547
970,0.5,-0.00317123532295227,0.0957082733511925,0.069839783012867,0.0743324458599091,0.0955988317728043
971,0.5,0.0183511488139629,0.112631686031818,0.0815274491906166,0.0879083126783371,0.115939751267433
972,0.5,0.041741244494915,0.131371974945068,0.0953979268670082,0.108347855508327,0.145199835300446
973,0.5,0.0659201368689537,0.153181508183479,0.114164024591446,0.135061681270599,0.179260268807411
974,0.5,0.0846474394202232,0.177277639508247,0.13656747341156,0.162895411252975,0.210697010159492
975,0.5,0.0952694043517113,0.201750174164772,0.159911602735519,0.189375758171082,0.235032886266708
976,0.5,0.0980439856648445,0.218438446521759,0.177896544337273,0.211315512657166,0.245756685733795
977,0.5,0.0983901545405388,0.225086241960526,0.18846607208252,0.22925791144371,0.245111763477325
978,0.5,0.101544640958309,0.227863863110542,0.193716540932655,0.24529841542244,0.242865160107613
979,0.5,0.103574708104134,0.226104170084,0.191317960619926,0.251187920570374,0.238641783595085
980,0.5,0.103670738637447,0.220525100827217,0.184365168213844,0.243125602602959,0.231678172945976
981,0.5,0.107802972197533,0.220478475093842,0.182783618569374,0.230934828519821,0.230047881603241
982,0.5,0.116708993911743,0.22954249382019,0.188873901963234,0.221998289227486,0.237012475728989
983,0.5,0.128962963819504,0.24387152493,0.200142532587051,0.219464138150215,0.250400990247726
984,0.5,0.147172287106514,0.262138038873672,0.218492045998573,0.228303357958794,0.271669447422028
985,0.5,0.170931190252304,0.28389036655426,0.243641048669815,0.248374566435814,0.2993223965168
986,0.5,0.197156444191933,0.307658225297928,0.271352618932724,0.27453875541687,0.328124076128006
987,0.5,0.228594690561295,0.336874455213547,0.302807629108429,0.30655100941658,0.361203193664551
988,0.5,0.269310355186462,0.377826750278473,0.342879563570023,0.347636580467224,0.405461847782135
989,0.5,0.315620630979538,0.429068505764008,0.389111429452896,0.396349847316742,0.456774920225143
990,0.5,0.358597606420517,0.478616148233414,0.430710017681122,0.445597350597382,0.5
991,0.5,0.392299056053162,0.5,0.460547566413879,0.48766416311264,0.5
992,0.5,0.421734809875488,0.5,0.485745012760162,0.5,0.5
993,0.5,0.457204043865204,0.5,0.5,0.5,0.5
994,0.5,0.496387004852295,0.5,0.5,0.5,0.5
995,0.5,0.5,0.5,0.5,0.5,0.5
996,0.5,0.5,0.5,0.5,0.5,0.5
997,0.5,0.5,0.5,0.5,0.5,0.5
998,0.5,0.5,0.5,0.5,0.5,0.5
999,0.5,0.5,0.5,0.5,0.5,0.5
1000,0.5,0.5,0.5,0.5,0.5,0.5
1001,0.5,0.5,0.5,0.5,0.5,0.5
1002,0.5,0.5,0.5,0.5,0.5,0.5
1003,0.5,0.5,0.5,0.5,0.5,0.5
1004,0.5,0.5,0.5,0.5,0.5,0.5
1005,0.5,0.5,0.5,0.5,0.5,0.5
1006,0.5,0.5,0.5,0.5,0.5,0.5
1007,0.5,0.5,0.5,0.5,0.5,0.5
1008,0.5,0.5,0.5,0.5,0.5,0.5
1009,0.5,0.5,0.5,0.5,0.5,0.5
1010,0.5,0.5,0.5,0.5,0.5,0.5
1011,0.5,0.5,0.5,0.5,0.5,0.5
1012,0.5,0.5,0.5,0.5,0.5,0.5
1013,0.5,0.5,0.5,0.5,0.5,0.5
1014,0.5,0.5,0.5,0.5,0.5,0.5
1015,0.5,0.5,0.5,0.5,0.5,0.5
1016,0.5,0.5,0.5,0.5,0.5,0.5
1017,0.5,0.5,0.5,0.5,0.5,0.5
1018,0.5,0.494730442762375,0.5,0.5,0.5,0.5
1019,0.5,0.460126608610153,0.5,0.489962160587311,0.5,0.5
1020,0.5,0.440405160188675,0.485194385051727,0.4725501537323,0.491771191358566,0.5
1021,0.5,0.435782343149185,0.479842692613602,0.470715582370758,0.478749781847,0.5
1022,0.5,0.4396992623806,0.484878093004227,0.478104054927826,0.477712452411652,0.5
1023,0.5,0.441897451877594,0.491230905056,0.482592463493347,0.478476941585541,0.5
1024,0.5,0.43418225646019,0.491408139467239,0.475819081068039,0.475233495235443,0.5
1025,0.5,0.416485667228699,0.484176218509674,0.461291581392288,0.470704168081284,0.5
1026,0.5,0.392689913511276,0.470202416181564,0.445978462696075,0.467150837182999,0.479796797037125
1027,0.5,0.367613196372986,0.451874613761902,0.430800348520279,0.461872160434723,0.453904151916504
1028,0.472833812236786,0.348736554384232,0.434081345796585,0.41456750035286,0.453181833028793,0.436038672924042
1029,0.448176473379135,0.341101944446564,0.420996457338333,0.398769855499268,0.442716211080551,0.429039657115936
1030,0.430803000926971,0.34199047088623,0.412647157907486,0.386472851037979,0.431126713752747,0.42988196015358
1031,0.419625401496887,0.345522463321686,0.405763626098633,0.380231559276581,0.417851686477661,0.432970643043518
1032,0.413311421871185,0.347271770238876,0.397099941968918,0.378372639417648,0.402357369661331,0.433481246232986
1033,0.40943717956543,0.34610778093338,0.386148780584335,0.376542657613754,0.384149938821793,0.429048836231232
1034,0.405972898006439,0.344165980815887,0.37474337220192,0.372343301773071,0.365144491195679,0.420159429311752
1035,0.402045398950577,0.346538007259369,0.367448210716248,0.367499858140945,0.353547215461731,0.412635892629623
1036,0.396685719490051,0.35650047659874,0.368112653493881,0.365515202283859,0.35710272192955,0.413190096616745
1037,0.386107474565506,0.36601185798645,0.371307492256165,0.364257395267487,0.369022160768509,0.41741669178009
1038,0.365021616220474,0.361779153347015,0.365649670362473,0.356471538543701,0.372840583324432,0.413422495126724
1039,0.331486523151398,0.340188205242157,0.345826745033264,0.338229566812515,0.360222816467285,0.395302653312683
1040,0.290329188108444,0.311142086982727,0.318351864814758,0.313569903373718,0.336795687675476,0.367851853370667
1041,0.249103724956512,0.288511335849762,0.29421266913414,0.28973776102066,0.311281889677048,0.339175701141357
1042,0.210772335529327,0.277358204126358,0.277161985635757,0.269738435745239,0.286379158496857,0.313002169132233
1043,0.174563512206078,0.272670894861221,0.26203790307045,0.251443594694138,0.261560529470444,0.288557499647141
1044,0.14051428437233,0.267792969942093,0.243383780121803,0.231567174196243,0.237690165638924,0.263304531574249
1045,0.10713791847229,0.258901566267014,0.22204327583313,0.209207683801651,0.217118576169014,0.235076680779457
