,AF3,AF4,Fp1,Fp2,AF7,AF8
0,0.124118909239769,-0.0305056199431419,0.066392108798027,0.0755294561386108,0.0541419498622417,0.06197115406394
1,0.121932342648506,-0.0307008847594261,0.0727522373199463,0.081091582775116,0.0584934316575527,0.0655643045902252
2,0.118323154747486,-0.0333313494920731,0.0737088620662689,0.0838483870029449,0.0587152540683746,0.0732086524367332
3,0.114638179540634,-0.0392217412590981,0.0719329789280891,0.0842362195253372,0.0564271062612534,0.082437127828598
4,0.11102057248354,-0.0487706512212753,0.0688083991408348,0.081782266497612,0.0533897392451763,0.0886102393269539
5,0.106116272509098,-0.0625835135579109,0.0639951899647713,0.0747085511684418,0.0502877160906792,0.0864546597003937
6,0.0990254506468773,-0.0787266120314598,0.0581877715885639,0.0629723519086838,0.0478819310665131,0.0750097930431366
7,0.094293087720871,-0.088680736720562,0.0572456456720829,0.0542926751077175,0.0511269979178905,0.0654406026005745
8,0.0971841365098953,-0.086843229830265,0.0641174539923668,0.0570566356182098,0.0632524862885475,0.069630078971386
9,0.103978417813778,-0.079120934009552,0.0718941986560822,0.0691247060894966,0.077744260430336,0.0845688804984093
10,0.109506689012051,-0.0732651352882385,0.0753977447748184,0.0827557593584061,0.0874176770448685,0.100337691605091
11,0.115049630403519,-0.071883350610733,0.075747936964035,0.0912931263446808,0.091921329498291,0.109466314315796
12,0.120374143123627,-0.0752384215593338,0.0744515359401703,0.091776080429554,0.0938998833298683,0.108583487570286
13,0.12021292001009,-0.0828450545668602,0.0714985653758049,0.0858689248561859,0.0939436405897141,0.099765345454216
14,0.112105451524258,-0.0918671041727066,0.0664949640631676,0.0776590257883072,0.0902313813567162,0.0885063484311104
15,0.100013896822929,-0.0978713259100914,0.060478862375021,0.072027750313282,0.0829186886548996,0.0797426104545593
16,0.0912598446011543,-0.0974569991230965,0.0578922592103481,0.0737941637635231,0.0773429274559021,0.0770074278116226
17,0.0899149402976036,-0.0907777100801468,0.062732420861721,0.0830768719315529,0.0789039507508278,0.0825131461024284
18,0.0913538485765457,-0.0837568640708923,0.0707932710647583,0.091084286570549,0.084056444466114,0.0922954604029655
19,0.0900555923581123,-0.0815723910927773,0.0750933215022087,0.0900754481554031,0.0855861902236938,0.0985641330480576
20,0.0859268307685852,-0.0837087705731392,0.073533371090889,0.0818103700876236,0.081580713391304,0.0975460484623909
21,0.0808375850319862,-0.0864080786705017,0.0683618560433388,0.0724607706069946,0.075196847319603,0.091492548584938
22,0.0769337937235832,-0.0863230973482132,0.0636760741472244,0.0664946734905243,0.0702076032757759,0.0847784131765366
23,0.0744596272706985,-0.0851565301418304,0.0611239597201347,0.0630468800663948,0.0665148422122002,0.0775942653417587
24,0.0719701424241066,-0.0858879387378693,0.0609580390155315,0.0591279417276382,0.0629198476672173,0.0697366967797279
25,0.0701982527971268,-0.087404265999794,0.0641950219869614,0.0553845167160034,0.0604155324399471,0.0663030594587326
26,0.0706600472331047,-0.0888110771775246,0.0690721198916435,0.0532519482076168,0.0594980157911778,0.0697205513715744
27,0.0727242454886436,-0.0915674120187759,0.0719412863254547,0.0520074255764484,0.0594504997134209,0.0752504169940948
28,0.0740859359502792,-0.0965218991041183,0.071650430560112,0.0503666773438454,0.0597800649702549,0.0782834589481354
29,0.0725498199462891,-0.103001594543457,0.0687381252646446,0.0481379777193069,0.0587518848478794,0.07863549888134
30,0.0693121179938316,-0.108614914119244,0.0643555223941803,0.0475850626826286,0.055385235697031,0.0791722908616066
31,0.0674783065915108,-0.111708179116249,0.0598362423479557,0.0486952811479568,0.0513539388775826,0.0803944915533066
32,0.0699376463890076,-0.110894374549389,0.0580726861953735,0.0496271289885044,0.0500652939081192,0.0815795958042145
33,0.0771608874201775,-0.104632861912251,0.059799425303936,0.0504902079701424,0.0522389970719814,0.0822948589920998
34,0.0823861137032509,-0.095688097178936,0.0573532581329346,0.0482146814465523,0.0503350868821144,0.0773647949099541
35,0.0782523825764656,-0.0892103910446167,0.0456945225596428,0.0394492894411087,0.0384323559701443,0.0632806345820427
36,0.0655117109417915,-0.0890514627099037,0.0307666379958391,0.0264653265476227,0.0223840661346912,0.0437789633870125
37,0.049973551183939,-0.0950357019901276,0.0192384291440248,0.0135857965797186,0.0124997906386852,0.0246228873729706
38,0.0366351939737797,-0.101572647690773,0.0141875650733709,0.00499298283830285,0.0140613093972206,0.0117695545777678
39,0.0235844440758228,-0.106866843998432,0.0132648441940546,-0.000894058204721659,0.0207980591803789,0.00519490102306008
40,0.00416575558483601,-0.116054967045784,0.0077039310708642,-0.0116511592641473,0.0208834763616323,-0.00293654086999595
41,-0.0204360149800777,-0.129599407315254,-0.00438063452020288,-0.0262921378016472,0.0134035255759954,-0.0138395586982369
42,-0.040642287582159,-0.14118817448616,-0.0153241055086255,-0.0360473170876503,0.00623714877292514,-0.0204409547150135
43,-0.0498912669718266,-0.145596548914909,-0.0190771482884884,-0.0361765325069427,0.00388612411916256,-0.017184330150485
44,-0.0509128235280514,-0.143900915980339,-0.0170564204454422,-0.0290520135313272,0.00413459306582808,-0.00563126709312201
45,-0.0487176477909088,-0.139925956726074,-0.0136575056239963,-0.0200711898505688,0.00391722843050957,0.00695237331092358
46,-0.0426610261201859,-0.13308185338974,-0.00873762555420399,-0.0110142175108194,0.00492401095107198,0.0170238297432661
47,-0.0339133590459824,-0.122974641621113,-0.00211691972799599,-0.00318877515383065,0.00708143971860409,0.0236837081611156
48,-0.0280192494392395,-0.112512439489365,0.0037649953737855,0.000993052264675498,0.00681122159585357,0.0254512429237366
49,-0.02717768214643,-0.103179693222046,0.00795957632362843,0.00227388413622975,0.00339002953842282,0.024523101747036
50,-0.0311871096491814,-0.096472293138504,0.00922532379627228,0.0019559042993933,-0.00289240595884621,0.0226634945720434
51,-0.0398053899407387,-0.0950058475136757,0.00684676505625248,0.000480014336062595,-0.0112005015835166,0.017971808090806
52,-0.0519564226269722,-0.0993957221508026,0.00196928484365344,-0.00190252298489213,-0.0194859765470028,0.00935148261487484
53,-0.0650129839777946,-0.106549747288227,-0.00353097706101835,-0.00493875192478299,-0.0263393875211477,-0.000697630166541785
54,-0.0760544165968895,-0.111770063638687,-0.00773911830037832,-0.00829892139881849,-0.0307041630148888,-0.00795046333223581
55,-0.083941824734211,-0.112597197294235,-0.0101686241105199,-0.0110555905848742,-0.0309277381747961,-0.0088012907654047
56,-0.0876904502511024,-0.108901962637901,-0.0100991297513247,-0.00999491196125746,-0.0237306598573923,-0.00249082292430103
57,-0.0869680643081665,-0.101767234504223,-0.00632590986788273,-0.00350019382312894,-0.00900126155465841,0.00655973935499787
58,-0.0829995572566986,-0.0936185121536255,0.00122009427286685,0.00591666018590331,0.00753755774348974,0.0129871219396591
59,-0.0784735754132271,-0.0885939449071884,0.00907584838569164,0.0129477540031075,0.0176065005362034,0.0124593526124954
60,-0.0775075629353523,-0.0900749415159225,0.0117475492879748,0.0120948916301131,0.0158146284520626,0.00216819113120437
61,-0.083186499774456,-0.0977493152022362,0.00805993378162384,0.00254283845424652,0.00460397964343429,-0.0152660431340337
62,-0.0956062525510788,-0.108846344053745,0.000336302065989003,-0.0118352249264717,-0.0101514514535666,-0.0334314219653606
63,-0.111162513494492,-0.11895676702261,-0.00892198458313942,-0.0256620515137911,-0.0246707554906607,-0.0449868924915791
64,-0.12413378059864,-0.123122096061707,-0.0163536556065083,-0.0334166400134563,-0.0364440754055977,-0.0444936826825142
65,-0.130972862243652,-0.12061945348978,-0.0199212562292814,-0.0323897525668144,-0.043842900544405,-0.0347544774413109
66,-0.132742390036583,-0.115929022431374,-0.0218299049884081,-0.0265025366097689,-0.0469337925314903,-0.0250989850610495
67,-0.132164970040321,-0.112728759646416,-0.0242304094135761,-0.0224780663847923,-0.0456345267593861,-0.0205823332071304
68,-0.130791261792183,-0.111606612801552,-0.0256132185459137,-0.0227472074329853,-0.0391326025128365,-0.0195885412395
69,-0.131244778633118,-0.113618493080139,-0.0258543379604816,-0.0269165728241205,-0.0307441223412752,-0.0211639981716871
70,-0.137523353099823,-0.120721347630024,-0.0279045663774014,-0.035024855285883,-0.0285029467195272,-0.0272526703774929
71,-0.149721696972847,-0.132022604346275,-0.0317089967429638,-0.0454435460269451,-0.0353914275765419,-0.0367522723972797
72,-0.160280287265778,-0.139016732573509,-0.0314457640051842,-0.0528303049504757,-0.042397566139698,-0.0427231267094612
73,-0.161787927150726,-0.132518425583839,-0.0235954597592354,-0.0524068102240562,-0.0398225113749504,-0.0402330681681633
74,-0.156736046075821,-0.118340529501438,-0.0154274757951498,-0.0466165356338024,-0.0315791256725788,-0.0349569469690323
75,-0.151917010545731,-0.110099047422409,-0.0167287159711123,-0.0421177409589291,-0.0275072939693928,-0.0360751524567604
76,-0.149523004889488,-0.1107472255826,-0.0275009963661432,-0.0416542664170265,-0.0297477319836617,-0.0437276773154736
77,-0.148618221282959,-0.114880450069904,-0.0402416214346886,-0.0428004562854767,-0.033815111964941,-0.0511521734297276
78,-0.148532465100288,-0.118547141551971,-0.0481789894402027,-0.0421282090246677,-0.0351637043058872,-0.0526598393917084
79,-0.149177446961403,-0.121597267687321,-0.0491880103945732,-0.0388333797454834,-0.0331697911024094,-0.0478902645409107
80,-0.149470046162605,-0.124524027109146,-0.0445421971380711,-0.0342658795416355,-0.0299996100366116,-0.0411608815193176
81,-0.146915137767792,-0.125861808657646,-0.0359691977500916,-0.0296399872750044,-0.0258383881300688,-0.0364066734910011
82,-0.144037887454033,-0.126756742596626,-0.027231402695179,-0.0278855077922344,-0.0207345094531775,-0.0372590906918049
83,-0.147116661071777,-0.130627274513245,-0.0222275014966726,-0.0320560820400715,-0.0158082228153944,-0.0456053875386715
84,-0.155424848198891,-0.135802254080772,-0.019928190857172,-0.0387999340891838,-0.0098011726513505,-0.055255264043808
85,-0.163885340094566,-0.138882949948311,-0.0207055993378162,-0.0435139462351799,-0.00433233287185431,-0.057091549038887
86,-0.170493423938751,-0.139737784862518,-0.0283889845013618,-0.0465068407356739,-0.00558701017871499,-0.0496073476970196
87,-0.174778506159782,-0.137472927570343,-0.0402633659541607,-0.0473033785820007,-0.0150572201237082,-0.0376292653381824
88,-0.17645625770092,-0.130896791815758,-0.0485276877880096,-0.0436564050614834,-0.0283273458480835,-0.0266303904354572
89,-0.176558285951614,-0.122526578605175,-0.0509454347193241,-0.0370513759553432,-0.0408090092241764,-0.0219258517026901
90,-0.177178874611855,-0.116542868316174,-0.050622321665287,-0.0317691378295422,-0.0490240976214409,-0.0262490045279264
91,-0.180318638682365,-0.114403419196606,-0.0493152998387814,-0.0300516821444035,-0.0515185706317425,-0.0375795625150204
92,-0.186590865254402,-0.115055777132511,-0.0472188256680965,-0.0320252478122711,-0.0503458268940449,-0.0519945360720158
93,-0.194164454936981,-0.117290012538433,-0.0465157888829708,-0.0374164581298828,-0.0489556975662708,-0.0655977576971054
94,-0.199722990393639,-0.119316026568413,-0.049475871026516,-0.0448851697146893,-0.0488957650959492,-0.0748003870248795
95,-0.201205641031265,-0.119739003479481,-0.0547675043344498,-0.0524671822786331,-0.049462053924799,-0.0781730711460114
96,-0.200156420469284,-0.119645118713379,-0.0601146593689919,-0.0595418065786362,-0.0506181567907333,-0.0781965106725693
97,-0.200711235404015,-0.120831392705441,-0.0651813074946404,-0.0669953152537346,-0.0536698065698147,-0.0796106606721878
98,-0.205210417509079,-0.125431895256042,-0.0719328820705414,-0.076747439801693,-0.06044577434659,-0.0861692801117897
99,-0.210547879338264,-0.133880153298378,-0.0803345814347267,-0.0878627076745033,-0.070706695318222,-0.0959427580237389
100,-0.210007131099701,-0.140871539711952,-0.0840899348258972,-0.0940059870481491,-0.0785939246416092,-0.100711077451706
101,-0.200990229845047,-0.140236794948578,-0.0774151533842087,-0.0901972725987434,-0.0771874636411667,-0.0951051041483879
102,-0.190584555268288,-0.132213026285172,-0.0633542835712433,-0.079013891518116,-0.0675901398062706,-0.0835837051272392
103,-0.1877551227808,-0.122415490448475,-0.0491890199482441,-0.0668004900217056,-0.0571611188352108,-0.0740067437291145
104,-0.191881090402603,-0.114975579082966,-0.0371176339685917,-0.0563113279640675,-0.0490104854106903,-0.0672771036624908
105,-0.198446348309517,-0.11150386184454,-0.0297721475362778,-0.0487398132681847,-0.0443207994103432,-0.0614581517875195
106,-0.204494819045067,-0.110947668552399,-0.0313886217772961,-0.0451039783656597,-0.04479094222188,-0.0568028278648853
107,-0.205322936177254,-0.108016438782215,-0.0389693789184093,-0.0437878184020519,-0.0475049838423729,-0.053279772400856
108,-0.199949383735657,-0.102250315248966,-0.0476609133183956,-0.0444418787956238,-0.0492141470313072,-0.0531615912914276
109,-0.192277744412422,-0.0987466275691986,-0.054439302533865,-0.0464508384466171,-0.0475255660712719,-0.0578338317573071
110,-0.185851126909256,-0.0995961129665375,-0.0571225732564926,-0.0481777153909206,-0.0423996560275555,-0.0653224140405655
111,-0.182891920208931,-0.104111805558205,-0.0568244494497776,-0.0501850470900536,-0.0393721610307693,-0.0746900364756584
112,-0.182598233222961,-0.109315142035484,-0.0552611798048019,-0.0524271577596664,-0.0420924685895443,-0.0849795565009117
113,-0.184680476784706,-0.113802745938301,-0.0561533123254776,-0.0561679229140282,-0.0513364300131798,-0.0961701422929764
114,-0.190075770020485,-0.119325913488865,-0.0634922385215759,-0.063209168612957,-0.0666347444057465,-0.107271611690521
115,-0.195089370012283,-0.124973766505718,-0.0741571560502052,-0.0708759352564812,-0.082399956882,-0.11362512409687
116,-0.193275824189186,-0.126528054475784,-0.0797684714198112,-0.0730906873941422,-0.0900118499994278,-0.110649883747101
117,-0.184411913156509,-0.123528935015202,-0.0781005695462227,-0.0687366724014282,-0.0878691524267197,-0.0996769741177559
118,-0.175602003931999,-0.120055578649044,-0.0756201148033142,-0.0645738393068314,-0.0824251174926758,-0.0885729566216469
119,-0.170077472925186,-0.11584410071373,-0.0750420913100243,-0.0638862699270248,-0.0763404071331024,-0.0820215493440628
120,-0.165410801768303,-0.109348647296429,-0.0749827399849892,-0.0652608051896095,-0.0700542256236076,-0.0807123482227325
121,-0.159892022609711,-0.10185144841671,-0.0742391347885132,-0.0666388049721718,-0.0659976080060005,-0.0836401879787445
122,-0.154546782374382,-0.0946917533874512,-0.0701735690236092,-0.0656276494264603,-0.0642905756831169,-0.0863111242651939
123,-0.153655171394348,-0.0918199270963669,-0.0645334720611572,-0.064905971288681,-0.0660097002983093,-0.0874749049544334
124,-0.158964425325394,-0.0950004160404205,-0.0608273595571518,-0.0674193203449249,-0.0718354433774948,-0.0882312208414078
125,-0.166451469063759,-0.0987933725118637,-0.0566511414945126,-0.0700470730662346,-0.0766475349664688,-0.0865677446126938
126,-0.172899469733238,-0.0985236987471581,-0.050460759550333,-0.0706580206751823,-0.0759704858064651,-0.0827333554625511
127,-0.17557629942894,-0.092698372900486,-0.0438013337552547,-0.0689202025532722,-0.0683666840195656,-0.0774520263075829
128,-0.171591848134995,-0.0822718963027,-0.0380979813635349,-0.0645605623722076,-0.0548000447452068,-0.0701232627034187
129,-0.163580194115639,-0.0724994838237762,-0.0363418012857437,-0.0603187754750252,-0.0414341911673546,-0.0642521381378174
130,-0.157431378960609,-0.0677725672721863,-0.0404875501990318,-0.0595736503601074,-0.0341963842511177,-0.0642845928668976
131,-0.156502068042755,-0.0682714655995369,-0.0498362518846989,-0.0643024668097496,-0.0345089323818684,-0.0715054199099541
132,-0.159273222088814,-0.0706790462136269,-0.0613938979804516,-0.0731962844729424,-0.0409991145133972,-0.0820212513208389
133,-0.163705334067345,-0.0715654790401459,-0.0729551389813423,-0.0826588422060013,-0.0536179915070534,-0.0891510993242264
134,-0.169360771775246,-0.07000832259655,-0.0836953222751617,-0.0895019546151161,-0.0719920843839645,-0.0896910130977631
135,-0.173590242862701,-0.0654761865735054,-0.0906267538666725,-0.091347798705101,-0.0908555537462235,-0.0852899178862572
136,-0.174956068396568,-0.0588787272572517,-0.0935269221663475,-0.0904044434428215,-0.105605863034725,-0.0818912535905838
137,-0.174500867724419,-0.052100632339716,-0.0939389541745186,-0.0899500921368599,-0.11308079212904,-0.0838713273406029
138,-0.172241806983948,-0.045312836766243,-0.0896811932325363,-0.0886038243770599,-0.108627967536449,-0.0889140442013741
139,-0.168748661875725,-0.03916185349226,-0.0801305025815964,-0.0850421041250229,-0.0917550697922707,-0.0934824496507645
140,-0.166740193963051,-0.035579476505518,-0.0694448426365852,-0.0811430215835571,-0.0696202516555786,-0.09730364382267
141,-0.167179644107819,-0.0334785282611847,-0.0609230361878872,-0.0777756571769714,-0.0519060082733631,-0.0996723175048828
142,-0.167391061782837,-0.0288170147687197,-0.0540466047823429,-0.0740062594413757,-0.0443272851407528,-0.0985416024923325
143,-0.16575600206852,-0.0192086286842823,-0.0491418093442917,-0.070818655192852,-0.0475867763161659,-0.0953963696956635
144,-0.161804765462875,-0.00257883104495704,-0.046841487288475,-0.0680105909705162,-0.0572958216071129,-0.0929818525910378
145,-0.156765341758728,0.0180430337786675,-0.0478089340031147,-0.0657815188169479,-0.0696878135204315,-0.0934287160634995
146,-0.154039531946182,0.0321416817605495,-0.0540282316505909,-0.0680839940905571,-0.0847683176398277,-0.0994314402341843
147,-0.153281971812248,0.0373733229935169,-0.0618851445615292,-0.0731057971715927,-0.0975086316466331,-0.106730334460735
148,-0.154245495796204,0.0396655946969986,-0.065889909863472,-0.0748555809259415,-0.102416016161442,-0.107536531984806
149,-0.159757301211357,0.0417987182736397,-0.064304880797863,-0.071789912879467,-0.0995041355490685,-0.100322365760803
150,-0.17062047123909,0.0435790047049522,-0.0572910979390144,-0.0666752532124519,-0.0903533771634102,-0.0889922827482224
151,-0.186677247285843,0.0426300801336765,-0.0498688295483589,-0.0647678300738335,-0.0813857838511467,-0.0804474651813507
152,-0.206831708550453,0.0385658591985703,-0.0480842031538486,-0.0676357224583626,-0.0797037854790688,-0.0781120210886002
153,-0.226445630192757,0.0351936779916286,-0.0524686984717846,-0.071904145181179,-0.0850595161318779,-0.0785664170980453
154,-0.238233402371407,0.0372285880148411,-0.0574766956269741,-0.0729235932230949,-0.0899751037359238,-0.0749851614236832
155,-0.238070860505104,0.0476813763380051,-0.0564973093569279,-0.0676318630576134,-0.0858711674809456,-0.0637979432940483
156,-0.230925127863884,0.0630716606974602,-0.0508745685219765,-0.0585031136870384,-0.0739635452628136,-0.0510852746665478
157,-0.225561514496803,0.075131744146347,-0.0478511340916157,-0.051492664963007,-0.0643014535307884,-0.0464511513710022
158,-0.226766869425774,0.0780835598707199,-0.0522148683667183,-0.05219766497612,-0.0642297193408012,-0.0547648780047894
159,-0.23323817551136,0.0732638537883759,-0.0613170154392719,-0.0602386854588985,-0.0704032778739929,-0.0726736709475517
160,-0.239830389618874,0.0686511322855949,-0.0667639747262001,-0.0674113854765892,-0.0725314021110535,-0.0900263488292694
161,-0.244178101420403,0.0705160647630692,-0.0643289387226105,-0.0679680034518242,-0.0664446502923965,-0.0999755933880806
162,-0.245816260576248,0.0789204239845276,-0.0545872747898102,-0.0622902289032936,-0.0552133433520794,-0.101527087390423
163,-0.245074331760406,0.0894073396921158,-0.0414219312369823,-0.0542288795113564,-0.0441708862781525,-0.0973501726984978
164,-0.245909944176674,0.0958874449133873,-0.0328823924064636,-0.0494003556668758,-0.0399147793650627,-0.0930560827255249
165,-0.250372171401978,0.097276397049427,-0.0326214320957661,-0.0493732318282127,-0.0448467060923576,-0.0901495590806007
166,-0.254553020000458,0.0990117639303207,-0.0351465791463852,-0.0491995885968208,-0.0525052174925804,-0.0829342901706696
167,-0.254451185464859,0.104653924703598,-0.0332213826477528,-0.0439178310334682,-0.0542750991880894,-0.0669392421841621
168,-0.25011333823204,0.110963672399521,-0.0264351759105921,-0.0348999686539173,-0.0502610169351101,-0.046347226947546
169,-0.244274824857712,0.113087087869644,-0.0192049089819193,-0.0264293402433395,-0.046268992125988,-0.030025839805603
170,-0.240129545331001,0.111066728830338,-0.0130860060453415,-0.0193946734070778,-0.0437548942863941,-0.022561103105545
171,-0.237348407506943,0.11006261408329,-0.005697269923985,-0.0106881260871887,-0.0387331359088421,-0.0198619663715363
172,-0.232757210731506,0.113199703395367,0.00268956692889333,0.000309146096697077,-0.0302721988409758,-0.0156188309192657
173,-0.224454298615456,0.118378907442093,0.00825607869774103,0.00964177865535021,-0.0230735279619694,-0.00815118290483952
174,-0.213543921709061,0.122434332966805,0.00964729115366936,0.0151061732321978,-0.019765043631196,0.00107817503158003
175,-0.204869985580444,0.122449241578579,0.00762713048607111,0.0162972006946802,-0.0198833215981722,0.00734411552548409
176,-0.203928157687187,0.116325303912163,0.0023237238638103,0.0123011525720358,-0.0226470734924078,0.00495213689282537
177,-0.210327118635178,0.106409430503845,-0.0026531748007983,0.00628766044974327,-0.024204621091485,-0.00280042132362723
178,-0.217080041766167,0.0983854681253433,-2.83462559309555E-05,0.00521645462140441,-0.0190326645970345,-0.00508001958951354
179,-0.219131499528885,0.0955321863293648,0.0117504587396979,0.0111195910722017,-0.00692163687199354,0.0011081068078056
180,-0.217731162905693,0.096027746796608,0.0251999665051699,0.0183141697198153,0.00566430669277906,0.00752978539094329
181,-0.214396253228188,0.0959183052182198,0.0338427647948265,0.023090448230505,0.0138810472562909,0.00861068535596132
182,-0.208863854408264,0.093382902443409,0.0378864258527756,0.0274743232876062,0.0182485319674015,0.0067705363035202
183,-0.201283991336823,0.0907842218875885,0.0402632877230644,0.033894244581461,0.0220145210623741,0.00608353549614549
184,-0.192257761955261,0.0914146676659584,0.0429034344851971,0.0425103977322578,0.0287844017148018,0.00806521903723478
185,-0.184815734624863,0.092745766043663,0.0424883663654327,0.0478866025805473,0.0354852229356766,0.00877176504582167
186,-0.181280195713043,0.0905920341610909,0.0367265120148659,0.0464219897985458,0.0366049595177174,0.00625692494213581
187,-0.179431527853012,0.0858897492289543,0.0313921049237251,0.0430130735039711,0.033885233104229,0.00577627029269934
188,-0.177993357181549,0.0806789100170136,0.030655600130558,0.0406517796218395,0.0304439831525087,0.0091610150411725
189,-0.178876727819443,0.0752424821257591,0.0322316139936447,0.037697646766901,0.0260860994458199,0.0128887705504894
190,-0.181744754314423,0.0699201077222824,0.0348922125995159,0.0342559367418289,0.0222550109028816,0.0153722809627652
191,-0.18293984234333,0.065658800303936,0.0406360626220703,0.0319227948784828,0.022678604349494,0.0170104093849659
192,-0.180209398269653,0.0635551735758781,0.0498628690838814,0.0319832228124142,0.0280700735747814,0.0183687638491392
193,-0.175056517124176,0.0629155486822128,0.0581251233816147,0.0341683067381382,0.0343643352389336,0.0193395465612412
194,-0.170005902647972,0.0611913837492466,0.0596535801887512,0.0366291403770447,0.0378668159246445,0.0187531802803278
195,-0.16781222820282,0.0565252676606178,0.053344190120697,0.0377764217555523,0.0394967719912529,0.0161708556115627
196,-0.172762766480446,0.0494189523160458,0.0427610985934734,0.036718375980854,0.0425531342625618,0.0129589522257447
197,-0.187603563070297,0.0424795970320702,0.0327974297106266,0.0334560908377171,0.0485336892306805,0.00977437384426594
198,-0.211877420544624,0.0377840213477612,0.0261891763657331,0.0285521317273378,0.0556613989174366,0.00507279997691512
199,-0.241611242294312,0.0374401099979877,0.0242173802107573,0.0245016533881426,0.0625078901648521,0.00130786141380668
200,-0.271026611328125,0.0431814901530743,0.0272189471870661,0.0244601853191853,0.0686693638563156,0.00557988509535789
201,-0.296858489513397,0.0523679368197918,0.0317754782736301,0.0286446828395128,0.0717765763401985,0.0204604305326939
202,-0.318873345851898,0.0590522773563862,0.0328226238489151,0.0345030017197132,0.0692834630608559,0.0390107408165932
203,-0.337479382753372,0.060450118035078,0.030488969758153,0.0403589121997356,0.0626001581549644,0.0519363321363926
204,-0.350682884454727,0.060139749199152,0.0311900600790977,0.0481321103870869,0.0566776879131794,0.057054977864027
205,-0.358268797397614,0.0610645525157452,0.0372677892446518,0.0562154464423656,0.0520392507314682,0.0552142225205898
206,-0.364827066659927,0.0633103549480438,0.0450735725462437,0.0596357360482216,0.0464940331876278,0.0495995245873928
207,-0.373878121376038,0.0680409222841263,0.0525916144251823,0.0596392937004566,0.0434907227754593,0.0473526045680046
208,-0.387804687023163,0.0717963501811028,0.0573513358831406,0.0578447282314301,0.044325016438961,0.0485098995268345
209,-0.408918380737305,0.0682207643985748,0.055408239364624,0.0507736727595329,0.0432999804615974,0.0462986044585705
210,-0.433666169643402,0.0599130317568779,0.0484871342778206,0.0390618592500687,0.0388629697263241,0.0396545305848122
211,-0.454269349575043,0.0553717538714409,0.0426862947642803,0.0278367232531309,0.0351588241755962,0.0321948006749153
212,-0.466136008501053,0.059680700302124,0.0419162511825562,0.02110480889678,0.0358191877603531,0.0274765193462372
213,-0.470243990421295,0.0699506402015686,0.0450241044163704,0.0208678971976042,0.0420009195804596,0.0277223605662584
214,-0.471947938203812,0.0760725066065788,0.0451067872345448,0.0227596443146467,0.0499077849090099,0.0274377260357141
215,-0.474352955818176,0.0727503225207329,0.0375824794173241,0.0206115730106831,0.0557077005505562,0.0202402379363775
216,-0.475902438163757,0.0640748366713524,0.0252538099884987,0.0155489929020405,0.0590128190815449,0.00993152800947428
217,-0.47568678855896,0.0548555813729763,0.0128689436241984,0.0119766406714916,0.0580462291836739,0.00285065453499556
218,-0.473636835813522,0.0480747148394585,0.00474521610885859,0.0122945522889495,0.0522558018565178,0.00132555968593806
219,-0.470517188310623,0.0447044894099236,0.00199831160716712,0.0154237616807222,0.0442334786057472,0.00411032419651747
220,-0.470465332269669,0.0407576747238636,-0.000708018022123724,0.0157265551388264,0.0354465693235397,0.00526863662526011
221,-0.476706653833389,0.0324118845164776,-0.00808652769774199,0.00929220579564571,0.026713453233242,0.000132003449834883
222,-0.485532999038696,0.0219404250383377,-0.0169659461826086,0.000147173559525982,0.018549932166934,-0.00833542738109827
223,-0.490299433469772,0.014031377620995,-0.0210215393453836,-0.00576862366870046,0.010649660602212,-0.0139663089066744
224,-0.48902490735054,0.011642400175333,-0.016917223110795,-0.00623047351837158,0.00489021558314562,-0.0123154707252979
225,-0.484889060258865,0.0143464310094714,-0.00638824701309204,-0.00176463276147842,0.00385806546546519,-0.00383053836412728
226,-0.482624560594559,0.0171931143850088,0.0029458049684763,0.00314108328893781,0.00532902451232076,0.00422810949385166
227,-0.483694463968277,0.0154424281790853,0.00438602128997445,0.00362593797035515,0.00472567742690444,0.00556002883240581
228,-0.484495341777802,0.0099914250895381,-0.00102463958319277,0.00139908632263541,0.0019430136308074,0.00195684749633074
229,-0.482676178216934,0.00343507109209895,-0.00952738150954247,0.000356179109076038,-0.00219674920663238,-0.00202127289958298
230,-0.481730431318283,-0.00466434005647898,-0.0192308891564608,0.000236316933296621,-0.011156864464283,-0.00585840409621596
231,-0.484316349029541,-0.0133118890225887,-0.0254476852715015,0.00175776681862772,-0.0251137670129538,-0.00873540062457323
232,-0.485900819301605,-0.0179584808647633,-0.0215804688632488,0.00884120911359787,-0.0360787473618984,-0.00492643844336271
233,-0.481998056173325,-0.0180285945534706,-0.0105910990387201,0.0189086776226759,-0.0388716757297516,0.0063177552074194
234,-0.474050641059875,-0.0166565105319023,-0.00238741817884147,0.0241473652422428,-0.036260686814785,0.0164442770183086
235,-0.466167867183685,-0.0171005800366402,-0.0019191806204617,0.0213660523295403,-0.0327717214822769,0.0165685340762138
236,-0.461880564689636,-0.0236397329717875,-0.00873786304146051,0.011692768894136,-0.0310645774006844,0.00425930414348841
237,-0.459210366010666,-0.0337906815111637,-0.0160108748823404,0.00121889670845121,-0.0274444669485092,-0.0122850993648171
238,-0.454528391361237,-0.0405817441642284,-0.0164018645882607,-0.00322653143666685,-0.0175554603338242,-0.0235631503164768
239,-0.449879229068756,-0.0439228639006615,-0.0123299844563007,-0.00296165631152689,-0.00579617312178016,-0.0300474539399147
240,-0.44801327586174,-0.0473279431462288,-0.0109959170222282,-0.0041256844997406,0.00095523230265826,-0.0360854491591454
241,-0.449792265892029,-0.0533648990094662,-0.0184037107974291,-0.0119309537112713,-0.000665284052956849,-0.0449408739805222
242,-0.456473976373672,-0.0633194744586945,-0.0366269946098328,-0.0276876054704189,-0.0101127941161394,-0.0585670918226242
243,-0.465039670467377,-0.0720374882221222,-0.0570450983941555,-0.0447570718824863,-0.0204988177865744,-0.0722660347819328
244,-0.470355868339539,-0.0723444372415543,-0.0677554532885551,-0.0546618290245533,-0.0256596431136131,-0.0784573927521706
245,-0.473141580820084,-0.0649193003773689,-0.0676243901252747,-0.0560897924005985,-0.0284609403461218,-0.0760927200317383
246,-0.476659327745438,-0.0550522729754448,-0.0624735169112682,-0.0530162714421749,-0.03331633284688,-0.0688583180308342
247,-0.480567365884781,-0.046163585036993,-0.0561140775680542,-0.0490749701857567,-0.0369951538741589,-0.0598500892519951
248,-0.480954200029373,-0.0379966869950294,-0.0497675575315952,-0.0446380339562893,-0.0333803743124008,-0.0506710037589073
249,-0.474950104951859,-0.0282909572124481,-0.0444045513868332,-0.0389274470508099,-0.0221592895686626,-0.042692668735981
250,-0.462824910879135,-0.0159217398613691,-0.0395301431417465,-0.0310242883861065,-0.00699390238150954,-0.0352088287472725
251,-0.447649359703064,-0.00345859280787408,-0.0349239781498909,-0.0214215908199549,0.00598940858617425,-0.027092793956399
252,-0.432592928409576,0.00642059929668903,-0.0321946851909161,-0.0127011695876718,0.0113781923428178,-0.0185436513274908
253,-0.418627142906189,0.0145458877086639,-0.0314331762492657,-0.00638647051528096,0.00985419191420078,-0.00901385769248009
254,-0.407445937395096,0.0200360454618931,-0.0320307537913322,-0.0041214763186872,0.00331319635733962,-0.000930504815187305
255,-0.401172548532486,0.0203620828688145,-0.0356585308909416,-0.00874071009457111,-0.0098683787509799,-9.91788419923978E-06
256,-0.398304671049118,0.0183115694671869,-0.0442192740738392,-0.0203653257340193,-0.031190412119031,-0.00784383621066809
257,-0.393808573484421,0.017903121188283,-0.0554790049791336,-0.0341297499835491,-0.0557606145739555,-0.019956212490797
258,-0.384970843791962,0.0169006381183863,-0.0647386312484741,-0.044718723744154,-0.0743653923273087,-0.0311098918318748
259,-0.373637497425079,0.0139749748632312,-0.0681359991431236,-0.0492953583598137,-0.081175796687603,-0.0374680049717426
260,-0.363598942756653,0.0121865216642618,-0.0645731389522552,-0.0473717786371708,-0.0770303905010223,-0.0380413755774498
261,-0.359746485948563,0.0102171758189797,-0.0591804087162018,-0.043252307921648,-0.0685327500104904,-0.037864625453949
262,-0.36224889755249,0.00589631637558341,-0.0565527640283108,-0.0396991297602654,-0.0605825930833817,-0.0393900722265244
263,-0.364526659250259,0.00328768230974674,-0.0540018379688263,-0.0329660326242447,-0.0526107884943485,-0.0359064377844334
264,-0.364040166139603,0.00406044069677591,-0.0510016903281212,-0.0240118205547333,-0.047089833766222,-0.0256697442382574
265,-0.363341450691223,0.005418895278126,-0.0510223582386971,-0.0195692889392376,-0.0484090521931648,-0.0158862341195345
266,-0.362655431032181,0.00734609086066484,-0.0530431866645813,-0.0215126387774944,-0.0528079643845558,-0.0105062387883663
267,-0.361045300960541,0.00981132406741381,-0.0539967939257622,-0.0276034399867058,-0.0525856390595436,-0.0107948174700141
268,-0.358050376176834,0.0106680132448673,-0.054380226880312,-0.0356871597468853,-0.0462209396064281,-0.0181319434195757
269,-0.351453930139542,0.0100384885445237,-0.0557381771504879,-0.0433348380029202,-0.038131158798933,-0.0297908373177052
270,-0.340525358915329,0.00818144716322422,-0.0591143444180489,-0.0502013005316257,-0.0337770953774452,-0.0423456281423569
271,-0.330531358718872,0.00243488838896155,-0.0658034831285477,-0.0589338019490242,-0.0371544361114502,-0.0553366877138615
272,-0.326204627752304,-0.00758027564734221,-0.0737413391470909,-0.069135807454586,-0.0470785051584244,-0.0664282515645027
273,-0.32397934794426,-0.016497191041708,-0.0772041454911232,-0.0743747353553772,-0.0560425966978073,-0.0689920261502266
274,-0.319745004177094,-0.0215690284967422,-0.0770603865385056,-0.0721241384744644,-0.0613553114235401,-0.0627852231264114
275,-0.315271556377411,-0.026246827095747,-0.0809377878904343,-0.0684547275304794,-0.0676765516400337,-0.0581860840320587
276,-0.310511320829391,-0.0311405956745148,-0.0891688987612724,-0.0671856924891472,-0.0747025609016418,-0.0609378665685654
277,-0.304112911224365,-0.0348575264215469,-0.0975488647818565,-0.0681408196687698,-0.0809487253427505,-0.0686334222555161
278,-0.297803074121475,-0.038031879812479,-0.104690171778202,-0.0710884109139442,-0.088885635137558,-0.0778929367661476
279,-0.291223049163818,-0.0394736081361771,-0.107503786683083,-0.0731398984789848,-0.0952578857541084,-0.0839470699429512
280,-0.281623661518097,-0.0377022884786129,-0.103388570249081,-0.0710633546113968,-0.0928584039211273,-0.082848496735096
281,-0.268993884325027,-0.0341296717524529,-0.0948211923241615,-0.0651833638548851,-0.082401879131794,-0.0753639414906502
282,-0.256640732288361,-0.0309668835252523,-0.086677074432373,-0.0579875074326992,-0.0727822408080101,-0.0662728846073151
283,-0.246543928980827,-0.0281515400856733,-0.0806513577699661,-0.0505157522857189,-0.0696576088666916,-0.0587591230869293
284,-0.236556529998779,-0.0232609231024981,-0.0735722482204437,-0.0415237843990326,-0.0701101869344711,-0.0512149818241596
285,-0.224929451942444,-0.0159735716879368,-0.0635225102305412,-0.0311403870582581,-0.0697476044297218,-0.0429830141365528
286,-0.214679762721062,-0.0108784977346659,-0.0549196861684322,-0.0235391594469547,-0.069357231259346,-0.0377277843654156
287,-0.209773555397987,-0.0126932077109814,-0.0535881705582142,-0.0237131007015705,-0.0719973966479301,-0.0383944474160671
288,-0.207534447312355,-0.0195272918790579,-0.0581312589347363,-0.0301007013767958,-0.0748174116015434,-0.041843868792057
289,-0.202425360679626,-0.0263227745890617,-0.0631660521030426,-0.0365386493504047,-0.0729303732514381,-0.0427231751382351
290,-0.193790197372437,-0.031107084825635,-0.0663691014051437,-0.0395363979041576,-0.0680289417505264,-0.0392638891935349
291,-0.183586686849594,-0.0342000462114811,-0.0674125105142593,-0.0386858358979225,-0.0638740733265877,-0.0326839834451675
292,-0.174155071377754,-0.0363407768309116,-0.06789880245924,-0.0362791158258915,-0.0625326335430145,-0.0268834885209799
293,-0.166619598865509,-0.0371693447232246,-0.0684724077582359,-0.0340672917664051,-0.0638319626450539,-0.0255214106291533
294,-0.160491943359375,-0.039032619446516,-0.0681444928050041,-0.0326490364968777,-0.0655562281608582,-0.029449388384819
295,-0.155705243349075,-0.0470474921166897,-0.0683903396129608,-0.0346540473401546,-0.0658767446875572,-0.0381627529859543
296,-0.150428503751755,-0.0601480901241302,-0.0693069696426392,-0.0398578941822052,-0.0621673725545406,-0.0484767220914364
297,-0.141692087054253,-0.0734753012657166,-0.0701292529702187,-0.0447956584393978,-0.0546585507690907,-0.0572002902626991
298,-0.128121241927147,-0.0846980959177017,-0.0717014670372009,-0.0471831038594246,-0.0472770109772682,-0.0636832043528557
299,-0.109766773879528,-0.0915098488330841,-0.0718532428145409,-0.0451141931116581,-0.0407064147293568,-0.0658568888902664
300,-0.0910850614309311,-0.0939208641648293,-0.0697082504630089,-0.0403442196547985,-0.0363540276885033,-0.0631024911999702
301,-0.0792695805430412,-0.0965571999549866,-0.0696969851851463,-0.039385374635458,-0.0389933176338673,-0.0591892786324024
302,-0.075680747628212,-0.102402031421661,-0.0739380195736885,-0.0463690049946308,-0.0488319955766201,-0.0578423552215099
303,-0.073291189968586,-0.106513880193233,-0.0760138481855392,-0.0558909028768539,-0.0576370097696781,-0.0567622557282448
304,-0.0650296360254288,-0.10131724178791,-0.0683615058660507,-0.0572210252285004,-0.0551958829164505,-0.0492494963109493
305,-0.0530116856098175,-0.0893414914608002,-0.0557169392704964,-0.0490348339080811,-0.0436470955610275,-0.0364782325923443
306,-0.0427687615156174,-0.0796005427837372,-0.0490669384598732,-0.0390455685555935,-0.0359011702239513,-0.0272603947669268
307,-0.0341037772595882,-0.075867734849453,-0.0514880791306496,-0.0317848660051823,-0.0384680442512035,-0.0255724824965
308,-0.0244656149297953,-0.0781424194574356,-0.0602178908884525,-0.0287995040416718,-0.0482496507465839,-0.0296423099935055
309,-0.0131943775340915,-0.085355319082737,-0.0708824247121811,-0.0307441428303719,-0.0593429543077946,-0.0364420525729656
310,-0.00126581953372806,-0.0934527367353439,-0.0777312219142914,-0.0342512130737305,-0.0667077973484993,-0.041710190474987
311,0.00925842858850956,-0.0980327650904655,-0.0782099291682243,-0.0350910052657127,-0.0687316581606865,-0.0421318709850311
312,0.0177195705473423,-0.0971215516328812,-0.0729672759771347,-0.0319753251969814,-0.0657835751771927,-0.0368319973349571
313,0.0254379622638226,-0.0910098478198051,-0.0629696100950241,-0.0264709405601025,-0.0578870959579945,-0.0275436732918024
314,0.0337942503392696,-0.0816709250211716,-0.0509277246892452,-0.0215446967631578,-0.0460842847824097,-0.018605712801218
315,0.0433588288724422,-0.0719023048877716,-0.0408596806228161,-0.0186344143003225,-0.0333488285541534,-0.0120437862351537
316,0.0521330758929253,-0.0651328191161156,-0.0366608463227749,-0.0182765927165747,-0.0246910955756903,-0.00764571875333786
317,0.0574217587709427,-0.0621573030948639,-0.0386406555771828,-0.0202815718948841,-0.0226644240319729,-0.00656687282025814
318,0.0617278255522251,-0.0589454360306263,-0.038742370903492,-0.0200853291898966,-0.0213223844766617,-0.0064672427251935
319,0.0689723938703537,-0.0533622726798058,-0.0312309972941875,-0.0149862207472324,-0.0158210080116987,-0.00374838127754629
320,0.0784914791584015,-0.0473779365420341,-0.0234465431421995,-0.0105195539072156,-0.0112338112667203,-0.000577382743358612
321,0.0896377339959145,-0.0402886793017387,-0.0218647290021181,-0.00939558818936348,-0.0104385493323207,0.00182368920650333
322,0.101187691092491,-0.0324504114687443,-0.0243174638599157,-0.00902167335152626,-0.0102282864972949,0.00406061438843608
323,0.110396817326546,-0.0275544300675392,-0.0257816258817911,-0.00886399205774069,-0.00827344786375761,0.00507388124242425
324,0.118515208363533,-0.0243037845939398,-0.0213223230093718,-0.0075673027895391,-0.00316813681274652,0.00745435152202845
325,0.127644702792168,-0.0194306187331676,-0.0145567441359162,-0.00554400542750955,0.00110253097955137,0.0123140551149845
326,0.138838812708855,-0.0122046349570155,-0.012064534239471,-0.00400657439604402,-0.00124778284225613,0.0180134121328592
327,0.15141424536705,-0.00499366642907262,-0.0133198518306017,-0.000153985340148211,-0.0097170015797019,0.0257438737899065
328,0.15871849656105,-0.0059834523126483,-0.0199211593717337,0.00330644752830267,-0.0243042465299368,0.0318985767662525
329,0.156454980373383,-0.0185090191662312,-0.0326402299106121,0.0002586901828181,-0.0438436530530453,0.0307888127863407
330,0.15117846429348,-0.0325965285301209,-0.0426708459854126,-0.00650052260607481,-0.0592398792505264,0.0249846577644348
331,0.150663256645203,-0.0382913760840893,-0.0436565838754177,-0.0111321480944753,-0.0624962374567986,0.0180290564894676
332,0.154933482408524,-0.0353713594377041,-0.0383342765271664,-0.0127700390294194,-0.0539295710623264,0.00943298730999231
333,0.160801947116852,-0.0286021456122398,-0.0313495360314846,-0.0127547169104218,-0.039043914526701,1.98693232960068E-05
334,0.16663584113121,-0.0233056582510471,-0.0260738600045443,-0.0123854828998446,-0.0245576407760382,-0.00834795739501715
335,0.173655077815056,-0.0213472247123718,-0.022233072668314,-0.0109320394694805,-0.0134735582396388,-0.012864044867456
336,0.184683918952942,-0.0199542846530676,-0.0163348391652107,-0.00578399794176221,-0.004308114759624,-0.00980422738939524
337,0.19861826300621,-0.0174924768507481,-0.00813112687319517,0.00269935606047511,0.00319890980608761,-0.000102151927421801
338,0.210616990923882,-0.0146302692592144,-0.000541399524081498,0.0115520926192403,0.00759989907965064,0.0113986665382981
339,0.218644872307777,-0.0107295913621783,0.00598144624382257,0.0200888067483902,0.0100980438292027,0.0224900674074888
340,0.222322657704353,-0.00752081396058202,0.0112841231748462,0.0266862642019987,0.0113818356767297,0.0304571073502302
341,0.219699293375015,-0.00968544278293848,0.0123628359287977,0.0259554721415043,0.00879082269966602,0.0306462198495865
342,0.212294593453407,-0.0165036544203758,0.00888066552579403,0.0179166570305824,0.00271214940585196,0.0246938988566399
343,0.20497065782547,-0.0233772695064545,0.00430925702676177,0.00872107874602079,-0.00324602425098419,0.0174979083240032
344,0.200126424431801,-0.0279150195419788,0.00199008756317198,0.00218260032124817,-0.00673249969258904,0.0118062375113368
345,0.197455942630768,-0.0292487144470215,0.00349773513153195,-0.000769549631513655,-0.00629784120246768,0.00903420709073544
346,0.196817934513092,-0.0263336263597012,0.00857894215732813,0.000863761815708131,-0.00179750728420913,0.0103230765089393
347,0.19995029270649,-0.0185260605067015,0.0150874042883515,0.0078104636631906,0.00373032735660672,0.018416678532958
348,0.206122681498528,-0.0107374880462885,0.0169230587780476,0.0151091702282429,0.00352195417508483,0.0291050374507904
349,0.211394399404526,-0.0100975232198834,0.0103545002639294,0.0159432590007782,-0.0056252577342093,0.0316901057958603
350,0.215439766645432,-0.014545208774507,0.00221684947609901,0.0131168942898512,-0.0159295219928026,0.0266158785670996
351,0.219489902257919,-0.0169037058949471,0.000741721771191806,0.0135410269722342,-0.0183739401400089,0.0223499853163958
352,0.221057876944542,-0.0161295793950558,0.00403813878074288,0.0163693875074387,-0.0142129985615611,0.0197665076702833
353,0.218495801091194,-0.0150341251865029,0.00606435211375356,0.0172639191150665,-0.00816477835178375,0.0151828490197659
354,0.214738681912422,-0.0139613142237067,0.0053069218993187,0.0160463117063046,-0.00126374384853989,0.00884460937231779
355,0.210807576775551,-0.0138285988941789,0.00164945307187736,0.0128553351387382,0.00303347059525549,0.00222871615551412
356,0.203547924757004,-0.0181057304143906,-0.00586465606465936,0.00520069897174835,-0.00147874583490193,-0.00605389988049865
357,0.193391516804695,-0.0236748941242695,-0.0132089434191585,-0.00416035763919353,-0.0128908166661859,-0.0137684689834714
358,0.186792150139809,-0.0205790065228939,-0.0118666309863329,-0.00536585273221135,-0.0204212535172701,-0.0121911922469735
359,0.189093962311745,-0.00794086884707212,0.000117447016236838,0.00529062002897263,-0.0182780269533396,0.00145093956962228
360,0.198439791798592,0.00351187121123075,0.0139255104586482,0.0193090569227934,-0.011895352974534,0.0182182732969522
361,0.209235087037086,0.00649866089224815,0.0213252026587725,0.0279833879321814,-0.00711819110438228,0.0302306562662125
362,0.218555226922035,0.00296332384459674,0.0236005485057831,0.0312627553939819,-0.00286343903280795,0.0376941710710526
363,0.225912094116211,-0.00273267482407391,0.0258773434907198,0.0325006321072578,0.00364498305134475,0.0414998047053814
364,0.230309575796127,-0.0079566827043891,0.0300324503332376,0.0332746244966984,0.0138158546760678,0.0409534648060799
365,0.231962978839874,-0.0106965471059084,0.0354410111904144,0.0342779420316219,0.0283568128943443,0.0372857935726643
366,0.231943726539612,-0.0112192491069436,0.0405349843204021,0.0334375128149986,0.0422918349504471,0.031341690570116
367,0.230494394898415,-0.0122166769579053,0.0451428554952145,0.0283286776393652,0.0471759997308254,0.0232209172099829
368,0.229590564966202,-0.0142006650567055,0.0507013946771622,0.022580049932003,0.0418292619287968,0.0162437967956066
369,0.231387332081795,-0.0150121413171291,0.0546686388552189,0.0204321965575218,0.0309904851019382,0.0134774809703231
370,0.236177071928978,-0.0120397219434381,0.0529702715575695,0.0213163457810879,0.0183987095952034,0.0147265233099461
371,0.242861777544022,-0.00526331551373005,0.0449060574173927,0.0223303027451038,0.00535387825220823,0.0188056472688913
372,0.251259952783585,0.00315718748606741,0.0337503701448441,0.0222725924104452,-0.00569063611328602,0.0246132966130972
373,0.262514352798462,0.0117005398496985,0.0261385962367058,0.0231533031910658,-0.0105274459347129,0.0306928660720587
374,0.274580866098404,0.0181649327278137,0.0259526912122965,0.0261899884790182,-0.00854480266571045,0.0340921990573406
375,0.284103661775589,0.021536760032177,0.0313069745898247,0.0305002331733704,-0.00295874732546508,0.0333109796047211
376,0.290980637073517,0.0243124086409807,0.0393198952078819,0.0357201918959618,0.00440545845776796,0.0310304760932922
377,0.296454399824142,0.0286903623491526,0.0486443489789963,0.0419522561132908,0.0138325085863471,0.0301176533102989
378,0.301442176103592,0.0357579067349434,0.0597123764455318,0.0505570843815804,0.0258544273674488,0.0326463356614113
379,0.306671053171158,0.0453959628939629,0.0733619555830956,0.0626063421368599,0.0406333319842815,0.040617547929287
380,0.310082614421844,0.0531714260578156,0.0862818956375122,0.0736827626824379,0.055659681558609,0.0519655458629131
381,0.308535158634186,0.0554418936371803,0.0940756425261498,0.079264797270298,0.0680068284273148,0.0628554448485374
382,0.302207291126251,0.052595853805542,0.0944917351007462,0.0794938802719116,0.0748240947723389,0.0702930465340614
383,0.294009208679199,0.0447945483028889,0.0868128016591072,0.0752660557627678,0.0718470364809036,0.0719401091337204
384,0.28854313492775,0.0353985987603664,0.077428437769413,0.0700992792844772,0.0609640665352345,0.0727043077349663
385,0.290016412734985,0.0328075662255287,0.0781494528055191,0.0708873197436333,0.0536445714533329,0.0818287506699562
386,0.297187745571136,0.0401388928294182,0.0907415151596069,0.079568050801754,0.057379849255085,0.0983625650405884
387,0.305595606565475,0.0527378059923649,0.104881584644318,0.0913264006376266,0.0669369325041771,0.113159261643887
388,0.313868522644043,0.0664511471986771,0.113700784742832,0.101781070232391,0.0754241943359375,0.120960235595703
389,0.323726058006287,0.0806333497166634,0.12151013314724,0.111670479178429,0.0850789621472359,0.124143719673157
390,0.335949897766113,0.0944652631878853,0.135705024003983,0.124286353588104,0.101048372685909,0.129083022475243
391,0.347689241170883,0.105780683457851,0.154732555150986,0.138650432229042,0.120064347982407,0.138591885566711
392,0.35680827498436,0.116048388183117,0.172317132353783,0.15163466334343,0.1362264752388,0.152206182479858
393,0.36347109079361,0.12815260887146,0.185865640640259,0.16203761100769,0.148771747946739,0.167175754904747
394,0.36735138297081,0.14172275364399,0.194768607616425,0.169530868530273,0.159220680594444,0.178195104002953
395,0.368974596261978,0.154165834188461,0.1987664103508,0.173908114433289,0.16826231777668,0.183090880513191
396,0.371173083782196,0.163505345582962,0.198949843645096,0.176451146602631,0.174748376011848,0.184996917843819
397,0.377192318439484,0.171681687235832,0.198608130216599,0.181395769119263,0.177018418908119,0.189250960946083
398,0.386117726564407,0.180891707539558,0.199148908257484,0.189971387386322,0.173550590872765,0.197729989886284
399,0.395654112100601,0.191516190767288,0.200951397418976,0.200695216655731,0.167762756347656,0.209503710269928
400,0.405668765306473,0.203020215034485,0.206259906291962,0.213516876101494,0.16716992855072,0.22311332821846
401,0.414323091506958,0.213147059082985,0.21460634469986,0.225468039512634,0.173734501004219,0.234136626124382
402,0.419652730226517,0.22144179046154,0.222831845283508,0.231590524315834,0.184995621442795,0.239372327923775
403,0.422521084547043,0.229109272360802,0.228900462388992,0.230723157525063,0.198816582560539,0.240482673048973
404,0.423067390918732,0.235920429229736,0.232790619134903,0.226368889212608,0.210947766900063,0.240410998463631
405,0.418861389160156,0.240792587399483,0.233974203467369,0.221281737089157,0.214730352163315,0.238957032561302
406,0.409506440162659,0.242110773921013,0.230337277054787,0.214159354567528,0.208478286862373,0.233066156506538
407,0.400187641382217,0.239572748541832,0.222298473119736,0.205056264996529,0.198990255594254,0.224097311496735
408,0.396270632743835,0.237056195735931,0.214874401688576,0.198249340057373,0.194643691182137,0.220523878931999
409,0.396485239267349,0.236481785774231,0.211933448910713,0.194784000515938,0.198224946856499,0.22508393228054
410,0.398153990507126,0.235412776470184,0.213782593607903,0.192492514848709,0.207422330975533,0.230297058820724
411,0.400564670562744,0.233712837100029,0.218395933508873,0.191918656229973,0.216792598366737,0.229873105883598
412,0.399809926748276,0.230882078409195,0.219132885336876,0.191687598824501,0.217684328556061,0.220904484391212
413,0.393429607152939,0.224273338913918,0.21188086271286,0.188297897577286,0.204879507422447,0.204134657979012
414,0.385808974504471,0.215672180056572,0.202006801962852,0.183107957243919,0.183702915906906,0.187700495123863
415,0.381636530160904,0.213056489825249,0.195911228656769,0.180375650525093,0.16489864885807,0.180229052901268
416,0.379498779773712,0.220353454351425,0.192297548055649,0.179868951439857,0.153138518333435,0.180842459201813
417,0.375969111919403,0.229896977543831,0.186412587761879,0.178131446242332,0.146595075726509,0.182657808065414
418,0.37227463722229,0.233988240361214,0.17960262298584,0.175800278782845,0.146230086684227,0.183033376932144
419,0.371806532144547,0.232960030436516,0.176795989274979,0.176125794649124,0.152697190642357,0.183580905199051
420,0.374691873788834,0.229533448815346,0.178593352437019,0.178722828626633,0.160246312618256,0.184437304735184
421,0.377765744924545,0.225124537944794,0.182803109288216,0.180110067129135,0.164560526609421,0.183611616492271
422,0.378407120704651,0.219641849398613,0.187514379620552,0.177490040659904,0.166563734412193,0.179614990949631
423,0.376155465841293,0.212954878807068,0.189284458756447,0.16988031566143,0.165757864713669,0.171955779194832
424,0.370393216609955,0.206122100353241,0.18372406065464,0.157862275838852,0.159416347742081,0.160663560032845
425,0.360820055007935,0.200254112482071,0.170635148882866,0.144549310207367,0.148045554757118,0.147685140371323
426,0.350490093231201,0.197289496660233,0.156449183821678,0.135859504342079,0.137632206082344,0.13757036626339
427,0.343148797750473,0.199434861540794,0.148609280586243,0.135229051113129,0.134480148553848,0.133875519037247
428,0.336951613426209,0.202895611524582,0.146053150296211,0.137537747621536,0.136251464486122,0.134065762162209
429,0.327051043510437,0.200121566653252,0.141588360071182,0.135118469595909,0.134711474180222,0.134005725383759
430,0.315173357725143,0.191530674695969,0.134216278791428,0.128811433911324,0.127727836370468,0.136362448334694
431,0.309133410453796,0.184924274682999,0.130441009998322,0.125720798969269,0.120586700737476,0.144415974617004
432,0.310559719800949,0.182402819395065,0.132730007171631,0.126305460929871,0.115707062184811,0.150977492332459
433,0.311741381883621,0.179648011922836,0.135287404060364,0.123563267290592,0.110865004360676,0.146403059363365
434,0.308254092931747,0.177202433347702,0.134343206882477,0.116975396871567,0.107713669538498,0.133752763271332
435,0.305088937282562,0.180711165070534,0.134362027049065,0.114362917840481,0.111572258174419,0.12407523393631
436,0.306124180555344,0.189473390579224,0.138490661978722,0.117945745587349,0.121934995055199,0.120409689843655
437,0.309492439031601,0.1971804946661,0.144033312797546,0.122993938624859,0.132548823952675,0.118875920772552
438,0.312679022550583,0.202098473906517,0.148025408387184,0.126777246594429,0.138523235917091,0.117847599089146
439,0.311851263046265,0.203285530209541,0.147006824612617,0.127060294151306,0.136847540736198,0.114554136991501
440,0.303549349308014,0.199409246444702,0.140278980135918,0.122472122311592,0.129304707050323,0.106310740113258
441,0.289642781019211,0.194641634821892,0.131906509399414,0.115195289254189,0.121723704040051,0.0951593592762947
442,0.275704830884933,0.191329762339592,0.123786143958569,0.106967009603977,0.115836650133133,0.0831757187843323
443,0.267137438058853,0.187562093138695,0.115836426615715,0.0994881615042686,0.111083567142487,0.0729808732867241
444,0.264684051275253,0.183723121881485,0.108433328568935,0.0937780141830444,0.107460685074329,0.0678327903151512
445,0.264276772737503,0.181072160601616,0.101220689713955,0.0884981974959373,0.103397078812122,0.0678140595555305
446,0.263117343187332,0.179591581225395,0.0940647944808006,0.0832357406616211,0.0967734605073929,0.0714104101061821
447,0.260777562856674,0.179046958684921,0.087711289525032,0.0785368978977203,0.0875610858201981,0.0766693353652954
448,0.256753742694855,0.179368287324905,0.0839996859431267,0.0751616880297661,0.078944206237793,0.081113263964653
449,0.249966502189636,0.179116234183311,0.0842905715107918,0.0727239027619362,0.0731055364012718,0.0808790698647499
450,0.239883273839951,0.176249951124191,0.0875299498438835,0.0693457722663879,0.0690144002437592,0.0732902511954308
451,0.227848380804062,0.17131233215332,0.0920293852686882,0.0656624734401703,0.066735602915287,0.0617920681834221
452,0.217035204172134,0.167461082339287,0.0973770692944527,0.0654559507966042,0.0684438124299049,0.0542902275919914
453,0.210112974047661,0.166651949286461,0.10084543377161,0.0691911205649376,0.0720240548253059,0.0542346090078354
454,0.207946106791496,0.168739065527916,0.0983557850122452,0.0728293508291245,0.0721762031316757,0.058430589735508
455,0.211547046899796,0.173639848828316,0.0923684611916542,0.0756242945790291,0.0695403143763542,0.0656352862715721
456,0.218977093696594,0.176958978176117,0.0874904096126556,0.077859953045845,0.0670900046825409,0.0748539343476295
457,0.223326995968819,0.171804040670395,0.0832452327013016,0.0764559581875801,0.0635992139577866,0.081697478890419
458,0.219687268137932,0.159406304359436,0.0802809223532677,0.0715480819344521,0.0588554665446281,0.0846755653619766
459,0.207184374332428,0.145010218024254,0.0800118073821068,0.0649342983961105,0.0532353930175304,0.0825830027461052
460,0.188094303011894,0.130630806088448,0.0797616168856621,0.0564983226358891,0.0451378338038921,0.0729740932583809
461,0.169210448861122,0.119027882814407,0.078138493001461,0.0487166084349155,0.0373703427612782,0.0590738579630852
462,0.154671013355255,0.11144645512104,0.0736941695213318,0.0423772037029266,0.0325592346489429,0.0446256659924984
463,0.143249154090881,0.105687662959099,0.063682533800602,0.0351049788296223,0.0286782123148441,0.0301271863281727
464,0.136032581329346,0.102552153170109,0.0508270934224129,0.0285938307642937,0.0266642067581415,0.0195201206952333
465,0.134781315922737,0.103248484432697,0.0385092869400978,0.024035032838583,0.0269887465983629,0.0151820247992873
466,0.138082519173622,0.105150565505028,0.0256459638476372,0.0189992003142834,0.026017876341939,0.0134828817099333
467,0.144884988665581,0.107507109642029,0.0144120212644339,0.0155089367181063,0.0238265059888363,0.0134691717103124
468,0.153008908033371,0.110522665083408,0.00917212571948767,0.0159066282212734,0.0219345185905695,0.0144371781498194
469,0.157672107219696,0.111911006271839,0.00903807766735554,0.0165436044335365,0.0196718536317348,0.0123796937987208
470,0.156269237399101,0.110804699361324,0.0110807688906789,0.0148987080901861,0.0186800230294466,0.00897623598575592
471,0.147727504372597,0.105068318545818,0.0120193287730217,0.00943040382117033,0.0175300799310207,0.0072977663949132
472,0.135515078902245,0.094218023121357,0.0108859445899725,0.000543280853889883,0.0138583919033408,0.00593794230371714
473,0.131038546562195,0.0874150320887566,0.01274558249861,-0.00446785474196076,0.0137060303241014,0.00598155381157994
474,0.139101803302765,0.089650884270668,0.0193498320877552,-0.00278343283571303,0.0195755939930677,0.00860291067510843
475,0.151906818151474,0.0935647115111351,0.0255395006388426,9.17601355467923E-05,0.0260229799896479,0.0116718141362071
476,0.159914538264275,0.0927451252937317,0.0274571180343628,0.000253613892709836,0.0303987879306078,0.0131253581494093
477,0.160018056631088,0.0878014117479324,0.026750547811389,-0.00217698328197002,0.0309506747871637,0.0120783671736717
478,0.155822470784187,0.0819999724626541,0.026251994073391,-0.00611415505409241,0.023709362372756,0.00930098630487919
479,0.150665789842606,0.077045202255249,0.0245647039264441,-0.0111202877014875,0.00817784015089273,0.00681250216439366
480,0.144800871610641,0.0728133171796799,0.0188946481794119,-0.0156359057873487,-0.0106054050847888,0.00673326710239053
481,0.138730198144913,0.0686922445893288,0.00954009965062141,-0.0173522457480431,-0.0269299913197756,0.00802432093769312
482,0.135113283991814,0.0658748745918274,0.0021870385389775,-0.0139453345909715,-0.0357478745281696,0.00886120740324259
483,0.135246410965919,0.0666501298546791,0.00294767296873033,-0.00484139332547784,-0.0334962643682957,0.0106229279190302
484,0.135960817337036,0.0699087604880333,0.00896205101162195,0.00480839051306248,-0.0227760262787342,0.0131180351600051
485,0.133610397577286,0.0724233537912369,0.0126897851005197,0.00886597484350204,-0.0117910569533706,0.0139230927452445
486,0.128395736217499,0.0732428058981895,0.0125195235013962,0.007329813670367,-0.00691766943782568,0.0128702316433191
487,0.123196236789227,0.0733600407838821,0.0113023314625025,0.00407844688743353,-0.00794351939111948,0.011322034522891
488,0.119376569986343,0.0728944465517998,0.00945312064141035,0.000834585574921221,-0.011251381598413,0.00895073637366295
489,0.115409769117832,0.0703081712126732,0.00516526075080037,-0.00406924402341247,-0.0144861433655024,0.0044941776432097
490,0.110544763505459,0.0651873648166656,-0.000627452391199768,-0.0108798006549478,-0.0164360981434584,-0.000504487717989832
491,0.106544002890587,0.0604286827147007,-0.00410825805738568,-0.0156901255249977,-0.0162637159228325,-0.00181104615330696
492,0.102514691650867,0.0564607307314873,-0.00618096580728889,-0.01765176653862,-0.0172519106417894,0.000513389008119702
493,0.0946501344442368,0.0489861145615578,-0.0129080330953002,-0.0220686495304108,-0.0259271953254938,0.000140813193866052
494,0.0845893174409866,0.0383528359234333,-0.023921687155962,-0.0293782968074083,-0.0415104366838932,-0.00356423552148044
495,0.0796213150024414,0.0318553186953068,-0.030132370069623,-0.0315526872873306,-0.0514799021184444,-0.00177356693893671
496,0.0832766965031624,0.0331229045987129,-0.0246121920645237,-0.0234043076634407,-0.044732354581356,0.0094655342400074
497,0.0919155925512314,0.0374865420162678,-0.00855415780097246,-0.00874958653002977,-0.0238378904759884,0.0224416870623827
498,0.0991426557302475,0.0388226248323917,0.00999786239117384,0.00440753763541579,-0.000759793270844966,0.0260773785412312
499,0.100539207458496,0.0343586206436157,0.0195317175239325,0.00951725244522095,0.0120877018198371,0.0157034918665886
500,0.096993699669838,0.0255721304565668,0.0142264077439904,0.00517245568335056,0.00972612202167511,-0.0028336220420897
501,0.0943328440189362,0.018391452729702,0.000270798220299184,-0.0028239730745554,-0.00234204460866749,-0.0180756449699402
502,0.0963397547602654,0.0161173883825541,-0.0123977586627007,-0.00832303054630756,-0.0162968337535858,-0.0247658267617226
503,0.100434765219688,0.0141814108937979,-0.0189626161009073,-0.0109498212113976,-0.0266363099217415,-0.0267465300858021
504,0.102669842541218,0.00828050170093775,-0.0204323288053274,-0.0127079598605633,-0.0290281716734171,-0.0292288977652788
505,0.101539924740791,0.000606621033512056,-0.0208192057907581,-0.0149435885250568,-0.0243606306612492,-0.0329071506857872
506,0.0977589786052704,-0.00451628630980849,-0.0210266653448343,-0.0166697166860104,-0.0182985700666904,-0.0336162149906158
507,0.0921157673001289,-0.00797279644757509,-0.0211198069155216,-0.0182732474058867,-0.0179615076631308,-0.0300923679023981
508,0.084762379527092,-0.0154215609654784,-0.0244420189410448,-0.0232296548783779,-0.027225648984313,-0.0256933867931366
509,0.0772169083356857,-0.027535293251276,-0.0305255688726902,-0.0304820295423269,-0.0402371473610401,-0.0200421176850796
510,0.0697324723005295,-0.0381772555410862,-0.0341401658952236,-0.0354005172848701,-0.0483224093914032,-0.0114110624417663
511,0.0615620724856853,-0.041303213685751,-0.0320205613970757,-0.0352072231471539,-0.0497344508767128,-0.00268119969405234
512,0.0545140132308006,-0.0365450568497181,-0.0245454274117947,-0.0285796746611595,-0.047162227332592,0.00280596548691392
513,0.0482384525239468,-0.0321860760450363,-0.0172110740095377,-0.0206906422972679,-0.0436861366033554,0.000874937861226499
514,0.0409670546650887,-0.0352928601205349,-0.0165716912597418,-0.0189354345202446,-0.03935232385993,-0.0114401709288359
515,0.0363016836345196,-0.0413265191018581,-0.0213839840143919,-0.0196110233664513,-0.0309335049241781,-0.0267514549195766
516,0.0379844270646572,-0.0433981083333492,-0.0257660821080208,-0.0157152805477381,-0.0201892331242561,-0.0352732799947262
517,0.0437331311404705,-0.0418310984969139,-0.0272051654756069,-0.00892800372093916,-0.0139335412532091,-0.0370636023581028
518,0.0481562204658985,-0.0403878316283226,-0.0281172450631857,-0.00477154413238168,-0.0157684572041035,-0.0375888980925083
519,0.0488642305135727,-0.040851067751646,-0.0313741378486156,-0.00476460810750723,-0.0233741700649261,-0.0387778207659721
520,0.0486643612384796,-0.0420329459011555,-0.03570456802845,-0.00673968996852636,-0.0304954517632723,-0.0385268740355968
521,0.0500299036502838,-0.0419925861060619,-0.0384991243481636,-0.00902783032506704,-0.0318336486816406,-0.0363114811480045
522,0.0515023767948151,-0.0407591387629509,-0.0388175174593925,-0.0101080182939768,-0.027165025472641,-0.034010399132967
523,0.0505137592554092,-0.0405361317098141,-0.0368439182639122,-0.00988845061510801,-0.0205101743340492,-0.0337085127830505
524,0.0457010120153427,-0.0441768579185009,-0.0346634797751904,-0.0118768634274602,-0.0164358075708151,-0.0367985256016254
525,0.0389525517821312,-0.0518642850220203,-0.033597718924284,-0.0168266333639622,-0.0163520779460669,-0.0402100719511509
526,0.0356760025024414,-0.0590065978467464,-0.0319138057529926,-0.020118173211813,-0.0180468540638685,-0.0376445129513741
527,0.0381465740501881,-0.0619653835892677,-0.0303589627146721,-0.0202132351696491,-0.0206452868878841,-0.0282432995736599
528,0.0455514937639236,-0.0601932294666767,-0.0296615958213806,-0.0184916090220213,-0.0238459631800652,-0.0151183875277638
529,0.0574450716376305,-0.0541435852646828,-0.0280686132609844,-0.0160732511430979,-0.0270659830421209,-0.00198918068781495
530,0.0701061561703682,-0.0476873032748699,-0.0274856518954039,-0.016706321388483,-0.032359316945076,0.00438143685460091
531,0.0792919993400574,-0.0449185445904732,-0.027903139591217,-0.0200023781508207,-0.0377329252660275,0.00250454805791378
532,0.0832050666213036,-0.0463206991553307,-0.0259557701647282,-0.0205095261335373,-0.0367400571703911,-0.00082602328620851
533,0.0811950266361237,-0.0500128902494907,-0.0223105028271675,-0.0174662955105305,-0.0263973604887724,-0.00176861463114619
534,0.075528621673584,-0.0531275942921638,-0.0187212955206633,-0.0140829524025321,-0.00767620699480176,-0.00301485392265022
535,0.0691343918442726,-0.0544597394764423,-0.014945549890399,-0.0128012150526047,0.0151218930259347,-0.00829170551151037
536,0.0613413527607918,-0.0555057115852833,-0.0134959015995264,-0.0168875325471163,0.0318509973585606,-0.0203622318804264
537,0.0527143515646458,-0.0547761768102646,-0.0165791735053062,-0.0256252028048038,0.0354519672691822,-0.0364920049905777
538,0.0478452257812023,-0.0468150898814201,-0.0203993041068316,-0.0318616628646851,0.0305405296385288,-0.0468442291021347
539,0.0489386580884457,-0.0289250109344721,-0.0210157483816147,-0.0313275121152401,0.0246175769716501,-0.0458420515060425
540,0.0536069609224796,-0.00249573937617242,-0.0181318465620279,-0.0244523733854294,0.0211060345172882,-0.0369195640087128
541,0.0583736039698124,0.0281820073723793,-0.0130683314055204,-0.0135335028171539,0.0199127439409494,-0.0257686991244555
542,0.0617946311831474,0.0583598464727402,-0.00726248184219003,-0.00204440322704613,0.0198225229978561,-0.0146785611286759
543,0.0644332095980644,0.0853497087955475,-0.00150971673429012,0.00774584105238318,0.0210701990872622,-0.00256195501424372
544,0.0664072260260582,0.106986850500107,0.00301887537352741,0.0154150631278753,0.0229696910828352,0.0108622694388032
545,0.0662479251623154,0.121916420757771,0.00508580589666963,0.0205856487154961,0.022971136495471,0.0223937034606934
546,0.0640778765082359,0.131722241640091,0.00655338959768415,0.0230964254587889,0.0220741257071495,0.029223769903183
547,0.0617177039384842,0.138196259737015,0.00980895385146141,0.0228146873414516,0.0232263989746571,0.0311956778168678
548,0.0586236156523228,0.141755416989326,0.0127496710047126,0.0192102212458849,0.0261554345488548,0.0276016555726528
549,0.0518946684896946,0.143161207437515,0.0102946991100907,0.0119859194383025,0.0270528439432383,0.0167322512716055
550,0.0383505374193192,0.141212821006775,-0.000870476011186838,-2.80459935311228E-05,0.0209399610757828,-0.00189608975779265
551,0.0199596136808395,0.134362682700157,-0.0162909012287855,-0.0154541945084929,0.0104424711316824,-0.0224148258566856
552,0.00582142360508442,0.126309365034103,-0.0263075064867735,-0.0277865640819073,0.00486176600679755,-0.0339516773819923
553,0.0033056263346225,0.1225690767169,-0.0265597198158503,-0.0323938354849815,0.00823568180203438,-0.0332695655524731
554,0.0105028888210654,0.124551124870777,-0.0197387654334307,-0.0314288586378098,0.0179099291563034,-0.0280113946646452
555,0.0212748162448406,0.132196307182312,-0.0104545839130878,-0.0285004284232855,0.0295873135328293,-0.0249971784651279
556,0.0341197550296783,0.144824162125587,-0.00142705149482936,-0.0239096321165562,0.0390309877693653,-0.0236373264342546
557,0.0489095710217953,0.157916322350502,0.00675968267023563,-0.0179841220378876,0.0414498634636402,-0.0221870634704828
558,0.0624093264341354,0.16692753136158,0.0125789577141404,-0.0128935389220715,0.033713061362505,-0.0214852970093489
559,0.0725660845637321,0.171785607933998,0.0134957088157535,-0.00888033397495747,0.0196455996483564,-0.020866921171546
560,0.0796524584293365,0.17473891377449,0.00925181433558464,-0.0037518385797739,0.00786146894097328,-0.0182548817247152
561,0.0828030705451965,0.17646612226963,0.00172523630317301,0.0021170312538743,0.00245325872674584,-0.0150351924821734
562,0.0821509137749672,0.176849111914635,-0.00545737147331238,0.00576927559450269,0.00249025062657893,-0.01439877320081
563,0.081857942044735,0.177288815379143,-0.00713314628228545,0.00651525193825364,0.0075231334194541,-0.0157135780900717
564,0.0836672708392143,0.177455946803093,-0.00385707337409258,0.00373145937919617,0.014383228495717,-0.0174005571752787
565,0.0820552781224251,0.173468321561813,-0.0030474707018584,-0.00447935331612825,0.0156659372150898,-0.0210012514144182
566,0.0738924518227577,0.165257975459099,-0.00610547000542283,-0.0143963200971484,0.0103552667424083,-0.0250722505152225
567,0.0643339231610298,0.158322915434837,-0.00762970419600606,-0.0195349492132664,0.00471842242404819,-0.0247429385781288
568,0.0556596405804157,0.153830260038376,-0.00825938209891319,-0.0216127634048462,-0.000430677464464679,-0.0215538814663887
569,0.045690294355154,0.149346217513084,-0.0110338358208537,-0.0253255572170019,-0.00608738185837865,-0.0204460229724646
570,0.0357799343764782,0.145807549357414,-0.013465023599565,-0.0292862039059401,-0.00817293673753738,-0.0213644094765186
571,0.0279066674411297,0.144282907247543,-0.0137157142162323,-0.0307379439473152,-0.00627618795260787,-0.0224357452243567
572,0.0214475933462381,0.142750963568687,-0.013586388900876,-0.0309157148003578,-0.00477971509099007,-0.0258692782372236
573,0.0161721725016832,0.13955269753933,-0.0140905128791928,-0.0318865701556206,-0.0045603415928781,-0.0350812450051308
574,0.0139225590974092,0.136362388730049,-0.013395837508142,-0.0321969129145145,-0.00174130394589156,-0.0453773178160191
575,0.0164099000394344,0.13663224875927,-0.0099615603685379,-0.0297970771789551,0.00513008469715714,-0.0483059398829937
576,0.0232803784310818,0.143139913678169,-0.00510911457240582,-0.0239350479096174,0.0118393413722515,-0.0429850965738297
577,0.0312059111893177,0.153635159134865,-0.0025695376098156,-0.0156089048832655,0.0123913176357746,-0.0353590585291386
578,0.0362511053681374,0.160818219184875,-0.00603885855525732,-0.00939918030053377,0.00369321112520993,-0.031085854396224
579,0.035870436578989,0.158428654074669,-0.0169651005417109,-0.01162080001086,-0.0131452064961195,-0.0332516767084599
580,0.0295917633920908,0.146981552243233,-0.0322189591825008,-0.0233750939369202,-0.0326424948871136,-0.0411812253296375
581,0.0215397197753191,0.135276064276695,-0.0438517704606056,-0.0358933359384537,-0.045915674418211,-0.0482870563864708
582,0.017182394862175,0.130193099379539,-0.0474287271499634,-0.040546603500843,-0.0483530424535275,-0.0500718541443348
583,0.0195407662540674,0.130050331354141,-0.0438357144594193,-0.0371030829846859,-0.0405413135886192,-0.0485684089362621
584,0.0257614925503731,0.129848316311836,-0.0364677235484123,-0.0314201042056084,-0.0261530019342899,-0.047789640724659
585,0.0283103510737419,0.125829041004181,-0.0300913564860821,-0.030005594715476,-0.011543482542038,-0.0501128248870373
586,0.0233325455337763,0.116061948239803,-0.0274718012660742,-0.0353776924312115,-0.0021138028241694,-0.0554160214960575
587,0.0147032896056771,0.104716897010803,-0.0275456737726927,-0.0432389043271542,0.00178808369673789,-0.0598515868186951
588,0.00825443118810654,0.0992918908596039,-0.0266181696206331,-0.0461063496768475,0.00402868492528796,-0.0583044737577438
589,0.00464074593037367,0.0989620536565781,-0.0218159519135952,-0.0423351898789406,0.00686430465430021,-0.0507839284837246
590,0.0033850425388664,0.0992863997817039,-0.0109222754836082,-0.0341288894414902,0.0128614287823439,-0.0389352962374687
591,0.00413213251158595,0.0985285416245461,0.00344676407985389,-0.0259790308773518,0.0222180020064116,-0.0255869142711163
592,0.0054862373508513,0.0961911454796791,0.0147512126713991,-0.0222113616764545,0.0296756289899349,-0.0151395732536912
593,0.00694520073011518,0.0930334478616714,0.0187626630067825,-0.0216555800288916,0.0290947146713734,-0.00922077707946301
594,0.00805379915982485,0.0897326469421387,0.0138425901532173,-0.0220969785004854,0.0178284347057343,-0.00780540239065886
595,0.00835588574409485,0.0864521265029907,0.00279466481879354,-0.0236752014607191,0.000502315000630915,-0.0105073004961014
596,0.00663867592811584,0.0826637968420982,-0.00970373582094908,-0.0271483659744263,-0.0153363402932882,-0.0163170006126165
597,0.00233236397616565,0.077411025762558,-0.0225713681429625,-0.0325239710509777,-0.0263167079538107,-0.023053877055645
598,-0.00209304667077959,0.070696547627449,-0.0369951836764812,-0.0388493612408638,-0.0336973331868649,-0.0274887178093195
599,-0.00319311651401222,0.0645892918109894,-0.0510384030640125,-0.0430988036096096,-0.039024580270052,-0.0267198905348778
600,-0.00272572669200599,0.058854378759861,-0.0627827867865562,-0.0450434051454067,-0.044880997389555,-0.0221560932695866
601,-0.00566913653165102,0.0503335557878017,-0.0730057433247566,-0.0494182594120502,-0.0541290864348412,-0.0191611535847187
602,-0.0115363318473101,0.0399184711277485,-0.0803253054618835,-0.057176910340786,-0.0631929934024811,-0.0211371872574091
603,-0.0164684075862169,0.0317718461155891,-0.0828031376004219,-0.0645528882741928,-0.0648133680224419,-0.0284692607820034
604,-0.0182008892297745,0.028740931302309,-0.0799114257097244,-0.0680591613054276,-0.0559248104691505,-0.0386675857007504
605,-0.0159682556986809,0.0309624522924423,-0.071747824549675,-0.065818190574646,-0.0390561260282993,-0.0467453598976135
606,-0.0111674051731825,0.0351455472409725,-0.0607866384088993,-0.059869360178709,-0.0196211021393538,-0.0513043850660324
607,-0.00674044946208596,0.037872701883316,-0.0503963977098465,-0.0542621091008186,-0.0036329363938421,-0.0550795681774616
608,-0.00600646762177348,0.037636861205101,-0.0437266454100609,-0.0519820712506771,0.00245029968209565,-0.0610412396490574
609,-0.0103624733164907,0.0337956249713898,-0.0433528013527393,-0.0547321848571301,-0.00495577557012439,-0.0715842172503471
610,-0.0149330636486411,0.0289701353758574,-0.0456661097705364,-0.0588147267699242,-0.0191665198653936,-0.0831698924303055
611,-0.0148624395951629,0.0268064718693495,-0.0435992814600468,-0.0587734431028366,-0.0295062139630318,-0.0888880491256714
612,-0.0127440169453621,0.0274450238794088,-0.0352257154881954,-0.0557014346122742,-0.0342215448617935,-0.0875657722353935
613,-0.0134581858292222,0.0281027927994728,-0.0254485197365284,-0.0542446970939636,-0.0390168540179729,-0.082071952521801
614,-0.018635518848896,0.025816522538662,-0.0220255833119154,-0.0562636330723763,-0.0480154752731323,-0.0741382464766502
615,-0.0257403310388327,0.0208100397139788,-0.0277367625385523,-0.0598375722765923,-0.0577724054455757,-0.0634468793869019
616,-0.0291148517280817,0.0164400320500135,-0.0369264259934425,-0.060320358723402,-0.0605174154043198,-0.0491397492587566
617,-0.0261129345744848,0.0134791042655706,-0.0436489917337894,-0.0559449046850204,-0.0559793300926685,-0.0349641405045986
618,-0.0193132143467665,0.00990234687924385,-0.0475776866078377,-0.0508453473448753,-0.0505764745175838,-0.0275428090244532
619,-0.0116322701796889,0.00744752213358879,-0.0496029816567898,-0.0481669083237648,-0.0464072786271572,-0.0278089120984077
620,-0.00621430156752467,0.00709229661151767,-0.0512562207877636,-0.0488125570118427,-0.0441875234246254,-0.0341758988797665
621,-0.0031184742692858,0.00738163106143475,-0.0512046031653881,-0.050117839127779,-0.0424506179988384,-0.041437316685915
622,-5.62739187444095E-05,0.00852611567825079,-0.0468783043324947,-0.0484681464731693,-0.037275355309248,-0.0421098917722702
623,0.000399434502469376,0.00866684317588806,-0.0428792126476765,-0.0473756641149521,-0.031527440994978,-0.0384993888437748
624,-0.00349697167985141,0.0064120814204216,-0.0422579683363438,-0.0489520728588104,-0.0283495131880045,-0.0363958030939102
625,-0.00819197949022055,0.00338142528198659,-0.0413414686918259,-0.0493706353008747,-0.0241861175745726,-0.0355696305632591
626,-0.0102156018838286,0.00129045220091939,-0.0371172092854977,-0.0466193854808807,-0.0138740940019488,-0.032435804605484
627,-0.0116482581943274,-0.000701936951372772,-0.0324188210070133,-0.0446684546768665,0.00079346401616931,-0.0279472544789314
628,-0.0163467694073915,-0.00440510176122189,-0.0317843556404114,-0.047572772949934,0.0111618107184768,-0.028144795447588
629,-0.0215168800204992,-0.00792610831558704,-0.0330475866794586,-0.0509505085647106,0.0133135989308357,-0.0338065885007381
630,-0.0239710975438356,-0.0108386548236012,-0.0338892713189125,-0.0512058064341545,0.00702267652377486,-0.0426478907465935
631,-0.0248743426054716,-0.0142919346690178,-0.0354218110442162,-0.0516165941953659,-0.00714921997860074,-0.0527750700712204
632,-0.0237603820860386,-0.0157574415206909,-0.0360805578529835,-0.0537380278110504,-0.0233789477497339,-0.059427585452795
633,-0.0201819464564323,-0.014387764967978,-0.0343739949166775,-0.0557568743824959,-0.0351962819695473,-0.0590012855827808
634,-0.0178606733679771,-0.0140762366354465,-0.0320193730294704,-0.0573995485901833,-0.0411671884357929,-0.0532135367393494
635,-0.0190785992890596,-0.0173587221652269,-0.0298374891281128,-0.0591451413929462,-0.0426890030503273,-0.0458072051405907
636,-0.019953990355134,-0.0211539249867201,-0.0275180004537106,-0.0592407323420048,-0.0419543161988258,-0.0378990359604359
637,-0.0175781454890966,-0.023505873978138,-0.0281797312200069,-0.0577689036726952,-0.0432295426726341,-0.0309637691825628
638,-0.0160899944603443,-0.0299986712634563,-0.0365140065550804,-0.05965681001544,-0.0511104427278042,-0.0298894438892603
639,-0.0196737255901098,-0.0446089655160904,-0.05302694439888,-0.0682528614997864,-0.0654644593596458,-0.0377996675670147
640,-0.023318950086832,-0.0589007362723351,-0.0699428617954254,-0.07789596170187,-0.0774363279342651,-0.0486255846917629
641,-0.020144771784544,-0.0618490912020206,-0.0770349502563477,-0.0803222432732582,-0.07779760658741,-0.0527977123856544
642,-0.0128342937678099,-0.0545605756342411,-0.0738963559269905,-0.0760284066200256,-0.0689266473054886,-0.0501073710620403
643,-0.00815333984792233,-0.0453195348381996,-0.0689460188150406,-0.0710824206471443,-0.0592844858765602,-0.0471149981021881
644,-0.00929134804755449,-0.0396039076149464,-0.0685643553733826,-0.0696492865681648,-0.0545698255300522,-0.0478721931576729
645,-0.0176423490047455,-0.040319487452507,-0.0745439678430557,-0.0742458403110504,-0.0579761080443859,-0.0543681010603905
646,-0.0286296438425779,-0.0429906472563744,-0.0814053416252136,-0.0793548375368118,-0.0637534558773041,-0.0616032965481281
647,-0.0351472906768322,-0.0387033000588417,-0.0814391002058983,-0.0762464851140976,-0.0635288953781128,-0.0603847689926624
648,-0.0396873615682125,-0.0320822037756443,-0.0786816775798798,-0.0692135542631149,-0.0636532157659531,-0.0532897710800171
649,-0.0448231734335423,-0.0339120328426361,-0.0782089978456497,-0.0644988566637039,-0.0715472549200058,-0.0456645786762238
650,-0.0447380542755127,-0.0420257188379765,-0.0736877769231796,-0.058623019605875,-0.0802896544337273,-0.0350342690944672
651,-0.0357887446880341,-0.0486930944025517,-0.0597354173660278,-0.0484724305570126,-0.0808660835027695,-0.0214881598949432
652,-0.0239297207444906,-0.0540558136999607,-0.0438252687454224,-0.0389795079827309,-0.0757135972380638,-0.0121350958943367
653,-0.0166805516928434,-0.0605990365147591,-0.0351109430193901,-0.0357150509953499,-0.0717838853597641,-0.012151850387454
654,-0.0154039198532701,-0.0671512931585312,-0.0322752520442009,-0.0373600907623768,-0.0691457018256187,-0.0194735825061798
655,-0.0180445183068514,-0.0735053420066834,-0.03176623955369,-0.0403215102851391,-0.0644903630018234,-0.0292135495692492
656,-0.0200827289372683,-0.0794626921415329,-0.0332817733287811,-0.0426243543624878,-0.0562028661370277,-0.0360999740660191
657,-0.0188696477562189,-0.0835543870925903,-0.0373118259012699,-0.0439720824360847,-0.045076560229063,-0.0375747978687286
658,-0.0172209888696671,-0.0845110565423965,-0.0423432141542435,-0.0441640987992287,-0.0326707549393177,-0.034500602632761
659,-0.0175421666353941,-0.0806870460510254,-0.0436988845467567,-0.0429625175893307,-0.0207090470939875,-0.0280055869370699
660,-0.0194104965776205,-0.0749129131436348,-0.0415127798914909,-0.0438894852995873,-0.0147549267858267,-0.0228991117328405
661,-0.0218777805566788,-0.0739321559667587,-0.0424665547907352,-0.0508316718041897,-0.0193272363394499,-0.0257193986326456
662,-0.0250072162598372,-0.0792273432016373,-0.0494432412087917,-0.0615812353789806,-0.0308226477354765,-0.0361119583249092
663,-0.0293517429381609,-0.0871338397264481,-0.0591503269970417,-0.0709913894534111,-0.0432791784405708,-0.0483842864632607
664,-0.0326157696545124,-0.0933887809514999,-0.0663622468709946,-0.0749052464962006,-0.0525094978511333,-0.0565427839756012
665,-0.0322088561952114,-0.0953331589698792,-0.0681311935186386,-0.0727855190634727,-0.0562493912875652,-0.0579549670219421
666,-0.0322440564632416,-0.0958885550498962,-0.068541906774044,-0.0713458433747292,-0.059120200574398,-0.0574519298970699
667,-0.0381190329790115,-0.0986480340361595,-0.0726640000939369,-0.0764202922582626,-0.067727617919445,-0.0598119758069515
668,-0.0459476411342621,-0.0989327505230904,-0.0760152563452721,-0.0817009583115578,-0.0779219642281532,-0.0601190105080605
669,-0.0489797331392765,-0.091886892914772,-0.0724549740552902,-0.0778994411230087,-0.0807914882898331,-0.0530759319663048
670,-0.0476020388305187,-0.0810748413205147,-0.0651660934090614,-0.0673336982727051,-0.0765750855207443,-0.0428621768951416
671,-0.0446841903030872,-0.0728436931967735,-0.0586762838065624,-0.0571497119963169,-0.0709679499268532,-0.0335846170783043
672,-0.0420584678649902,-0.0719053596258163,-0.0529158636927605,-0.0498075447976589,-0.067797526717186,-0.0245019849389791
673,-0.0414262115955353,-0.0773602649569511,-0.0488260537385941,-0.0461269170045853,-0.0686287805438042,-0.0177376456558704
674,-0.0420279018580914,-0.082520917057991,-0.0495502538979054,-0.0465880893170834,-0.0736005008220673,-0.018246877938509
675,-0.0409774929285049,-0.0821127593517303,-0.0551792904734612,-0.0492942109704018,-0.0810755491256714,-0.0276891626417637
676,-0.0372910872101784,-0.0766572803258896,-0.0617937929928303,-0.0509935542941093,-0.0877537876367569,-0.0428799875080585
677,-0.0323110558092594,-0.070166602730751,-0.0643618553876877,-0.0495343394577503,-0.0900119170546532,-0.0572622008621693
678,-0.0266620367765427,-0.0648028180003166,-0.0595460794866085,-0.0454052090644836,-0.0845589265227318,-0.0633385702967644
679,-0.021997507661581,-0.0615265741944313,-0.0506334118545055,-0.0423716194927692,-0.0731291249394417,-0.058242779225111
680,-0.0201027542352676,-0.0614162646234035,-0.0438628904521465,-0.0428322106599808,-0.0616945773363113,-0.0448732227087021
681,-0.0197969377040863,-0.0633559823036194,-0.0409596413373947,-0.0444853417575359,-0.0532958246767521,-0.0293471943587065
682,-0.0191603768616915,-0.0656675472855568,-0.0414900556206703,-0.0456320531666279,-0.0486576519906521,-0.0192511789500713
683,-0.0157783627510071,-0.068201519548893,-0.0445334762334824,-0.047503586858511,-0.0466691218316555,-0.0163354333490133
684,-0.00823373254388571,-0.0710810571908951,-0.0470909513533115,-0.0504333972930908,-0.0439494587481022,-0.0156529974192381
685,0.000516564701683819,-0.0743310302495956,-0.0471506789326668,-0.0530128367245197,-0.0407147742807865,-0.0153866084292531
686,0.00716534629464149,-0.0771385803818703,-0.0451895669102669,-0.0536072999238968,-0.0397118963301182,-0.0168226305395365
687,0.0109115624800324,-0.0793500170111656,-0.0430758967995644,-0.0523863062262535,-0.0412606969475746,-0.0205910298973322
688,0.0110631650313735,-0.082269087433815,-0.0423247553408146,-0.0504880733788013,-0.0437770672142506,-0.0272309444844723
689,0.00662427581846714,-0.0855536162853241,-0.0418644323945045,-0.0477502197027206,-0.0454300194978714,-0.0352401472628117
690,-0.00225104857236147,-0.0872583761811256,-0.0399708300828934,-0.04404666274786,-0.0462462492287159,-0.04129334166646
691,-0.012239190749824,-0.086014524102211,-0.0368182063102722,-0.0400318838655949,-0.0479765795171261,-0.0435359179973602
692,-0.0189684834331274,-0.0834579095244408,-0.0348780788481236,-0.0382396951317787,-0.0532298870384693,-0.043641671538353
693,-0.0221119299530983,-0.0823567882180214,-0.0370036065578461,-0.0414748042821884,-0.0630816668272018,-0.0437980964779854
694,-0.0242888033390045,-0.0824750363826752,-0.0434371568262577,-0.0485201813280582,-0.0746196657419205,-0.0433424934744835
695,-0.0236938167363405,-0.0796176567673683,-0.0495787933468819,-0.0529099777340889,-0.0816081017255783,-0.0371973365545273
696,-0.018047995865345,-0.0711482092738152,-0.0515944883227348,-0.050235852599144,-0.0816115513443947,-0.0228741765022278
697,-0.0117365410551429,-0.0598659589886665,-0.0502093397080898,-0.0425696186721325,-0.0771330893039703,-0.00586918881163001
698,-0.00842486135661602,-0.0480409637093544,-0.0453477129340172,-0.0322596542537212,-0.0674009993672371,0.00802547018975019
699,-0.00685048243030906,-0.0369685478508472,-0.036703322082758,-0.0205098371952772,-0.0522321537137032,0.0147927748039365
700,-0.00525148026645184,-0.0311635378748178,-0.0266041532158852,-0.00897273421287537,-0.0348807498812675,0.0132679780945182
701,-0.00346937612630427,-0.0341176278889179,-0.0185591019690037,-0.000770730490330607,-0.0173023138195276,0.00742477737367153
702,-0.00177943077869713,-0.0430204570293427,-0.0137863168492913,0.000750824401620775,-0.00194318301510066,0.00195551896467805
703,0.000563917972613126,-0.0513248853385448,-0.0111003434285522,-0.00288598146289587,0.00746838189661503,-0.000363964674761519
704,0.0039657517336309,-0.0550762638449669,-0.0098900031298399,-0.00665966235101223,0.0090583385899663,0.00196449435316026
705,0.00631959969177842,-0.0551884658634663,-0.0110446782782674,-0.00944228190928698,0.00393740832805634,0.00763833429664373
706,0.00429714936763048,-0.0557538419961929,-0.0167406890541315,-0.0157009661197662,-0.00555559899657965,0.0103296646848321
707,-0.00215682992711663,-0.0591222867369652,-0.0256980527192354,-0.0270686205476522,-0.0168089587241411,0.00573033047839999
708,-0.00914656836539507,-0.0631996914744377,-0.0330379717051983,-0.0382723398506641,-0.0281037632375956,-0.0020888599101454
709,-0.0151211777701974,-0.0676572024822235,-0.0392899997532368,-0.0461584255099297,-0.0412097349762917,-0.00975244026631117
710,-0.0196660961955786,-0.0732422843575478,-0.0470292754471302,-0.0508232414722443,-0.0558028519153595,-0.0167849585413933
711,-0.0192925911396742,-0.0780014172196388,-0.0543582253158093,-0.0511847585439682,-0.0665379911661148,-0.0209958162158728
712,-0.0115777524188161,-0.0803936496376991,-0.0585015453398228,-0.0477603897452354,-0.0690987035632133,-0.0218945145606995
713,0.00285576470196247,-0.0782825723290443,-0.0557742975652218,-0.0408172942698002,-0.0603194683790207,-0.0183319039642811
714,0.0172577425837517,-0.0719740018248558,-0.0458069518208504,-0.0322773866355419,-0.0419353283941746,-0.0102493958547711
715,0.0218145828694105,-0.0657617598772049,-0.0335061885416508,-0.0269572511315346,-0.0231647845357656,-0.00176196417305619
716,0.0167233385145664,-0.0611999928951263,-0.0222670137882233,-0.0253165811300278,-0.010140742175281,0.00541829178109765
717,0.00862499698996544,-0.0591886416077614,-0.0165947191417217,-0.0268638804554939,-0.0034933895803988,0.0093975318595767
718,0.00157185131683946,-0.0598591640591621,-0.0184570215642452,-0.0308102667331696,0.00018362513219472,0.00857457332313061
719,-0.00172104896046221,-0.0598776489496231,-0.0221335552632809,-0.0330132246017456,0.00551477912813425,0.00618343194946647
720,-0.00357214850373566,-0.0608392804861069,-0.0264270678162575,-0.0347028747200966,0.00625684438273311,0.0021782754920423
721,-0.00899304915219545,-0.0676746144890785,-0.0338952206075192,-0.0396258495748043,-0.00648239720612764,-0.0047777802683413
722,-0.0164857506752014,-0.0780322998762131,-0.0404339842498302,-0.0448808260262012,-0.0271230451762676,-0.0099643561989069
723,-0.0211424715816975,-0.0843404829502106,-0.0408824607729912,-0.0464685335755348,-0.04331199452281,-0.00907694734632969
724,-0.0219386275857687,-0.0824865102767944,-0.0352505743503571,-0.0447251498699188,-0.0491310656070709,-0.00332475639879704
725,-0.0218230187892914,-0.0757032930850983,-0.0286232847720385,-0.0429803989827633,-0.0480510219931602,0.00123762455768883
726,-0.0217386540025473,-0.069354347884655,-0.0259426478296518,-0.0427664257586002,-0.046377245336771,0.000275065220193937
727,-0.019321421161294,-0.0649237856268883,-0.0254098642617464,-0.0420966669917107,-0.0452827550470829,-0.00406711036339402
728,-0.0150883989408612,-0.0625610202550888,-0.0238184221088886,-0.0404886156320572,-0.0433769226074219,-0.00920443702489138
729,-0.0104556316509843,-0.0626267194747925,-0.0209340304136276,-0.0381603538990021,-0.0382025353610516,-0.013649670407176
730,-0.00432596309110522,-0.0637988746166229,-0.0182318799197674,-0.0342094264924526,-0.0282621774822474,-0.0152463717386127
731,0.00184413336683065,-0.0636112838983536,-0.0204804316163063,-0.0303742326796055,-0.0196209996938705,-0.0151101797819138
732,0.00562886893749237,-0.0612395331263542,-0.0295507777482271,-0.0290902722626925,-0.0184262339025736,-0.0160106178373098
733,0.00659498665481806,-0.0597700700163841,-0.0401305258274078,-0.0303600896149874,-0.0224678684026003,-0.0183251891285181
734,0.00447192508727312,-0.0616995394229889,-0.0471974834799767,-0.0329066552221775,-0.0275069624185562,-0.0216621980071068
735,0.000985202263109386,-0.0646917745471001,-0.0495143570005894,-0.0338483788073063,-0.0313376262784004,-0.0239910334348679
736,-0.00083037547301501,-0.0662540569901466,-0.0471542440354824,-0.031196715310216,-0.0343304537236691,-0.0226540025323629
737,0.000347164197592065,-0.0665525570511818,-0.0403577089309692,-0.0263244099915028,-0.0386770106852055,-0.0186362229287624
738,0.00312713580206037,-0.0659427493810654,-0.0310727879405022,-0.0213342513889074,-0.044060479849577,-0.0152759635820985
739,0.00371537101455033,-0.0649165809154511,-0.0234430134296417,-0.0179573073983192,-0.0491853132843971,-0.0143388602882624
740,0.00105640105903149,-0.0632216557860374,-0.018481032922864,-0.0158001594245434,-0.0526703894138336,-0.0125519568100572
741,-0.00184849475044757,-0.0609592795372009,-0.0148928137496114,-0.013792778365314,-0.0535818487405777,-0.00603058328852057
742,-0.00441462639719248,-0.062456052750349,-0.0152867287397385,-0.0146601218730211,-0.054683119058609,0.00131911982316524
743,-0.00793455634266138,-0.0695977583527565,-0.0198819246143103,-0.019402839243412,-0.0560093261301517,0.00348160811699927
744,-0.0132476184517145,-0.0790838971734047,-0.0246685110032558,-0.0258350558578968,-0.0538001507520676,-0.00165415753144771
745,-0.0208694152534008,-0.0883993655443192,-0.0273810438811779,-0.0331965237855911,-0.0473006144165993,-0.0136575317010283
746,-0.027801625430584,-0.0933757945895195,-0.0258360560983419,-0.0395472161471844,-0.037320826202631,-0.0274998005479574
747,-0.0303142592310905,-0.0905788317322731,-0.0212643407285213,-0.0423808582127094,-0.0260596629232168,-0.037539403885603
748,-0.0292772520333529,-0.084304079413414,-0.020631106570363,-0.0423879288136959,-0.0191598553210497,-0.0436382591724396
749,-0.026765588670969,-0.0802636817097664,-0.0274551678448915,-0.0416785404086113,-0.0204582829028368,-0.0471411682665348
750,-0.0234604142606258,-0.0790304318070412,-0.0386520214378834,-0.042418546974659,-0.0281411949545145,-0.048745546489954
751,-0.0207240991294384,-0.0781526789069176,-0.0497457683086395,-0.0459610521793365,-0.0377101711928844,-0.0501200743019581
752,-0.0197094548493624,-0.075292132794857,-0.0583540908992291,-0.0508523099124432,-0.0458937175571918,-0.0521160587668419
753,-0.0201907027512789,-0.0704155117273331,-0.0634501427412033,-0.0534995533525944,-0.0498663485050201,-0.0528340227901936
754,-0.0202973429113626,-0.0642765760421753,-0.0621925257146358,-0.0493754185736179,-0.0454139523208141,-0.0462652966380119
755,-0.0189783032983541,-0.0584553927183151,-0.0547736994922161,-0.0393975451588631,-0.0352723896503448,-0.030770942568779
756,-0.0168967004865408,-0.0555167347192764,-0.0473907887935638,-0.0316483341157436,-0.0294110551476479,-0.0157559346407652
757,-0.0148163195699453,-0.0554278790950775,-0.0447658970952034,-0.0319166034460068,-0.0326488837599754,-0.0115217082202435
758,-0.0139079485088587,-0.0559489317238331,-0.0459887981414795,-0.0384789928793907,-0.0418177619576454,-0.0193807650357485
759,-0.0119692925363779,-0.0541301481425762,-0.0455583557486534,-0.0427087731659412,-0.0486250221729279,-0.0308600217103958
760,-0.00393231585621834,-0.0474509000778198,-0.0377458110451698,-0.0356858484447002,-0.0461124926805496,-0.0359158217906952
761,0.00775060709565878,-0.0372114107012749,-0.0236400105059147,-0.0184921100735664,-0.0374284312129021,-0.0326816253364086
762,0.014234708622098,-0.0270176399499178,-0.0105064976960421,-0.00088228308595717,-0.0301142018288374,-0.025229811668396
763,0.0111385025084019,-0.0219375491142273,-0.00445714825764298,0.00812531821429729,-0.0279811900109053,-0.0186536740511656
764,0.000668587745167315,-0.0267427787184715,-0.00565218040719628,0.00597624434158206,-0.0321497842669487,-0.0169452782720327
765,-0.0114773344248533,-0.0387497693300247,-0.00889337714761496,-0.00233334489166737,-0.0393849536776543,-0.0198464822024107
766,-0.0220239106565714,-0.0525064207613468,-0.0112712038680911,-0.0112814996391535,-0.0454609841108322,-0.0267510823905468
767,-0.0289136134088039,-0.063528947532177,-0.0122407712042332,-0.0172509029507637,-0.0477112084627151,-0.0357821956276894
768,-0.0278204325586557,-0.0669063925743103,-0.0111378254368901,-0.0178112834692001,-0.0445401892066002,-0.0412042029201984
769,-0.0183222834020853,-0.064443551003933,-0.0124416816979647,-0.0168084502220154,-0.040357630699873,-0.0423190072178841
770,-0.00539012486115098,-0.0637820884585381,-0.0219171065837145,-0.0203671064227819,-0.0417752750217915,-0.0443650409579277
771,0.00480950111523271,-0.0680191591382027,-0.037792582064867,-0.0293120127171278,-0.0491380505263805,-0.0499637685716152
772,0.00898120179772377,-0.072605088353157,-0.050861731171608,-0.0389727018773556,-0.0566213876008987,-0.055334810167551
773,0.00673643033951521,-0.0736982449889183,-0.0546636693179607,-0.0447339415550232,-0.0598236955702305,-0.0555902943015099
774,-0.00133099628146738,-0.0725598558783531,-0.0510976724326611,-0.0450760461390018,-0.0580816566944122,-0.0504230223596096
775,-0.0110836755484343,-0.0689040571451187,-0.0431053712964058,-0.0384332314133644,-0.0493837855756283,-0.04031877592206
776,-0.0177690871059895,-0.0606896169483662,-0.0316668935120106,-0.025225356221199,-0.0332366600632668,-0.0257066879421473
777,-0.0211693607270718,-0.0496300160884857,-0.019255930557847,-0.0106558790430427,-0.0144394459202886,-0.0110689476132393
778,-0.0251436643302441,-0.0422354973852634,-0.0118024554103613,-0.00258457427844405,-0.00115821382496506,-0.00365170883014798
779,-0.0328317284584045,-0.0441368781030178,-0.014132940210402,-0.00631368579342961,-0.000490168400574476,-0.00649601733312011
780,-0.0418905951082706,-0.0526980198919773,-0.0232195239514112,-0.0186139829456806,-0.012454274110496,-0.0153687447309494
781,-0.0469602420926094,-0.0611125752329826,-0.031594529747963,-0.0303206574171782,-0.0298835467547178,-0.0248163994401693
782,-0.045588918030262,-0.066654734313488,-0.0357722900807858,-0.0361654423177242,-0.0456353202462196,-0.0329725705087185
783,-0.0403392910957336,-0.0697294175624847,-0.0375357903540134,-0.0376904532313347,-0.0577736385166645,-0.038404643535614
784,-0.0364639423787594,-0.0702308341860771,-0.0380550734698772,-0.0378255546092987,-0.0670100301504135,-0.0383174754679203
785,-0.0371036790311337,-0.0678335875272751,-0.0352969281375408,-0.0369087643921375,-0.0717683210968971,-0.0319348201155663
786,-0.0398631542921066,-0.0628196746110916,-0.0273169558495283,-0.0315271057188511,-0.0687375515699387,-0.020007437095046
787,-0.0414259508252144,-0.0570948608219624,-0.016713647171855,-0.0204094890505075,-0.0591146983206272,-0.00624056253582239
788,-0.0402739122509956,-0.0531051456928253,-0.0088193342089653,-0.00804666895419359,-0.0463340356945992,0.00285610929131508
789,-0.0353236198425293,-0.0527085177600384,-0.00769535778090358,-0.000175942070200108,-0.0329992584884167,0.00335741229355335
790,-0.0262722596526146,-0.0560785606503487,-0.0132067771628499,0.00028415402630344,-0.0220224000513554,-0.00360214617103338
791,-0.0141077674925327,-0.0607793293893337,-0.0208853837102652,-0.00568350777029991,-0.0145344017073512,-0.0131389508023858
792,-0.0032053804025054,-0.0649584084749222,-0.0282169319689274,-0.0156655702739954,-0.0115044573321939,-0.0210764482617378
793,0.0025967147666961,-0.0674930363893509,-0.0344664193689823,-0.0264287814497948,-0.0129039818421006,-0.0244425684213638
794,0.00483976677060127,-0.066724956035614,-0.0371713414788246,-0.03369465097785,-0.0150466738268733,-0.0214197468012571
795,0.00442860228940845,-0.0625018626451492,-0.0362989902496338,-0.0367002673447132,-0.0165074523538351,-0.0158779956400394
796,-0.00136025866959244,-0.0561389178037643,-0.0351184830069542,-0.0392060726881027,-0.0210722479969263,-0.0150115471333265
797,-0.0101083694025874,-0.0496368631720543,-0.0328293554484844,-0.041388463228941,-0.0280945766717196,-0.0199479274451733
798,-0.0150743722915649,-0.0467825122177601,-0.0263435412198305,-0.0402020663022995,-0.0318176373839378,-0.025578647851944
799,-0.0155591731891036,-0.0502057820558548,-0.0182059071958065,-0.0371367409825325,-0.0313211306929588,-0.0288403294980526
800,-0.0135311828926206,-0.0557752326130867,-0.0108736734837294,-0.0331460312008858,-0.0270473156124353,-0.0286152269691229
801,-0.00982864107936621,-0.057993970811367,-0.00415028305724263,-0.026630736887455,-0.0176683086901903,-0.0244841482490301
802,-0.00813811551779509,-0.0585925653576851,-0.000684990081936121,-0.0211494658142328,-0.00634959246963263,-0.0202249884605408
803,-0.0101870717480779,-0.0607636496424675,-0.00178713502828032,-0.0202921889722347,0.00141608610283583,-0.0185263324528933
804,-0.012741201557219,-0.0643302649259567,-0.00488725444301963,-0.0214395392686129,0.00326505047269166,-0.0173830296844244
805,-0.0128619596362114,-0.0685749724507332,-0.00737503869459033,-0.0212766248732805,-4.55900153610855E-05,-0.0146262319758534
806,-0.0106406062841415,-0.0734043940901756,-0.00868973787873983,-0.0194445475935936,-0.00681129982694983,-0.0107190776616335
807,-0.00652512395754457,-0.0774668604135513,-0.00736449426040053,-0.0149853434413671,-0.0122359590604901,-0.00498498417437077
808,-0.00121060153469443,-0.0774034634232521,-0.000302388420095667,-0.00670468155294657,-0.0108529655262828,0.00418616691604257
809,0.0017215491971001,-0.0730178356170654,0.00977463740855455,0.00140784727409482,-0.00547966128215194,0.0112940706312656
810,0.000455058121588081,-0.0678953975439072,0.0153387077152729,0.00425614649429917,-0.00183100788854063,0.00962059106677771
811,-0.00418236805126071,-0.0655214935541153,0.0121089117601514,-0.00020482977561187,-0.000955295981839299,-0.00127538188826293
812,-0.0112539194524288,-0.0681010112166405,0.000620282720774412,-0.0121507383882999,-0.00312942452728748,-0.0198652446269989
813,-0.0155198033899069,-0.0736774578690529,-0.0134355137124658,-0.025559464469552,-0.00716201914474368,-0.0406503491103649
814,-0.0107955783605576,-0.0765888020396233,-0.0214526113122702,-0.0308599900454283,-0.00716172158718109,-0.0534496605396271
815,0.0018679586937651,-0.0750333443284035,-0.0195741802453995,-0.0256152898073196,0.00117975217290223,-0.0530498474836349
816,0.0175379049032927,-0.0712355151772499,-0.00991054344922304,-0.0135168554261327,0.0161065086722374,-0.0415662340819836
817,0.0317832976579666,-0.0660493895411491,0.00253367773257196,2.3657850761083E-05,0.0323014818131924,-0.0247443225234747
818,0.0397128462791443,-0.0609776489436626,0.0108948461711407,0.0080793583765626,0.0410908386111259,-0.0111545259132981
819,0.0388805530965328,-0.0589199997484684,0.0122381076216698,0.00776272919028997,0.0352170467376709,-0.00619986234232783
820,0.0315708369016647,-0.0609308443963528,0.00991271436214447,0.00203633517958224,0.0167255681008101,-0.00766743486747146
821,0.021903308108449,-0.0653221607208252,0.0084135876968503,-0.00496856262907386,-0.00372746586799622,-0.00919622648507357
822,0.012796119786799,-0.0683062896132469,0.010314560495317,-0.00916268769651651,-0.014625777490437,-0.00609739543870091
823,0.00432125153020024,-0.0672035813331604,0.0131425494328141,-0.00892655178904533,-0.0141133023425937,-0.000399101409129798
824,-0.00480652740225196,-0.0626041367650032,0.0106145106256008,-0.00731333252042532,-0.010833085514605,0.00182638771366328
825,-0.0120438542217016,-0.054563045501709,0.00343214208260179,-0.00557142496109009,-0.0108353281393647,0.000244645576458424
826,-0.0117395166307688,-0.0445193275809288,-0.000383631268050522,-0.00131948478519917,-0.0122108478099108,0.000145359066664241
827,-0.00228643440641463,-0.0389521382749081,0.0018673735903576,0.00472901668399572,-0.0115426341071725,0.0033157414291054
828,0.01246886420995,-0.0402940362691879,0.00762687623500824,0.0107705518603325,-0.00689624296501279,0.00853282026946545
829,0.0262804795056582,-0.04369792714715,0.0161699820309877,0.0174062866717577,0.00101822277065367,0.014162864536047
830,0.032764807343483,-0.0461175516247749,0.0251175276935101,0.0227536391466856,0.00825999397784472,0.0162956584244967
831,0.0311343520879745,-0.046160776168108,0.0317584276199341,0.0259236712008715,0.0142854610458016,0.0153193455189466
832,0.0261037983000278,-0.0423034951090813,0.0370992869138718,0.0297976434230804,0.0223460290580988,0.0171201545745134
833,0.0195364151149988,-0.0380897261202335,0.0405031740665436,0.0332067795097828,0.0309062339365482,0.021803941577673
834,0.0123778432607651,-0.0351240672171116,0.0419279709458351,0.0351972915232182,0.0374099276959896,0.0262817088514566
835,0.00682771066203713,-0.0314892753958702,0.0427572093904018,0.0366645492613316,0.0408700816333294,0.0292047541588545
836,0.00152790290303528,-0.0314308032393456,0.0400203205645084,0.0340718254446983,0.0386194586753845,0.027311522513628
837,-0.00480667036026716,-0.038391187787056,0.0322047807276249,0.0266247540712357,0.0319947004318237,0.0203075278550386
838,-0.00919606164097786,-0.0476419404149055,0.0237086154520512,0.0201586466282606,0.0255557578057051,0.0133430166170001
839,-0.00774441752582788,-0.0526558980345726,0.0203637219965458,0.020698195323348,0.0217935536056757,0.0118867447599769
840,-0.00102265179157257,-0.0526446215808392,0.0241444669663906,0.0273946970701218,0.0204477179795504,0.0163834877312183
841,0.0063506318256259,-0.0511838681995869,0.033228550106287,0.0340882502496243,0.0208003986626863,0.0231700055301189
842,0.0105525385588408,-0.0506657287478447,0.0446487404406071,0.0371480621397495,0.0244807712733746,0.02927016466856
843,0.00876596104353666,-0.0541193895041943,0.0518056005239487,0.0341336019337177,0.0312957055866718,0.030407601967454
844,4.0360708226217E-05,-0.0624872706830502,0.0485023260116577,0.0239643473178148,0.0377372279763222,0.0240707751363516
845,-0.0127437813207507,-0.0708830803632736,0.0367462821304798,0.0115717286244035,0.0408211797475815,0.015497837215662
846,-0.02519166842103,-0.0757628902792931,0.023852750658989,0.0045198961161077,0.0390003100037575,0.0127845276147127
847,-0.0335127152502537,-0.077013373374939,0.0161659978330135,0.00536670163273811,0.0338416397571564,0.0189124047756195
848,-0.0353195108473301,-0.0743457078933716,0.0164744574576616,0.0104596307501197,0.0303460471332073,0.0293978806585073
849,-0.0311234276741743,-0.067801222205162,0.0227461867034435,0.0157923474907875,0.0314394421875477,0.0368118584156036
850,-0.0247404873371124,-0.059607770293951,0.0289231799542904,0.0183072425425053,0.033421628177166,0.0361141450703144
851,-0.0186048280447721,-0.0519640780985355,0.03148502856493,0.0177315026521683,0.0337205640971661,0.0296835415065289
852,-0.0141073018312454,-0.0475616864860058,0.0303093623369932,0.016274020075798,0.0348388701677322,0.0221730004996061
853,-0.014218220487237,-0.0498239733278751,0.0250981356948614,0.0137686841189861,0.0370359234511852,0.0128436423838139
854,-0.0166557487100363,-0.0543419793248177,0.0187767613679171,0.0110258813947439,0.0404183454811573,0.00310621736571193
855,-0.0159542057663202,-0.0528656840324402,0.0147255985066295,0.00997344125062227,0.0464918166399002,-0.00274117500521243
856,-0.0124976029619575,-0.0457871854305267,0.0127778854221106,0.0103320153430104,0.0528477318584919,-0.00361660728231072
857,-0.0107044726610184,-0.0401821881532669,0.0121604176238179,0.0104115596041083,0.0537575483322144,-0.00100483535788953
858,-0.0137066347524524,-0.0413701422512531,0.0107169654220343,0.00735742365941405,0.0449789948761463,0.00104588363319635
859,-0.0214152093976736,-0.0489258840680122,0.00463065085932612,4.02583391405642E-05,0.0277338325977325,-0.00113461958244443
860,-0.0302138794213533,-0.0575105920433998,-0.00487066991627216,-0.00728861102834344,0.00996594503521919,-0.00510636810213327
861,-0.0364546999335289,-0.0616035349667072,-0.0102197518572211,-0.00840363930910826,0.00109932583291084,-0.00608775950968266
862,-0.0389781035482883,-0.0592825077474117,-0.0053199022077024,-0.00128198380116373,0.00602813204750419,-0.00223857956007123
863,-0.036975771188736,-0.0518585182726383,0.00920410547405481,0.0111015914008021,0.0232236087322235,0.00660948874428868
864,-0.0323732234537601,-0.0447088293731213,0.024424035102129,0.0215398129075766,0.0416868515312672,0.0152990166097879
865,-0.0298494901508093,-0.0440808907151222,0.0304120071232319,0.0238940753042698,0.0489514246582985,0.0162350088357925
866,-0.03180992603302,-0.0500400513410568,0.0261535421013832,0.0195180680602789,0.0436338260769844,0.00919817201793194
867,-0.0390597581863403,-0.0586427450180054,0.0158380456268787,0.0124461408704519,0.0301989689469337,-0.00167601392604411
868,-0.0494898669421673,-0.0653880760073662,0.00457425648346543,0.00508473766967654,0.012881956063211,-0.0123486407101154
869,-0.0582259744405746,-0.0676631703972816,-0.00397118413820863,-0.00174598873127252,-0.00422827992588282,-0.0198298543691635
870,-0.0611658319830894,-0.0648988336324692,-0.00774218328297138,-0.00576860969886184,-0.0155918691307306,-0.01905482634902
871,-0.0575470887124538,-0.0571133121848106,-0.0051280246116221,-0.00420347834005952,-0.0160798747092485,-0.00583833735436201
872,-0.0523104183375835,-0.0481497533619404,0.0010873245773837,-0.000719646690413356,-0.00730320159345865,0.0109011521562934
873,-0.0524489283561707,-0.0437779314815998,0.00681152334436774,-0.00139475823380053,0.00579075841233134,0.0162669438868761
874,-0.0629592537879944,-0.0478150397539139,0.00874857045710087,-0.00904663745313883,0.0184809919446707,0.00499073881655931
875,-0.0801530852913857,-0.0576114989817142,0.0061706849373877,-0.0199766140431166,0.0284993052482605,-0.0141604254022241
876,-0.0904461964964867,-0.0633805394172668,0.00391579745337367,-0.0250821206718683,0.0363696813583374,-0.0270792935043573
877,-0.0849024429917336,-0.0590039901435375,0.00435045035555959,-0.0202808361500502,0.0394366234540939,-0.0280615631490946
878,-0.0662479773163795,-0.0482102520763874,0.00452924007549882,-0.00857598800212145,0.035228293389082,-0.0204651299864054
879,-0.0425828211009502,-0.0378109253942966,0.00310514657758176,0.00494908960536122,0.0273360647261143,-0.0103130154311657
880,-0.0225018728524446,-0.0309330560266972,0.00141347851604223,0.0144453048706055,0.020044581964612,-0.00288453279063106
881,-0.0124566704034805,-0.027819911018014,-0.000313552183797583,0.0158220119774342,0.0128910541534424,-0.00109168305061758
882,-0.0136263929307461,-0.0259543340653181,-0.00183912040665746,0.010346706956625,0.00532792042940855,-0.00375232473015785
883,-0.0208675004541874,-0.0211444869637489,-0.000589837902225554,0.00379761448130012,0.00115127535536885,-0.00495459139347076
884,-0.0292993038892746,-0.015931710600853,0.00197381712496281,-0.000246506300754845,0.00081102573312819,-0.00157728500198573
885,-0.0387768857181072,-0.0162078849971294,0.000544165843166411,-0.00270087318494916,-0.000572810764424503,0.00292572239413857
886,-0.0490098670125008,-0.0216990020126104,-0.00555375264957547,-0.00492359045892954,-0.00421321671456099,0.00435557356104255
887,-0.0572556890547276,-0.0298076551407576,-0.0128483548760414,-0.007288231048733,-0.00729822833091021,0.00122273818124086
888,-0.0592126920819283,-0.036452904343605,-0.0161537081003189,-0.00801620353013277,-0.00638158665969968,-0.00293568708002567
889,-0.0521035380661488,-0.03584910556674,-0.0116581693291664,-0.00502416165545583,0.000374070717953146,-0.00334172789007425
890,-0.0409976653754711,-0.0300166271626949,-0.00366177479736507,-0.00141563033685088,0.00888151209801435,-0.00227966974489391
891,-0.0339238680899143,-0.0259212180972099,0.000792630424257368,-0.000662780017592013,0.0157844424247742,-0.00300685921683908
892,-0.0302584003657103,-0.0219965614378452,0.00447883550077677,0.00259252497926354,0.0282016657292843,0.00139931088779122
893,-0.0252362564206123,-0.0143550438806415,0.01307063549757,0.0143492296338081,0.0506258681416512,0.0179565120488405
894,-0.019061055034399,-0.00632997089996934,0.0245575867593288,0.0306863393634558,0.0733126997947693,0.0409608669579029
895,-0.0161816217005253,-0.00341939297504723,0.032353151589632,0.0407988578081131,0.0822580084204674,0.0560522191226482
896,-0.0201848763972521,-0.00682180980220437,0.0300374925136566,0.0371169075369835,0.070755198597908,0.052947461605072
897,-0.0290159955620766,-0.0127000492066145,0.0170365255326033,0.0239252131432295,0.0442838072776794,0.03573914244771
898,-0.0376637354493141,-0.0187269672751427,-0.00141297525260597,0.00957271829247475,0.0137964347377419,0.0153049137443304
899,-0.0426098443567753,-0.0251072328537703,-0.0175042375922203,-0.00169590045697987,-0.0117056155577302,-0.000193258412764408
900,-0.0427122637629509,-0.0304703675210476,-0.0230562202632427,-0.00661150366067886,-0.0245240703225136,-0.00364152318798006
901,-0.041459184139967,-0.0354864001274109,-0.0195697601884604,-0.00797040108591318,-0.0247687697410584,0.00366524187847972
902,-0.0430942438542843,-0.0421929247677326,-0.0159257911145687,-0.0123213501647115,-0.0208558440208435,0.0104264160618186
903,-0.0475555993616581,-0.0489164814352989,-0.0159074496477842,-0.0186949782073498,-0.0179867036640644,0.00943905021995306
904,-0.0537802316248417,-0.0535912960767746,-0.0198494214564562,-0.0238883718848228,-0.0165424309670925,0.000647263019345701
905,-0.0594993308186531,-0.0553263835608959,-0.0254010893404484,-0.0269300956279039,-0.0142122162505984,-0.0121355121955276
906,-0.0614434070885181,-0.0531134344637394,-0.0277180671691895,-0.0265359375625849,-0.00893670320510864,-0.0239367932081223
907,-0.0585676021873951,-0.0457573123276234,-0.0245750192552805,-0.0220279730856419,-0.00198283838108182,-0.0315351895987988
908,-0.0522682555019856,-0.0324003547430038,-0.0178772024810314,-0.0149245792999864,0.00438381033018231,-0.0338866338133812
909,-0.0456102564930916,-0.0170213971287012,-0.0126365553587675,-0.00887888856232166,0.00766762439161539,-0.0334386713802814
910,-0.0403827093541622,-0.00728148920461535,-0.0116158714517951,-0.00596609432250261,0.00792229454964399,-0.0331970117986202
911,-0.0348237045109272,-0.00356247089803219,-0.0104418694972992,-0.00321810971945524,0.0105862775817513,-0.0312222018837929
912,-0.0273465849459171,-0.000262301968177781,-0.00448670983314514,0.00233939895406365,0.0183432530611753,-0.0246038306504488
913,-0.0205931812524796,0.00210019992664456,0.00283314497210085,0.00771503243595362,0.0257534477859735,-0.0162510890513659
914,-0.0160760004073381,0.00148754508700222,0.00795103050768375,0.0111618088558316,0.0298354607075453,-0.00901654083281755
915,-0.013428202830255,-0.000358107557985932,0.0108040729537606,0.0133584756404161,0.0316844098269939,-0.0039902413263917
916,-0.0155511535704136,-0.0038536130450666,0.00960022117942572,0.0115338573232293,0.0286737363785505,-0.00364066753536463
917,-0.0220631826668978,-0.0086365258321166,0.00685778306797147,0.00703669432550669,0.020957924425602,-0.00385614833794534
918,-0.0284814797341824,-0.0121413804590702,0.00773021718487144,0.00495659094303846,0.013204138725996,0.00176163390278816
919,-0.0329951904714108,-0.012589480727911,0.0125074358657002,0.0059633320197463,0.00921512302011251,0.0109861036762595
920,-0.036575298756361,-0.0106554208323359,0.0173914898186922,0.00622607115656137,0.00979497283697128,0.0161218196153641
921,-0.0417984090745449,-0.0106835514307022,0.016382560133934,0.000485456315800548,0.0107774687930942,0.0119970310479403
922,-0.0470771752297878,-0.0121685191988945,0.0102701866999269,-0.0079927509650588,0.0111657064408064,0.00340235978364944
923,-0.0477979332208633,-0.0106871966272593,0.00573576102033257,-0.00986523274332285,0.0135321673005819,-0.00187923095654696
924,-0.045319177210331,-0.00795750040560961,0.00318531529046595,-0.00494813499972224,0.0157995298504829,-0.00449202535673976
925,-0.0431231409311295,-0.00780594768002629,-0.00014301878400147,-0.000966652121860534,0.0156411342322826,-0.00948371365666389
926,-0.0391457043588161,-0.00878623221069574,-0.000474568223580718,-0.000257533887634054,0.0170045867562294,-0.0164818409830332
927,-0.0318854302167892,-0.00826866459101439,0.00466792611405253,1.77544407051755E-05,0.0229040440171957,-0.0223480444401503
928,-0.0249645784497261,-0.00585268577560782,0.00905221235007048,0.000385337305488065,0.0288261715322733,-0.0281511358916759
929,-0.0219150520861149,-0.00190721219405532,0.00740807922556996,-0.000164253971888684,0.0287021603435278,-0.0354579985141754
930,-0.022509727627039,0.00203156238421798,0.00056356965797022,-0.00248228572309017,0.0211664028465748,-0.0430093072354794
931,-0.0230603590607643,0.0049241678789258,-0.00742678577080369,-0.00606983155012131,0.010397220030427,-0.0478398352861404
932,-0.0223995372653008,0.00550002511590719,-0.0140868183225393,-0.00956170167773962,0.000369738030713052,-0.0487667173147202
933,-0.0239574294537306,0.00161622709129006,-0.0208770465105772,-0.0127438930794597,-0.00876397546380758,-0.0483794249594212
934,-0.0302157048135996,-0.00663716578856111,-0.0293898563832045,-0.0169186275452375,-0.0177727416157722,-0.0505763813853264
935,-0.0380521267652512,-0.0143045503646135,-0.0352278240025043,-0.0206905901432037,-0.0239467304199934,-0.0548985227942467
936,-0.0428786836564541,-0.0159735307097435,-0.0313705652952194,-0.0199297685176134,-0.0232526157051325,-0.0559117421507835
937,-0.0451250188052654,-0.0116699682548642,-0.0183388646692038,-0.014354377053678,-0.0163251906633377,-0.0480875000357628
938,-0.0463459864258766,-0.00413986016064882,-0.00191050535067916,-0.00667059142142534,-0.00596845289692283,-0.0300130769610405
939,-0.0458923354744911,0.00141716655343771,0.0115951467305422,-0.000324995839037001,0.00451851636171341,-0.00961135793477297
940,-0.0414402410387993,0.00144634314347059,0.0177314337342978,0.00286019407212734,0.0125031331554055,0.00361401191912591
941,-0.0313721559941769,-0.000251282064709812,0.0174895264208317,0.0041751335375011,0.0178314130753279,0.00875536352396011
942,-0.0206086672842503,-0.00104011222720146,0.0123016806319356,0.00260298978537321,0.0186775736510754,0.00716754607856274
943,-0.0149525832384825,-0.00112586049363017,0.00398380216211081,-0.00214531878009439,0.0161886923015118,0.000899859063792974
944,-0.0122362598776817,0.00239864480681717,0.000163009986863472,-0.00445605628192425,0.0178887695074081,-0.00422936491668224
945,-0.00911984033882618,0.00956598203629255,0.00503927934914827,-0.00166579056531191,0.0252391025424004,-0.00559404632076621
946,-0.00614390522241592,0.0162504389882088,0.0131750339642167,0.00305294571444392,0.032499760389328,-0.00409765774384141
947,-0.00451784115284681,0.0206719413399696,0.0194103326648474,0.00818797852844,0.0373645573854446,0.00062241597333923
948,-0.00514942407608032,0.0223621558398008,0.0237937457859516,0.0137572214007378,0.0406319238245487,0.0068796300329268
949,-0.00772026414051652,0.0223124772310257,0.0276760533452034,0.0189596395939589,0.0423137657344341,0.0111978743225336
950,-0.0125699322670698,0.0210117492824793,0.0288712736219168,0.0210419110953808,0.0407767854630947,0.0102184526622295
951,-0.0197607763111591,0.015060774050653,0.0241375081241131,0.0168994497507811,0.0348840467631817,0.00293011660687625
952,-0.0271936096251011,0.00234536710195243,0.013711417093873,0.00627574697136879,0.0252789463847876,-0.00793964136391878
953,-0.0335375294089317,-0.0127358604222536,0.00156233308371156,-0.00690113287419081,0.0150287635624409,-0.0183201339095831
954,-0.0375517643988132,-0.0219415370374918,-0.00608166679739952,-0.0153323384001851,0.0101275071501732,-0.0233514867722988
955,-0.0394432581961155,-0.0224580895155668,-0.00922107324004173,-0.0170407854020596,0.0115327937528491,-0.0228298455476761
956,-0.0403675213456154,-0.016476284712553,-0.0123549969866872,-0.0153759503737092,0.0145883085206151,-0.0201013926416636
957,-0.0403351224958897,-0.00767890922725201,-0.0176026560366154,-0.0139355445280671,0.0143391247838736,-0.0170361679047346
958,-0.0411277636885643,-0.00246704462915659,-0.0263200681656599,-0.0164282079786062,0.00652390206232667,-0.0146166840568185
959,-0.044554878026247,-0.00434890761971474,-0.0361779816448689,-0.0225108582526445,-0.00753100076690316,-0.0111588099971414
960,-0.0503265894949436,-0.012024937197566,-0.042182344943285,-0.0289529357105494,-0.0218347422778606,-0.00701100938022137
961,-0.0550535507500172,-0.0214988775551319,-0.0408443585038185,-0.0315508879721165,-0.0297301560640335,-0.00505691720172763
962,-0.0526220910251141,-0.026571124792099,-0.0313511677086353,-0.0262324549257755,-0.026264276355505,-0.00402481481432915
963,-0.0414269156754017,-0.0244374610483646,-0.0188641212880611,-0.0154319163411856,-0.0147460391744971,-0.00253929477185011
964,-0.0266295000910759,-0.0180210378021002,-0.0106836957857013,-0.00646086968481541,-0.00390461529605091,-0.00277901440858841
965,-0.0146827902644873,-0.00986228417605162,-0.00772492028772831,-0.00310693494975567,0.0036228692624718,-0.00583864189684391
966,-0.00955746322870255,-0.000723558652680367,-0.00642083026468754,-0.00393261993303895,0.0102480333298445,-0.00980758760124445
967,-0.0115264169871807,0.0053963758982718,-0.00634164130315185,-0.00690118316560984,0.0149212051182985,-0.0139824887737632
968,-0.0176179707050323,0.00450084917247295,-0.00980248395353556,-0.0116403000429273,0.0141839403659105,-0.0199833624064922
969,-0.0229267813265324,-0.00015790959878359,-0.0158199351280928,-0.0168515760451555,0.00814398564398289,-0.0263266172260046
970,-0.0258369706571102,-0.00463213166221976,-0.0220326893031597,-0.0216414909809828,-0.000623219704721123,-0.0302136782556772
971,-0.0273741595447063,-0.008483218960464,-0.0261395182460546,-0.0247752331197262,-0.00791415479034185,-0.0295099150389433
972,-0.0260272286832333,-0.00982092320919037,-0.0247211623936892,-0.0227261576801538,-0.00950923841446638,-0.0223535764962435
973,-0.0228127595037222,-0.00940872542560101,-0.020362826064229,-0.0171747803688049,-0.00860681757330894,-0.0131768258288503
974,-0.0202432218939066,-0.0109989466145635,-0.0184795316308737,-0.013249484822154,-0.00992296915501356,-0.00760451564565301
975,-0.0165270734578371,-0.0142051475122571,-0.0180930476635695,-0.011029239743948,-0.012270849198103,-0.00448626466095448
976,-0.0101101668551564,-0.0164914522320032,-0.0168970357626677,-0.00926842447370291,-0.0151295438408852,-0.00196382310241461
977,-0.00424617482349277,-0.0180946793407202,-0.0165410153567791,-0.0100597906857729,-0.01997553370893,-0.00184236175846308
978,-0.00263871182687581,-0.0191830676048994,-0.0174312442541122,-0.0135458130389452,-0.0237002950161695,-0.0023408280685544
979,-0.00581059651449323,-0.0198597628623247,-0.0174180250614882,-0.0172353368252516,-0.0220893677324057,0.00205181748606265
980,-0.0119598535820842,-0.0221643671393394,-0.0159650817513466,-0.0207152143120766,-0.0170059818774462,0.0115011110901833
981,-0.0170020367950201,-0.0265010744333267,-0.0136224003508687,-0.0236115138977766,-0.0124916974455118,0.0214457679539919
982,-0.0167759265750647,-0.0310283992439508,-0.0100535890087485,-0.0241430178284645,-0.00922589842230082,0.0281164702028036
983,-0.0115068079903722,-0.0343692675232887,-0.00704096676781774,-0.0228231884539127,-0.00645951274782419,0.0289417374879122
984,-0.00542194489389658,-0.0358099639415741,-0.00826082099229097,-0.0222161840647459,-0.00378326396457851,0.0235877018421888
985,0.000976831768639386,-0.0321955420076847,-0.00981952808797359,-0.0187888722866774,0.00251184590160847,0.0180200636386871
986,0.00883536599576473,-0.0221913810819387,-0.00497253285720944,-0.00685172993689775,0.0137453638017178,0.0167175121605396
987,0.014753682538867,-0.0108108874410391,0.00356612959876657,0.00971593987196684,0.0250113680958748,0.0149901723489165
988,0.0154195558279753,-0.00409533968195319,0.00810525100678205,0.0205155741423368,0.0323377549648285,0.00704830279573798
989,0.00860082264989614,-0.00761243933811784,0.00271033309400082,0.0167295522987843,0.0302102118730545,-0.00829460099339485
