,AF3,AF4,Fp1,Fp2,AF7,AF8
0,-0.156220778822899,-0.067052386701107,-0.0335706062614918,-0.0296666715294123,-0.0361693128943443,-0.032078180462122
1,-0.156179025769234,-0.0638449192047119,-0.0414053983986378,-0.0314726866781712,-0.0403617955744267,-0.0385314114391804
2,-0.157270699739456,-0.0623240806162357,-0.0483141243457794,-0.033231683075428,-0.0407654084265232,-0.0436010658740997
3,-0.157283917069435,-0.0627213716506958,-0.0518330335617065,-0.0343261510133743,-0.0338235460221767,-0.0458513610064983
4,-0.155578374862671,-0.0646429434418678,-0.0516610965132713,-0.0347003862261772,-0.0219172425568104,-0.0442263223230839
5,-0.152992099523544,-0.0673099830746651,-0.0485557541251183,-0.0337050147354603,-0.0097015518695116,-0.0385784506797791
6,-0.150621309876442,-0.0705915316939354,-0.0438455753028393,-0.0313573926687241,0.000781115901190788,-0.0306269899010658
7,-0.149356856942177,-0.0744683519005775,-0.0392270125448704,-0.029482776299119,0.00796857755631208,-0.0231403168290854
8,-0.148439928889275,-0.0768328979611397,-0.0349118784070015,-0.0280593372881413,0.00991982035338879,-0.0175896808505058
9,-0.147499844431877,-0.0763227194547653,-0.0308372154831886,-0.0264574196189642,0.00610140850767493,-0.0145490802824497
10,-0.146448537707329,-0.0729557797312737,-0.0265469141304493,-0.024195471778512,2.34438957704697E-05,-0.0123789720237255
11,-0.142325013875961,-0.0659023299813271,-0.0205447115004063,-0.0197290852665901,-0.00230061146430671,-0.00778485927730799
12,-0.134352192282677,-0.0568672381341457,-0.0143324602395296,-0.0145784756168723,0.000305175693938509,-0.00247765542007983
13,-0.128302156925201,-0.0504909418523312,-0.011931418441236,-0.0126038379967213,0.00358747108839452,-0.00207308260723948
14,-0.12915712594986,-0.0489976480603218,-0.0140510369092226,-0.0144519824534655,0.00382917653769255,-0.00759014906361699
15,-0.134204387664795,-0.0502044707536697,-0.0170284677296877,-0.0170946549624205,0.00092406349722296,-0.0141712799668312
16,-0.138419717550278,-0.0506565421819687,-0.0174043048173189,-0.0175613146275282,-0.00308537995442748,-0.0168060436844826
17,-0.142253011465073,-0.0506070889532566,-0.016393855214119,-0.0170236714184284,-0.0084543488919735,-0.016242852434516
18,-0.147311583161354,-0.0521169416606426,-0.0162866320461035,-0.0179070513695478,-0.0159000009298325,-0.0161398835480213
19,-0.152340546250343,-0.0543390959501266,-0.0159744415432215,-0.0195575933903456,-0.0226448066532612,-0.0174828413873911
20,-0.15695221722126,-0.0554307512938976,-0.0139822913333774,-0.0208141058683395,-0.0259083658456802,-0.0199293680489063
21,-0.162294805049896,-0.0556016601622105,-0.0110869482159615,-0.0225613228976727,-0.0262382533401251,-0.023576769977808
22,-0.170529216527939,-0.0572043210268021,-0.0101510211825371,-0.027163278311491,-0.0263683069497347,-0.0286828465759754
23,-0.181473895907402,-0.0611053928732872,-0.012668190523982,-0.0339187644422054,-0.027230417355895,-0.0329224765300751
24,-0.188892513513565,-0.0631824135780334,-0.0153636066243052,-0.036833144724369,-0.0254020299762487,-0.0302102733403444
25,-0.187053456902504,-0.0594405457377434,-0.0146735450252891,-0.0324373468756676,-0.0177382007241249,-0.0183733236044645
26,-0.177692085504532,-0.0518842749297619,-0.011744849383831,-0.0245655085891485,-0.00708910543471575,-0.00424057338386774
27,-0.165951803326607,-0.0440429858863354,-0.00973431207239628,-0.017682746052742,0.00119572167750448,0.00480023771524429
28,-0.154633089900017,-0.0365854725241661,-0.00981605052947998,-0.0125282350927591,0.00526735000312328,0.00811428669840097
29,-0.144526600837708,-0.0297144036740065,-0.0106974979862571,-0.00835782010108233,0.0070434333756566,0.00930094812065363
30,-0.135532349348068,-0.0239681489765644,-0.00936636421829462,-0.00406693620607257,0.0107812499627471,0.0117663508281112
31,-0.128148779273033,-0.0200340636074543,-0.00479554384946823,0.000119001786515582,0.0184118654578924,0.0154504263773561
32,-0.124635599553585,-0.0190814901143312,2.67950345005374E-05,0.0018978426232934,0.0258556827902794,0.0171615201979876
33,-0.124934360384941,-0.0201773531734943,0.00318431062623858,0.000503093178849667,0.0290866140276194,0.0154316201806068
34,-0.124990232288837,-0.0205956138670444,0.00577160669490695,-0.00202410644851625,0.0285282414406538,0.0124443732202053
35,-0.12197195738554,-0.0194038636982441,0.00846265163272619,-0.0037138219922781,0.0261564906686544,0.00994959659874439
36,-0.11693075299263,-0.0170178711414337,0.0104248877614737,-0.00444941315799952,0.0230858735740185,0.00737388851121068
37,-0.112377889454365,-0.0133128622546792,0.0107109947130084,-0.00466346321627498,0.0187669862061739,0.00429122615605593
38,-0.10988213121891,-0.0080930208787322,0.00998809840530157,-0.00352257932536304,0.0128996204584837,0.00169089529663324
39,-0.110355630517006,-0.00265367701649666,0.00915024802088737,-0.00080681178951636,0.0061338716186583,-6.55430412734859E-05
40,-0.113642960786819,0.00083479197928682,0.00777206616476178,0.00174662354402244,-0.000715701433364302,-0.00199172063730657
41,-0.117705851793289,0.00236289179883897,0.0061371847987175,0.0035251029767096,-0.0059571429155767,-0.00364502053707838
42,-0.121683299541473,0.00269662076607347,0.00481996778398752,0.00440326565876603,-0.00941379182040691,-0.00457653217017651
43,-0.124767407774925,0.00225896504707634,0.00492501351982355,0.00429360149428248,-0.0115849860012531,-0.00455495342612267
44,-0.125349447131157,0.00205941149033606,0.00723035354167223,0.00478653237223625,-0.0124987037852407,-0.00202904129400849
45,-0.124488703906536,0.00157123722601682,0.00959588307887316,0.0065873502753675,-0.0137273473665118,0.00257925735786557
46,-0.122406385838985,0.000902182015124708,0.0116752348840237,0.0100228851661086,-0.0144452005624771,0.00924388878047466
47,-0.117602959275246,0.00196348549798131,0.0157274920493364,0.0155768096446991,-0.0110633643344045,0.0190534833818674
48,-0.110618487000465,0.0045887166634202,0.0212989114224911,0.0215081740170717,-0.0022193577606231,0.0299676209688187
49,-0.102005377411842,0.00683359801769257,0.0266210250556469,0.0256487280130386,0.01051333732903,0.0400899611413479
50,-0.0917732641100883,0.00750010320916772,0.031477052718401,0.0277568604797125,0.024079130962491,0.0494031868875027
51,-0.082573689520359,0.00601515732705593,0.0344623103737831,0.0274281688034534,0.0343841724097729,0.0549082569777966
52,-0.0788736343383789,0.00156824395526201,0.0315105654299259,0.0224599912762642,0.0369952768087387,0.0514480136334896
53,-0.0807030722498894,-0.00420476403087378,0.0219440218061209,0.0137613564729691,0.0312994942069054,0.0397797636687756
54,-0.0814312249422073,-0.00667726015672088,0.0122328409925103,0.00724088540300727,0.0220197327435017,0.0272920560091734
55,-0.0759486630558968,-0.00368278846144676,0.00868952833116055,0.00686769280582666,0.014142781496048,0.0198339149355888
56,-0.0667396262288094,0.00240331795066595,0.0102396700531244,0.0105492370203137,0.00903755985200405,0.0179777033627033
57,-0.059128612279892,0.007334447465837,0.0122361537069082,0.0133351488038898,0.00537657318636775,0.0183579362928867
58,-0.0545017085969448,0.00921019073575735,0.0134173659607768,0.0132760526612401,0.00356064713560045,0.0177984908223152
59,-0.0518666543066502,0.00853600073605776,0.0136013105511665,0.0110150072723627,0.00422099605202675,0.0155149502679706
60,-0.0522798933088779,0.00425155507400632,0.0104390950873494,0.00540195545181632,0.00346094043925405,0.0106661822646856
61,-0.0554665215313435,-0.00341222179122269,0.00393030326813459,-0.00333687546662986,-0.0012901471927762,0.00404215697199106
62,-0.057145681232214,-0.010295351035893,-0.00226136203855276,-0.010887942276895,-0.00643680337816477,-0.000285181740764529
63,-0.0535321608185768,-0.0133714489638805,-0.00515455054119229,-0.0138939823955297,-0.00819180347025394,0.000870475196279585
64,-0.0452260263264179,-0.0134729128330946,-0.00443018553778529,-0.0132219335064292,-0.00739746261388063,0.0062531172297895
65,-0.035300001502037,-0.0121438642963767,-0.00122665998060256,-0.010758163407445,-0.00636203866451979,0.0128158200532198
66,-0.0265807043761015,-0.011078511364758,0.00215254398062825,-0.00756104709580541,-0.0061513097025454,0.0183806195855141
67,-0.0205859895795584,-0.0111816534772515,0.00528464326635003,-0.00346224242821336,-0.00480413623154163,0.0219211485236883
68,-0.0176807511597872,-0.0112699987366796,0.0102830771356821,0.00177452142816037,0.00124253099784255,0.0230976473540068
69,-0.0183147136121988,-0.0117200780659914,0.0159786939620972,0.00563625479117036,0.010052714496851,0.0208441410213709
70,-0.0211251005530357,-0.0138851525261998,0.019110394641757,0.00595315871760249,0.0167769212275743,0.0157430730760098
71,-0.0223314128816128,-0.0169276427477598,0.0186111070215702,0.00333652482368052,0.02091752178967,0.0104145100340247
72,-0.0186889450997114,-0.0178237929940224,0.0166250169277191,0.000441200449131429,0.0248895641416311,0.00785784143954515
73,-0.0116056427359581,-0.0152322510257363,0.015464604832232,-0.00134196865838021,0.0269688703119755,0.00845029018819332
74,-0.00586060294881463,-0.0112804947420955,0.0147043783217669,-0.00330270570702851,0.0228822659701109,0.00902773439884186
75,-0.00240652402862906,-0.00705243228003383,0.0143137080594897,-0.00481664389371872,0.014936201274395,0.00889676902443171
76,0.000480318063637242,-0.00340789742767811,0.0130328722298145,-0.00575395300984383,0.00734183890745044,0.00871362444013357
77,0.00214924826286733,-0.00270290812477469,0.00788186397403479,-0.00894803274422884,-0.000799008412286639,0.00675361789762974
78,0.00173403008375317,-0.00352916168048978,0.000212854109122418,-0.0139862224459648,-0.00875881779938936,0.0034997493494302
79,-0.000183198499144055,-0.00209335843101144,-0.00663356715813279,-0.018212703987956,-0.0137230260297656,0.000952565169427544
80,-0.00318276812322438,0.00165579665917903,-0.0121965426951647,-0.0219730138778687,-0.0176463462412357,-0.00214721914380789
81,-0.00582874985411763,0.00550920888781548,-0.0155994053930044,-0.0252100545912981,-0.0225086621940136,-0.00590877467766404
82,-0.00620924541726708,0.00776736903935671,-0.0147494627162814,-0.0256757382303476,-0.0266165845096111,-0.00732935406267643
83,-0.00532310921698809,0.00718460930511355,-0.0111260311678052,-0.0233607441186905,-0.0291550122201443,-0.00581571646034718
84,-0.00536608463153243,0.00370547687634826,-0.0086852191016078,-0.020889051258564,-0.0288126412779093,-0.00287011079490185
85,-0.0060097249224782,-0.00110228161793202,-0.00793465506285429,-0.019583135843277,-0.0229876525700092,0.000450854771770537
86,-0.00506240362301469,-0.00546001829206944,-0.00718614272773266,-0.0190365109592676,-0.0133560644462705,0.00189758278429508
87,-0.001285350183025,-0.00846897345036268,-0.00704376259818673,-0.0194680355489254,-0.0060876552015543,-0.000722390483133495
88,0.00369201763533056,-0.0097713228315115,-0.00913919322192669,-0.0213171374052763,-0.00490444153547287,-0.00637352559715509
89,0.00559454318135977,-0.010044077411294,-0.0145897064357996,-0.0248121917247772,-0.00868087448179722,-0.012317905202508
90,0.0014237459981814,-0.011032385751605,-0.0232277270406485,-0.0300768259912729,-0.0150158796459436,-0.017005056142807
91,-0.00911038275808096,-0.01556805241853,-0.033947728574276,-0.0380994491279125,-0.0238335393369198,-0.023185882717371
92,-0.0237745121121407,-0.0249035116285086,-0.0448996163904667,-0.0491446293890476,-0.0355789661407471,-0.0338266715407372
93,-0.0363737419247627,-0.0339401140809059,-0.0524429902434349,-0.0584814995527267,-0.0464137643575668,-0.0439992807805538
94,-0.041294202208519,-0.0350915268063545,-0.0541897863149643,-0.0606929734349251,-0.0509583987295628,-0.0467692352831364
95,-0.0386970117688179,-0.0260128490626812,-0.050909910351038,-0.0553961582481861,-0.0473709590733051,-0.040790107101202
96,-0.0337371230125427,-0.0115991057828069,-0.0460346788167953,-0.0467844754457474,-0.0399339944124222,-0.0296967588365078
97,-0.0311890784651041,0.00188945746049285,-0.0425142608582973,-0.0395389311015606,-0.0360234938561916,-0.0187987722456455
98,-0.0326958745718002,0.0115546537563205,-0.041598130017519,-0.0364027805626392,-0.0397945307195187,-0.0128357168287039
99,-0.0384236201643944,0.0165871009230614,-0.0438747406005859,-0.0376814790070057,-0.0498431734740734,-0.0145661262795329
100,-0.0470451898872852,0.0185525957494974,-0.0466136671602726,-0.0401768572628498,-0.0602283179759979,-0.0220655724406242
101,-0.0552813299000263,0.0204795747995377,-0.0453333705663681,-0.0404254533350468,-0.0651642978191376,-0.0298124458640814
102,-0.0595017038285732,0.0241747237741947,-0.0390189327299595,-0.0374906845390797,-0.062337089329958,-0.0322233662009239
103,-0.0604523718357086,0.0283633451908827,-0.0321308635175228,-0.0335521921515465,-0.0533360652625561,-0.0287958923727274
104,-0.0612233243882656,0.031092869117856,-0.0278691798448563,-0.0300204027444124,-0.0407757945358753,-0.0225480943918228
105,-0.061712384223938,0.0327040515840054,-0.0240322276949883,-0.0249936431646347,-0.027706403285265,-0.0148018868640065
106,-0.0618894435465336,0.0334710106253624,-0.0203863922506571,-0.019719960168004,-0.0200688634067774,-0.00899226684123278
107,-0.063543826341629,0.033452745527029,-0.0196501985192299,-0.0183208119124174,-0.0210143849253654,-0.00977442134171724
108,-0.0671700611710548,0.0338959023356438,-0.0213211383670568,-0.0208539552986622,-0.026419123634696,-0.0163274314254522
109,-0.0709312707185745,0.03650888428092,-0.0216896086931229,-0.0234293024986982,-0.0308224484324455,-0.0228046551346779
110,-0.0724307000637054,0.041423823684454,-0.018827598541975,-0.0229265671223402,-0.0324318110942841,-0.0241044275462627
111,-0.072247713804245,0.0446737036108971,-0.0154942693188787,-0.0206407960504293,-0.0326569192111492,-0.0215983372181654
112,-0.0728946998715401,0.041777566075325,-0.0159116685390472,-0.0205935649573803,-0.0339594632387161,-0.0205584596842527
113,-0.0731342360377312,0.0345242358744144,-0.0203314311802387,-0.0231428686529398,-0.0361933559179306,-0.0215779691934586
114,-0.0723987072706223,0.0269941277801991,-0.027654318138957,-0.0264500267803669,-0.0383296869695187,-0.0227360501885414
115,-0.0773857459425926,0.0198792237788439,-0.0376378707587719,-0.0306174252182245,-0.040107786655426,-0.0250648837536573
116,-0.0940313935279846,0.0137285683304071,-0.0472281016409397,-0.0352920889854431,-0.0389490239322186,-0.029754551127553
117,-0.11999885737896,0.00975081324577332,-0.0530962832272053,-0.039675384759903,-0.0328480303287506,-0.036064550280571
118,-0.149689093232155,0.00792476907372475,-0.0557787343859673,-0.0435254573822021,-0.0256046168506145,-0.042551077902317
119,-0.181369513273239,0.00602856557816267,-0.0594274252653122,-0.0480363182723522,-0.0261300653219223,-0.0498003214597702
120,-0.213843703269959,0.00275721703656018,-0.0659684911370277,-0.0539173632860184,-0.0377969890832901,-0.0573703870177269
121,-0.242558941245079,2.0430059521459E-05,-0.072592169046402,-0.0590224824845791,-0.0541709288954735,-0.0609481669962406
122,-0.264225155115128,-0.00107610877603292,-0.0765347331762314,-0.0612946785986423,-0.0673406645655632,-0.0573032684624195
123,-0.278856009244919,-0.00122942845337093,-0.0766077265143394,-0.0605467930436134,-0.0725786238908768,-0.0480889417231083
124,-0.287967532873154,-0.00111909804400057,-0.0733219161629677,-0.0583629012107849,-0.0696544870734215,-0.0395287871360779
125,-0.292794555425644,0.000502932642120868,-0.0667180120944977,-0.0549217499792576,-0.0604108683764935,-0.0354083925485611
126,-0.295406520366669,0.00485472520813346,-0.0564057342708111,-0.0491897240281105,-0.047811646014452,-0.0348631329834461
127,-0.298826783895493,0.0105151031166315,-0.0435785502195358,-0.0418993048369884,-0.0363523066043854,-0.036418117582798
128,-0.304275095462799,0.0156655088067055,-0.028808893635869,-0.0336713939905167,-0.0280118435621262,-0.0373166650533676
129,-0.312285780906677,0.0183643233031034,-0.0153376394882798,-0.0258957576006651,-0.0241316128522158,-0.035824716091156
130,-0.322741389274597,0.0166266858577728,-0.0106931813061237,-0.021958164870739,-0.0274848509579897,-0.0341718979179859
131,-0.332722634077072,0.0112441210076213,-0.0173413287848234,-0.0228815190494061,-0.0367895178496838,-0.0346652865409851
132,-0.338162332773209,0.00692741759121418,-0.0283990669995546,-0.0242205541580915,-0.0451941601932049,-0.0352906808257103
133,-0.337021976709366,0.00870237778872252,-0.0353242196142673,-0.0206458326429129,-0.0466559790074825,-0.0319447107613087
134,-0.332995474338531,0.0144854541867971,-0.0377649292349815,-0.0142083847895265,-0.0437610298395157,-0.0261288397014141
135,-0.332630008459091,0.0174547713249922,-0.0408933199942112,-0.0112213725224137,-0.0436802543699741,-0.023767588660121
136,-0.336229711771011,0.0165859460830688,-0.0446887351572514,-0.0123654250055552,-0.0463490821421146,-0.0253272261470556
137,-0.339339882135391,0.0150601575151086,-0.0457339286804199,-0.0145948911085725,-0.0468059703707695,-0.0265081357210875
138,-0.33968785405159,0.0141049427911639,-0.0433957055211067,-0.0163514148443937,-0.0433496944606304,-0.0252862703055143
139,-0.337835073471069,0.0136646553874016,-0.0395014323294163,-0.0177620127797127,-0.0374127440154552,-0.0228544026613235
140,-0.333938390016556,0.0147126466035843,-0.0354249142110348,-0.0186335537582636,-0.0302967485040426,-0.0192118659615517
141,-0.328919529914856,0.0168722663074732,-0.0320651456713676,-0.0189814399927855,-0.0239297393709421,-0.0137653322890401
142,-0.326151251792908,0.0176121667027473,-0.0304957646876574,-0.0202996898442507,-0.020937068387866,-0.00848663039505482
143,-0.326146721839905,0.017321826890111,-0.0294288713485003,-0.0219937097281218,-0.0196525901556015,-0.00457294099032879
144,-0.326656937599182,0.0178111251443625,-0.0281237419694662,-0.0221536196768284,-0.0165286920964718,-0.00175457482691854
145,-0.327343583106995,0.0183370094746351,-0.0291413795202971,-0.0211690198630095,-0.0130155552178621,-0.00154974742326885
146,-0.328042805194855,0.0183555725961924,-0.0332942493259907,-0.0198427140712738,-0.0130175268277526,-0.00580503372475505
147,-0.326637238264084,0.0195454340428114,-0.0373077429831028,-0.0169089920818806,-0.0169254709035158,-0.0121861873194575
148,-0.322744280099869,0.0216497890651226,-0.039063211530447,-0.0124423056840897,-0.0228777620941401,-0.0170887392014265
149,-0.318684011697769,0.0223372541368008,-0.0392475686967373,-0.00891735684126616,-0.0293914005160332,-0.0200026296079159
150,-0.315390706062317,0.0216266196221113,-0.0381350703537464,-0.00737112760543823,-0.0347706191241741,-0.0218004230409861
151,-0.312438100576401,0.0200958698987961,-0.0359550192952156,-0.0077314330264926,-0.0379598997533321,-0.0236477814614773
152,-0.310092926025391,0.0166474003344774,-0.0341453030705452,-0.01011111587286,-0.0395509973168373,-0.0275386665016413
153,-0.30832427740097,0.0108946105465293,-0.033885482698679,-0.0141287324950099,-0.0406257174909115,-0.0347252450883389
154,-0.305717587471008,0.00441636517643929,-0.0344812422990799,-0.018725112080574,-0.0414627976715565,-0.0432104505598545
155,-0.301416099071503,-0.00128682842478156,-0.0358056612312794,-0.0234254337847233,-0.0422536358237267,-0.0501535274088383
156,-0.295400679111481,-0.00544458767399192,-0.038501251488924,-0.0277835112065077,-0.0418168604373932,-0.0541108548641205
157,-0.286413729190826,-0.0069465828128159,-0.0396257378160954,-0.0293888617306948,-0.0365416035056114,-0.0533815324306488
158,-0.274797230958939,-0.00622704392299056,-0.0367285497486591,-0.0271887257695198,-0.026876213029027,-0.0480054952204227
159,-0.263729125261307,-0.0051924679428339,-0.0325872600078583,-0.0235528070479631,-0.0181805733591318,-0.04086609557271
160,-0.255872219800949,-0.00511210924014449,-0.0312978625297546,-0.0213697664439678,-0.0147437788546085,-0.0352790504693985
161,-0.252071231603622,-0.00616168323904276,-0.0344459228217602,-0.0217137355357409,-0.0185365751385689,-0.0333165377378464
162,-0.250512033700943,-0.00622676918283105,-0.0388618372380733,-0.0222810674458742,-0.0267222002148628,-0.0341994240880013
163,-0.248491287231445,-0.00352054368704557,-0.0395983904600143,-0.020633963868022,-0.0334907695651054,-0.0365304239094257
164,-0.245932087302208,0.000396030460251495,-0.0358877368271351,-0.0182658657431602,-0.0368065573275089,-0.0409358814358711
165,-0.243632555007935,0.00388239859603345,-0.0306588746607304,-0.0172776971012354,-0.0368744842708111,-0.0468613617122173
166,-0.241721734404564,0.00675286818295717,-0.0280667934566736,-0.0180358309298754,-0.0352511145174503,-0.0515657737851143
167,-0.240449026226997,0.00885435007512569,-0.0307831224054098,-0.0200963076204062,-0.0357961989939213,-0.0532297044992447
168,-0.239199906587601,0.0103324176743627,-0.0368271768093109,-0.022092605009675,-0.0393674559891224,-0.0517835915088654
169,-0.237111359834671,0.0112908706068993,-0.0421053022146225,-0.0235766544938087,-0.0427899099886417,-0.0490399785339832
170,-0.234782099723816,0.0109166353940964,-0.0452397838234901,-0.0258852578699589,-0.0439632423222065,-0.048282016068697
171,-0.23387037217617,0.00849602650851011,-0.0474557429552078,-0.0297578163444996,-0.044360339641571,-0.0519057363271713
172,-0.233729630708694,0.00612997263669968,-0.0484631210565567,-0.0329781286418438,-0.0455110259354115,-0.0582767501473427
173,-0.231197506189346,0.00662779714912176,-0.0471383072435856,-0.0331205800175667,-0.0468472540378571,-0.0635953024029732
174,-0.225102707743645,0.00965793151408434,-0.0447643436491489,-0.0313574112951756,-0.0491458922624588,-0.066583164036274
175,-0.217612892389297,0.0129236606881022,-0.0433906354010105,-0.0307055730372667,-0.0546264685690403,-0.0676165595650673
176,-0.211365655064583,0.0146877728402615,-0.0429538935422897,-0.0324426852166653,-0.06233224645257,-0.0672369748353958
177,-0.207332849502563,0.0145405130460858,-0.0430609472095966,-0.0355036593973637,-0.0688602030277252,-0.0674371123313904
178,-0.205372706055641,0.0126695670187473,-0.0451840609312058,-0.0387475229799747,-0.0731125846505165,-0.0705222263932228
179,-0.204697668552399,0.0104093821719289,-0.0489038899540901,-0.0419673509895802,-0.0761037021875381,-0.0767200216650963
180,-0.204010337591171,0.0101875560358167,-0.0506561025977135,-0.0446681492030621,-0.0784855931997299,-0.0836398378014565
181,-0.201651990413666,0.0137760061770678,-0.0484130494296551,-0.0450688563287258,-0.0788988918066025,-0.0869049280881882
182,-0.196626245975494,0.0206998772919178,-0.0446197018027306,-0.0423280037939548,-0.075911283493042,-0.0841326788067818
183,-0.189912751317024,0.0287978816777468,-0.0425475016236305,-0.0378209091722965,-0.0707444176077843,-0.0771692022681236
184,-0.183133214712143,0.0362320356070995,-0.0423516891896725,-0.0334741920232773,-0.0653791502118111,-0.0696851834654808
185,-0.17597234249115,0.0422379076480865,-0.0422259159386158,-0.0304201990365982,-0.06027427688241,-0.065056100487709
186,-0.167922854423523,0.0460732690989971,-0.0411884970963001,-0.029180908575654,-0.0552694834768772,-0.0653199478983879
187,-0.161564618349075,0.0465258024632931,-0.0401803888380528,-0.0303868018090725,-0.0518905483186245,-0.0698601305484772
188,-0.159391239285469,0.0442212112247944,-0.0393099375069141,-0.0330106280744076,-0.0512142181396484,-0.0749854817986488
189,-0.160964265465736,0.0406849458813667,-0.0370684117078781,-0.0350559428334236,-0.0507201626896858,-0.0777949318289757
190,-0.164548441767693,0.0371873714029789,-0.0326496325433254,-0.0349354036152363,-0.0470777824521065,-0.0772979855537415
191,-0.169153496623039,0.0348469354212284,-0.0279702804982662,-0.0320876277983189,-0.040936067700386,-0.0729301124811172
192,-0.174961850047112,0.0327407233417034,-0.0275365300476551,-0.0293767433613539,-0.0377679280936718,-0.0669481530785561
193,-0.182051792740822,0.0298169609159231,-0.034264363348484,-0.0307986214756966,-0.043781828135252,-0.064264714717865
194,-0.188219606876373,0.0278720203787088,-0.0450933873653412,-0.0355536639690399,-0.05885124579072,-0.0666552409529686
195,-0.18975518643856,0.0287518929690123,-0.053286325186491,-0.0390041097998619,-0.0748015195131302,-0.0712148621678352
196,-0.186408311128616,0.0305191036313772,-0.0564818680286407,-0.0399327203631401,-0.0836387053132057,-0.07608363032341
197,-0.181535512208939,0.0302935112267733,-0.0574478358030319,-0.0412551984190941,-0.0849840417504311,-0.0823856219649315
198,-0.177665278315544,0.0282148495316505,-0.0575988963246346,-0.0442641414701939,-0.0828893035650253,-0.0904368087649345
199,-0.173269256949425,0.0272382702678442,-0.0547130517661572,-0.0461621657013893,-0.0777366310358047,-0.0967254489660263
200,-0.165883764624596,0.0286956615746021,-0.0482021011412144,-0.0449353940784931,-0.0678917765617371,-0.0974096059799194
201,-0.156610786914825,0.0305884759873152,-0.0408153720200062,-0.0417306274175644,-0.0556704327464104,-0.092109277844429
202,-0.147378161549568,0.0328458957374096,-0.0334489122033119,-0.0364723317325115,-0.0453226529061794,-0.0818739980459213
203,-0.138618424534798,0.0371622145175934,-0.0261561665683985,-0.0285836160182953,-0.0388949885964394,-0.0687951445579529
204,-0.131245344877243,0.0418812893331051,-0.0219355057924986,-0.0207990277558565,-0.0372112728655338,-0.0571308173239231
205,-0.127704337239265,0.0433990955352783,-0.0234015509486198,-0.0170106943696737,-0.0413792468607426,-0.0509343855082989
206,-0.128675743937492,0.0406952612102032,-0.0295764282345772,-0.0180832799524069,-0.0509436130523682,-0.0508939325809479
207,-0.129015639424324,0.036736361682415,-0.0368191674351692,-0.0209049675613642,-0.0619436651468277,-0.0539521127939224
208,-0.122381843626499,0.0361475311219692,-0.0397787317633629,-0.0208964459598064,-0.0674084275960922,-0.0553250350058079
209,-0.109531581401825,0.0402868203818798,-0.0353333353996277,-0.016295712441206,-0.0623867399990559,-0.0518953949213028
210,-0.0968294367194176,0.0452115871012211,-0.0262839496135712,-0.0100037390366197,-0.0487666912376881,-0.045541737228632
211,-0.090000793337822,0.0456742905080318,-0.0180500838905573,-0.00701784109696746,-0.0333553403615952,-0.0419612601399422
212,-0.0887876451015472,0.0420456193387508,-0.0121214939281344,-0.00823790673166513,-0.0207625944167376,-0.043036937713623
213,-0.0865764692425728,0.0399311035871506,-0.00627722265198827,-0.00914988201111555,-0.0113511355593801,-0.0444229505956173
214,-0.0788302049040794,0.0416156910359859,0.000132152024889365,-0.00619739200919867,-0.0056792413815856,-0.0423840843141079
215,-0.0679952204227448,0.0436516441404819,0.00565873458981514,-0.000625463493634015,-0.00529057718813419,-0.0379498414695263
216,-0.0590237081050873,0.0428304225206375,0.00937549769878387,0.00439430726692081,-0.0102984383702278,-0.0327877588570118
217,-0.0537338443100452,0.039935290813446,0.011794263496995,0.00827423762530088,-0.0177622064948082,-0.0243905894458294
218,-0.0499704927206039,0.0375163443386555,0.0143270120024681,0.0127643113955855,-0.0222472455352545,-0.0103858541697264
219,-0.04366335272789,0.0381748862564564,0.019493380561471,0.0198700558394194,-0.0187456905841827,0.00674872379750013
220,-0.0328140109777451,0.0425113923847675,0.0281378068029881,0.0288436450064182,-0.00667443359270692,0.0209447480738163
221,-0.0199521612375975,0.0472201444208622,0.0364507623016834,0.0351815409958363,0.00907550379633904,0.0266171731054783
222,-0.00886551942676306,0.0488495565950871,0.0396873652935028,0.0352447926998138,0.0221600104123354,0.0230987779796124
223,-0.000907531299162656,0.0473685748875141,0.0372939184308052,0.0296921394765377,0.0286165196448565,0.0139592625200748
224,0.00492138648405671,0.0449502728879452,0.0333700627088547,0.0226540025323629,0.0280632879585028,0.00386797823011875
225,0.0104120392352343,0.0432519055902958,0.0326087027788162,0.0181149244308472,0.0234699342399836,-0.00354865635745227
226,0.01797940954566,0.0432263165712357,0.0363787524402142,0.0179604720324278,0.0193683002144098,-0.00617829989641905
227,0.0292051937431097,0.0453470908105373,0.0421742312610149,0.0223128218203783,0.018382066860795,-0.00305065512657166
228,0.0431022346019745,0.0489619821310043,0.0474765747785568,0.0302269849926233,0.0210360419005156,0.0053905388340354
229,0.0562101118266582,0.0522887632250786,0.051646001636982,0.0388999432325363,0.0271167755126953,0.0165463723242283
230,0.0644011124968529,0.0539852418005466,0.053972139954567,0.0441228374838829,0.0348341017961502,0.0268374066799879
231,0.0668441131711006,0.0549783371388912,0.0547259859740734,0.0448669567704201,0.0418381541967392,0.0343024469912052
232,0.0666011497378349,0.0568284839391708,0.0557790286839008,0.0442180074751377,0.0475358106195927,0.0388285554945469
233,0.0672033056616783,0.0592878758907318,0.0582675822079182,0.0446814298629761,0.0526321195065975,0.0411010645329952
234,0.0705519616603851,0.0613034926354885,0.0620495826005936,0.0463666953146458,0.0575785115361214,0.0425019338726997
235,0.0769209489226341,0.063248798251152,0.0670593157410622,0.0497483983635902,0.0633701905608177,0.0453648678958416
236,0.0844463407993317,0.0655607432126999,0.0717558041214943,0.0546410083770752,0.0692634582519531,0.0502253584563732
237,0.0900122448801994,0.0668559744954109,0.0730244368314743,0.0585119612514973,0.0716854780912399,0.0540716201066971
238,0.0929324626922607,0.0662354826927185,0.0710432901978493,0.0605687201023102,0.0702874362468719,0.054746963083744
239,0.0949717685580254,0.0648497045040131,0.0693544819951057,0.0627327412366867,0.0689283460378647,0.0531415604054928
240,0.0965815410017967,0.0632232055068016,0.0691261142492294,0.0655414238572121,0.0693112686276436,0.0497576408088207
241,0.0973604768514633,0.0606518350541592,0.0687466561794281,0.0677057281136513,0.0695528984069824,0.0448553301393986
242,0.0999369248747826,0.0585249252617359,0.0690256953239441,0.0694377422332764,0.0696401819586754,0.0425193943083286
243,0.10716949403286,0.0592832267284393,0.0718643218278885,0.0721773058176041,0.0714321956038475,0.0483113303780556
244,0.116464249789715,0.0620561614632607,0.0748006999492645,0.0747287049889565,0.0734020546078682,0.0614508725702763
245,0.124133080244064,0.0632496476173401,0.0738284289836884,0.0739839673042297,0.0729334428906441,0.0743365436792374
246,0.131335899233818,0.0614397004246712,0.0701118335127831,0.0702026411890984,0.0727831944823265,0.0814816504716873
247,0.13782674074173,0.0579851269721985,0.0672125965356827,0.0666172057390213,0.0772273167967796,0.0836638808250427
248,0.138160362839699,0.0531010366976261,0.0654539614915848,0.064081035554409,0.0845220312476158,0.0828852429986
249,0.127960458397865,0.0443991608917713,0.0621277093887329,0.0594628341495991,0.0878559425473213,0.0774905979633331
250,0.10933231562376,0.0317533873021603,0.0555526092648506,0.0513873212039471,0.0821265876293182,0.0660831332206726
251,0.0906613394618034,0.0212382506579161,0.0485326945781708,0.0448419377207756,0.0702158883213997,0.0533678159117699
252,0.07794588804245,0.0178930964320898,0.0434460490942001,0.044030774384737,0.0592142045497894,0.0449250675737858
253,0.0725511536002159,0.0216693431138992,0.0411481596529484,0.0489422045648098,0.0540881715714931,0.0440594404935837
254,0.0742381811141968,0.0303627662360668,0.0438324920833111,0.0584617257118225,0.055666446685791,0.0521708615124226
255,0.0778124630451202,0.0391674004495144,0.0507393144071102,0.0684246942400932,0.0595614947378635,0.064512625336647
256,0.0771882310509682,0.043711394071579,0.0579111166298389,0.0742901489138603,0.0608522780239582,0.0739867091178894
257,0.0710474401712418,0.0431275926530361,0.0622953362762928,0.075418159365654,0.0582211352884769,0.0780566930770874
258,0.0596073493361473,0.0368973389267921,0.0617106035351753,0.0720733106136322,0.0515959933400154,0.0776264145970345
259,0.0448173470795155,0.0258744675666094,0.0567549653351307,0.0654875710606575,0.0434779524803162,0.0754527971148491
260,0.0315501727163792,0.0143675720319152,0.0512885190546513,0.0590040273964405,0.0391842797398567,0.0743546932935715
261,0.0241894796490669,0.00674165599048138,0.0478719547390938,0.0552818402647972,0.0416624881327152,0.0753016471862793
262,0.0250011943280697,0.00515440618619323,0.0476127564907074,0.0558861717581749,0.0508469119668007,0.0785463154315948
263,0.0330416224896908,0.00770357809960842,0.0505475476384163,0.060190238058567,0.0629046484827995,0.0826566889882088
264,0.0439717061817646,0.00872267875820398,0.0531665496528149,0.0641046613454819,0.0698903799057007,0.0841891914606094
265,0.0534625537693501,0.00502863479778171,0.0512915439903736,0.063900925219059,0.0668530091643333,0.0810103043913841
266,0.0604706518352032,-0.00101092003751546,0.0462988168001175,0.060213215649128,0.0573804304003716,0.0742599442601204
267,0.0660001114010811,-0.00691305147483945,0.0420669205486774,0.0555525124073029,0.0485700815916061,0.0656742677092552
268,0.0705821961164474,-0.0133729679509997,0.0390270687639713,0.0504158139228821,0.0439246445894241,0.0565197952091694
269,0.0751298442482948,-0.0201591029763222,0.0378863625228405,0.0455975420773029,0.0441510677337646,0.051260206848383
270,0.0799446031451225,-0.0252842828631401,0.0401368923485279,0.0434600077569485,0.0486459285020828,0.0540224239230156
271,0.0826970264315605,-0.0295745544135571,0.0424724817276001,0.0428938940167427,0.0535141006112099,0.060997512191534
272,0.0821576043963432,-0.0366363897919655,0.0398797914385796,0.039209708571434,0.0539989806711674,0.0641091912984848
273,0.0813987255096436,-0.0468128696084023,0.0333856642246246,0.0325785502791405,0.0503898859024048,0.0607652924954891
274,0.0839132592082024,-0.0565847307443619,0.0279222056269646,0.0278870109468699,0.0462624877691269,0.0544232577085495
275,0.0894235149025917,-0.0633648559451103,0.0257957112044096,0.0263210516422987,0.0432560592889786,0.0483227372169495
276,0.0953539609909058,-0.0668832510709763,0.025854017585516,0.0248217731714249,0.0409108698368073,0.0431724116206169
277,0.0993200466036797,-0.0698770806193352,0.0245365314185619,0.0201835762709379,0.0366272628307343,0.0376571752130985
278,0.101687759160995,-0.0738533958792686,0.0220913831144571,0.0143244778737426,0.0295397583395243,0.0329913571476936
279,0.104690037667751,-0.0765951052308083,0.0229435972869396,0.012718265876174,0.0225328430533409,0.0336099751293659
280,0.107595190405846,-0.078029066324234,0.026450727134943,0.0156388785690069,0.0167544428259134,0.0400242656469345
281,0.109425909817219,-0.0791608989238739,0.0292251817882061,0.0199442580342293,0.0118395555764437,0.0496083162724972
282,0.112535983324051,-0.078216552734375,0.031094491481781,0.0249253250658512,0.0086041409522295,0.0609206818044186
283,0.118704363703728,-0.074376568198204,0.0330976322293282,0.0308251846581697,0.0082173477858305,0.0721874386072159
284,0.126332938671112,-0.0708117485046387,0.0345278680324554,0.0361969098448753,0.010411724448204,0.0803112089633942
285,0.130781009793282,-0.0725910142064095,0.0321323871612549,0.0371239371597767,0.0110267298296094,0.0819934085011482
286,0.130123183131218,-0.0799470245838165,0.0257731340825558,0.0326141715049744,0.00736719043925405,0.0776829496026039
287,0.13030506670475,-0.0853999257087708,0.0219542346894741,0.0287591349333525,0.00440957210958004,0.0733293369412422
288,0.137678101658821,-0.0832879841327667,0.0252697020769119,0.0304159615188837,0.00813999306410551,0.0736772641539574
289,0.152400031685829,-0.0750636383891106,0.0341438315808773,0.0366354584693909,0.0188429187983274,0.0785839110612869
290,0.171274423599243,-0.0651066452264786,0.0446834899485111,0.0445103831589222,0.0320335701107979,0.0854199528694153
291,0.191193461418152,-0.0567135736346245,0.0535476393997669,0.0517629906535149,0.0432632975280285,0.0919835269451141
292,0.2094367146492,-0.0502736307680607,0.0603044331073761,0.0572128109633923,0.0523015819489956,0.0967460870742798
293,0.223830372095108,-0.044695395976305,0.0674034506082535,0.0603407546877861,0.061257392168045,0.0983529388904572
294,0.233510583639145,-0.0396515838801861,0.07571991533041,0.0614753402769566,0.0695941001176834,0.0969269722700119
295,0.238839611411095,-0.0360779166221619,0.0813341736793518,0.0610223412513733,0.073373831808567,0.0938030630350113
296,0.24129793047905,-0.0346077047288418,0.0805194154381752,0.0593167431652546,0.0706707537174225,0.091711051762104
297,0.241862401366234,-0.0357780903577805,0.0738135874271393,0.0561223365366459,0.0636854246258736,0.0923857688903809
298,0.242346733808517,-0.0391590632498264,0.0652524530887604,0.0517183244228363,0.0567480511963367,0.0946426540613174
299,0.246037408709526,-0.0422091372311115,0.060098223388195,0.0481409803032875,0.0544900447130203,0.0963991209864616
300,0.251453936100006,-0.0451567769050598,0.0582437515258789,0.0446674786508083,0.0564396120607853,0.09404606372118
301,0.254645586013794,-0.0493749640882015,0.0563147626817226,0.0398666150867939,0.0584402158856392,0.0858032628893852
302,0.25648245215416,-0.051969587802887,0.0553446412086487,0.0368880182504654,0.0605396777391434,0.0761408731341362
303,0.258179694414139,-0.0520651042461395,0.0561073087155819,0.0370398201048374,0.0639430209994316,0.0686378106474876
304,0.258034586906433,-0.0533789545297623,0.0559277683496475,0.0364397875964642,0.0666742920875549,0.0616663806140423
305,0.25480729341507,-0.058495718985796,0.0523156002163887,0.0311420112848282,0.065586693584919,0.0529585294425488
306,0.250422656536102,-0.066058523952961,0.0451687127351761,0.0216450113803148,0.0593142546713352,0.043206300586462
307,0.250036031007767,-0.070964016020298,0.0375796444714069,0.0136271165683866,0.0507975406944752,0.0370086655020714
308,0.256464391946793,-0.0703958049416542,0.0323567390441895,0.0108879962936044,0.0441288724541664,0.0372396558523178
309,0.267125606536865,-0.0681830495595932,0.0290912073105574,0.0111079253256321,0.0397651568055153,0.040642436593771
310,0.27813509106636,-0.0683045983314514,0.0265840608626604,0.0114494627341628,0.0355455130338669,0.0433209873735905
311,0.286858797073364,-0.0703907907009125,0.0244611501693726,0.0109727932140231,0.029737813398242,0.0437067076563835
312,0.292104363441467,-0.0729241371154785,0.0216916538774967,0.00837781839072704,0.0218227058649063,0.0412297174334526
313,0.294907033443451,-0.0743346437811852,0.0172209478914738,0.00361720821820199,0.0128270639106631,0.0384007096290588
314,0.297255218029022,-0.0737171322107315,0.0114090340211988,-0.00115217210259289,0.00357391033321619,0.0381447523832321
315,0.300875842571259,-0.0720429122447968,0.00570163503289223,-0.00392986414954066,-0.00591707555577159,0.0392146781086922
316,0.30711230635643,-0.0703275427222252,0.00201982026919723,-0.00413749692961574,-0.0135306967422366,0.0394441932439804
317,0.316042631864548,-0.0685778707265854,0.00143236212898046,-0.00210200087167323,-0.0167569536715746,0.0392525568604469
318,0.327079802751541,-0.0661960989236832,0.00448724674060941,0.00249976990744472,-0.0151407029479742,0.0405256636440754
319,0.337815940380096,-0.0633415207266808,0.0108155179768801,0.00934307463467121,-0.00953339971601963,0.0435722097754478
320,0.343818128108978,-0.0618508830666542,0.0171415619552135,0.0154241500422359,-0.00178679369855672,0.04615593329072
321,0.34330815076828,-0.0643739029765129,0.018452363088727,0.016834108158946,0.00473908521234989,0.0452889800071716
322,0.338808119297028,-0.0718928277492523,0.0125952884554863,0.0121184680610895,0.00723925279453397,0.0400598011910915
323,0.335405170917511,-0.0803192481398582,0.00500446977093816,0.00551150413230062,0.00883403327316046,0.03434232249856
324,0.337522566318512,-0.083835132420063,0.00365074793808162,0.00369797041639686,0.0155801204964519,0.0325767658650875
325,0.344429165124893,-0.0818638652563095,0.00893281865864992,0.00740570621564984,0.0270371343940496,0.0337673462927341
326,0.351638555526733,-0.0774659886956215,0.01555862929672,0.0124108642339706,0.036671556532383,0.0349651612341404
327,0.35829821228981,-0.0710383430123329,0.0218544919043779,0.0179030131548643,0.0411499328911304,0.0368921682238579
328,0.36459156870842,-0.0633877441287041,0.0268974844366312,0.0232855826616287,0.0400275029242039,0.0394080206751823
329,0.368364274501801,-0.0579692460596561,0.0273925680667162,0.0254864450544119,0.0336131937801838,0.0404627844691277
330,0.372499704360962,-0.0541726537048817,0.0259877797216177,0.0264737475663424,0.0290124844759703,0.0428787097334862
331,0.380053877830505,-0.050742644816637,0.0268835369497538,0.0282007474452257,0.0319302417337894,0.0479305014014244
332,0.388094782829285,-0.0495869740843773,0.029060710221529,0.0280771367251873,0.0398686826229095,0.051034402102232
333,0.395088732242584,-0.0496898181736469,0.0313528589904308,0.0263479854911566,0.0503542535007,0.0514162369072437
334,0.401949435472488,-0.049556627869606,0.0311825685203075,0.0235997475683689,0.0588049106299877,0.0506622456014156
335,0.409283310174942,-0.0506836473941803,0.0257763341069222,0.0186097621917725,0.0581047870218754,0.0481508523225784
336,0.416842043399811,-0.0537470914423466,0.0174541492015123,0.0132860355079174,0.0474827587604523,0.0441728830337524
337,0.422272920608521,-0.0584358535706997,0.00943403318524361,0.00952187459915876,0.0316939018666744,0.0375079587101936
338,0.424516588449478,-0.063094362616539,0.00401111459359527,0.00691747013479471,0.0172395780682564,0.0269053392112255
339,0.42521333694458,-0.0642438232898712,0.00306595466099679,0.00537711149081588,0.00956493616104126,0.0152520090341568
340,0.425740778446198,-0.0614098943769932,0.00473911920562387,0.00456050364300609,0.00887763220816851,0.00571283558383584
341,0.42672798037529,-0.0583870932459831,0.00481970654800534,0.00321280141361058,0.0110014965757728,-0.00136955303605646
342,0.428755551576614,-0.0576286613941193,0.00233286945149302,0.0013043520739302,0.0122592467814684,-0.00623099133372307
343,0.432390302419662,-0.058828592300415,-3.50317495758645E-05,0.000382050930056721,0.0122930677607656,-0.00810850411653519
344,0.438387095928192,-0.060596127063036,0.0005964883021079,0.00215470418334007,0.0127969393506646,-0.00587099092081189
345,0.446983337402344,-0.0610191784799099,0.00483718421310186,0.00674472143873572,0.0147463856264949,0.000150927851791494
346,0.45742255449295,-0.0597672313451767,0.010888253338635,0.0120593328028917,0.0178103912621737,0.00773497996851802
347,0.468767434358597,-0.0574267916381359,0.0178705677390099,0.0172047708183527,0.0220007691532373,0.0152663271874189
348,0.478241682052612,-0.0550521835684776,0.0241167061030865,0.0211498364806175,0.0251933801919222,0.0202111974358559
349,0.484162181615829,-0.0530590526759624,0.0272375289350748,0.0222353767603636,0.0246831066906452,0.0206392742693424
350,0.488515675067902,-0.0517164655029774,0.0274651180952787,0.0199730005115271,0.0207436438649893,0.0175185836851597
351,0.492171287536621,-0.0528378710150719,0.0257425624877214,0.0137524902820587,0.0140400985255837,0.0126773798838258
352,0.496227711439133,-0.0554468780755997,0.0247534364461899,0.00570118380710483,0.00721510965377092,0.00942126847803593
353,0.5,-0.0546603053808212,0.0289615169167519,0.00156206300016493,0.00684653641656041,0.0109280226752162
354,0.5,-0.047402199357748,0.0383846238255501,0.00491964863613248,0.0176922623068094,0.0168728157877922
355,0.5,-0.0372338891029358,0.0459567382931709,0.0121319098398089,0.0351857244968414,0.0225041415542364
356,0.5,-0.0302415620535612,0.0458288788795471,0.0165248941630125,0.0484490841627121,0.0232978016138077
357,0.5,-0.026836609467864,0.0397280529141426,0.0167583469301462,0.0514481775462627,0.0205774568021297
358,0.5,-0.0218494161963463,0.0323926545679569,0.0173212457448244,0.0467389971017838,0.0189922489225864
359,0.5,-0.0131915472447872,0.0262057948857546,0.0206712372601032,0.0391476936638355,0.0195229928940535
360,0.5,-0.00471071666106582,0.0206639654934406,0.0236971639096737,0.0310469288378954,0.0190805438905954
361,0.5,0.00122377183288336,0.0165937822312117,0.0243722498416901,0.0243127848953009,0.017094487324357
362,0.5,0.00585252419114113,0.0173883214592934,0.0249771233648062,0.0216260850429535,0.0168964397162199
363,0.5,0.00971413683146238,0.0235634632408619,0.0276332776993513,0.024500984698534,0.0205978844314814
364,0.5,0.0131866987794638,0.0319161042571068,0.0322087779641151,0.0322414897382259,0.0274982172995806
365,0.5,0.0189370084553957,0.0407425537705421,0.0383490994572639,0.0427992381155491,0.0368018560111523
366,0.5,0.0280647370964289,0.0494467243552208,0.044844001531601,0.0534539930522442,0.0471854396164417
367,0.5,0.0361910723149776,0.0542764514684677,0.0478037856519222,0.0600386336445808,0.0546489544212818
368,0.5,0.0397513136267662,0.0529440157115459,0.0456675626337528,0.0599329806864262,0.0566823296248913
369,0.5,0.0418480262160301,0.0499845370650291,0.0428400225937366,0.0566054582595825,0.0561707243323326
370,0.5,0.0464621521532536,0.0503031387925148,0.0430899076163769,0.0544365905225277,0.0561224445700645
371,0.5,0.0534819588065147,0.0541034936904907,0.0453177876770496,0.0538485161960125,0.0565064623951912
372,0.5,0.060893826186657,0.05934838950634,0.0472425892949104,0.0539943091571331,0.0578046143054962
373,0.5,0.0674014985561371,0.0646545737981796,0.0487107560038567,0.0552336238324642,0.0612294524908066
374,0.5,0.0722578093409538,0.069352999329567,0.0501607023179531,0.0586281381547451,0.0646195113658905
375,0.5,0.0737585425376892,0.0715471431612968,0.0500412657856941,0.0629978179931641,0.0626365095376968
376,0.5,0.0719106495380402,0.0710297897458076,0.0475235842168331,0.0672304481267929,0.0537390783429146
377,0.5,0.0690539181232452,0.0688766688108444,0.0430964007973671,0.0705389901995659,0.0410977713763714
378,0.5,0.0653116181492805,0.0637983977794647,0.0358435250818729,0.0694690272212029,0.0270740557461977
379,0.5,0.0597466453909874,0.0557532198727131,0.0257830619812012,0.0623416304588318,0.0134793259203434
380,0.5,0.0528586283326149,0.0458622500300407,0.0143597349524498,0.0500905029475689,0.00209066667594016
381,0.5,0.0471153371036053,0.0353880003094673,0.00432918034493923,0.0356978848576546,-0.00466958992183208
382,0.5,0.0454829782247543,0.0268091112375259,-0.000508497119881213,0.0239704642444849,-0.0042022131383419
383,0.5,0.0471757277846336,0.0206593964248896,-0.000361124984920025,0.0170749425888062,0.00123526039533317
384,0.5,0.0509073063731194,0.0182931888848543,0.00304547394625843,0.0165768563747406,0.00906114000827074
385,0.5,0.0563171356916428,0.022158820182085,0.00895977392792702,0.0237254165112972,0.0198214575648308
386,0.5,0.060280229896307,0.028691727668047,0.0134708397090435,0.0349883623421192,0.0304988585412502
387,0.5,0.0614092908799648,0.0313248559832573,0.0131142931059003,0.0451434254646301,0.0354853607714176
388,0.5,0.062267892062664,0.0284998901188374,0.00942585617303848,0.0516873151063919,0.0333101563155651
389,0.5,0.0641675963997841,0.0234799068421125,0.00592153426259756,0.0546133480966091,0.0276767630130053
390,0.5,0.0655166432261467,0.019590126350522,0.00389993493445218,0.0554436519742012,0.0219879914075136
391,0.5,0.0645793080329895,0.01781015843153,0.00189632456749678,0.0555361472070217,0.0150776254013181
392,0.5,0.0619004406034946,0.0169620607048273,-0.00142821774352342,0.053523276001215,0.00539985299110413
393,0.5,0.0602195598185062,0.016001932322979,-0.00482138572260737,0.047709945589304,-0.00445368373766541
394,0.5,0.0610751248896122,0.0157999340444803,-0.00645310105755925,0.0388549007475376,-0.0114029115065932
395,0.5,0.063828244805336,0.0175880119204521,-0.0059302244335413,0.0286079775542021,-0.014343055896461
396,0.5,0.0673169493675232,0.0190121661871672,-0.00436251750215888,0.0181422140449286,-0.0135856745764613
397,0.5,0.069510243833065,0.015430212020874,-0.00422249082475901,0.00818310026079416,-0.0115698473528028
398,0.5,0.069696307182312,0.00772793125361204,-0.00553431129083037,0.00108540046494454,-0.00897333770990372
399,0.5,0.0691077783703804,0.00161036872304976,-0.00581931229680777,-0.000286516296910122,-0.00420852238312364
400,0.5,0.0688897296786308,0.000416743801906705,-0.00448627071455121,0.00315682613290846,0.00186153361573815
401,0.5,0.0704731121659279,0.00369386724196374,-0.00213793688453734,0.00748222647234797,0.00755338184535503
402,0.489961266517639,0.0746073499321938,0.00820852816104889,0.00108950596768409,0.00966433342546225,0.0129792047664523
403,0.480301529169083,0.0799974948167801,0.0100493896752596,0.00449089054018259,0.00914153456687927,0.017814788967371
404,0.472692221403122,0.0840296670794487,0.00785142835229635,0.00625947630032897,0.00751277152448893,0.0201147571206093
405,0.46660378575325,0.0860099643468857,0.00417802156880498,0.0061989794485271,0.00867969822138548,0.0197227969765663
406,0.461692273616791,0.0869391188025475,0.00236333650536835,0.00594781152904034,0.01442292612046,0.0175801254808903
407,0.455742448568344,0.0846843346953392,0.000820682325866073,0.00368648185394704,0.018623748794198,0.0108528472483158
408,0.447324961423874,0.0777275413274765,-0.00316855893470347,-0.00258374982513487,0.0152631942182779,-0.00130702566821128
409,0.438175797462463,0.0693241357803345,-0.00847940053790808,-0.0102308578789234,0.00619051093235612,-0.0128822876140475
410,0.429212629795074,0.0615696236491203,-0.0144654745236039,-0.0177127849310637,-0.00487734330818057,-0.0198780428618193
411,0.418011218309402,0.0515017285943031,-0.0231440588831902,-0.0276145841926336,-0.0169963445514441,-0.0263035409152508
412,0.403721153736115,0.0364414155483246,-0.0343773923814297,-0.0410921238362789,-0.0285588335245848,-0.0366189144551754
413,0.39110279083252,0.0201982669532299,-0.0433968119323254,-0.0538106150925159,-0.0358642563223839,-0.0479851886630058
414,0.384751498699188,0.0101516339927912,-0.0445344038307667,-0.0596967451274395,-0.0369756929576397,-0.0535496063530445
415,0.384145170450211,0.010772024281323,-0.0349231213331223,-0.0559243895113468,-0.0323374643921852,-0.0487943068146706
416,0.383825570344925,0.0200445111840963,-0.0185834001749754,-0.0449975319206715,-0.0240649171173573,-0.0360896848142147
417,0.377313077449799,0.0305744167417288,-0.00565148936584592,-0.0333025418221951,-0.0151969837024808,-0.0241786446422338
418,0.364308267831802,0.0365965887904167,-0.00293805822730064,-0.0259094350039959,-0.00732126925140619,-0.0195832457393408
419,0.349815130233765,0.0382379777729511,-0.00865831971168518,-0.0230956841260195,-0.00149672909174114,-0.0210510529577732
420,0.337247252464294,0.0383326932787895,-0.0169541500508785,-0.0224419273436069,0.00074711162596941,-0.0239646900445223
421,0.326332062482834,0.0378563590347767,-0.0245330762118101,-0.0228402353823185,-0.00110831635538489,-0.0264085363596678
422,0.314015299081802,0.0350052379071712,-0.0317905507981777,-0.0254863500595093,-0.00710567645728588,-0.0288738198578358
423,0.297469705343246,0.0287235155701637,-0.038787767291069,-0.0313530936837196,-0.0162704065442085,-0.0306027363985777
424,0.278371930122375,0.0223012417554855,-0.0428055264055729,-0.0376067757606506,-0.0235216896981001,-0.0293487440794706
425,0.259858250617981,0.0187203995883465,-0.0428392961621284,-0.0415749661624432,-0.0247285924851894,-0.0265282299369574
426,0.241561874747276,0.0149407992139459,-0.0432521402835846,-0.0455976836383343,-0.0230111014097929,-0.0271266456693411
427,0.223375350236893,0.00777535047382116,-0.0470763519406319,-0.051252756267786,-0.0213398244231939,-0.0315898656845093
428,0.207041591405869,-0.00083741539856419,-0.0518489293754101,-0.0563846789300442,-0.0187024138867855,-0.0364330932497978
429,0.193052425980568,-0.00740953534841537,-0.0545414946973324,-0.0588735938072205,-0.0160493180155754,-0.0406502038240433
430,0.1812634319067,-0.00990549940615892,-0.0540044754743576,-0.0583130568265915,-0.0155928563326597,-0.0452401116490364
431,0.17056779563427,-0.0096253203228116,-0.0517238713800907,-0.0566285774111748,-0.0188062954694033,-0.0509785860776901
432,0.15862911939621,-0.0102058639749885,-0.0519092753529549,-0.0566093549132347,-0.0267658829689026,-0.05721190944314
433,0.144652336835861,-0.0124581316486001,-0.0565636120736599,-0.0586486086249352,-0.0380807146430016,-0.0614656060934067
434,0.129136204719543,-0.0152692645788193,-0.0646616369485855,-0.0622800700366497,-0.0503060892224312,-0.0630190744996071
435,0.112914338707924,-0.0190199762582779,-0.0749787986278534,-0.0682849511504173,-0.06202632188797,-0.0640043020248413
436,0.0988249927759171,-0.0234745088964701,-0.0845922231674194,-0.0759466886520386,-0.0709369629621506,-0.0657659247517586
437,0.0903316885232925,-0.0263672862201929,-0.0899921432137489,-0.081881009042263,-0.0738618150353432,-0.0677370429039001
438,0.087004229426384,-0.0271679759025574,-0.0918519869446754,-0.0843978598713875,-0.0710181146860123,-0.0699919536709785
439,0.0862777084112167,-0.0271416939795017,-0.0923289582133293,-0.0844607874751091,-0.0659330561757088,-0.0720126926898956
440,0.0881147682666779,-0.0249863881617785,-0.0896173045039177,-0.0811282694339752,-0.0608279891312122,-0.0697726234793663
441,0.0922248661518097,-0.0196154154837132,-0.0826136246323586,-0.0737705007195473,-0.0579729415476322,-0.061622429639101
442,0.097395233809948,-0.0124011058360338,-0.0738131254911423,-0.0647501572966576,-0.0591746419668198,-0.0514646582305431
443,0.103816382586956,-0.00413918169215322,-0.0647634714841843,-0.0558667555451393,-0.0616452656686306,-0.0423820056021214
444,0.110373489558697,0.00439149187877774,-0.0564613305032253,-0.0483780093491077,-0.061966598033905,-0.0352054797112942
445,0.11489625275135,0.0113480761647224,-0.0501200705766678,-0.0437009669840336,-0.0597380101680756,-0.0313460677862167
446,0.116574332118034,0.0153476670384407,-0.0448803156614304,-0.0417136996984482,-0.0561813451349735,-0.0314822047948837
447,0.115032911300659,0.0159704312682152,-0.0396190956234932,-0.0421317145228386,-0.0534374378621578,-0.0355448611080647
448,0.111354723572731,0.0147107746452093,-0.0339818373322487,-0.0443553477525711,-0.0520771108567715,-0.0431182533502579
449,0.107155613601208,0.0139392940327525,-0.0286473743617535,-0.0464281961321831,-0.0508134216070175,-0.052365206182003
450,0.102659352123737,0.0139543451368809,-0.0262756552547216,-0.0470237880945206,-0.0483701452612877,-0.0605979599058628
451,0.0999631062150002,0.0148303406313062,-0.0272697322070599,-0.0453867539763451,-0.0432282611727715,-0.0637901499867439
452,0.101891711354256,0.016676738858223,-0.0288363229483366,-0.04192815721035,-0.0354773886501789,-0.0602639950811863
453,0.107916533946991,0.0187770891934633,-0.0285059846937656,-0.0378327555954456,-0.0276128593832254,-0.0523956008255482
454,0.115891791880131,0.022427087649703,-0.0247024782001972,-0.0319886617362499,-0.0214275475591421,-0.0405838638544083
455,0.122781701385975,0.0281712412834167,-0.018827348947525,-0.0241599138826132,-0.0182356890290976,-0.0259825456887484
456,0.124629534780979,0.0328154526650906,-0.0148939043283463,-0.0178921166807413,-0.0197078417986631,-0.0148769384250045
457,0.120930768549442,0.0341546088457108,-0.0137539803981781,-0.0156210316345096,-0.0244533009827137,-0.0118561191484332
458,0.114199467003345,0.032744936645031,-0.0130211245268583,-0.0162561312317848,-0.0287325736135244,-0.0158116202801466
459,0.105764038860798,0.0296733509749174,-0.0114500103518367,-0.0182226449251175,-0.0302150808274746,-0.0232667252421379
460,0.0961639806628227,0.0262324195355177,-0.00978221371769905,-0.0209797751158476,-0.0290736611932516,-0.0309585332870483
461,0.0872656553983688,0.0241167563945055,-0.00841930601745844,-0.0230189319700003,-0.0262558292597532,-0.0354421958327293
462,0.0811574161052704,0.0243665426969528,-0.00643393211066723,-0.0220428835600615,-0.021994648501277,-0.0342593416571617
463,0.0770262405276299,0.0257306955754757,-0.0041012205183506,-0.0186187047511339,-0.0181392710655928,-0.0290542282164097
464,0.0729159042239189,0.0264690909534693,-0.00227318285033107,-0.0151583915576339,-0.0162842888385057,-0.0232750475406647
465,0.0684371888637543,0.0264024510979652,-0.000861093169078231,-0.012821345590055,-0.0155451968312263,-0.0186758451163769
466,0.0628006160259247,0.0241211075335741,-0.00147415255196393,-0.013056923635304,-0.0161035843193531,-0.0172722637653351
467,0.0546338371932507,0.0170576460659504,-0.00607670750468969,-0.0177447311580181,-0.0185355562716722,-0.0211594179272652
468,0.0449197143316269,0.00639387965202332,-0.012036919593811,-0.0249456092715263,-0.0206819921731949,-0.0282220672816038
469,0.0358986556529999,-0.00368345365859568,-0.0146752968430519,-0.0298465695232153,-0.0203058570623398,-0.0336186289787292
470,0.0287140272557735,-0.00985333789139986,-0.0126104606315494,-0.0297442171722651,-0.0176209062337875,-0.0346473678946495
471,0.0232905577868223,-0.0111911548301578,-0.00821161828935146,-0.0257039275020361,-0.0146637232974172,-0.0321044884622097
472,0.0178275313228369,-0.0104230204597116,-0.0057929833419621,-0.021610064432025,-0.0147008653730154,-0.0295186191797256
473,0.010625365190208,-0.0114115523174405,-0.00776028400287032,-0.0205459464341402,-0.0194302722811699,-0.0299707110971212
474,0.00235238345339894,-0.0147525453940034,-0.0127737997099757,-0.0222425162792206,-0.0264966953545809,-0.0329886637628078
475,-0.00477890809997916,-0.0175941288471222,-0.0172439124435186,-0.0240374188870192,-0.0309510733932257,-0.0351537093520164
476,-0.00971983652561903,-0.0181000456213951,-0.018585093319416,-0.0242681466042995,-0.0302876960486174,-0.0343261286616325
477,-0.0142947006970644,-0.0184018146246672,-0.0177831463515759,-0.0244007501751184,-0.0270620416849852,-0.0323115177452564
478,-0.020765820518136,-0.0209243893623352,-0.0169492661952972,-0.0261052809655666,-0.0251923948526382,-0.0314892642199993
479,-0.0275428872555494,-0.0242816414684057,-0.0159408804029226,-0.0280126594007015,-0.0252081081271172,-0.03102657943964
480,-0.0304610449820757,-0.0254864543676376,-0.0138593846932054,-0.0279627963900566,-0.0253073256462812,-0.0289184860885143
481,-0.0271963365375996,-0.0234830919653177,-0.0108321262523532,-0.0255350545048714,-0.0241216849535704,-0.0248997956514359
482,-0.0173811241984367,-0.019077006727457,-0.00686960760504007,-0.0208014901727438,-0.0200901459902525,-0.0197686981409788
483,-0.00186229206155986,-0.0129145560786128,-0.0016247839666903,-0.0135559905320406,-0.0125370984897017,-0.0137440590187907
484,0.0142827136442065,-0.00548409065231681,0.00455648498609662,-0.00442093424499035,-0.00307510630227625,-0.00691407872363925
485,0.0215316154062748,0.00117107236292213,0.00982982851564884,0.00435438146814704,0.00492406822741032,-0.00077866978244856
486,0.0144228953868151,0.00560065126046538,0.0133036859333515,0.011200062930584,0.00945696141570807,0.00379095715470612
487,-0.00491869309917092,0.00762359937652946,0.0154490396380425,0.0154291884973645,0.0110464878380299,0.00742825353518128
488,-0.0325436182320118,0.00616976711899042,0.0150947934016585,0.0153429824858904,0.00987094175070524,0.00926604866981506
489,-0.0644531846046448,0.0015943314647302,0.0120158195495605,0.0114458557218313,0.00720795337110758,0.00820033811032772
490,-0.0967769920825958,-0.004142165184021,0.00828568544238806,0.00679287221282721,0.00481583969667554,0.00440834043547511
491,-0.126355141401291,-0.00933333206921816,0.00604961253702641,0.00353546906262636,0.00217307172715664,-0.000956789299380034
492,-0.14951865375042,-0.0111844148486853,0.00765852583572268,0.00363066326826811,-0.000132526984089054,-0.003994963131845
493,-0.164436027407646,-0.00783091597259045,0.0129879107698798,0.00791636947542429,-0.000134696543682367,-0.00183272338472307
494,-0.173653021454811,-0.00135078770108521,0.0175534673035145,0.0136049957945943,0.00129965727683157,0.00298067182302475
495,-0.180519819259644,0.00500117661431432,0.0181776341050863,0.0175665561109781,0.00232323515228927,0.00693533802405
496,-0.1857640594244,0.0101758129894733,0.0161945205181837,0.0197492074221373,0.00299565051682293,0.00985001865774393
497,-0.189872950315475,0.0143312402069569,0.0132084609940648,0.0210409630089998,0.0030789899174124,0.0127076292410493
498,-0.195101112127304,0.0169835910201073,0.00882641039788723,0.0211337115615606,0.00106181204319,0.0152385868132114
499,-0.203628048300743,0.0171860251575708,0.00226475996896625,0.0188917927443981,-0.00457775872200727,0.0163446273654699
500,-0.214435249567032,0.0158064011484385,-0.0048937713727355,0.0148147800937295,-0.0126918368041515,0.0161278173327446
501,-0.224787920713425,0.0143687948584557,-0.0104363970458508,0.0103734591975808,-0.0201436392962933,0.0150008080527186
502,-0.233199909329414,0.0126464208588004,-0.0151274390518665,0.00560889672487974,-0.0252070613205433,0.0122917992994189
503,-0.23812410235405,0.0112180951982737,-0.0191205255687237,0.00168519618455321,-0.0263747628778219,0.00925603695213795
504,-0.239112317562103,0.0111642852425575,-0.0199639983475208,0.000817529798951,-0.022463470697403,0.00950849521905184
505,-0.238367408514023,0.0117621598765254,-0.0163842309266329,0.00290937232784927,-0.0147288562729955,0.0146537302061915
506,-0.238806024193764,0.011973399668932,-0.0103198513388634,0.00544660585001111,-0.00601680250838399,0.021655386313796
507,-0.242425292730331,0.0121983261778951,-0.00486929016187787,0.00674261292442679,0.00107594998553395,0.0271542631089687
508,-0.2491614818573,0.013933964073658,-0.00139670469798148,0.00771250762045383,0.005574154201895,0.0310395695269108
509,-0.257715463638306,0.0168489050120115,-0.000583840650506318,0.00846933387219906,0.00694313365966082,0.0324089676141739
510,-0.266005963087082,0.0197947565466166,-0.00192634190898389,0.00851452816277742,0.00568811548873782,0.0296816304326057
511,-0.272086590528488,0.0229919888079166,-0.00303155346773565,0.00853017065674067,0.00412092404440045,0.023605789989233
512,-0.276049762964249,0.0261860229074955,-0.00245314789935946,0.00852150376886129,0.00388873624615371,0.015718549489975
513,-0.279347270727158,0.0286439843475819,-0.000248322408879176,0.00780355324968696,0.00486979633569717,0.00764078972861171
514,-0.283604055643082,0.0300201345235109,0.00294302380643785,0.00624828552827239,0.0061098076403141,0.00121915328782052
515,-0.289171993732452,0.0316168405115604,0.0072942734695971,0.00593855511397123,0.00924925040453672,-0.000999159296043217
516,-0.295818358659744,0.0346357226371765,0.0121972858905792,0.00840248819440603,0.0162462424486876,0.00212019635364413
517,-0.302654564380646,0.0381048768758774,0.0152935851365328,0.0117439096793532,0.0246683284640312,0.00807723682373762
518,-0.307486951351166,0.0417166762053967,0.0161601323634386,0.0146912634372711,0.0305538773536682,0.0148694003000855
519,-0.310507655143738,0.0448269844055176,0.0146809294819832,0.0166846979409456,0.0301041100174189,0.0213911440223455
520,-0.314162701368332,0.0455518960952759,0.00954321026802063,0.0158676337450743,0.0213153231889009,0.0254102237522602
521,-0.321461409330368,0.0414618253707886,0.00010087792907143,0.00959641300141811,0.00515662739053369,0.0236873850226402
522,-0.334398448467255,0.0304662641137838,-0.013502168469131,-0.00387287396006286,-0.015014342032373,0.0136405806988478
523,-0.346879065036774,0.0187118221074343,-0.0258858036249876,-0.0180734004825354,-0.0288344752043486,0.00207491754554212
524,-0.349806815385818,0.0161917880177498,-0.0298051070421934,-0.0227061212062836,-0.0266019403934479,-0.000267813331447542
525,-0.344191610813141,0.0232912339270115,-0.0247673634439707,-0.0164270587265491,-0.0124102095142007,0.0062935552559793
526,-0.338080137968063,0.0341989919543266,-0.0141651378944516,-0.0049878410063684,0.00268942746333778,0.0143306460231543
527,-0.336508542299271,0.0459126979112625,-0.00193994003348053,0.00650071492418647,0.0133388191461563,0.0195665117353201
528,-0.34057953953743,0.0576515197753906,0.0074033010751009,0.0155065339058638,0.0191486440598965,0.021830515936017
529,-0.351258516311646,0.0667064487934113,0.011129311285913,0.0203901659697294,0.0190162230283022,0.0210415814071894
530,-0.367966383695602,0.0707776620984077,0.010342757217586,0.0211001578718424,0.0138149382546544,0.0176707450300455
531,-0.387353628873825,0.0703356713056564,0.0069447155110538,0.0189164876937866,0.00630605267360806,0.0134972054511309
532,-0.406871646642685,0.0654378533363342,-0.000144358011311851,0.0133155789226294,-0.00321039115078747,0.00802689231932163
533,-0.424845069646835,0.0567791536450386,-0.00999236758798361,0.00458155618980527,-0.013207271695137,0.000799886009190232
534,-0.439081460237503,0.0476402714848518,-0.0174658261239529,-0.004037756472826,-0.0193330440670252,-0.00512554543092847
535,-0.448165565729141,0.0413918271660805,-0.0198929831385612,-0.00992093794047832,-0.018730778247118,-0.0074114678427577
536,-0.45045804977417,0.0408537201583385,-0.0163594353944063,-0.0102677429094911,-0.0103060565888882,-0.00526018207892776
537,-0.445828050374985,0.046140693128109,-0.00656351959332824,-0.00349656608887017,0.00427574571222067,0.00219082576222718
538,-0.439279019832611,0.0525810047984123,0.00487476959824562,0.00628014327958226,0.0190425664186478,0.0121509814634919
539,-0.436498075723648,0.0556140318512917,0.0122849568724632,0.0139826769009233,0.028029540553689,0.0195771995931864
540,-0.439183592796326,0.0540735572576523,0.0139169935137033,0.017933601513505,0.0295909978449345,0.0225349701941013
541,-0.444239377975464,0.0503028109669685,0.0125742508098483,0.0197645984590054,0.0279577784240246,0.0237397328019142
542,-0.447808742523193,0.0461468212306499,0.0112559488043189,0.0209265481680632,0.0262941140681505,0.0252893473953009
543,-0.449960678815842,0.0396898463368416,0.00937912054359913,0.0204560346901417,0.022367799654603,0.0254219267517328
544,-0.451475739479065,0.0297472327947617,0.00654054991900921,0.0184509139508009,0.015088664367795,0.0231207069009542
545,-0.452184826135635,0.0177259780466557,0.00375746400095522,0.0158805977553129,0.00590211432427168,0.0188783220946789
546,-0.451479732990265,0.00678646378219128,0.00391893740743399,0.0143637889996171,-0.0012379449326545,0.0144158080220222
547,-0.449819535017014,-0.00174368976149708,0.00847682636231184,0.0144047448411584,-0.00312696257606149,0.0109396381303668
548,-0.44989088177681,-0.0100682862102985,0.012747379951179,0.0131501285359263,-0.00237057055346668,0.00746949296444654
549,-0.45232081413269,-0.0190432760864496,0.0115963090211153,0.00912745855748653,-0.00300260819494724,0.00424328865483403
550,-0.454271703958511,-0.0273192580789328,0.00525060342624784,0.00443634251132607,-0.00598058756440878,0.00279818288981915
551,-0.45281457901001,-0.0330486595630646,-0.00197222898714244,0.0020337353926152,-0.00899457931518555,0.00492753693833947
552,-0.447321981191635,-0.0342250466346741,-0.0051861903630197,0.0039571700617671,-0.00745076965540648,0.0123912123963237
553,-0.439744770526886,-0.0309331137686968,-0.00208512647077441,0.00969029869884253,0.00169354258105159,0.023481585085392
554,-0.433625847101212,-0.0255337879061699,0.0059361238963902,0.0164453312754631,0.0162429939955473,0.0335317924618721
555,-0.433041393756866,-0.0202073752880096,0.0145355360582471,0.0216655600816011,0.0294435452669859,0.0395102053880692
556,-0.438971340656281,-0.0159532129764557,0.0201354753226042,0.0248493384569883,0.0354221165180206,0.041771300137043
557,-0.447662532329559,-0.0126931173726916,0.0230717621743679,0.0271518360823393,0.0336268246173859,0.0427025854587555
558,-0.456845462322235,-0.0110618509352207,0.0241996794939041,0.0281662978231907,0.0274736732244492,0.0427315086126328
559,-0.467319190502167,-0.0121096009388566,0.0232104044407606,0.0265968795865774,0.0225528869777918,0.0402468107640743
560,-0.477561861276627,-0.0139232603833079,0.0218869261443615,0.0242572519928217,0.0229179859161377,0.036470178514719
561,-0.483819246292114,-0.0126026635989547,0.0230568367987871,0.0250717885792255,0.0272425562143326,0.0352054983377457
562,-0.484391868114471,-0.00758793251588941,0.0253857485949993,0.0296852774918079,0.0309059917926788,0.0375668257474899
563,-0.481890857219696,-0.00311384908854961,0.0236820708960295,0.0339314825832844,0.0292488168925047,0.0406726337969303
564,-0.48171055316925,-0.0034797873813659,0.0157755203545094,0.0341745913028717,0.0207742024213076,0.0410888828337193
565,-0.486022084951401,-0.00817600358277559,0.00600992608815432,0.0316766761243343,0.00984972435981035,0.0386219657957554
566,-0.492242366075516,-0.0143170617520809,-0.00024520861916244,0.029211787506938,0.00266856141388416,0.0344255641102791
567,-0.498526126146317,-0.021229075267911,-0.00225442997179925,0.0270550902932882,0.000712872424628586,0.027789231389761
568,-0.5,-0.0277871359139681,-0.001279994728975,0.0257471930235624,0.00167021900415421,0.019962202757597
569,-0.5,-0.0328301377594471,0.000990866217762232,0.0253785271197557,0.00177114212419838,0.0134287783876061
570,-0.5,-0.0387020148336887,0.00158317969180644,0.0234279371798038,-0.00238297134637833,0.00802342314273119
571,-0.5,-0.0460603535175323,0.000198303445358761,0.0199852641671896,-0.00824405252933502,0.00435418263077736
572,-0.5,-0.0505171678960323,0.00049687922000885,0.0191772095859051,-0.00885898619890213,0.00520049035549164
573,-0.5,-0.0497995018959045,0.00462258188053966,0.0226127933710814,-0.00283576501533389,0.00982329901307821
574,-0.5,-0.0478103831410408,0.0103902695700526,0.0266031827777624,0.00468855025246739,0.0130143072456121
575,-0.5,-0.0487804263830185,0.0141302952542901,0.0271926615387201,0.0101242875680327,0.0122423190623522
576,-0.5,-0.0528329461812973,0.0139768337830901,0.0244236905127764,0.0129439607262611,0.0102635975927114
577,-0.5,-0.0592329949140549,0.010202151723206,0.0198515243828297,0.0119784446433187,0.00949792098253965
578,-0.5,-0.0693543255329132,0.00273484247736633,0.0130145661532879,0.00576335517689586,0.00768612883985043
579,-0.5,-0.0811051353812218,-0.00588649651035666,0.00541075598448515,-0.00203991029411554,0.00307640642859042
580,-0.5,-0.0863830074667931,-0.00770265376195312,0.00276355049572885,-0.00272880378179252,-0.000668731227051467
581,-0.5,-0.081217996776104,0.00111189833842218,0.00730693200603127,0.00695581547915936,-0.000596031546592712
582,-0.48261684179306,-0.0702707469463348,0.0143841039389372,0.0149962063878775,0.020943496376276,0.00179173599462956
583,-0.463258117437363,-0.0599247999489307,0.0237565562129021,0.0211347062140703,0.03079136274755,0.0044570448808372
584,-0.445576131343842,-0.0533243827521801,0.0263099391013384,0.0240721013396978,0.0318178199231625,0.00712083838880062
585,-0.430975407361984,-0.0497540533542633,0.0241602919995785,0.0250030271708965,0.0249736420810223,0.0113206449896097
586,-0.420599967241287,-0.0475934222340584,0.0201023519039154,0.0246233455836773,0.0143862832337618,0.017492076382041
587,-0.414591878652573,-0.0458468981087208,0.0162161476910114,0.0227307733148336,0.00448845978826284,0.0235950723290443
588,-0.411449998617172,-0.0426019318401814,0.0146731678396463,0.0206649284809828,-0.000901011459063739,0.0288760736584663
589,-0.409250944852829,-0.0362727418541908,0.0171952731907368,0.0207538586109877,0.000222001646761782,0.035327535122633
590,-0.406614780426025,-0.028274979442358,0.0223176460713148,0.0233363397419453,0.00582492677494884,0.0428312867879868
591,-0.404296785593033,-0.0222493913024664,0.0252381283789873,0.0253459122031927,0.00998423248529434,0.0466258376836777
592,-0.403533846139908,-0.0201139729470015,0.0246713198721409,0.024030240252614,0.00954404752701521,0.0432382710278034
593,-0.403352618217468,-0.020598329603672,0.0251850057393312,0.0203382093459368,0.00865521002560854,0.0340769812464714
594,-0.402362465858459,-0.0226631537079811,0.0294036269187927,0.0165009386837482,0.0114158615469933,0.0226763896644115
595,-0.398939609527588,-0.0259834229946136,0.0349130034446716,0.014169373549521,0.0168534275144339,0.0135160582140088
596,-0.391309946775436,-0.0291913878172636,0.0378409698605537,0.0141244437545538,0.0224064569920301,0.00960964057594538
597,-0.378809183835983,-0.0311784688383341,0.0361455231904984,0.0159746594727039,0.0256050247699022,0.0102128218859434
598,-0.361284464597702,-0.0305850021541119,0.0320547595620155,0.0200039781630039,0.0264936722815037,0.0143521167337894
599,-0.341612040996552,-0.0281194895505905,0.027236407622695,0.0242230240255594,0.0260848701000214,0.0195573009550571
600,-0.324147820472717,-0.0272429063916206,0.0209780316799879,0.0246407892554998,0.0232030022889376,0.0216579418629408
601,-0.308854728937149,-0.0276194326579571,0.0161045026034117,0.0227332562208176,0.0187107399106026,0.0221242420375347
602,-0.29483026266098,-0.0268326662480831,0.01488774176687,0.0219056233763695,0.0145530281588435,0.0244182217866182
603,-0.283643662929535,-0.0257820077240467,0.0154573936015368,0.021470170468092,0.0104644130915403,0.0266090948134661
604,-0.274336457252502,-0.0252730250358582,0.0180142801254988,0.0213892292231321,0.00770926848053932,0.0264907944947481
605,-0.264327943325043,-0.0250752680003643,0.0224662479013205,0.022463733330369,0.00744101172313094,0.0245629940181971
606,-0.254319250583649,-0.0267520751804113,0.0240924004465342,0.022048382088542,0.00655327830463648,0.0206930860877037
607,-0.246012166142464,-0.0311409626156092,0.0204835962504148,0.0177479665726423,0.00230766390450299,0.0145719163119793
608,-0.239453554153442,-0.0373143143951893,0.0139267407357693,0.0100951557978988,-0.00449473597109318,0.00614606961607933
609,-0.234067007899284,-0.0445408672094345,0.00587995676323771,-0.000156058158609085,-0.0129492180421948,-0.00395794492214918
610,-0.227511897683144,-0.0503100492060184,-0.00192393269389868,-0.0103834979236126,-0.0212911032140255,-0.0107950419187546
611,-0.216480031609535,-0.0504286251962185,-0.00545031391084194,-0.0150770861655474,-0.0246585346758366,-0.0078335078433156
612,-0.200769811868668,-0.0432186163961887,-0.00162101432215422,-0.0110484911128879,-0.0185278169810772,0.00474836025387049
613,-0.183000758290291,-0.0309027079492807,0.00932430475950241,-0.000369558576494455,-0.00329157523810863,0.0194196626543999
614,-0.1660266071558,-0.0178942531347275,0.0236714649945498,0.0121870376169682,0.0149345947429538,0.0289404075592756
615,-0.152632758021355,-0.00850510131567717,0.0360219031572342,0.0221435613930225,0.0284361187368631,0.0316143147647381
616,-0.143728718161583,-0.00415587099269032,0.0427570939064026,0.0274228267371655,0.0338130034506321,0.0299652926623821
617,-0.135913461446762,-0.00251904409378767,0.0441293530166149,0.0294149573892355,0.0335335358977318,0.02826077491045
618,-0.125473082065582,-0.00141894293483347,0.0413615591824055,0.0290839821100235,0.0308271534740925,0.0274586118757725
619,-0.112773135304451,-0.000734023516997695,0.0348375886678696,0.0247856322675943,0.0269461944699287,0.0228060912340879
620,-0.100154832005501,-0.000124143727589399,0.0264770798385143,0.0161655712872744,0.0228075031191111,0.0107633275911212
621,-0.089461512863636,0.000136402595671825,0.0180556774139404,0.00494181830435991,0.0174437779933214,-0.00663302699103951
622,-0.0807073786854744,-0.00156756991054863,0.0100872814655304,-0.00631821388378739,0.0095351729542017,-0.0243680700659752
623,-0.0709172636270523,-0.00422175927087665,0.00568509800359607,-0.0129723632708192,0.00218046852387488,-0.0365330092608929
624,-0.0577681809663773,-0.00472015654668212,0.00741820828989148,-0.011944686062634,-0.00119084899779409,-0.0391372106969357
625,-0.0423706062138081,-0.00226546893827617,0.012654909864068,-0.00563033111393452,-0.00150134973227978,-0.0331541523337364
626,-0.0279314517974854,0.000488971068989486,0.0157408062368631,0.000425185833591968,-0.00257449503988028,-0.0245770700275898
627,-0.0167974643409252,-3.03036213153973E-05,0.0125663327053189,0.00182859133929014,-0.00703925639390945,-0.0203623827546835
628,-0.00772746279835701,-0.00441445084288716,0.0039934953674674,-0.00173908076249063,-0.0127817839384079,-0.0216737762093544
629,0.00209750048816204,-0.010252308100462,-0.00580142997205257,-0.00765847554430366,-0.0167961679399014,-0.0238465145230293
630,0.0151354447007179,-0.0141247268766165,-0.0121707767248154,-0.0124405277892947,-0.0188237838447094,-0.0231072604656219
631,0.0318369269371033,-0.0148874428123236,-0.0137660382315516,-0.014579146169126,-0.0203540436923504,-0.0208919998258352
632,0.0496304295957088,-0.0149804810062051,-0.0138936126604676,-0.015597227960825,-0.0240607485175133,-0.0203876551240683
633,0.0669774040579796,-0.0159935373812914,-0.014573285356164,-0.0163881611078978,-0.0308181643486023,-0.0215066894888878
634,0.0856265351176262,-0.0162775814533234,-0.0141533501446247,-0.0155904870480299,-0.0373334251344204,-0.0224970914423466
635,0.10616771876812,-0.0154763227328658,-0.0133207552134991,-0.0135269640013576,-0.0417265966534615,-0.0242048222571611
636,0.126971483230591,-0.0157978646457195,-0.0152025939896703,-0.012468283995986,-0.0459459573030472,-0.0288338027894497
637,0.147780150175095,-0.0173600260168314,-0.0191298238933086,-0.0122761828824878,-0.0505736358463764,-0.0358029529452324
638,0.169935956597328,-0.0177161209285259,-0.0217456091195345,-0.0112580507993698,-0.0537298955023289,-0.0421312972903252
639,0.194721102714539,-0.0154824713245034,-0.0221647173166275,-0.00933044403791428,-0.0537093132734299,-0.0460362322628498
640,0.221772894263268,-0.0121268080547452,-0.0216627344489098,-0.00841606315225363,-0.0504042692482471,-0.0488234870135784
641,0.248339042067528,-0.0111283073201776,-0.0219194181263447,-0.0109419673681259,-0.0460228063166142,-0.053073950111866
642,0.27072948217392,-0.0162817910313606,-0.0257169157266617,-0.0184001978486776,-0.0452866181731224,-0.0606784336268902
643,0.291435122489929,-0.0247100498527288,-0.0305286999791861,-0.0264454763382673,-0.0480905175209045,-0.0678197741508484
644,0.317731261253357,-0.0273377913981676,-0.029119074344635,-0.0270916000008583,-0.0475630313158035,-0.0662899166345596
645,0.349111348390579,-0.0217113327234983,-0.0213632639497519,-0.0203923881053925,-0.0410517416894436,-0.0547898821532726
646,0.37955716252327,-0.0130676412954926,-0.0112393898889422,-0.0119662471115589,-0.0309303365647793,-0.0388920120894909
647,0.406383901834488,-0.00651179393753409,-0.00145915662869811,-0.00525529030710459,-0.0203846450895071,-0.0249649528414011
648,0.430188477039337,-0.00390069000422955,0.00435792468488216,-0.00204877788200974,-0.0129410019144416,-0.0172251351177692
649,0.45449686050415,-0.0029191211797297,0.00676945270970464,-0.000667548563797027,-0.00778530212119222,-0.0128067629411817
650,0.482022345066071,-0.00121337396558374,0.00996705889701843,0.00224113557487726,-0.00181352091021836,-0.00591323571279645
651,0.5,-8.15936655271798E-05,0.0136262802407146,0.00612346734851599,0.0036857386585325,0.00234199571423233
652,0.5,-0.00150776782538742,0.0135760549455881,0.00715273711830378,0.00373348803259432,0.00581653788685799
653,0.5,-0.00557111389935017,0.00837238598614931,0.00318408338353038,-0.00464097177609801,0.00164361204952002
654,0.5,-0.00990061555057764,0.00100589392241091,-0.00303813838399947,-0.0180045869201422,-0.00708315894007683
655,0.5,-0.0126719735562801,-0.00687268143519759,-0.00834253057837486,-0.0312532261013985,-0.0156856849789619
656,0.5,-0.0155630735680461,-0.0165664535015821,-0.0132564231753349,-0.0424567312002182,-0.0220249425619841
657,0.5,-0.0193798243999481,-0.0268403813242912,-0.0183401796966791,-0.0499512292444706,-0.0254170186817646
658,0.5,-0.0211229585111141,-0.032399907708168,-0.021307984367013,-0.0510876700282097,-0.0252727977931499
659,0.5,-0.0195404328405857,-0.0297955498099327,-0.0207780580967665,-0.0460847765207291,-0.0233131609857082
660,0.5,-0.0182125922292471,-0.02299047075212,-0.0193969961255789,-0.0398148931562901,-0.0239060968160629
661,0.5,-0.0199140999466181,-0.0179367605596781,-0.0195169281214476,-0.0360019281506538,-0.0282860044389963
662,0.5,-0.0227643959224224,-0.0149621041491628,-0.0198114961385727,-0.033097930252552,-0.0321797057986259
663,0.5,-0.0254618693143129,-0.013947419822216,-0.0203491169959307,-0.0303923338651657,-0.0334804020822048
664,0.5,-0.0290787369012833,-0.0165462642908096,-0.0230955369770527,-0.0302682295441628,-0.0347367897629738
665,0.5,-0.0331618748605251,-0.0211561489850283,-0.0271296743303537,-0.0334009565412998,-0.0372924916446209
666,0.5,-0.0365928895771503,-0.024293527007103,-0.0300661791115999,-0.0379587039351463,-0.0400514379143715
667,0.5,-0.0391931720077991,-0.0233842581510544,-0.0309504643082619,-0.0412707626819611,-0.041366271674633
668,0.5,-0.0409135594964027,-0.0186722371727228,-0.0306002665311098,-0.042132556438446,-0.0401229932904243
669,0.5,-0.0405097901821136,-0.0124458028003573,-0.0289908871054649,-0.0403140000998974,-0.0344614461064339
670,0.5,-0.0378150306642056,-0.00661979196593165,-0.0255975928157568,-0.0359574221074581,-0.02474026940763
671,0.5,-0.0375576801598072,-0.00421187421306968,-0.0239404160529375,-0.0324480943381786,-0.0185800325125456
672,0.5,-0.0433816909790039,-0.00668219197541475,-0.0275992751121521,-0.0320624560117722,-0.0217374563217163
673,0.5,-0.0497563667595387,-0.00867147464305162,-0.0325115174055099,-0.0297167040407658,-0.0286772511899471
674,0.5,-0.0499995797872543,-0.00637715309858322,-0.0334070660173893,-0.0219338890165091,-0.0329371802508831
675,0.5,-0.0464089103043079,-0.00545092672109604,-0.0323790088295937,-0.0145963234826922,-0.0364444144070148
676,0.5,-0.0436971820890903,-0.0101433731615543,-0.0323609411716461,-0.0129828015342355,-0.0409612022340298
677,0.5,-0.0428407527506351,-0.0174136776477098,-0.0326160974800587,-0.0158434025943279,-0.044022761285305
678,0.5,-0.0441584065556526,-0.0245962180197239,-0.0331347547471523,-0.0215305332094431,-0.0454375222325325
679,0.5,-0.0472854785621166,-0.0312571488320827,-0.034718107432127,-0.0292499028146267,-0.0467600114643574
680,0.5,-0.0504726730287075,-0.0364696942269802,-0.0369414947926998,-0.0367334559559822,-0.0468169115483761
681,0.5,-0.0537534728646278,-0.0404556132853031,-0.0403064228594303,-0.0431044213473797,-0.0444790236651897
682,0.5,-0.0579454228281975,-0.0442536659538746,-0.0454812273383141,-0.0491295121610165,-0.0411439500749111
683,0.475669175386429,-0.0608083866536617,-0.046562734991312,-0.049604594707489,-0.0538431331515312,-0.0376860350370407
684,0.453411728143692,-0.0608869306743145,-0.0467710234224796,-0.0506205037236214,-0.0566020123660564,-0.0350622832775116
685,0.432634741067886,-0.0608637072145939,-0.0465807914733887,-0.0506939478218555,-0.0581315867602825,-0.0355445183813572
686,0.411433190107346,-0.0636889189481735,-0.0478510111570358,-0.0526830069720745,-0.0596718341112137,-0.0408074781298637
687,0.389550030231476,-0.0690292119979858,-0.0513970255851746,-0.0572881512343884,-0.0624884478747845,-0.0499266684055328
688,0.369830340147018,-0.0731335058808327,-0.054742343723774,-0.0617773346602917,-0.0640852972865105,-0.0580083355307579
689,0.355707287788391,-0.0721176192164421,-0.0547107383608818,-0.062579408288002,-0.0614516846835613,-0.0597826912999153
690,0.347262114286423,-0.0658714398741722,-0.0518568754196167,-0.0593408718705177,-0.0570848137140274,-0.0548580698668957
691,0.341416090726852,-0.0584227629005909,-0.0491820760071278,-0.0547638572752476,-0.0542829558253288,-0.0474867820739746
692,0.334578931331635,-0.0537245236337185,-0.0490593053400517,-0.0522250458598137,-0.0527999810874462,-0.0432757474482059
693,0.325219303369522,-0.052795797586441,-0.0512593500316143,-0.0536679662764072,-0.0518455021083355,-0.0458373613655567
694,0.313542813062668,-0.0565432086586952,-0.0539503507316113,-0.0594487413764,-0.0527487061917782,-0.0556482449173927
695,0.301397949457169,-0.064170353114605,-0.0558195561170578,-0.0672978013753891,-0.0556177571415901,-0.0685789063572884
696,0.29218590259552,-0.0696713477373123,-0.0558197759091854,-0.071861557662487,-0.055762592703104,-0.0767529681324959
697,0.286429196596146,-0.0686286985874176,-0.0545945167541504,-0.0705279260873795,-0.050488717854023,-0.0770840644836426
698,0.281309604644775,-0.0624696388840675,-0.0542989447712898,-0.0656533092260361,-0.0436442196369171,-0.0722665265202522
699,0.275319486856461,-0.054545346647501,-0.05580810084939,-0.0606790073215961,-0.040462601929903,-0.06467205286026
700,0.270851075649261,-0.0467390343546867,-0.0574438944458961,-0.0564702339470387,-0.0422040931880474,-0.0554521977901459
701,0.270293623209,-0.0390426144003868,-0.0561540648341179,-0.0513621419668198,-0.0456571355462074,-0.0457745119929314
702,0.270376533269882,-0.0321757569909096,-0.0516421906650066,-0.0457344651222229,-0.0488219633698463,-0.0378765389323235
703,0.267057716846466,-0.0272427201271057,-0.0452355109155178,-0.04100127145648,-0.0516983717679977,-0.0328205563127995
704,0.261311590671539,-0.0241602081805468,-0.036638755351305,-0.0358652025461197,-0.0524949952960014,-0.0283793918788433
705,0.255164414644241,-0.0231993161141872,-0.0272943768650293,-0.0293381530791521,-0.0501675419509411,-0.0219281874597073
706,0.249170780181885,-0.0248280018568039,-0.0209684427827597,-0.022839842364192,-0.0463809110224247,-0.0132662113755941
707,0.243058517575264,-0.0296475123614073,-0.0201759766787291,-0.019114812836051,-0.0433482155203819,-0.00577812967821956
708,0.23720309138298,-0.0373129956424236,-0.0237439125776291,-0.0198872163891792,-0.0407333560287952,-0.00327310524880886
709,0.232413560152054,-0.0451942943036556,-0.0278852246701717,-0.024182103574276,-0.0360062643885612,-0.00582467298954725
710,0.226997599005699,-0.0516199544072151,-0.03108911216259,-0.0301480926573277,-0.0287563353776932,-0.010762182995677
711,0.219521030783653,-0.0565794743597507,-0.0337175689637661,-0.0354157686233521,-0.0207543857395649,-0.0152802923694253
712,0.21193939447403,-0.0588946305215359,-0.0341085009276867,-0.037284255027771,-0.0134979765862226,-0.0184942912310362
713,0.206642165780067,-0.0575933232903481,-0.0304066184908152,-0.0355072878301144,-0.00757999997586012,-0.0218220669776201
714,0.203557223081589,-0.0540114790201187,-0.0234859902411699,-0.0322157070040703,-0.00350374542176723,-0.0258931182324886
715,0.201423242688179,-0.0494335554540157,-0.0156165845692158,-0.0283507034182549,-0.00216341647319496,-0.0277188029140234
716,0.198336318135262,-0.0452278442680836,-0.00989874172955751,-0.0245460905134678,-0.00477689318358898,-0.0248700361698866
717,0.19229544699192,-0.043137039989233,-0.00831718929111958,-0.0221837013959885,-0.0115187680348754,-0.0184382181614637
718,0.182829633355141,-0.0436369217932224,-0.00996798556298018,-0.0220221783965826,-0.0204247049987316,-0.0116450861096382
719,0.170901834964752,-0.0458336360752583,-0.0134145794436336,-0.0240947809070349,-0.0286976508796215,-0.0084431990981102
720,0.15972588956356,-0.0473157279193401,-0.0161172579973936,-0.0258798990398645,-0.0330351628363132,-0.00904080551117659
721,0.151912003755569,-0.0470469519495964,-0.0158819705247879,-0.0250314958393574,-0.0326551347970963,-0.0106548182666302
722,0.146381169557571,-0.0461034886538982,-0.0136264394968748,-0.0228644516319036,-0.0304368901997805,-0.011957261711359
723,0.14126954972744,-0.044788233935833,-0.00975758675485849,-0.0207960810512304,-0.0266949478536844,-0.0121605237945914
724,0.134133726358414,-0.0444095879793167,-0.00468949507921934,-0.0200095400214195,-0.0197484996169806,-0.011678765527904
725,0.121464967727661,-0.0478868186473846,-0.00238456833176315,-0.0228243358433247,-0.0124053107574582,-0.0124972676858306
726,0.103466480970383,-0.0543701723217964,-0.00476241949945688,-0.0282990895211697,-0.00893223285675049,-0.0136262681335211
727,0.0857833251357079,-0.0582931786775589,-0.00736139388754964,-0.031348068267107,-0.00842911750078201,-0.0109384264796972
728,0.074006199836731,-0.055939257144928,-0.00625651981681585,-0.0288053713738918,-0.00704615190625191,-0.00281002442352474
729,0.0685543119907379,-0.0486002825200558,-0.00276404083706439,-0.0221297945827246,-0.00319339381530881,0.0078063034452498
730,0.0655180811882019,-0.0401891656219959,-0.000220748566789553,-0.0149160632863641,0.000625644170213491,0.016643239185214
731,0.0609786994755268,-0.0341821722686291,-0.00058660312788561,-0.0102384481579065,-0.00023111590417102,0.0221634060144424
732,0.0530016757547855,-0.0315700806677341,-0.00377405597828329,-0.00923110544681549,-0.00759807182475924,0.0247209370136261
733,0.041062705218792,-0.0318511165678501,-0.00906957406550646,-0.0117222648113966,-0.0188520718365908,0.0228230413049459
734,0.0277725551277399,-0.0325500518083572,-0.0132399098947644,-0.0148433865979314,-0.0276204776018858,0.0178034882992506
735,0.0165946707129478,-0.0305956769734621,-0.0120278717949986,-0.01476542185992,-0.0288834199309349,0.014668214134872
736,0.00722797773778439,-0.0266779307276011,-0.00645709317177534,-0.0121374530717731,-0.0244126860052347,0.0137478187680244
737,-0.00150869833305478,-0.0232619345188141,-0.00088907836470753,-0.0093284472823143,-0.0182180292904377,0.0127128306776285
738,-0.0108146257698536,-0.0221478119492531,0.0015633333241567,-0.00788971316069365,-0.0135115701705217,0.0107725644484162
739,-0.0236892122775316,-0.0246599167585373,-0.000103405880508944,-0.0098413247615099,-0.0138778937980533,0.00633709272369742
740,-0.0399646386504173,-0.0299296714365482,-0.00418524816632271,-0.014935570769012,-0.0191149041056633,-0.00135674222838134
741,-0.0534221157431602,-0.0337813645601273,-0.0064714471809566,-0.0190784316509962,-0.0227134898304939,-0.0092941140756011
742,-0.0593273229897022,-0.0328870937228203,-0.00466719688847661,-0.0196536239236593,-0.0196533314883709,-0.0147572942078114
743,-0.0605489537119865,-0.0294700674712658,-0.00290430011227727,-0.0195734091103077,-0.0137858595699072,-0.019257016479969
744,-0.0626618266105652,-0.0276139304041862,-0.00685475813224912,-0.0223106630146503,-0.0117171388119459,-0.0239635910838842
745,-0.066281296312809,-0.0273697953671217,-0.0154072651639581,-0.0265180692076683,-0.0122811747714877,-0.0263233873993158
746,-0.0677439048886299,-0.0270980168133974,-0.0228947214782238,-0.0292452499270439,-0.00940107088536024,-0.0243344902992249
747,-0.0677420869469643,-0.0282878559082747,-0.0272954218089581,-0.031339768320322,-0.00275468826293945,-0.0198026169091463
748,-0.0712450444698334,-0.0320826061069965,-0.0296343378722668,-0.0340964607894421,0.00376695534214377,-0.0152572430670261
749,-0.0782696083188057,-0.035754706710577,-0.028934171423316,-0.0352074578404427,0.00947964563965797,-0.0117583349347115
750,-0.0846788138151169,-0.0362584926187992,-0.0229017771780491,-0.0322931855916977,0.0155153069645166,-0.00998763181269169
751,-0.089568667113781,-0.0338753163814545,-0.0129090258851647,-0.0267214328050613,0.0207548514008522,-0.0110431220382452
752,-0.0960838198661804,-0.0322010442614555,-0.00530959758907557,-0.0230517853051424,0.0226375628262758,-0.0164393875747919
753,-0.107155412435532,-0.0345936231315136,-0.00575768947601318,-0.024836340919137,0.0188420731574297,-0.0254228506237268
754,-0.121139191091061,-0.0398389436304569,-0.0133296167477965,-0.0304789673537016,0.00953944399952888,-0.0327629745006561
755,-0.13301083445549,-0.043265912681818,-0.0218837857246399,-0.034845270216465,-0.00152118131518364,-0.0341313816606998
756,-0.140299841761589,-0.0424620099365711,-0.0271244160830975,-0.0351156070828438,-0.0114796068519354,-0.0317393466830254
757,-0.143166065216064,-0.0383176617324352,-0.0286438297480345,-0.0316131897270679,-0.0196077954024076,-0.0297301225364208
758,-0.141835361719131,-0.0328732393682003,-0.0271651949733496,-0.0257952660322189,-0.0246821995824575,-0.0286672003567219
759,-0.137173354625702,-0.0280232075601816,-0.022989684715867,-0.0197226628661156,-0.0242626816034317,-0.026620801538229
760,-0.130478128790855,-0.0235915631055832,-0.015919603407383,-0.013728303834796,-0.0159941408783197,-0.0215309206396341
761,-0.12352691590786,-0.0187132284045219,-0.00755632761865854,-0.00737272016704082,-0.00259388308040798,-0.0137216644361615
762,-0.118462517857552,-0.014341457746923,-0.00159130373504013,-0.00247621722519398,0.00826190505176783,-0.00651238905265927
763,-0.116330467164516,-0.0112496046349406,0.000577960221562535,-0.000576354330405593,0.0120055535808206,-0.00234815711155534
764,-0.117565311491489,-0.0102725746110082,0.000316952005960047,-0.00172258575912565,0.00804564449936152,-0.00187909649685025
765,-0.121407747268677,-0.0128995655104518,-0.00113871309440583,-0.00543876178562641,-0.00216945610009134,-0.00519991246983409
766,-0.124973736703396,-0.0178218763321638,-0.0033300060313195,-0.0097542367875576,-0.0140583775937557,-0.0107154250144959
767,-0.126830607652664,-0.0221470464020967,-0.00711947912350297,-0.0129932714626193,-0.0241072494536638,-0.0163315963000059
768,-0.127546682953835,-0.0244029145687819,-0.0121025266125798,-0.0146914161741734,-0.031006408855319,-0.0203523375093937
769,-0.127544909715652,-0.025132954120636,-0.0160723086446524,-0.0153545970097184,-0.0338944084942341,-0.0224573500454426
770,-0.127866297960281,-0.0266042836010456,-0.0198420248925686,-0.0173419062048197,-0.0341884978115559,-0.0254131704568863
771,-0.127255484461784,-0.0289469081908464,-0.0249292273074389,-0.0210577994585037,-0.033332571387291,-0.029545659199357
772,-0.122485689818859,-0.0305156987160444,-0.0301647279411554,-0.0245098955929279,-0.0318294130265713,-0.0318643003702164
773,-0.114425577223301,-0.0317961871623993,-0.0344521924853325,-0.0275523252785206,-0.0317210033535957,-0.0334027335047722
774,-0.106017969548702,-0.0331289134919643,-0.0370208546519279,-0.0302674099802971,-0.0342722684144974,-0.0371231772005558
775,-0.0976789072155952,-0.0323403738439083,-0.0364272817969322,-0.0308270156383514,-0.0371792204678059,-0.0421353690326214
776,-0.0889779552817345,-0.0276502519845963,-0.032579492777586,-0.0283711031079292,-0.0376763753592968,-0.0462024733424187
777,-0.0806267783045769,-0.0201250445097685,-0.0273318942636251,-0.0242373868823051,-0.0357832834124565,-0.0484422147274017
778,-0.0734452232718468,-0.011970785446465,-0.0217583514750004,-0.019196406006813,-0.0321280658245087,-0.0473888963460922
779,-0.0690441206097603,-0.00634860806167126,-0.0176305063068867,-0.0150720337405801,-0.0285103749483824,-0.0430685691535473
780,-0.0682740211486816,-0.00591604318469763,-0.0175724308937788,-0.0146704167127609,-0.0270530749112368,-0.0381378084421158
781,-0.068403497338295,-0.0091369291767478,-0.0204559098929167,-0.0167460180819035,-0.026029396802187,-0.0337346233427525
782,-0.067001149058342,-0.012382110580802,-0.0233843978494406,-0.0180725920945406,-0.0234942901879549,-0.0292419213801622
783,-0.0649271011352539,-0.0141620384529233,-0.0263034794479609,-0.0187302120029926,-0.0215542484074831,-0.0254859291017056
784,-0.0645249783992767,-0.0158060286194086,-0.0312533937394619,-0.0215075686573982,-0.0238873921334744,-0.0258519630879164
785,-0.0664895474910736,-0.0180123522877693,-0.0381167270243168,-0.0266868509352207,-0.0306553021073341,-0.0313847064971924
786,-0.0692538246512413,-0.0191516689956188,-0.0435452423989773,-0.0311696715652943,-0.0381709635257721,-0.0375261195003986
787,-0.0721535086631775,-0.0178601276129484,-0.0448770225048065,-0.0328366719186306,-0.0433062054216862,-0.0400252752006054
788,-0.0761580094695091,-0.0144989583641291,-0.0418035462498665,-0.0317039154469967,-0.044814445078373,-0.0393085293471813
789,-0.082034170627594,-0.0109327118843794,-0.0359995514154434,-0.0292532201856375,-0.0431507527828217,-0.0384068265557289
790,-0.0892470851540565,-0.00848102383315563,-0.0302553605288267,-0.0270404852926731,-0.0395890772342682,-0.0392118394374847
791,-0.0966467708349228,-0.00663487240672112,-0.0260435547679663,-0.0248237922787666,-0.0346695892512798,-0.0404347665607929
792,-0.104203395545483,-0.00568701606243849,-0.0239320639520884,-0.0223386380821466,-0.029661513864994,-0.0403826870024204
793,-0.112618401646614,-0.00713047292083502,-0.0246277656406164,-0.0205452535301447,-0.0269819926470518,-0.0394815877079964
794,-0.121546752750874,-0.0109312515705824,-0.0273316279053688,-0.0199007038027048,-0.0275692418217659,-0.038417037576437
795,-0.130044311285019,-0.0153740020468831,-0.0301635898649693,-0.0199717711657286,-0.0304508395493031,-0.0366788432002068
796,-0.138486132025719,-0.0192153565585613,-0.0322788059711456,-0.0205479245632887,-0.0344010032713413,-0.0341647230088711
797,-0.147188365459442,-0.0220719929784536,-0.0333655066788197,-0.021566292271018,-0.0366901233792305,-0.031881220638752
798,-0.154868915677071,-0.0230244640260935,-0.0330958031117916,-0.0223942380398512,-0.0334144681692123,-0.0297673381865025
799,-0.161415815353394,-0.0215104073286057,-0.0324061140418053,-0.0228323340415955,-0.0250621847808361,-0.0276016686111689
800,-0.167784780263901,-0.0181338712573051,-0.0322445780038834,-0.0233604051172733,-0.0160353556275368,-0.025870893150568
801,-0.173073425889015,-0.0134880458936095,-0.0316904820501804,-0.0233737621456385,-0.00907116942107677,-0.0235351026058197
802,-0.175698429346085,-0.00837123766541481,-0.0295248739421368,-0.0213330425322056,-0.0048545659519732,-0.0194437261670828
803,-0.175692930817604,-0.00413856701925397,-0.0260712970048189,-0.0169876329600811,-0.00336197461001575,-0.0147322053089738
804,-0.174675583839417,-0.00188353192061186,-0.0232266057282686,-0.0122109623625875,-0.00489775044843555,-0.0118438918143511
805,-0.174783200025558,-0.00247648684307933,-0.0234168022871017,-0.0098895113915205,-0.0107816746458411,-0.0129281440749764
806,-0.177880480885506,-0.00618597259745002,-0.0272374413907528,-0.0113974837586284,-0.0208226814866066,-0.0168672930449247
807,-0.184988722205162,-0.0117330905050039,-0.0327338241040707,-0.0154731972143054,-0.0312285721302032,-0.0180094204843044
808,-0.195183768868446,-0.0172909162938595,-0.0372436419129372,-0.0203795116394758,-0.0368972904980183,-0.0130831878632307
809,-0.205127239227295,-0.0210772287100554,-0.0379176549613476,-0.024410666897893,-0.0355910919606686,-0.00552683370187879
810,-0.211172461509705,-0.0213875118643045,-0.0336079560220242,-0.025430167093873,-0.0292924307286739,-0.000221359441638924
811,-0.211641475558281,-0.0180924106389284,-0.0269087497144938,-0.023054838180542,-0.0212682280689478,0.000248930999077857
812,-0.206254616379738,-0.0117629021406174,-0.0206059738993645,-0.0184742864221334,-0.012521849013865,-0.00392274232581258
813,-0.19656977057457,-0.00283921230584383,-0.0156857948750257,-0.0131608210504055,-0.00373627757653594,-0.0107465256005526
814,-0.18678805232048,0.00601420598104596,-0.0126958116889,-0.00971726793795824,0.00177928700577468,-0.0195293202996254
815,-0.178873211145401,0.0128595847636461,-0.00930180959403515,-0.00826588366180658,0.00385544309392571,-0.0278935190290213
816,-0.171870648860931,0.0192118529230356,-0.00186073686927557,-0.00556764751672745,0.00724666798487306,-0.0310535281896591
817,-0.16745899617672,0.0252815447747707,0.00789106823503971,-0.00158194557297975,0.0128774018958211,-0.0295333676040173
818,-0.167633727192879,0.0290664453059435,0.0141551243141294,0.000790454912930727,0.0168002936989069,-0.0278059188276529
819,-0.170459792017937,0.0298563279211521,0.0133658992126584,0.000483593612443656,0.0168344788253307,-0.027419675141573
820,-0.172435015439987,0.0289953965693712,0.00652417400851846,-0.00162983278278261,0.0140066212043166,-0.0275693312287331
821,-0.171989530324936,0.0272871665656567,-0.00308872037567198,-0.00488183926790953,0.00923341512680054,-0.0287313926964998
822,-0.169294759631157,0.0242818240076303,-0.0126075427979231,-0.00900862738490105,0.00221651373431087,-0.0318977646529675
823,-0.164246454834938,0.0214205551892519,-0.0195137150585651,-0.0122620388865471,-0.00559519464150071,-0.0349663197994232
824,-0.158308312296867,0.0200824495404959,-0.0236131213605404,-0.0132117262110114,-0.0122970370575786,-0.0354332141578197
825,-0.153757601976395,0.0202139038592577,-0.025721238926053,-0.0109807215631008,-0.0169635154306889,-0.0321411862969399
826,-0.151499435305595,0.0212426017969847,-0.0256001446396112,-0.0058169518597424,-0.019092870876193,-0.0251785703003407
827,-0.152009129524231,0.0217412207275629,-0.0240116659551859,-0.000780428759753704,-0.0197674538940191,-0.017590245231986
828,-0.153803333640099,0.0224749241024256,-0.0205710232257843,0.00295638875104487,-0.0188205912709236,-0.0117810163646936
829,-0.15598101913929,0.0234320517629385,-0.0161062348634005,0.00479838298633695,-0.0163472890853882,-0.00950794946402311
830,-0.159518346190453,0.0224736295640469,-0.0139764752238989,0.00326013006269932,-0.0144349383190274,-0.0119153941050172
831,-0.164275363087654,0.019187081605196,-0.0155807416886091,-0.0012292277533561,-0.014359038323164,-0.0179548319429159
832,-0.16964690387249,0.0139373606070876,-0.0205970946699381,-0.00770234456285834,-0.0169922150671482,-0.026360459625721
833,-0.173923566937447,0.00894284062087536,-0.0268166773021221,-0.0139561025425792,-0.0215111300349236,-0.0335778258740902
834,-0.174278914928436,0.00795669574290514,-0.030435698106885,-0.0167009849101305,-0.0246308445930481,-0.0353665351867676
835,-0.1703100502491,0.0112252524122596,-0.0301421098411083,-0.0153025723993778,-0.0249171983450651,-0.0324490256607533
836,-0.164168253540993,0.0161208137869835,-0.0276424568146467,-0.0117623256519437,-0.0245047491043806,-0.0277974773198366
837,-0.158576354384422,0.0202768705785275,-0.0248069707304239,-0.00818566977977753,-0.0257953200489283,-0.0236655157059431
838,-0.155808389186859,0.0213672984391451,-0.0227343197911978,-0.00676589738577604,-0.0287747159600258,-0.0234963484108448
839,-0.154498890042305,0.0198861993849278,-0.0204017665237188,-0.0075658829882741,-0.0300732627511024,-0.0280683562159538
840,-0.152197748422623,0.0181007292121649,-0.017648983746767,-0.00941967777907848,-0.0279002096503973,-0.0350668728351593
841,-0.149737268686295,0.0154784461483359,-0.0180587973445654,-0.0137155745178461,-0.0251490511000156,-0.0438664890825748
842,-0.147633880376816,0.0117327207699418,-0.0230403859168291,-0.02035853266716,-0.0238174516707659,-0.0527976565063
843,-0.14505672454834,0.00905500259250402,-0.0300080757588148,-0.0259157251566648,-0.0239066556096077,-0.0579284653067589
844,-0.142078399658203,0.00923766102641821,-0.0364906005561352,-0.0280878487974405,-0.0261126533150673,-0.057179406285286
845,-0.139831870794296,0.0111958822235465,-0.042294804006815,-0.0285254400223494,-0.0315176546573639,-0.0525350645184517
846,-0.139206856489182,0.0121748559176922,-0.0482494160532951,-0.030867725610733,-0.0392922163009644,-0.0485978573560715
847,-0.139549493789673,0.0117637980729342,-0.0539652891457081,-0.0361073538661003,-0.046727366745472,-0.0481750294566154
848,-0.138345941901207,0.013913250528276,-0.0567041784524918,-0.0397538542747498,-0.0507774315774441,-0.0482784956693649
849,-0.133810490369797,0.0212108381092548,-0.0545898117125034,-0.037913978099823,-0.050064641982317,-0.0462853014469147
850,-0.128135189414024,0.0294493101537228,-0.0510974563658237,-0.034207209944725,-0.0478883758187294,-0.0464775860309601
851,-0.123613327741623,0.034575991332531,-0.0495105795562267,-0.032363586127758,-0.0476632118225098,-0.0515525117516518
852,-0.120576679706573,0.0364233627915382,-0.0500085465610027,-0.0326267816126347,-0.050187710672617,-0.0597836263477802
853,-0.119092121720314,0.0359639897942543,-0.0524011291563511,-0.0352504290640354,-0.0556236170232296,-0.0693823173642159
854,-0.118560284376144,0.0350330397486687,-0.0554622299969196,-0.0391709841787815,-0.0619853511452675,-0.0776313319802284
855,-0.118508718907833,0.0353392735123634,-0.0578185990452766,-0.042215533554554,-0.0667302012443542,-0.0817851051688194
856,-0.118427261710167,0.0375776365399361,-0.0587555132806301,-0.0430658161640167,-0.0687379986047745,-0.0813463106751442
857,-0.117312297224998,0.0406296104192734,-0.0582723468542099,-0.0421790108084679,-0.0676922723650932,-0.0785849392414093
858,-0.114826492965221,0.0423731319606304,-0.0575136952102184,-0.0410559959709644,-0.0647850036621094,-0.0766365751624107
859,-0.111142240464687,0.0425914116203785,-0.0574040003120899,-0.040495827794075,-0.0621599741280079,-0.0763244926929474
860,-0.106798924505711,0.0428587011992931,-0.0584878139197826,-0.0407775193452835,-0.0618934594094753,-0.0764104723930359
861,-0.102986864745617,0.0435714088380337,-0.0617440044879913,-0.0425514206290245,-0.0655254945158958,-0.0766024217009544
862,-0.0996380746364594,0.0442604571580887,-0.0662822052836418,-0.0451406426727772,-0.0720339640974998,-0.0770329982042313
863,-0.0955273360013962,0.045595858246088,-0.0688265115022659,-0.0463749654591084,-0.0780251249670982,-0.0769185572862625
864,-0.0901367142796516,0.0488270372152328,-0.0667842552065849,-0.0448326840996742,-0.0801853314042091,-0.0753577277064323
865,-0.0837803706526756,0.0537214353680611,-0.0613424815237522,-0.0414550825953484,-0.0781856775283813,-0.0726582854986191
866,-0.0775997936725616,0.0583288334310055,-0.05738615244627,-0.0392540246248245,-0.0757924094796181,-0.0706797316670418
867,-0.0727327242493629,0.0608968175947666,-0.0588632449507713,-0.0406482107937336,-0.0771028771996498,-0.0711173415184021
868,-0.067743107676506,0.0628185570240021,-0.0633113756775856,-0.0438126772642136,-0.0810254216194153,-0.0719400346279144
869,-0.0613984018564224,0.0664686039090157,-0.0654231682419777,-0.0452201813459396,-0.08383609354496,-0.0698637813329697
870,-0.0567371174693108,0.0701254233717918,-0.0647184103727341,-0.0455650575459003,-0.0853129103779793,-0.0671010762453079
871,-0.0567407533526421,0.0714752078056335,-0.0628210678696632,-0.046649519354105,-0.0863175243139267,-0.0673096254467964
872,-0.0606394223868847,0.0715420618653297,-0.0594267956912518,-0.0472075566649437,-0.0860181748867035,-0.0695126429200172
873,-0.0664258822798729,0.0712118744850159,-0.0555000901222229,-0.04659029468894,-0.0848719254136086,-0.0718890577554703
874,-0.07280433177948,0.0693980008363724,-0.0537520460784435,-0.0465654879808426,-0.0849704444408417,-0.0748331770300865
875,-0.0776195824146271,0.0664573386311531,-0.0539696179330349,-0.0471404567360878,-0.085828572511673,-0.0776611864566803
876,-0.07906124740839,0.064139798283577,-0.0543693751096725,-0.0469708926975727,-0.0858267024159431,-0.0792751312255859
877,-0.0778045058250427,0.0632725358009338,-0.0545348040759563,-0.0459310598671436,-0.0854538232088089,-0.0800679698586464
878,-0.0750091224908829,0.0642742440104485,-0.053423784673214,-0.04381188377738,-0.0847559794783592,-0.0799372494220734
879,-0.0726797878742218,0.0657369345426559,-0.0514817833900452,-0.0418406538665295,-0.0840273126959801,-0.0800772234797478
880,-0.0733270794153214,0.0657538250088692,-0.0511540062725544,-0.0420039221644402,-0.0851610079407692,-0.0820415169000626
881,-0.0763803943991661,0.0657588392496109,-0.0526153780519962,-0.0431219600141048,-0.088633231818676,-0.0838930532336235
882,-0.0799095630645752,0.0671166181564331,-0.0554448030889034,-0.0441283471882343,-0.0937972143292427,-0.0844219326972961
883,-0.0832068845629692,0.0685122832655907,-0.0600162521004677,-0.0463607311248779,-0.0999918878078461,-0.0854025706648827
884,-0.0863753035664558,0.0688734203577042,-0.0649105757474899,-0.0495818890631199,-0.10563637316227,-0.087431825697422
885,-0.090604767203331,0.0681029930710793,-0.0677293837070465,-0.0516202002763748,-0.108814515173435,-0.0894054844975472
886,-0.0975442975759506,0.0661234855651855,-0.0674109756946564,-0.0517385900020599,-0.108339101076126,-0.091009721159935
887,-0.108400702476501,0.0625444799661636,-0.0648724958300591,-0.0515421964228153,-0.104723282158375,-0.0936926528811455
888,-0.122446320950985,0.0589424632489681,-0.061488788574934,-0.051032017916441,-0.0998037159442902,-0.0966033935546875
889,-0.136514574289322,0.0596696473658085,-0.0579722970724106,-0.046989232301712,-0.0954289808869362,-0.0945314690470696
890,-0.148945793509483,0.0656731277704239,-0.0558849461376667,-0.0390924550592899,-0.0932595580816269,-0.0859269425272942
891,-0.161025121808052,0.0723872482776642,-0.0567332468926907,-0.0318914875388145,-0.0938529595732689,-0.0763531029224396
892,-0.173528224229813,0.075581431388855,-0.0593414641916752,-0.0292521137744188,-0.0954599156975746,-0.0712768509984016
893,-0.185647696256638,0.0746482536196709,-0.0611948110163212,-0.0310373771935701,-0.0956715866923332,-0.0709097906947136
894,-0.195429623126984,0.0723846703767776,-0.059534665197134,-0.0327612645924091,-0.0921002477407455,-0.0708289220929146
895,-0.202122017741203,0.0716579854488373,-0.0533820241689682,-0.0299275107681751,-0.0841806530952454,-0.067098580300808
896,-0.208573013544083,0.0717044621706009,-0.0465658940374851,-0.0241648871451616,-0.0765061900019646,-0.0609735362231731
897,-0.217419654130936,0.0703801363706589,-0.0436861515045166,-0.0203659292310476,-0.0739449709653854,-0.0566453225910664
898,-0.227319434285164,0.0680564492940903,-0.0442763715982437,-0.0194940306246281,-0.0753041952848434,-0.0552646294236183
899,-0.23571041226387,0.0659875720739365,-0.0451858602464199,-0.0198584385216236,-0.0769305229187012,-0.0550653487443924
900,-0.241744846105576,0.0644941776990891,-0.0446376949548721,-0.0201768111437559,-0.0768299624323845,-0.0541488863527775
901,-0.245237052440643,0.064530223608017,-0.041523564606905,-0.018704853951931,-0.0741061940789223,-0.0501837730407715
902,-0.247388958930969,0.0656174644827843,-0.0373165085911751,-0.0164600629359484,-0.0711323618888855,-0.043937299400568
903,-0.250586748123169,0.0657893344759941,-0.0356234349310398,-0.0170013159513474,-0.0715552568435669,-0.0394988507032394
904,-0.25588271021843,0.0648199990391731,-0.0375420078635216,-0.0211789421737194,-0.0755643844604492,-0.038908276706934
905,-0.262907832860947,0.0632786527276039,-0.0416340008378029,-0.0270293988287449,-0.0813874304294586,-0.0414076261222363
906,-0.269741892814636,0.0620364956557751,-0.0453040339052677,-0.0314263254404068,-0.0863883495330811,-0.044336773455143
907,-0.274023622274399,0.062273807823658,-0.0461880713701248,-0.0321208201348782,-0.0878065377473831,-0.045369952917099
908,-0.275433152914047,0.0641765668988228,-0.0440890304744244,-0.0297659542411566,-0.0853103399276733,-0.0447428897023201
909,-0.275861293077469,0.0663933008909225,-0.0409598872065544,-0.02707863971591,-0.0813702568411827,-0.0442102178931236
910,-0.276492536067963,0.0674772337079048,-0.0374885462224483,-0.0256087630987167,-0.0773187205195427,-0.0445697754621506
911,-0.276734858751297,0.0676926597952843,-0.0321238115429878,-0.0241723358631134,-0.0716409385204315,-0.0442429892718792
912,-0.277825474739075,0.0671654045581818,-0.0261907111853361,-0.0226127244532108,-0.0653494596481323,-0.0426146499812603
913,-0.281338006258011,0.0660986229777336,-0.0228182747960091,-0.0217754635959864,-0.0617107674479485,-0.0403588563203812
914,-0.285763740539551,0.0659339651465416,-0.0226557813584805,-0.0213786214590073,-0.0615975931286812,-0.0375676341354847
915,-0.289379477500916,0.0664535611867905,-0.0251043438911438,-0.0220922324806452,-0.0644183084368706,-0.0356651023030281
916,-0.292377203702927,0.0656436830759048,-0.028827453032136,-0.0248287729918957,-0.069175511598587,-0.0361387431621552
917,-0.296160519123077,0.0622703060507774,-0.0324057340621948,-0.0290360152721405,-0.0745958462357521,-0.0386319570243359
918,-0.300364315509796,0.0581634715199471,-0.0334893316030502,-0.0315923094749451,-0.0779120996594429,-0.0404909215867519
919,-0.302002042531967,0.0573108121752739,-0.0287486463785172,-0.0281935818493366,-0.0752198025584221,-0.0376719422638416
920,-0.301847189664841,0.0594284683465958,-0.0203995890915394,-0.0202188156545162,-0.0686405673623085,-0.0305172931402922
921,-0.304227560758591,0.0607298575341702,-0.0143982479348779,-0.0132307764142752,-0.0649120137095451,-0.0232763588428497
922,-0.310605347156525,0.0596804991364479,-0.0132323568686843,-0.0101223774254322,-0.0666240528225899,-0.0188453774899244
923,-0.319310307502747,0.0568256378173828,-0.0161708630621433,-0.0110934907570481,-0.0714826360344887,-0.0185394566506147
924,-0.327008903026581,0.0540284253656864,-0.019895788282156,-0.0140730524435639,-0.0746574327349663,-0.0212302878499031
925,-0.330960929393768,0.053683377802372,-0.0202505029737949,-0.0154128214344382,-0.0725641772150993,-0.0228555612266064
926,-0.332225978374481,0.055630799382925,-0.0173122920095921,-0.013850131072104,-0.0671084076166153,-0.0210228376090527
927,-0.333764970302582,0.0573907233774662,-0.0143648628145456,-0.0109088309109211,-0.062552236020565,-0.0171102173626423
928,-0.336158961057663,0.058347724378109,-0.0115932431071997,-0.00685196928679943,-0.059134554117918,-0.0119095705449581
929,-0.339745372533798,0.0575044453144073,-0.00832768902182579,-0.00335004343651235,-0.0559550896286964,-0.00749274855479598
930,-0.345603883266449,0.0524594858288765,-0.00634476635605097,-0.00428148591890931,-0.0538685619831085,-0.00843330845236778
931,-0.35189288854599,0.0452792942523956,-0.00557906273752451,-0.00788204651325941,-0.0516929998993874,-0.0135884508490562
932,-0.35652282834053,0.0401931367814541,-0.00490773562341928,-0.0090654194355011,-0.0484034940600395,-0.0169157534837723
933,-0.35989373922348,0.0384710282087326,-0.00539644062519073,-0.00743484077975154,-0.046008363366127,-0.015661446377635
934,-0.361935526132584,0.0406219772994518,-0.00723737012594938,-0.00482665142044425,-0.0456889905035496,-0.0102229127660394
935,-0.362730711698532,0.0456697270274162,-0.00955077726393938,-0.00223909365013242,-0.0471706762909889,-0.00242241052910686
936,-0.363376498222351,0.0500602833926678,-0.0122251119464636,-0.000537671439815313,-0.0500565767288208,0.00457860296592116
937,-0.363280266523361,0.0524954795837402,-0.0139306131750345,0.00060451275203377,-0.0520602241158485,0.00905985198915005
938,-0.362294435501099,0.0529289357364178,-0.0141309984028339,0.000872309843543917,-0.0519493520259857,0.0095843467861414
939,-0.361927330493927,0.0505700930953026,-0.0141575783491135,-0.000631854869425297,-0.0507802963256836,0.005078568123281
940,-0.361990511417389,0.0470450520515442,-0.0135374534875155,-0.00182502635288984,-0.0475143045186996,-0.000864258036017418
941,-0.361523121595383,0.0443594418466091,-0.0112721361219883,-0.000393914873711765,-0.041353914886713,-0.00397993857041001
942,-0.36079353094101,0.0422305501997471,-0.00860614702105522,0.00271673360839486,-0.0351770520210266,-0.00476542674005032
943,-0.360331803560257,0.040032759308815,-0.00747988512739539,0.00530646555125713,-0.0319540053606033,-0.00529172737151384
944,-0.359929859638214,0.0378985032439232,-0.00863214954733849,0.00621421076357365,-0.0319588556885719,-0.006246043369174
945,-0.358992844820023,0.0364792719483376,-0.0114194443449378,0.00575821381062269,-0.0338222458958626,-0.00735382782295346
946,-0.357201844453812,0.0367687866091728,-0.0146430488675833,0.00549130281433463,-0.036044005304575,-0.0068712905049324
947,-0.354116708040237,0.0395507626235485,-0.0167825315147638,0.00723282666876912,-0.0372163951396942,-0.00277579296380281
948,-0.34988209605217,0.0440407581627369,-0.0168128628283739,0.0104513093829155,-0.0364330373704433,0.00396496802568436
949,-0.345546782016754,0.0487210266292095,-0.0146214766427875,0.0132677098736167,-0.0332062356173992,0.0111760394647717
950,-0.34202852845192,0.0527104996144772,-0.0103403106331825,0.015600741840899,-0.0275124721229076,0.0184075105935335
951,-0.3400519490242,0.0549615472555161,-0.00519489217549562,0.017701206728816,-0.0205861125141382,0.0257355645298958
952,-0.340421319007874,0.0538171008229256,-0.00149621453601867,0.0182206686586142,-0.0141100697219372,0.0319319814443588
953,-0.343896508216858,0.0470542721450329,-0.00177369976881891,0.014450429007411,-0.0103891091421247,0.0339308306574821
954,-0.34886446595192,0.0348919108510017,-0.00688842311501503,0.00567579176276922,-0.0105328233912587,0.0311421845108271
955,-0.350578039884567,0.022476214915514,-0.0129633126780391,-0.0037536567542702,-0.0111093837767839,0.028667114675045
956,-0.346545964479446,0.0153172435238957,-0.0137929581105709,-0.00869936030358076,-0.00788705516606569,0.0305183809250593
957,-0.340149641036987,0.0138378590345383,-0.00790369883179665,-0.0088241184130311,-0.00154025747906417,0.0334201939404011
958,-0.334844380617142,0.0165011119097471,0.00243709445931017,-0.00537743372842669,0.00587942078709602,0.0337668508291245
959,-0.330715090036392,0.0226775947958231,0.0142555888742208,0.000166363839525729,0.0137933902442455,0.0312850289046764
960,-0.327799916267395,0.0304889287799597,0.0226909648627043,0.00440391385927796,0.0195813626050949,0.0258163828402758
961,-0.324986159801483,0.0390029400587082,0.0253210887312889,0.00725162075832486,0.0213278029114008,0.0203521717339754
962,-0.321459472179413,0.0469233356416225,0.0220668166875839,0.00935328379273415,0.0188210885971785,0.0164209082722664
963,-0.31859564781189,0.0513823553919792,0.0134886791929603,0.00902801845222712,0.0121311256662011,0.0115696201100945
964,-0.315933853387833,0.0529785491526127,0.00434631528332829,0.00836457312107086,0.00481040636077523,0.00829298421740532
965,-0.31295582652092,0.0533326603472233,-0.000922441075090319,0.00983196590095758,0.000326201814459637,0.0101867029443383
966,-0.311794012784958,0.0518505796790123,-0.00199325056746602,0.0120156332850456,-0.00138777401298285,0.0153418406844139
967,-0.313217461109161,0.0490019172430038,0.000435137568274513,0.014056165702641,-0.000298916915198788,0.0216557737439871
968,-0.314185261726379,0.0466817431151867,0.00530591234564781,0.0167976673692465,0.00519974948838353,0.0285859368741512
969,-0.312246024608612,0.0455021969974041,0.0107296267524362,0.0199016109108925,0.0158681515604258,0.0335819609463215
970,-0.309681355953217,0.0435342751443386,0.0147542059421539,0.0209459643810987,0.0293438527733088,0.0334258563816547
971,-0.310259312391281,0.0400931090116501,0.0177441146224737,0.0194534789770842,0.0426187291741371,0.0310612712055445
972,-0.315880864858627,0.038084901869297,0.0219889916479588,0.0188124738633633,0.0546350739896297,0.0342396646738052
973,-0.327439337968826,0.0384739711880684,0.0275208000093699,0.0212850756943226,0.0639466494321823,0.0440172553062439
974,-0.344431519508362,0.0387458354234695,0.0323617681860924,0.0255025122314692,0.0682225078344345,0.0529814548790455
975,-0.365023642778397,0.0375214368104935,0.0354646518826485,0.0288431905210018,0.0672248601913452,0.0539024472236633
976,-0.388580918312073,0.0346145816147327,0.0360274165868759,0.0288453660905361,0.0620060674846172,0.0443177036941051
977,-0.414365321397781,0.0297593846917152,0.0334270931780338,0.0243630483746529,0.0534318387508392,0.0271756295114756
978,-0.438744843006134,0.0240371897816658,0.0286974832415581,0.0166141148656607,0.0445333272218704,0.00863739661872387
979,-0.45841258764267,0.0183956939727068,0.022981908172369,0.00741566298529506,0.0402139537036419,-0.00783260818570852
980,-0.471705824136734,0.0147141525521874,0.0192937292158604,0.000776491418946534,0.045355100184679,-0.0193625763058662
981,-0.477710962295532,0.0166162829846144,0.0225323680788279,0.00225373730063438,0.0604111813008785,-0.0209457818418741
982,-0.479952901601791,0.0237675439566374,0.0327160507440567,0.0118124755099416,0.0779559314250946,-0.0111267631873488
983,-0.484879910945892,0.032666239887476,0.0449155792593956,0.0248386170715094,0.0911383554339409,0.00901528261601925
984,-0.495621800422668,0.0406745038926601,0.0535603277385235,0.0365852080285549,0.0987476855516434,0.0361364595592022
985,-0.5,0.0443240106105804,0.0552224069833755,0.0426426827907562,0.0997993052005768,0.060752660036087
986,-0.5,0.0421362295746803,0.0527019649744034,0.0428113304078579,0.0956590548157692,0.0746682733297348
987,-0.5,0.0382514782249928,0.0528556555509567,0.0419473461806774,0.0922258272767067,0.0781932696700096
988,-0.5,0.0361816063523293,0.0580614507198334,0.0432579517364502,0.0922468528151512,0.0761516839265823
989,-0.5,0.0353168547153473,0.0645872801542282,0.0461925975978374,0.0927161425352097,0.0732975751161575
990,-0.5,0.0338619016110897,0.0677176266908646,0.0488860905170441,0.0901887193322182,0.071035772562027
991,-0.5,0.0310320388525724,0.0669446960091591,0.0501755513250828,0.0864655897021294,0.0675259307026863
992,-0.5,0.0274681393057108,0.0653148591518402,0.050795242190361,0.0864869654178619,0.0620296113193035
993,-0.5,0.0243724696338177,0.0658104196190834,0.0523583367466927,0.0924839004874229,0.056465171277523
994,-0.5,0.0229560397565365,0.0698710754513741,0.0554956384003162,0.103061571717262,0.0543135479092598
995,-0.5,0.0230033490806818,0.0761047378182411,0.0594194047152996,0.114393621683121,0.0592845156788826
996,-0.5,0.022591108456254,0.0817963480949402,0.0632327273488045,0.123709879815578,0.0712380632758141
997,-0.5,0.0197134874761105,0.0854811519384384,0.0656827390193939,0.130437821149826,0.0830850079655647
998,-0.5,0.0144328624010086,0.088140644133091,0.0656554475426674,0.135935842990875,0.0877900272607803
999,-0.5,0.00857937429100275,0.092012383043766,0.0638322979211807,0.144305899739265,0.0852173492312431
1000,-0.5,0.00316618685610592,0.0979941636323929,0.0617529526352882,0.158469781279564,0.0791601091623306
1001,-0.5,-0.00403768476098776,0.101998351514339,0.0578289292752743,0.173286467790604,0.0704094991087914
1002,-0.5,-0.0135193951427937,0.0999297946691513,0.0517259277403355,0.180278733372688,0.0606470517814159
1003,-0.5,-0.0189851857721806,0.0955050364136696,0.0495869554579258,0.177811309695244,0.0584291107952595
