,AF3,AF4,Fp1,Fp2,AF7,AF8
0,-0.0100778564810753,-0.0159744266420603,0.0122089795768261,-0.0249300878494978,-0.015609372407198,-0.0147088086232543
1,-0.0148074263706803,-0.0191965270787477,0.00768888834863901,-0.0303425639867783,-0.0124444561079144,-0.0207895282655954
2,-0.0151641871780157,-0.0191838126629591,0.00417813053354621,-0.0332960113883018,-0.00571095570921898,-0.020653260871768
3,-0.00919606164097786,-0.0147210629656911,0.00254531926475465,-0.031459167599678,0.00352064822800457,-0.010895692743361
4,0.00132459797896445,-0.0089394599199295,0.00223596557043493,-0.0265160966664553,0.0115136280655861,0.00437589501962066
5,0.0121472701430321,-0.00511598354205489,0.003232067450881,-0.0212404783815145,0.0159778874367476,0.0180681925266981
6,0.0193311292678118,-0.0039180051535368,0.00611411919817328,-0.0171434283256531,0.0179450716823339,0.0259638000279665
7,0.0206559933722019,-0.00523057021200657,0.00852565001696348,-0.0161594618111849,0.0185380112379789,0.0262230020016432
8,0.0175516773015261,-0.00742510659620166,0.00876078475266695,-0.0185296423733234,0.0198236554861069,0.0198418274521828
9,0.0143547942861915,-0.00740224868059158,0.00912776216864586,-0.020456001162529,0.0251184124499559,0.0119170332327485
10,0.0128897819668055,-0.00595840951427817,0.00965909566730261,-0.0204917043447495,0.0332375317811966,0.00540273822844028
11,0.0118187107145786,-0.00611919723451138,0.00774026429280639,-0.0207083281129599,0.0390269681811333,0.000329993898048997
12,0.0101449396461248,-0.00761500652879477,0.00419321376830339,-0.0212109871208668,0.0391181632876396,-0.0013974093599245
13,0.00935663282871246,-0.00805682688951492,0.00250276969745755,-0.0202374532818794,0.0344809591770172,0.00120537274051458
14,0.0110274199396372,-0.00619620829820633,0.00450360123068094,-0.0171685479581356,0.0297554414719343,0.00491846771910787
15,0.0123871816322207,-0.00335415964946151,0.00868010614067316,-0.0138173764571548,0.028220159932971,0.00505680684000254
16,0.0106255225837231,-0.00130881741642952,0.0129194818437099,-0.0120867108926177,0.0291203111410141,0.000868292583618313
17,0.00789197161793709,0.000361853773938492,0.0176011584699154,-0.0115147838369012,0.0312207322567701,-0.00390121131204069
18,0.00668382132425904,0.0020346196833998,0.0231617894023657,-0.0115755572915077,0.0323569588363171,-0.00699649658054113
19,0.00668117590248585,0.00289754080586135,0.0285290665924549,-0.0121956085786223,0.0299908891320229,-0.0088722687214613
20,0.0077025149948895,0.00358165334910154,0.0336380042135715,-0.0112309344112873,0.0271554552018642,-0.00833071488887072
21,0.0100182071328163,0.00431451946496964,0.0379590578377247,-0.00782712735235691,0.0281741674989462,-0.00482168374583125
22,0.012947884388268,0.00313846347853541,0.0388092286884785,-0.00510592525824904,0.0310420375317335,-0.000403616722906008
23,0.0157044567167759,-0.000501950096804649,0.0349799655377865,-0.00529700750485063,0.0309119131416082,0.00496860546991229
24,0.017049266025424,-0.0054113483056426,0.0268644690513611,-0.00821831915527582,0.0251542963087559,0.0112595735117793
25,0.0147685641422868,-0.0107461428269744,0.0145853199064732,-0.0133724315091968,0.014280921779573,0.0148038864135742
26,0.00705660320818424,-0.0169403031468391,-0.000677411793731153,-0.0206701289862394,0.000391454406781122,0.0114879095926881
27,-0.00317083206027746,-0.0234001222997904,-0.0144439684227109,-0.0282711517065763,-0.0119689051061869,0.00209803064353764
28,-0.00738148810341954,-0.0246115643531084,-0.0193812437355518,-0.0299088545143604,-0.0146236466243863,-0.00532806990668178
29,-0.00247195526026189,-0.0178598500788212,-0.0142512107267976,-0.0229331571608782,-0.00560882082208991,-0.00596501678228378
30,0.00572434905916452,-0.00885598361492157,-0.00544651364907622,-0.0128372618928552,0.00745372846722603,-0.00382164726033807
31,0.0122700901702046,-0.00352280051447451,0.00265596248209476,-0.00535908387973905,0.0176382455974817,-0.00289800949394703
32,0.0147945648059249,-0.00425025867298245,0.00886759720742702,-0.00366754387505353,0.022153627127409,-0.00459153484553099
33,0.0130407195538282,-0.0086810914799571,0.0141467796638608,-0.006390530616045,0.0236054938286543,-0.00723505159839988
34,0.0104693593457341,-0.0108918314799666,0.0204973742365837,-0.00814279541373253,0.0280641466379166,-0.00660142628476024
35,0.0103634232655168,-0.00897226482629776,0.0261659398674965,-0.0073821758851409,0.0357406064867973,-0.00275064026936889
36,0.014245642349124,-0.00500782020390034,0.0277152340859175,-0.00589471869170666,0.0420906655490398,0.000897301884833723
37,0.0217295140028,-0.00129273941274732,0.0245898421853781,-0.0046649482101202,0.0449185632169247,0.00306830462068319
38,0.0291567202657461,1.47826176544186E-05,0.0188998691737652,-0.00487027550116181,0.0435464791953564,0.00449117412790656
39,0.0332557260990143,-0.00166723353322595,0.014204103499651,-0.00718185910955071,0.038161888718605,0.00614561885595322
40,0.0337982699275017,-0.00526576442644,0.0132453208789229,-0.0106433238834143,0.0316269509494305,0.00755497999489307
41,0.0311421081423759,-0.00963188242167234,0.0155716240406036,-0.0135603444650769,0.0266606211662292,0.0080833388492465
42,0.0271799098700285,-0.0134375765919685,0.0194052811712027,-0.0144924763590097,0.0234548803418875,0.00929085817188025
43,0.0259139779955149,-0.0146978795528412,0.0243014954030514,-0.0126485023647547,0.0223460365086794,0.0123410578817129
44,0.0276305638253689,-0.0126241184771061,0.0284391343593597,-0.0089905047789216,0.0237168464809656,0.0153320506215096
45,0.0284785497933626,-0.00850534718483686,0.0281703546643257,-0.0057974811643362,0.0261530764400959,0.0155692342668772
46,0.026723200455308,-0.00321371108293533,0.0238389410078526,-0.00298059359192848,0.0285947453230619,0.0136622525751591
47,0.0238798856735229,0.00238129333592951,0.0192154571413994,0.000365157175110653,0.0301930084824562,0.0115803014487028
48,0.0213150903582573,0.00633881101384759,0.0162026565521955,0.00298519898205996,0.0284926276654005,0.00906785950064659
49,0.0197514947503805,0.0088920509442687,0.0157947633415461,0.00512926792725921,0.0229743458330631,0.00703543843701482
50,0.0183126758784056,0.00933216605335474,0.0156340841203928,0.0057922126725316,0.0134044336155057,0.00523133017122746
51,0.0153366662561893,0.00471912184730172,0.0107593918219209,0.00133121071849018,-0.00159187836106867,0.000548078736755997
52,0.0125264609232545,-0.00271833944134414,0.00337393023073673,-0.00675881002098322,-0.0179421789944172,-0.00579456845298409
53,0.00947875156998634,-0.0101867346093059,-0.00264097983017564,-0.0162632223218679,-0.0313019305467606,-0.0126939825713634
54,0.00332684395834804,-0.0181804895401001,-0.00877133943140507,-0.0276776775717735,-0.0403634905815125,-0.0213264692574739
55,-0.00285569112747908,-0.02404391951859,-0.0148648098111153,-0.0375208482146263,-0.0411347523331642,-0.0273017138242722
56,-0.00400188192725182,-0.0232292469590902,-0.0168315060436726,-0.0404027700424194,-0.03065450116992,-0.0240262355655432
57,0.000158989787450992,-0.0148084750398993,-0.0118477828800678,-0.0347847118973732,-0.0115399863570929,-0.0101262107491493
58,0.00577061995863914,-0.00364040164276958,-0.00297595281153917,-0.0249173659831285,0.0087958537042141,0.00945734418928623
59,0.00902143958956003,0.00359540875069797,0.00321735395118594,-0.0176766309887171,0.0229303929954767,0.0261230021715164
60,0.00998208858072758,0.00524654146283865,0.00402449909597635,-0.0149818221107125,0.0287782829254866,0.0336711294949055
61,0.0111329518258572,0.0043315808288753,0.00261594518087804,-0.0131953023374081,0.0283583253622055,0.0322399139404297
62,0.0136005319654942,0.00392351811751723,0.00361390202306211,-0.00983332097530365,0.0246760360896587,0.0253999978303909
63,0.0167495720088482,0.00531806983053684,0.00894422642886639,-0.00573543133214116,0.0211360827088356,0.0166914239525795
64,0.0190989766269922,0.00719754165038466,0.0160287078469992,-0.00320569914765656,0.0191410630941391,0.00791732035577297
65,0.0197356175631285,0.00770878000184894,0.0206098668277264,-0.00363874179311097,0.0177621692419052,-0.000813297345302999
66,0.0194489490240812,0.00754463998600841,0.0220614410936832,-0.00581604754552245,0.0166516453027725,-0.00959183182567358
67,0.0188637245446444,0.00750156212598085,0.0225605070590973,-0.00838514044880867,0.0147968223318458,-0.0184271298348904
68,0.017095448449254,0.00627950951457024,0.0225475803017616,-0.0120236417278647,0.0102212056517601,-0.0268505532294512
69,0.013129398226738,0.00313249113969505,0.0191065445542336,-0.0176287423819304,0.00258635822683573,-0.0332244485616684
70,0.00720705278217793,-0.00140334421303123,0.0097142793238163,-0.0244367178529501,-0.00652383826673031,-0.0357298813760281
71,0.00159814953804016,-0.0066122729331255,-0.00279988232068717,-0.0300267692655325,-0.0138170039281249,-0.0335182771086693
72,0.000152560824062675,-0.0100018223747611,-0.0116649772971869,-0.0315003767609596,-0.0154566979035735,-0.0265866443514824
73,0.00463594077154994,-0.00929503701627254,-0.0125629724934697,-0.0284408070147038,-0.0111286854371428,-0.0170804113149643
74,0.0120767671614885,-0.00557242846116424,-0.00748940324410796,-0.0235090721398592,-0.00481897918507457,-0.00840253941714764
75,0.017150953412056,-0.00144472252577543,-0.00212431000545621,-0.0191748570650816,-0.00026530705508776,-0.00286341295577586
76,0.0178492721170187,0.00207973434589803,0.000692212081048638,-0.0156469251960516,0.00324347522109747,-0.00113378360401839
77,0.0174563154578209,0.00668711960315704,0.00216705119237304,-0.0115015627816319,0.00856972299516201,-5.6735490943538E-05
78,0.0190370175987482,0.0125095108523965,0.0030434166546911,-0.00673289597034454,0.01390041410923,0.00464833620935678
79,0.0215617623180151,0.0156592167913914,0.00251940358430147,-0.00418347772210836,0.015038875862956,0.0113305822014809
80,0.021040428429842,0.0118278227746487,-0.00186769710853696,-0.00735898641869426,0.0105365542694926,0.0124778235331178
81,0.0140756033360958,7.38149028620683E-05,-0.0119243385270238,-0.01710887812078,0.000358170771505684,0.0026147379539907
82,0.0028194785118103,-0.0137986559420824,-0.0221357960253954,-0.0285876058042049,-0.0121662588790059,-0.0139703908935189
83,-0.0064442721195519,-0.0205239616334438,-0.0236144065856934,-0.0343597494065762,-0.0207231640815735,-0.0272304471582174
84,-0.00873416010290384,-0.0152712734416127,-0.0139924976974726,-0.0301847942173481,-0.0202744100242853,-0.0307892803102732
85,-0.00435704458504915,-0.0017369263805449,0.00100985798053443,-0.0184077620506287,-0.0108977109193802,-0.0260796062648296
86,0.00072918162913993,0.0102703655138612,0.0122944619506598,-0.00733111705631018,-0.00021147687220946,-0.0206314623355865
87,0.00222790241241455,0.0151813123375177,0.0150818452239037,-0.00279949465766549,0.00437153456732631,-0.0187976937741041
88,0.00110499013680965,0.0154748940840364,0.011545212008059,-0.00430512009188533,0.00221570814028382,-0.0183869246393442
89,-0.000333029340254143,0.0155193451792002,0.00760823022574186,-0.00827156938612461,-0.00303073856048286,-0.0165224187076092
90,-0.00118896353524178,0.0174808036535978,0.00761563610285521,-0.0107959089800715,-0.00756035977974534,-0.0133611420169473
91,-0.0025980465579778,0.0207702405750752,0.0104801086708903,-0.0105092907324433,-0.010605888441205,-0.0101599423214793
92,-0.00561437616124749,0.0234172008931637,0.0131944864988327,-0.00865594949573278,-0.0121647212654352,-0.00552674196660519
93,-0.00878940336406231,0.0240249484777451,0.0145346000790596,-0.00627286918461323,-0.010148236528039,0.00198136339895427
94,-0.00940689351409674,0.0231120325624943,0.015010841190815,-0.00314908078871667,-0.00327782589010894,0.0108080441132188
95,-0.00581694394350052,0.0224406849592924,0.0166717767715454,0.000587018905207515,0.00681643327698112,0.0183936711400747
96,0.000571657088585198,0.0228170026093721,0.0205344185233116,0.00391597114503384,0.017241770401597,0.0236613359302282
97,0.00590240955352783,0.0238906797021627,0.0250159855931997,0.00640246691182256,0.0262290108948946,0.0270448997616768
98,0.00730331242084503,0.0242943651974201,0.0270419958978891,0.00725833652541041,0.0317981168627739,0.0265081729739904
99,0.00395286828279495,0.0213410891592503,0.0229866169393063,0.00352798379026353,0.0302347503602505,0.0174528304487467
100,-0.00148163631092757,0.0157360080629587,0.0148627925664186,-0.00397579884156585,0.0226497370749712,0.00182319467421621
101,-0.00362596684135497,0.0130926985293627,0.0103797083720565,-0.00810975581407547,0.0156436301767826,-0.0105968564748764
102,-0.00235984241589904,0.0145986992865801,0.00980148464441299,-0.00727039109915495,0.00988552160561085,-0.015770647674799
103,-0.00393054261803627,0.0152082713320851,0.00590856466442347,-0.0078553631901741,-0.000330100214341655,-0.0185573622584343
104,-0.0109857991337776,0.0135545702651143,-0.00220478349365294,-0.0117524135857821,-0.015017144382,-0.0207136925309896
105,-0.0199003573507071,0.0117237623780966,-0.00947973039001226,-0.0152093367651105,-0.027563214302063,-0.0190888773649931
106,-0.0266322288662195,0.00926337111741304,-0.012918365187943,-0.0162689667195082,-0.0334895588457584,-0.0121158724650741
107,-0.029263136908412,0.00630511017516255,-0.0115110259503126,-0.0151098184287548,-0.0323774591088295,-0.000935851538088173
108,-0.0273971725255251,0.00542999710887671,-0.00624652486294508,-0.0122696813195944,-0.0260717459022999,0.0107001131400466
109,-0.0210901070386171,0.00914612784981728,0.000664177059661597,-0.00728400750085711,-0.0165748167783022,0.0193132497370243
110,-0.0131087573245168,0.0174311026930809,0.0075930398888886,-0.000370289955753833,-0.00523559097200632,0.0235020834952593
111,-0.00771377189084888,0.0272259190678597,0.0136602558195591,0.00601320061832666,0.006644775159657,0.0227741152048111
112,-0.00542018609121442,0.0360915847122669,0.0199875067919493,0.0112505285069346,0.0183745045214891,0.0193664096295834
113,-0.00474821636453271,0.0432678163051605,0.0265103746205568,0.0166984684765339,0.0273945275694132,0.0162972565740347
114,-0.00379101908765733,0.048549946397543,0.0310714356601238,0.0228458866477013,0.0308296103030443,0.015019585378468
115,-0.000121396515169181,0.0528923384845257,0.0341281779110432,0.0295216757804155,0.0298549216240644,0.0176539402455091
116,0.00526538910344243,0.0554936267435551,0.0355103388428688,0.0345417112112045,0.0250605810433626,0.0239362828433514
117,0.00786270946264267,0.0526847466826439,0.0310859680175781,0.0341073647141457,0.0144955348223448,0.0282014925032854
118,0.00476504536345601,0.043038934469223,0.0185532458126545,0.0268794409930706,-0.000862646091263741,0.0252509042620659
119,-0.0022829573135823,0.0300086457282305,0.00199364288710058,0.015518712811172,-0.0159998722374439,0.0161835942417383
120,-0.00828507728874683,0.0196783505380154,-0.0100954649969935,0.00568427285179496,-0.0247042719274759,0.00707351136952639
121,-0.0107588404789567,0.015210647135973,-0.0133493691682816,0.00118419015780091,-0.0252560414373875,0.00159568199887872
122,-0.0104881981387734,0.0162030514329672,-0.00959930475801229,0.00213856250047684,-0.0206508878618479,-0.000363131461199373
123,-0.00872001703828573,0.0213735736906528,-0.00193668738938868,0.00690473150461912,-0.0136379394680262,0.00123684748541564
124,-0.00762734608724713,0.0276971850544214,0.00601027859374881,0.0120350997895002,-0.00633435416966677,0.00569704547524452
125,-0.00758839026093483,0.0316438488662243,0.0113432835787535,0.0147510459646583,-3.06801630358677E-05,0.0109272636473179
126,-0.0047243763692677,0.0318838357925415,0.0137997129932046,0.015647754073143,0.00636312877759337,0.0150302173569798
127,0.0035773126874119,0.0303158219903708,0.015150748193264,0.0173417162150145,0.0150085389614105,0.0177874229848385
128,0.0120017640292645,0.0291757024824619,0.0159189812839031,0.0194413214921951,0.0244924519211054,0.0196433402597904
129,0.0133428536355495,0.0286527313292027,0.0151113197207451,0.0189984105527401,0.0308834724128246,0.0201995335519314
130,0.00865835230797529,0.0296039022505283,0.0135030532255769,0.0166313834488392,0.0333801433444023,0.0209150314331055
131,0.00384847237728536,0.0326441414654255,0.0127051034942269,0.0151588069275022,0.0335455872118473,0.024105679243803
132,0.00207348703406751,0.0364520251750946,0.0145229147747159,0.0159671045839787,0.0326895527541637,0.028072303161025
133,0.0025066789239645,0.039728470146656,0.0196091812103987,0.0189349334686995,0.0317346788942814,0.0283465459942818
134,0.00305451545864344,0.0420030914247036,0.0255403164774179,0.022553812712431,0.0308366883546114,0.0230128895491362
135,0.00357260718010366,0.0437854118645191,0.0305155236274004,0.0258825086057186,0.0292503070086241,0.0149519154801965
136,0.00234893895685673,0.0422758646309376,0.0315676294267178,0.0259585585445166,0.0229503288865089,0.00575676513835788
137,-0.00320838624611497,0.0339922718703747,0.0250543989241123,0.0192264318466187,0.00996990688145161,-0.00484222453087568
138,-0.0102638490498066,0.0233301501721144,0.0138578396290541,0.00923210941255093,-0.00273247016593814,-0.0129321310669184
139,-0.0142097631469369,0.0167771577835083,0.00439673010259867,0.00221286062151194,-0.00819231476634741,-0.0151227889582515
140,-0.0128579204902053,0.015833793208003,0.00043495450518094,0.000580316467676312,-0.00585899874567986,-0.0121126100420952
141,-0.00686385482549667,0.0184611957520247,0.000689673412125558,0.00329200178384781,-0.000340197089826688,-0.00595179107040167
142,0.000678137235809118,0.0225784163922071,0.000862488115672022,0.00807215552777052,0.00202805828303099,0.00135243951808661
143,0.00726098427549005,0.0275542493909597,-0.000393444905057549,0.0137569550424814,0.000115186245238874,0.00855325348675251
144,0.0110556595027447,0.0320441424846649,-0.00151109148282558,0.0189884454011917,-0.00309269153513014,0.0149070518091321
145,0.0107196820899844,0.0346956104040146,-0.00164009176660329,0.0217395126819611,-0.00558714382350445,0.020553620532155
146,0.00666162790730596,0.0354298464953899,-0.00127553741913289,0.0214358381927013,-0.00598591612651944,0.0253849923610687
147,0.0011656885035336,0.0345470011234283,-0.00051399483345449,0.0194192361086607,-0.00261117424815893,0.0279161483049393
148,-0.00348050869069994,0.0319448299705982,0.00104663392994553,0.0166976097971201,0.00407963478937745,0.0259688664227724
149,-0.00677408510819077,0.0280619915574789,0.00280748400837183,0.0135101219639182,0.0109720434993505,0.0190496612340212
150,-0.00867691449820995,0.0244686845690012,0.00312682753428817,0.0101346038281918,0.0144414799287915,0.0101985847577453
151,-0.00976052600890398,0.0209078378975391,-1.93456344277365E-06,0.0055356496013701,0.0115755712613463,0.00235004676505923
152,-0.0118042854592204,0.0160949379205704,-0.00586853409186006,-0.00075109611498192,0.00358352228067815,-0.00329819484613836
153,-0.015040791593492,0.0118073411285877,-0.00992912426590919,-0.00604612240567803,-0.00334549299441278,-0.00383101589977741
154,-0.0165357440710068,0.0115702152252197,-0.00860739406198263,-0.00686089135706425,-0.00420332048088312,0.00385158322751522
155,-0.0123916678130627,0.0167092829942703,-0.00235725566744804,-0.00204516900703311,0.000161823030794039,0.0179173145443201
156,-0.00154842564370483,0.0255666710436344,0.00690906587988138,0.00721805915236473,0.00720031931996346,0.0329690538346767
157,0.0117121627554297,0.0348754450678825,0.0174530223011971,0.0178646184504032,0.0170136950910091,0.0444727316498756
158,0.0212844237685204,0.0422092974185944,0.0264260787516832,0.0262533277273178,0.029120085760951,0.0504740849137306
159,0.0246961116790771,0.0472186207771301,0.0309370793402195,0.0305955465883017,0.0398405455052853,0.0511658750474453
160,0.0231648683547974,0.050496194511652,0.0312294606119394,0.0312680080533028,0.0449185408651829,0.0486890785396099
161,0.0191539879888296,0.0526374354958534,0.02965397387743,0.0302096400409937,0.0425177775323391,0.0476260557770729
162,0.013532311655581,0.052631214261055,0.0260742735117674,0.0283321514725685,0.0322885476052761,0.0495910719037056
163,0.00503421016037464,0.0483193658292294,0.0194138064980507,0.0241995416581631,0.0151225384324789,0.0492285676300526
164,-0.00683690467849374,0.0394954085350037,0.0108770336955786,0.0166517160832882,-0.00517153879627585,0.0408079512417316
165,-0.0194278955459595,0.0290814470499754,0.00160399661399424,0.00679235486313701,-0.023029638454318,0.0249308943748474
166,-0.0279360730201006,0.0215868018567562,-0.00699288537725806,-0.00209233118221164,-0.0336035937070847,0.0082107512280345
167,-0.0292861796915531,0.0196191798895597,-0.0116364089772105,-0.00635614199563861,-0.0349393896758556,-0.00105579302180558
168,-0.0251694265753031,0.0211471207439899,-0.0124465618282557,-0.00544097274541855,-0.0297178886830807,0.000578753009904176
169,-0.0200828518718481,0.0220728907734156,-0.0136991338804364,-0.00237045483663678,-0.0227495450526476,0.00952200684696436
170,-0.0147985303774476,0.0228398516774178,-0.0151403956115246,0.00160854228306562,-0.0147365089505911,0.0209373049438
171,-0.00733292894437909,0.0263275429606438,-0.0134884752333164,0.00696925120428205,-0.00334784714505076,0.0309747196733952
172,0.000352387229213491,0.0304487515240908,-0.0105838198214769,0.0113008432090282,0.0103312470018864,0.035247266292572
173,0.0038833818398416,0.0304689258337021,-0.0107815079391003,0.0113286189734936,0.0213393308222294,0.0310775823891163
174,0.00243607093580067,0.0261982884258032,-0.0139683783054352,0.00776314688846469,0.0260413438081741,0.0214784573763609
175,0.000552639248780906,0.0224621687084436,-0.0153494225814939,0.00507697137072682,0.025247797369957,0.0135226855054498
176,0.00280795968137681,0.0227908436208963,-0.0115700932219625,0.00574725540354848,0.0213365480303764,0.0104914708063006
177,0.00733052473515272,0.0261012241244316,-0.0037090671248734,0.00773996952921152,0.0157789271324873,0.00977029651403427
178,0.0083741806447506,0.0294413026422262,0.0048879636451602,0.00805002544075251,0.010384114459157,0.0081854211166501
179,0.00389568810351193,0.0313160605728626,0.0109322965145111,0.0064248782582581,0.00796610675752163,0.005549231544137
180,-0.00324920332059264,0.0312926396727562,0.0122242150828242,0.0037954319268465,0.00928460992872715,0.00151537987403572
181,-0.0093303881585598,0.0287109464406967,0.00832557305693626,-0.000330539303831756,0.0102158524096012,-0.00581910088658333
182,-0.0118972379714251,0.024359917268157,0.00200883974321187,-0.00505133345723152,0.00597347225993872,-0.0144674023613334
183,-0.0103030279278755,0.0206047706305981,-0.0021462629083544,-0.00719511602073908,-0.0031854787375778,-0.0189159344881773
184,-0.00631444109603763,0.0183102767914534,-0.00293731899000704,-0.00623697647824883,-0.014405956491828,-0.0176983159035444
185,-0.00263578817248344,0.0171578545123339,-0.00255878502503037,-0.00452046049758792,-0.0254482086747885,-0.0136291803792119
186,-0.000342286803061143,0.0179742816835642,-0.00238058203831315,-0.00276761990971863,-0.0332193523645401,-0.00850467570126057
187,0.000764191208872944,0.0213138777762651,-0.00271065998822451,-0.000830893171951175,-0.0353151112794876,-0.004306904040277
188,0.000337246456183493,0.0254733543843031,-0.00423207646235824,-0.000286676920950413,-0.0339265428483486,-0.00471352459862828
189,-0.00252934778109193,0.0267837140709162,-0.00894729141145945,-0.00347340852022171,-0.0337868146598339,-0.0107026267796755
190,-0.00660277577117085,0.0238846279680729,-0.0169241428375244,-0.00971142202615738,-0.0348152667284012,-0.0181755926460028
191,-0.00879291351884604,0.0204428751021624,-0.0231025312095881,-0.0144211500883102,-0.0323603600263596,-0.0217883232980967
192,-0.00797121692448854,0.0200698580592871,-0.0237265694886446,-0.0143391015008092,-0.0246114935725927,-0.0198690537363291
193,-0.00388150312937796,0.023127356544137,-0.0193085409700871,-0.00941156782209873,-0.0128135113045573,-0.0136010032147169
194,0.00402959017083049,0.0283491164445877,-0.0108895255252719,-0.000608299334999174,0.000648163259029388,-0.00460435356944799
195,0.0140760047361255,0.0338037796318531,-0.000250295444857329,0.0103551326319575,0.0115729942917824,0.00476851034909487
196,0.0229449588805437,0.0383048243820667,0.0100328912958503,0.0208414290100336,0.017354927957058,0.0122268022969365
197,0.0278471261262894,0.0409546531736851,0.0168650634586811,0.0274283867329359,0.0179044734686613,0.015834454447031
198,0.0280801132321358,0.0405784584581852,0.0186029002070427,0.0286321304738522,0.0141627164557576,0.0149024100974202
199,0.0241298265755177,0.036761324852705,0.0165894348174334,0.0249889865517616,0.00764512363821268,0.0102562522515655
200,0.0166341308504343,0.0300494842231274,0.0127468407154083,0.0172205809503794,0.00030899778357707,0.00388710922561586
201,0.00914882775396109,0.0223295036703348,0.00897585693746805,0.00827303901314735,-0.00473179575055838,0.000162053169333376
202,0.00657418370246887,0.015065873041749,0.00556825753301382,0.00122540444135666,-0.00664773350581527,0.00147415907122195
203,0.0100117465481162,0.00907531287521124,0.000920644553843886,-0.00302438577637076,-0.0091228736564517,0.00471907574683428
204,0.0160258710384369,0.00626568775624037,-0.00456586992368102,-0.0038240528665483,-0.0149360569193959,0.00630382914096117
205,0.0200065337121487,0.00698280613869429,-0.00997772999107838,-0.00199760007672012,-0.0218612644821405,0.00551330531015992
206,0.0199608635157347,0.00881817936897278,-0.0158902425318956,-0.000186301840585656,-0.0270954631268978,0.00268818950280547
207,0.0176048893481493,0.0105902682989836,-0.020773783326149,0.000781339360401034,-0.0312979891896248,-0.00139587849844247
208,0.0146551774814725,0.012757757678628,-0.0228792186826468,0.000930963200516999,-0.0365344546735287,-0.0065934513695538
209,0.0109521010890603,0.0148313483223319,-0.0229362901300192,-0.000402750505600125,-0.0423764102160931,-0.0130661083385348
210,0.00786340609192848,0.015995342284441,-0.0218380428850651,-0.00234121596440673,-0.0454049631953239,-0.0187360309064388
211,0.00699857948347926,0.0158400870859623,-0.0204418711364269,-0.00380079634487629,-0.043676245957613,-0.0221614334732294
212,0.00793907605111599,0.0150396293029189,-0.0184288714081049,-0.00414262851700187,-0.0373220480978489,-0.0240204408764839
213,0.0106511851772666,0.0152113623917103,-0.0140701262280345,-0.00194966932758689,-0.0269577484577894,-0.0238846056163311
214,0.0135341184213758,0.015523930080235,-0.00929577089846134,0.001529561704956,-0.0171157605946064,-0.021653650328517
215,0.0112774567678571,0.0123442830517888,-0.0102061433717608,0.00129468971863389,-0.015599213540554,-0.0201208014041185
216,0.00354670663364232,0.00588523782789707,-0.0178467258810997,-0.00352736050263047,-0.0238206423819065,-0.0203091967850924
217,-0.00259145209565759,0.000937444972805679,-0.0246570706367493,-0.00771406944841146,-0.0346137210726738,-0.0191525034606457
218,-0.00311230076476932,2.077198587358E-05,-0.0233580395579338,-0.00778261013329029,-0.0410785973072052,-0.0138220526278019
219,-0.000191639512195252,0.00210420740768313,-0.0142541406676173,-0.00425039045512676,-0.040316466242075,-0.0053865984082222
220,0.00180352036841214,0.00483408430591226,-0.00383032951503992,0.000720751704648137,-0.0327283218502998,0.000559993262868375
221,0.00123860232997686,0.0068285446614027,0.00164529925677925,0.00530963996425271,-0.0216442998498678,8.16715619293973E-05
222,0.00072765484219417,0.00842744205147028,0.000428774073952809,0.00877071917057037,-0.0113494032993913,-0.00451902160421014
223,0.00320777809247375,0.0104595404118299,-0.00481229554861784,0.01125149987638,-0.00429104268550873,-0.00786685105413198
224,0.00887189619243145,0.0124951051548123,-0.010521424934268,0.0134655432775617,1.73577773239231E-05,-0.00653484836220741
225,0.0146705713123083,0.0123577443882823,-0.015565974637866,0.0157618150115013,0.00271629053167999,-0.000369061715900898
226,0.0168237295001745,0.00877726171165705,-0.0200162064284086,0.0176763068884611,0.00313799385912716,0.00845745950937271
227,0.0140818618237972,0.00288574234582484,-0.0226244013756514,0.0184836350381374,0.000254229904385284,0.0154331726953387
228,0.00723211606964469,-0.00313239265233278,-0.0215206239372492,0.0177774634212255,-0.00471791438758373,0.0157185345888138
229,-0.00150712998583913,-0.0066964072175324,-0.0164294149726629,0.0157363191246986,-0.00943341013044119,0.00844697747379541
230,-0.00689484365284443,-0.00453983806073666,-0.00825728569179773,0.0151800960302353,-0.012060166336596,-6.44627943984233E-05
231,-0.00536426482722163,0.00350460456684232,0.000192485720617697,0.0185634791851044,-0.0127245103940368,-0.00327394437044859
232,-0.000525117502547801,0.012326299212873,0.00378217175602913,0.0228883102536201,-0.0141210183501244,-0.00256795901805162
233,0.00187806959729642,0.0168728604912758,-0.00026493810582906,0.0233189910650253,-0.0172121860086918,-0.00271176150999963
234,0.000123151941807009,0.0162388365715742,-0.00937221013009548,0.0187558569014072,-0.0189212150871754,-0.00492677418515086
235,-0.0038414488080889,0.013110457919538,-0.0173529759049416,0.0128794237971306,-0.0161780938506126,-0.00611857883632183
236,-0.00898908544331789,0.00929455365985632,-0.0210047010332346,0.00854610372334719,-0.0120419301092625,-0.00608171708881855
237,-0.0161763150244951,0.00361588015221059,-0.0227382574230433,0.00433976156637073,-0.0123171312734485,-0.00935834366828203
238,-0.0238361787050962,-0.00377384969033301,-0.0239003151655197,-0.000451715488452464,-0.0164160281419754,-0.0160600412636995
239,-0.0282479524612427,-0.00920440722256899,-0.0226577278226614,-0.00348902796395123,-0.0192334689199924,-0.0202508568763733
240,-0.0271215829998255,-0.00949760247021914,-0.0192819517105818,-0.00282815541140735,-0.0182708688080311,-0.0176792051643133
241,-0.0215457864105701,-0.00665250467136502,-0.0177488084882498,0.000104124868812505,-0.0158768706023693,-0.0109272822737694
242,-0.015929052606225,-0.00429400941357017,-0.020291855558753,0.00244772923178971,-0.015712134540081,-0.00597294699400663
243,-0.0150791676715016,-0.00374110857956111,-0.0259564891457558,0.00124198093544692,-0.0187792032957077,-0.00657716765999794
244,-0.0180502980947495,-0.00460943067446351,-0.0315696783363819,-0.00307922018691897,-0.0207882858812809,-0.00964079145342112
245,-0.0190974492579699,-0.00502755399793386,-0.0323242768645287,-0.00483303563669324,-0.017125966027379,-0.00752623518928885
246,-0.0163098499178886,-0.00419201469048858,-0.0262844748795033,-0.00133086973801255,-0.0112938238307834,0.00146381324157119
247,-0.0119306119158864,-0.00251866923645139,-0.0155976666137576,0.00498878723010421,-0.0092410771176219,0.0121421897783875
248,-0.00821311585605145,-0.000516836880706251,-0.00494960369542241,0.0104686822742224,-0.0117936870083213,0.0181505661457777
249,-0.00691526988521218,0.000872944132424891,0.00189422164112329,0.0120662050321698,-0.0160454679280519,0.0157408006489277
250,-0.0078411977738142,0.0019558216445148,0.00523207196965814,0.0104663949459791,-0.0174983739852905,0.00724173942580819
251,-0.00733860768377781,0.00440233200788498,0.00757595803588629,0.0100563475862145,-0.0123766893520951,7.57831585360691E-05
252,-0.00264750421047211,0.00918251182883978,0.0104989074170589,0.0138183943927288,-0.00173999858088791,-0.000401833822252229
253,0.00290827476419508,0.0145446117967367,0.0119531955569983,0.018810773268342,0.00747015047818422,0.00367302540689707
254,0.00509791495278478,0.018748776987195,0.0107361804693937,0.0211155712604523,0.0107523491606116,0.00915973074734211
255,0.0051277014426887,0.0228223353624344,0.0101071326062083,0.0221125595271587,0.0112920701503754,0.0169346053153276
256,0.00479916343465447,0.0257395096123219,0.00980764161795378,0.0231531970202923,0.0111707737669349,0.0250274278223515
257,0.00362106109969318,0.0252877976745367,0.00649163126945496,0.0236160345375538,0.00861909613013268,0.0297054015100002
258,0.00203192373737693,0.0230292119085789,0.00086723908316344,0.0244425442069769,0.00352876400575042,0.0317556485533714
259,0.000195659842574969,0.0201552323997021,-0.00554897403344512,0.0244619585573673,-0.0038147084414959,0.0315930992364883
260,-0.00185856549069285,0.0161359570920467,-0.0121291941031814,0.0213215369731188,-0.0120670488104224,0.0281746294349432
261,-0.00235120858997107,0.0125738950446248,-0.0167290233075619,0.0169334635138512,-0.017290785908699,0.0236361064016819
262,-0.000537594023626298,0.0114236986264586,-0.0173202287405729,0.0146776419132948,-0.0168667361140251,0.0210783146321774
263,0.00247425376437604,0.0128350900486112,-0.0133603466674685,0.0160341262817383,-0.0102950027212501,0.0224208347499371
264,0.00455885799601674,0.0143416523933411,-0.00747062545269728,0.0188483484089375,7.22008408047259E-05,0.025635777041316
265,0.00419673090800643,0.0133784748613834,-0.00343127408996224,0.0190824158489704,0.0094145406037569,0.0259631611406803
266,0.00216426001861691,0.0111485291272402,-0.00147376104723662,0.0163743626326323,0.0148053867742419,0.0221612080931664
267,-0.000562031811568886,0.00926552060991526,-0.000641321123111993,0.0125856408849359,0.0155790606513619,0.0151363890618086
268,-0.00370081281289458,0.00697565916925669,-0.00151421350892633,0.00818128697574139,0.0114309256896377,0.00571798952296376
269,-0.00635398412123322,0.00373057113029063,-0.00386734888888896,0.00376344891265035,0.00352697353810072,-0.00392045080661774
270,-0.00663177436217666,0.00147012493107468,-0.00490939244627953,0.00174026645254344,-0.00367518421262503,-0.0101082939654589
271,-0.00354898092336953,0.002557736588642,-0.00205783150158823,0.003360211616382,-0.00638207560405135,-0.0102015156298876
272,0.00125581305474043,0.00616402132436633,0.00392839545384049,0.0067926156334579,-0.00545170530676842,-0.00522355083376169
273,0.00432133208960295,0.00880284979939461,0.00986364111304283,0.00924382545053959,-0.00290180766023695,0.000997774535790086
274,0.00361225078813732,0.00858538225293159,0.0133192306384444,0.00970202032476664,0.00199510715901852,0.0051514096558094
275,0.000301690684864298,0.00669851759448648,0.0139836277812719,0.00941077060997486,0.0113776372745633,0.00602379627525806
276,-0.00489001162350178,0.00267197797074914,0.0111377108842134,0.00716202519834042,0.022885974496603,0.00154557009227574
277,-0.0132297957316041,-0.00623167073354125,0.00295390211977065,-0.000569763942621648,0.0279274880886078,-0.0103651825338602
278,-0.0228779911994934,-0.0177900921553373,-0.00892487354576588,-0.0118733569979668,0.0210155751556158,-0.0248630046844482
279,-0.0276444628834724,-0.0247763376682997,-0.0192170906811953,-0.0198070928454399,0.00668262410908937,-0.0314677320420742
280,-0.0238612238317728,-0.0232492685317993,-0.024819815531373,-0.0202742777764797,-0.0058498652651906,-0.0255229342728853
281,-0.0149734122678638,-0.0155481062829494,-0.0268736053258181,-0.0151450047269464,-0.0126082114875317,-0.0133416028693318
282,-0.00700176553800702,-0.00631482573226094,-0.0281144510954618,-0.00934486649930477,-0.0173170529305935,-0.00368775520473719
283,-0.00179851672146469,0.00166197784710675,-0.0292395632714033,-0.00592130655422807,-0.0233095809817314,0.000822611560579389
284,0.00237341527827084,0.00803507119417191,-0.0282886680215597,-0.00429770909249783,-0.0284202620387077,0.00151335936971009
285,0.00656510470435023,0.0138559900224209,-0.0229294952005148,-0.00232512457296252,-0.0288451295346022,-0.000636723358184099
286,0.00953589379787445,0.0192291289567947,-0.0139120118692517,0.000859446125105023,-0.0247964058071375,-0.004494599532336
287,0.00926277693361044,0.0214964095503092,-0.00677545601502061,0.00330098462291062,-0.0207423567771912,-0.00849876552820206
288,0.00608930271118879,0.0189472921192646,-0.00626179203391075,0.00264629162847996,-0.0191085934638977,-0.0114895077422261
289,0.00232976023107767,0.0132562639191747,-0.0115551268681884,-0.000919587269891053,-0.0186114609241486,-0.0135622816160321
290,-0.000652833259664476,0.00679962337017059,-0.0190474223345518,-0.00527727697044611,-0.0190611872822046,-0.0158836916089058
291,-0.00173129793256521,0.00221957894973457,-0.0245719775557518,-0.00754926586523652,-0.020387064665556,-0.0177765134721994
292,-0.000429711973993108,0.000865584181156009,-0.0258843153715134,-0.00712479511275887,-0.0214278381317854,-0.0179995428770781
293,0.000660886813420802,0.000588470429647714,-0.0265816580504179,-0.00809333007782698,-0.0241048261523247,-0.0191422700881958
294,0.000560251472052187,0.00108044769149274,-0.0305191483348608,-0.0124551123008132,-0.0294145494699478,-0.0234810635447502
295,0.00209531188011169,0.00530986720696092,-0.0353182889521122,-0.0164106898009777,-0.0336831174790859,-0.0288482513278723
296,0.00581523636355996,0.0125532737001777,-0.0384845659136772,-0.0182338450103998,-0.0358308106660843,-0.033722285181284
297,0.008928332477808,0.0173201765865088,-0.0417368896305561,-0.0211511887609959,-0.0389523580670357,-0.0398093983530998
298,0.00900835916399956,0.0160698182880878,-0.0451667197048664,-0.0268793944269419,-0.0434957668185234,-0.0479681231081486
299,0.00555648421868682,0.0112709598615766,-0.0457023940980434,-0.032708678394556,-0.045650739222765,-0.0548597611486912
300,0.000489789817947894,0.00734387896955013,-0.0433079674839973,-0.0354281142354012,-0.0426001399755478,-0.0553435124456882
301,-0.00278229685500264,0.0053216926753521,-0.0415455400943756,-0.0350279323756695,-0.0360978208482265,-0.0495328716933727
302,-0.00356816896237433,0.00232545682229102,-0.0428334549069405,-0.034967552870512,-0.0319564901292324,-0.0445709526538849
303,-0.00340998894535005,-0.00333450827747583,-0.0462680384516716,-0.0370968282222748,-0.0338033363223076,-0.0455142557621002
304,-0.00213451310992241,-0.00772888539358974,-0.0488251186907291,-0.0384198203682899,-0.0371338985860348,-0.0496951267123222
305,-0.000807367847301066,-0.00599920889362693,-0.0491392239928246,-0.0374404639005661,-0.0365776233375072,-0.0530404858291149
306,-0.00304551562294364,-0.000501327274832875,-0.0483629629015923,-0.0370547510683537,-0.0330863781273365,-0.0552844740450382
307,-0.0101547949016094,0.00185245671309531,-0.0478567965328693,-0.0388497747480869,-0.0295425541698933,-0.0571391358971596
308,-0.0185966081917286,0.000575987214688212,-0.0484913177788258,-0.0408001132309437,-0.0266625490039587,-0.0566377080976963
309,-0.0214474350214005,0.00132421287707984,-0.049247857183218,-0.0397439450025558,-0.0229683797806501,-0.050897441804409
310,-0.0150968981906772,0.00686649885028601,-0.047679103910923,-0.034563060849905,-0.0175648368895054,-0.0411809757351875
311,-0.00439171260222793,0.014729873277247,-0.0441567227244377,-0.0283404979854822,-0.0132051594555378,-0.0341281034052372
312,0.00385527359321713,0.0209790840744972,-0.0405905097723007,-0.0247375536710024,-0.012390716932714,-0.0344558283686638
313,0.00741356704384089,0.0232697315514088,-0.0377029851078987,-0.0241102110594511,-0.0140868714079261,-0.0397377610206604
314,0.00841150060296059,0.0230341702699661,-0.0356686599552631,-0.0240814555436373,-0.0162993371486664,-0.0442988462746143
315,0.0115519361570477,0.0251327715814114,-0.0323733761906624,-0.0203730650246143,-0.0164415314793587,-0.0432567149400711
316,0.0175776258111,0.0305421035736799,-0.0265894178301096,-0.0120750200003386,-0.0140174804255366,-0.0366325750946999
317,0.0214573349803686,0.034830316901207,-0.021490715444088,-0.00423048017546535,-0.0124306082725525,-0.0294490847736597
318,0.0203178077936172,0.0356600098311901,-0.0187900234013796,-0.000624649168457836,-0.0119521617889404,-0.0243142992258072
319,0.0154434107244015,0.0338189639151096,-0.0173005312681198,-0.000795694126281887,-0.010682706721127,-0.0201471149921417
320,0.00915488880127668,0.0305910743772984,-0.0170377045869827,-0.00326300365850329,-0.0115004125982523,-0.0163134150207043
321,0.00371126527898014,0.0273154638707638,-0.0186671931296587,-0.00733890011906624,-0.0177047271281481,-0.0132906455546618
322,0.000175946086528711,0.0246485769748688,-0.0216606352478266,-0.0128878885880113,-0.0274736564606428,-0.0117316907271743
323,-0.000949495995882899,0.0237450487911701,-0.0238355789333582,-0.01786426641047,-0.0355873331427574,-0.0105851022526622
324,0.000971662811934948,0.0253344476222992,-0.0232891533523798,-0.0196007788181305,-0.0381244458258152,-0.0087053095921874
325,0.00372117664664984,0.0261453427374363,-0.0214822292327881,-0.0200752839446068,-0.0360795669257641,-0.00853791739791632
326,0.00228808238171041,0.0211209040135145,-0.0226443819701672,-0.0242618657648563,-0.0339448936283588,-0.012838551774621
327,-0.00342992669902742,0.0112055167555809,-0.0272388588637114,-0.031453974545002,-0.0328605175018311,-0.0187465064227581
328,-0.00700912531465292,0.00427742581814528,-0.0285148713737726,-0.0337829403579235,-0.027855122461915,-0.0186400134116411
329,-0.0047972584143281,0.00514787994325161,-0.0214305948466063,-0.0262270551174879,-0.0150930415838957,-0.00782639160752296
330,-0.000484933785628527,0.010445318184793,-0.0100220218300819,-0.01270985417068,0.00289574358612299,0.0102513981983066
331,0.00116287369746715,0.0150065124034882,-0.00100431777536869,-0.000272674835287035,0.0202304106205702,0.0280239172279835
332,0.000209587407880463,0.0174320265650749,0.0037161773070693,0.00779460277408361,0.0317107178270817,0.0394395031034946
333,-0.000905868713743985,0.0190697722136974,0.00468526547774673,0.0113031100481749,0.0338441170752048,0.0412445180118084
334,-0.000545571092516184,0.0210559871047735,0.00245018489658833,0.0108072115108371,0.0272372756153345,0.0334134213626385
335,0.00180881947744638,0.023054800927639,-0.000757942500058562,0.00838082190603018,0.0177731867879629,0.0195214413106442
336,0.00390706304460764,0.022203303873539,-0.0050112153403461,0.00443509453907609,0.00843205023556948,0.00311287166550756
337,0.00433374615386128,0.0162076205015183,-0.0126989493146539,-0.00297401566058397,-0.0017109839245677,-0.0136119537055492
338,0.00608989736065269,0.0093595627695322,-0.0204759538173676,-0.0105736441910267,-0.00920815579593182,-0.0236989259719849
339,0.0104102632030845,0.00728962197899818,-0.0224166754633188,-0.0124874142929912,-0.010402474552393,-0.0204805880784988
340,0.0152230337262154,0.0102639487013221,-0.0170311015099287,-0.00793552678078413,-0.00560383964329958,-0.00762247666716576
341,0.0173909906297922,0.0142501015216112,-0.00786099024116993,-0.00141490111127496,0.0021282013040036,0.00466978922486305
342,0.0147764449939132,0.015850979834795,0.000374134368030354,0.00255652074702084,0.00833558663725853,0.00999229401350021
343,0.009929777123034,0.0166956502944231,0.0061842086724937,0.00483287405222654,0.0121722109615803,0.0104254316538572
344,0.00614467496052384,0.0185318440198898,0.00840784423053265,0.00729578314349055,0.0137723349034786,0.0101263783872128
345,0.00433421367779374,0.0194999873638153,0.00569841917604208,0.00865588709712029,0.0102030318230391,0.00968315545469522
346,0.00518431840464473,0.0183086339384317,0.000837364757899195,0.00827584601938725,0.0010335847036913,0.00846873223781586
347,0.00830063410103321,0.0168466214090586,-0.00072023447137326,0.0083130719140172,-0.00836377404630184,0.00806764233857393
348,0.0110633308067918,0.017405578866601,0.00242226244881749,0.0100464019924402,-0.0130636272951961,0.0115141673013568
349,0.0114683033898473,0.0208184756338596,0.00678402092307806,0.0122178522869945,-0.0126082971692085,0.019759165123105
350,0.0109460335224867,0.0260231718420982,0.0106347938999534,0.0144071569666266,-0.00729032419621944,0.0303499177098274
351,0.0109281502664089,0.0275915171951056,0.0132203856483102,0.0154814906418324,0.000682448735460639,0.0367208905518055
352,0.0105013083666563,0.0212556980550289,0.0121137611567974,0.0128732426092029,0.0071110581047833,0.0330464355647564
353,0.00998861622065306,0.0105248540639877,0.00772473681718111,0.00756837707012892,0.012896322645247,0.0219368040561676
354,0.0112597877159715,0.00175775238312781,0.00450441380962729,0.00348083861172199,0.0221271961927414,0.011016059666872
355,0.0143050206825137,-0.00222901836968958,0.00587372947484255,0.00235209357924759,0.034677542746067,0.00442646536976099
356,0.0165006462484598,-0.00307970610447228,0.00957310944795609,0.00192300090566278,0.0464781932532787,0.00203669560141861
357,0.0166170131415129,-0.00309474696405232,0.0122783221304417,0.000755190674681216,0.0548354759812355,0.00477657234296203
358,0.0152690820395947,-0.00380884762853384,0.0133988251909614,-1.26614096984667E-07,0.0578753016889095,0.0120421182364225
359,0.0118892388418317,-0.00685153109952807,0.0129702528938651,-0.000388256215956062,0.0529775507748127,0.0184431988745928
360,0.00660841912031174,-0.0112591125071049,0.0128841996192932,-0.000412664259783924,0.0419289581477642,0.0211532600224018
361,0.00217694672755897,-0.0135928215458989,0.0149870831519365,0.00105227448511869,0.0305617786943913,0.0224044788628817
362,-0.000573260011151433,-0.0131549891084433,0.0164118781685829,0.00231274380348623,0.0214202459901571,0.0223700068891048
363,-0.00688854325562716,-0.014753513969481,0.0116313500329852,-0.0017960692057386,0.0110754109919071,0.0162464566528797
364,-0.0202052127569914,-0.0218206346035004,0.000152819193317555,-0.0122637171298265,-0.00312444684095681,0.00317514780908823
365,-0.0334187373518944,-0.0291166659444571,-0.0108538903295994,-0.0214941166341305,-0.015438518486917,-0.00817171856760979
366,-0.0382544435560703,-0.0303329098969698,-0.0159322768449783,-0.0236189197748899,-0.0187344290316105,-0.0113140046596527
367,-0.0350736752152443,-0.0260836444795132,-0.0164037682116032,-0.020833158865571,-0.012746749445796,-0.00867115706205368
368,-0.0287493113428354,-0.0202534887939692,-0.0142134865745902,-0.0167251490056515,-0.00089749984908849,-0.00375588401220739
369,-0.0240905955433846,-0.0165082160383463,-0.0101956818252802,-0.0130471922457218,0.0114446924999356,0.00157708500046283
370,-0.0220671948045492,-0.0164327062666416,-0.00527429534122348,-0.0102049326524138,0.0195874664932489,0.00580517342314124
371,-0.0199293438345194,-0.0186577457934618,-0.000301924854284152,-0.00808504410088062,0.0229967869818211,0.00797273963689804
372,-0.0171470530331135,-0.0215492472052574,0.00317234126850963,-0.00711675640195608,0.0228530056774616,0.00790605135262012
373,-0.015006436035037,-0.0243264213204384,0.00460100453346968,-0.00715799303725362,0.0201126169413328,0.00731760449707508
374,-0.0140131087973714,-0.0269811134785414,0.00524926325306296,-0.00796045362949371,0.0153526356443763,0.0076354993507266
375,-0.0144001357257366,-0.0301180258393288,0.00614268938079476,-0.00945421680808067,0.009474977850914,0.00814090482890606
376,-0.0157988052815199,-0.0329424366354942,0.00725264521315694,-0.00997406337410212,0.00479778368026018,0.00918062776327133
377,-0.0195127092301846,-0.0352131463587284,0.00613029580563307,-0.00934706721454859,0.00185677036643028,0.0115500297397375
378,-0.0270909275859594,-0.0387916229665279,-0.000141439362778328,-0.0103013450279832,-0.000985478865914047,0.0139434291049838
379,-0.034827247262001,-0.0429859273135662,-0.00940054468810558,-0.0123544270172715,-0.00328793562948704,0.0161496344953775
380,-0.0373420678079128,-0.0447668433189392,-0.0162806808948517,-0.01154466252774,-0.0038258817512542,0.020245311781764
381,-0.0348578467965126,-0.044741690158844,-0.0189044047147036,-0.00748725980520248,-0.00411088624969125,0.026070361956954
382,-0.0310489796102047,-0.0461705289781094,-0.0193821471184492,-0.00365566229447722,-0.00620205327868462,0.0303264576941729
383,-0.0269452650099993,-0.0488317273557186,-0.0187549684196711,-0.00128334935288876,-0.00872836541384459,0.0316071361303329
384,-0.022277370095253,-0.0494752153754234,-0.015585757791996,0.000705376034602523,-0.00851047970354557,0.0307398438453674
385,-0.0179074443876743,-0.046156220138073,-0.00877649802714586,0.00247871340252459,-0.00407840870320797,0.0281910430639982
386,-0.0137255499139428,-0.0385445281863213,0.00114603783003986,0.00485280249267817,0.00428133551031351,0.0260779783129692
387,-0.0104240216314793,-0.0290298610925674,0.0100844446569681,0.00815299618989229,0.0130414171144366,0.0257371962070465
388,-0.0105006908997893,-0.0229533165693283,0.0117837022989988,0.00925559550523758,0.0163926724344492,0.0237887073308229
389,-0.0128992712125182,-0.022984528914094,0.00563540449365973,0.00588677963241935,0.0144679481163621,0.0180435497313738
390,-0.0136233624070883,-0.0267838668078184,-0.00187542638741434,0.000468956568511203,0.0137993106618524,0.0121584208682179
391,-0.0133482431992888,-0.0320588350296021,-0.00591782247647643,-0.00453423568978906,0.015814820304513,0.00879902113229036
392,-0.0153510803356767,-0.0378102175891399,-0.0066618463024497,-0.00839249044656754,0.0170829463750124,0.00707571068778634
393,-0.0183122958987951,-0.0416795015335083,-0.00496986927464604,-0.00887265894562006,0.01790676638484,0.00753153581172228
394,-0.0188973359763622,-0.0420238077640533,-0.00146841327659786,-0.00465121725574136,0.0192994121462107,0.010569685138762
395,-0.0163527000695467,-0.0393911227583885,0.00303645455278456,0.00236632023006678,0.0195344462990761,0.0141136208549142
396,-0.0126978829503059,-0.035802461206913,0.00734309479594231,0.00892750453203917,0.0164063926786184,0.0153760304674506
397,-0.0103799477219582,-0.0337155237793922,0.0105734849348664,0.0129988510161638,0.0101981209591031,0.01319376565516
398,-0.00991005171090364,-0.0344730168581009,0.0131623400375247,0.0145847117528319,0.00425796257331967,0.00805408786982298
399,-0.00970960129052401,-0.0374778881669044,0.0153180547058582,0.0145138511434197,0.00162198266480118,0.00121469260193408
400,-0.00956350844353437,-0.042255587875843,0.0145977567881346,0.0123474700376391,0.00091867393348366,-0.00601418735459447
401,-0.0119737591594458,-0.0492831692099571,0.00776137411594391,0.00698334909975529,-0.00242754258215427,-0.0126045476645231
402,-0.0167075619101524,-0.0556932613253593,-0.00304336519911885,0.000708658189978451,-0.00969974137842655,-0.015275439247489
403,-0.0207644272595644,-0.0575694255530834,-0.0119348475709558,-0.0031354355160147,-0.0173629987984896,-0.0119540961459279
404,-0.0237388368695974,-0.0559241212904453,-0.0159134659916162,-0.00490182917565107,-0.0220611281692982,-0.00613573659211397
405,-0.0269802454859018,-0.0537690296769142,-0.0151288937777281,-0.00557295605540276,-0.0231369528919458,-0.000104886130429804
406,-0.0303025171160698,-0.0516129061579704,-0.0109033612534404,-0.00394675228744745,-0.020810192450881,0.00766219291836023
407,-0.032369639724493,-0.0485825017094612,-0.0052566546946764,0.000427070335717872,-0.0156043767929077,0.0161594804376364
408,-0.0318139903247356,-0.0438701808452606,0.00036118013667874,0.00651904474943876,-0.00827166996896267,0.0229435563087463
409,-0.028735438361764,-0.0377770736813545,0.00516438437625766,0.0130396168678999,-0.000423369347117841,0.0275655388832092
410,-0.0253645814955235,-0.032583937048912,0.00829934421926737,0.0179039034992456,0.00551441684365273,0.0296061169356108
411,-0.023713257163763,-0.0297959726303816,0.00998029578477144,0.0197214800864458,0.00851817987859249,0.0289775300770998
412,-0.0253045447170734,-0.0299730841070414,0.010281695984304,0.0179526917636395,0.00752351712435484,0.0252550356090069
413,-0.0306201912462711,-0.0337634794414043,0.00861681438982487,0.0124439094215631,0.00135498750023544,0.0170809719711542
414,-0.0370284989476204,-0.0393005795776844,0.00628020009025931,0.00598363718017936,-0.00753514934331179,0.00661369739100337
415,-0.041755672544241,-0.0440520085394382,0.00427778670564294,0.00176599458791316,-0.0150914611294866,-0.00219789776019752
416,-0.0441469922661781,-0.0473249331116676,0.00188325438648462,-0.000150234831380658,-0.0194056853652,-0.00790331140160561
417,-0.043830331414938,-0.0479836016893387,0.00014467746950686,0.000161314106662758,-0.019323606044054,-0.00895469728857279
418,-0.0418787822127342,-0.0457500666379929,0.000361726473784074,0.00236801011487842,-0.0152580747380853,-0.00498049985617399
419,-0.0409878641366959,-0.0435100980103016,0.00133281853049994,0.00359678780660033,-0.010407161898911,-0.00025830979575403
420,-0.0420906208455563,-0.0443867668509483,0.00165158940944821,0.00137115083634853,-0.00711609981954098,0.000155370827997103
421,-0.0441928543150425,-0.0481457002460957,0.000829706725198776,-0.00368900853209198,-0.00527897989377379,-0.00451673986390233
422,-0.0475128442049026,-0.0525989457964897,-0.00202477723360062,-0.00962633360177279,-0.00523742381483316,-0.0116495275869966
423,-0.0531672723591328,-0.0569627359509468,-0.00745323812589049,-0.0156622342765331,-0.00844874233007431,-0.0194872096180916
424,-0.0587795712053776,-0.0598941594362259,-0.0128002073615789,-0.0202229022979736,-0.0132409362122417,-0.0260771196335554
425,-0.0600557401776314,-0.0587480738759041,-0.0143404360860586,-0.0207349509000778,-0.0155372722074389,-0.0279350001364946
426,-0.0565608069300652,-0.0538078136742115,-0.0123645225539804,-0.0177868101745844,-0.0146055147051811,-0.0246787797659636
427,-0.0522025749087334,-0.0489435866475105,-0.0108150858432055,-0.0148880556225777,-0.0137293804436922,-0.0201503243297338
428,-0.050557516515255,-0.0472209341824055,-0.0122122298926115,-0.0141789326444268,-0.0157264731824398,-0.0178390704095364
429,-0.0500753037631512,-0.0475756488740444,-0.0140627818182111,-0.0140472017228603,-0.0186554230749607,-0.0178490448743105
430,-0.0472370162606239,-0.0473983213305473,-0.0129426848143339,-0.0123793268576264,-0.0190629549324512,-0.0192379243671894
431,-0.0424819253385067,-0.0455275475978851,-0.0087382486090064,-0.00903461966663599,-0.0171811003237963,-0.0213491022586823
432,-0.0389497242867947,-0.0421264916658401,-0.00315793254412711,-0.00495767127722502,-0.0156661365181208,-0.0233167409896851
433,-0.0390323922038078,-0.039318822324276,0.00057414744514972,-0.00284819817170501,-0.0171714872121811,-0.0258762761950493
434,-0.0422816760838032,-0.0389652624726295,0.000693665875587612,-0.00397870410233736,-0.0216988585889339,-0.0291079599410295
435,-0.0463222414255142,-0.0403536409139633,-0.000494411331601441,-0.00603737402707338,-0.0265752114355564,-0.0304114148020744
436,-0.0502877756953239,-0.0428121015429497,-0.00143149250652641,-0.00745002692565322,-0.0304838884621859,-0.0287801660597324
437,-0.0538298971951008,-0.0456776469945908,-0.00253812945447862,-0.0082814060151577,-0.0329076685011387,-0.0262501910328865
438,-0.0555395521223545,-0.04731310531497,-0.00396189605817199,-0.00856561586260796,-0.0334255173802376,-0.0246828254312277
439,-0.0552636794745922,-0.0483373031020164,-0.00690044043585658,-0.00956322904676199,-0.0341640524566174,-0.025321789085865
440,-0.0537153892219067,-0.0501420237123966,-0.0119449337944388,-0.0119966110214591,-0.0366907566785812,-0.0275995284318924
441,-0.0519487410783768,-0.0522118732333183,-0.0177143663167953,-0.0145369172096252,-0.0403754450380802,-0.0277629718184471
442,-0.0504926256835461,-0.053462490439415,-0.0219101067632437,-0.0155743267387152,-0.0428107492625713,-0.0227710884064436
443,-0.0481207482516766,-0.0532134845852852,-0.0226521678268909,-0.0146903684362769,-0.0406144969165325,-0.0144127262756228
444,-0.0447178296744823,-0.0516363345086575,-0.0202487390488386,-0.0127387698739767,-0.0332617498934269,-0.00726950680837035
445,-0.0411205589771271,-0.0486542321741581,-0.0151535598561168,-0.00968799274414778,-0.0220691915601492,-0.00397924426943064
446,-0.0373657532036304,-0.0446596369147301,-0.00783211085945368,-0.00600198702886701,-0.00874020997434855,-0.00520169641822577
447,-0.0338519066572189,-0.040986455976963,-0.000230168021516874,-0.00342793157324195,0.00331679079681635,-0.0098771108314395
448,-0.0319283194839954,-0.0386903993785381,0.00506524741649628,-0.00319275632500649,0.00915262009948492,-0.0161519106477499
449,-0.032448548823595,-0.0388756357133389,0.00594815518707037,-0.00630821660161018,0.00611109239980578,-0.0239298176020384
450,-0.0354202352464199,-0.0421349480748177,0.00270619709044695,-0.0125320181250572,-0.00264344923198223,-0.0332285203039646
451,-0.040863111615181,-0.0480806268751621,-0.00204223277978599,-0.0196184292435646,-0.0121263163164258,-0.0422834381461143
452,-0.0479105412960052,-0.0560054145753384,-0.00570054166018963,-0.0257086157798767,-0.0204696375876665,-0.0485145077109337
453,-0.0547641701996326,-0.064032070338726,-0.0070003648288548,-0.0304514598101377,-0.0268644653260708,-0.0499782338738441
454,-0.0596168041229248,-0.0688418298959732,-0.00629871757701039,-0.033068273216486,-0.0285317711532116,-0.046361405402422
455,-0.0609252713620663,-0.0694643706083298,-0.00624953210353851,-0.0330426581203938,-0.0245298836380243,-0.0399646274745464
456,-0.0576800629496574,-0.0683150067925453,-0.00978413783013821,-0.0313705131411552,-0.0185446199029684,-0.0340089052915573
457,-0.0512353554368019,-0.0671599954366684,-0.0165387205779552,-0.0289387181401253,-0.0145107535645366,-0.0298640821129084
458,-0.0453228950500488,-0.0655781105160713,-0.0236728303134441,-0.0262042731046677,-0.0138226756826043,-0.0276780165731907
459,-0.0419464148581028,-0.0634667575359344,-0.0300978347659111,-0.0247760619968176,-0.0162012930959463,-0.0282288081943989
460,-0.0431766994297504,-0.064829096198082,-0.0391517989337444,-0.0284287687391043,-0.0233300607651472,-0.0339161418378353
461,-0.0499738417565823,-0.0719447433948517,-0.0505769513547421,-0.0363643579185009,-0.0352651812136173,-0.0427930504083633
462,-0.057041984051466,-0.0784394964575768,-0.0561064444482327,-0.0405093356966972,-0.0452060289680958,-0.0468420460820198
463,-0.0588923096656799,-0.0777078941464424,-0.0509187094867229,-0.0359716601669788,-0.0471877790987492,-0.0421957746148109
464,-0.0546551421284676,-0.0701769441366196,-0.0382177531719208,-0.0252274423837662,-0.0421035885810852,-0.0315732918679714
465,-0.0455480478703976,-0.0595432631671429,-0.0225211158394814,-0.0130540896207094,-0.0341343209147453,-0.0184249170124531
466,-0.0348459593951702,-0.0491119548678398,-0.00803378690034151,-0.00350307580083609,-0.0262803249061108,-0.00594810862094164
467,-0.0279735419899225,-0.0415719598531723,0.000349971029208973,0.000729591411072761,-0.0206215493381023,0.0016605609562248
468,-0.0273329466581345,-0.0378200821578503,0.00162933964747936,0.000175010587554425,-0.0176764484494925,0.0023612966760993
469,-0.0301736705005169,-0.03645259141922,-0.000594619661569595,-0.00188790285028517,-0.0157943144440651,-0.00169098982587457
470,-0.0317119993269444,-0.035100381821394,-0.00242635770700872,-0.00209465296939015,-0.0136504890397191,-0.00582942925393581
471,-0.0292864087969065,-0.0332262516021729,-0.00255212024785578,0.000368068693205714,-0.0108173713088036,-0.00743448454886675
472,-0.0253581628203392,-0.032871138304472,-0.00219799089245498,0.00325139658525586,-0.006652457639575,-0.00802041590213776
473,-0.0238999165594578,-0.0355313681066036,-0.00271959532983601,0.00411861063912511,-0.000983851961791515,-0.00919518526643515
474,-0.026347579434514,-0.0413110218942165,-0.00564914103597403,0.00114361546002328,0.00338439247570932,-0.0118768746033311
475,-0.0317209586501122,-0.0488966479897499,-0.0114759197458625,-0.00567665789276361,0.00363994296640158,-0.0168015472590923
476,-0.0376974940299988,-0.0555044338107109,-0.0178337469696999,-0.0136126419529319,0.00170501449611038,-0.0230947397649288
477,-0.0423813052475452,-0.0589314512908459,-0.0217543616890907,-0.0196506287902594,0.00063902564579621,-0.028505451977253
478,-0.0452137440443039,-0.0590927265584469,-0.0217503774911165,-0.0226068813353777,0.00163167656864971,-0.0314062461256981
479,-0.0456731282174587,-0.0565831512212753,-0.0172832943499088,-0.0226438697427511,0.00763913569971919,-0.0316019020974636
480,-0.0429316833615303,-0.0513587221503258,-0.0077709429897368,-0.0193894039839506,0.0204805284738541,-0.0290306638926268
481,-0.0395984649658203,-0.0463202558457851,0.00363456690683961,-0.0147453984245658,0.0324454419314861,-0.0255700312554836
482,-0.0401308052241802,-0.0451967157423496,0.0093160243704915,-0.0129120629280806,0.0324444100260735,-0.0230050720274448
483,-0.0430935509502888,-0.0438271537423134,0.00697420164942741,-0.0129239140078425,0.0206746496260166,-0.0174354948103428
484,-0.0436473302543163,-0.0374412722885609,0.00104919646400958,-0.0114988898858428,0.00633747223764658,-0.00710452115163207
485,-0.0422408618032932,-0.0328647345304489,-0.00692656403407454,-0.0119223911315203,-0.00590206077322364,2.52941317739896E-05
486,-0.0417292676866055,-0.0368095189332962,-0.0172786768525839,-0.0176465939730406,-0.0166239235550165,-0.00230139144696295
487,-0.0419940166175365,-0.0450861006975174,-0.02771320566535,-0.0254152547568083,-0.0258747432380915,-0.0112856635823846
488,-0.0448209866881371,-0.0543101653456688,-0.0381854549050331,-0.0335717052221298,-0.0352623946964741,-0.0248537696897984
489,-0.0524041242897511,-0.0648317635059357,-0.0489789806306362,-0.0426733605563641,-0.04522904753685,-0.042341485619545
490,-0.0601973496377468,-0.0730275511741638,-0.0555204562842846,-0.0489172078669071,-0.0494404844939709,-0.0573841370642185
491,-0.0603109002113342,-0.0732230916619301,-0.0517773516476154,-0.0468911901116371,-0.040958546102047,-0.0616204887628555
492,-0.0510445535182953,-0.0642566084861755,-0.0365740060806274,-0.0355037972331047,-0.0222220178693533,-0.0526587404310703
493,-0.0393192991614342,-0.0514726229012012,-0.0169372707605362,-0.0201544053852558,-0.00332443509250879,-0.0364025346934795
494,-0.0314272791147232,-0.040004525333643,-0.00183743890374899,-0.00725959008559585,0.00886455457657576,-0.0203475523740053
495,-0.0276398677378893,-0.0307466611266136,0.0045707393437624,0.00102617824450135,0.0134919993579388,-0.00726753892377019
496,-0.0253787506371737,-0.0236142426729202,0.00329305697232485,0.00592226488515735,0.0134259387850761,0.00369116826914251
497,-0.0230633560568094,-0.0196795184165239,-0.0015420006820932,0.00878690276294947,0.012273826636374,0.0121915927156806
498,-0.0215053912252188,-0.0197458155453205,-0.00599444331601262,0.0093296691775322,0.0111078433692455,0.015644084662199
499,-0.021350072696805,-0.0228526350110769,-0.00791735667735338,0.00693523045629263,0.0110408253967762,0.0126885203644633
500,-0.0222337432205677,-0.0269360207021236,-0.00745406933128834,0.00266934651881456,0.0133082699030638,0.00494016706943512
501,-0.0248949900269508,-0.0303456950932741,-0.00708693265914917,-0.001794223790057,0.0158078838139772,-0.00455632666125894
502,-0.0305481199175119,-0.0331776589155197,-0.0087042273953557,-0.00629796180874109,0.0146384881809354,-0.0129978200420737
503,-0.0371742211282253,-0.0351063087582588,-0.0105128418654203,-0.0101210279390216,0.00948356278240681,-0.0169737339019775
504,-0.0410175807774067,-0.0353235602378845,-0.00964920502156019,-0.011808798648417,0.00428827572613955,-0.0148006770759821
505,-0.0407149940729141,-0.0339881852269173,-0.00430432474240661,-0.0101944161579013,0.00488762510940433,-0.00815215241163969
506,-0.0369895175099373,-0.0307069215923548,0.00576409557834268,-0.00438525062054396,0.0141713693737984,0.000104455160908401
507,-0.0316524468362331,-0.0254800133407116,0.0168157201260328,0.00463478965684772,0.0256884954869747,0.00725104007869959
508,-0.026764340698719,-0.0197151433676481,0.0230038017034531,0.0141999972984195,0.0291143115609884,0.0122495768591762
509,-0.0227362643927336,-0.0141332903876901,0.0226061381399632,0.0218797829002142,0.0228284671902657,0.0161142088472843
510,-0.0191957391798496,-0.00866417959332466,0.0190004222095013,0.0259164646267891,0.0132440999150276,0.0193760823458433
511,-0.0167436357587576,-0.00470922468230128,0.0148382522165775,0.0246946066617966,0.0048045115545392,0.0206328611820936
512,-0.0153369223698974,-0.00368420546874404,0.00996942166239023,0.0188236627727747,-0.00260792719200253,0.0192999169230461
513,-0.0148547412827611,-0.00530330091714859,0.00334491115063429,0.0111209470778704,-0.0114257270470262,0.0160070899873972
514,-0.0155775891616941,-0.00755129288882017,-0.00390838645398617,0.00477638561278582,-0.0216847956180573,0.0122503591701388
515,-0.0170336905866861,-0.00769081013277173,-0.00858112145215273,0.00189965206664056,-0.0299889668822289,0.00984111800789833
516,-0.0188145581632853,-0.00548184430226684,-0.00944739393889904,0.00191543076653033,-0.0350808016955853,0.0089665986597538
517,-0.0197460800409317,-0.0025424703489989,-0.00631595822051167,0.00403447775170207,-0.0368108600378037,0.0104706650599837
518,-0.0183523632586002,0.000734742963686585,0.0011077057570219,0.00852814503014088,-0.0344200544059277,0.0158517267554998
519,-0.015843166038394,0.0048091602511704,0.0104485712945461,0.0134671209380031,-0.0303791128098965,0.0226034764200449
520,-0.0133516080677509,0.0103866318240762,0.0193742886185646,0.0169200170785189,-0.026239512488246,0.0285576358437538
521,-0.00943868979811668,0.0192412082105875,0.0281500592827797,0.0204102676361799,-0.0194494891911745,0.0371341556310654
522,-0.00314674084074795,0.0325636900961399,0.0363004617393017,0.0257400069385767,-0.00916150026023388,0.0509081929922104
523,0.00395385595038533,0.0459252595901489,0.0426206216216087,0.0327987261116505,0.00231015658937395,0.0676614344120026
524,0.00876172445714474,0.0506765283644199,0.046946045011282,0.0398238264024258,0.0131330108270049,0.0811939612030983
525,0.0117491902783513,0.0453624092042446,0.0512756034731865,0.0461647175252438,0.0241297967731953,0.08568524569273
526,0.0155586656183004,0.036785751581192,0.0576026402413845,0.0518990755081177,0.0342256538569927,0.0798647180199623
527,0.0190775115042925,0.0301541648805141,0.0652394816279411,0.0555105246603489,0.0400876514613628,0.0657263472676277
528,0.0198499653488398,0.0266897212713957,0.0718029141426086,0.0563253983855248,0.0410265065729618,0.0478937812149525
529,0.0175412930548191,0.0252064056694508,0.0739821866154671,0.0541410371661186,0.0380634926259518,0.0308907479047775
530,0.0144280204549432,0.0241293385624886,0.0716297030448914,0.0497280992567539,0.0338058397173882,0.0176083948463202
531,0.0131431762129068,0.0228058397769928,0.0673110485076904,0.04527897387743,0.0305368062108755,0.00942034460604191
532,0.0131387142464519,0.01983692497015,0.0615169517695904,0.0410808697342873,0.0280783027410507,0.00462989788502455
533,0.0134451920166612,0.015009768307209,0.0552639327943325,0.0372652970254421,0.0271932315081358,0.00228132749907672
534,0.0156519878655672,0.0112539613619447,0.0521423183381557,0.0359610803425312,0.0305429473519325,0.00576328719034791
535,0.0192893054336309,0.00987396668642759,0.0540217645466328,0.037445742636919,0.0377144031226635,0.0176229327917099
536,0.0214667618274689,0.00836879480630159,0.0570449754595757,0.0383298620581627,0.043173149228096,0.0339991003274918
537,0.0222710091620684,0.0058049107901752,0.0558696687221527,0.0366272814571857,0.0418330281972885,0.048100046813488
538,0.0235414002090693,0.00491931103169918,0.0509625896811485,0.0339987725019455,0.0345041640102863,0.0556550584733486
539,0.0249125920236111,0.00741294817999005,0.0465196520090103,0.0320599526166916,0.0261154603213072,0.0558924339711666
540,0.0256333220750093,0.0117385992780328,0.045485008507967,0.0312056113034487,0.0217152442783117,0.0518198013305664
541,0.0261282082647085,0.015582125633955,0.0481391586363316,0.0313747487962246,0.0243764687329531,0.0481212921440601
542,0.0263135340064764,0.0184398014098406,0.0529461912810802,0.0334154032170773,0.0321934223175049,0.0479876399040222
543,0.0268647577613592,0.0217575989663601,0.0588811598718166,0.0392162092030048,0.0400388538837433,0.0525492466986179
544,0.028976496309042,0.0258227195590734,0.0640901997685432,0.0479074008762836,0.0433584153652191,0.0600006841123104
545,0.0324788354337215,0.0296615287661552,0.0662533268332481,0.0549973174929619,0.0416664369404316,0.0648880004882813
546,0.0376678369939327,0.0330407060682774,0.0653838664293289,0.0563895031809807,0.0394770838320255,0.0618536248803139
547,0.0448660366237164,0.0340612754225731,0.0624792985618114,0.0519886463880539,0.0390844345092773,0.0508501902222633
548,0.0522245392203331,0.0303476620465517,0.0592562407255173,0.0455021858215332,0.0385956168174744,0.0372251607477665
549,0.0551615729928017,0.0217861011624336,0.0571314096450806,0.0390089899301529,0.0349275805056095,0.0256707277148962
550,0.0500036217272282,0.00966102443635464,0.0545091442763805,0.030805317685008,0.0264815222471952,0.0159863457083702
551,0.0403892025351524,-0.000729361840058118,0.0508203469216824,0.0223107095807791,0.0186404883861542,0.00905659049749374
552,0.0324435867369175,-0.00418435735628009,0.0474078617990017,0.0175533760339022,0.0173995457589626,0.00813511852174997
553,0.0279273670166731,-0.00234801205806434,0.0439684018492699,0.0170705914497375,0.0210854019969702,0.0129679348319769
554,0.0273500271141529,0.00199138023890555,0.0417103804647923,0.0210775472223759,0.0265917126089334,0.022408427670598
555,0.0301109235733747,0.00740221468731761,0.0412335805594921,0.0281996671110392,0.0310092121362686,0.0344109050929546
556,0.0345024801790714,0.0112578086555004,0.0397966951131821,0.0334410667419434,0.0308715719729662,0.0445527508854866
557,0.0404335185885429,0.0119015527889133,0.0370055548846722,0.0341166742146015,0.0273277796804905,0.0508958697319031
558,0.0469108484685421,0.00957462936639786,0.0350259840488434,0.0305148102343082,0.0240587275475264,0.0530502274632454
559,0.0528723411262035,0.00735783390700817,0.0369963645935059,0.0259276311844587,0.0245330072939396,0.0517603792250156
560,0.0593834519386292,0.00931621436029673,0.0448846630752087,0.0252834297716618,0.030690148472786,0.0508319064974785
561,0.0664098262786865,0.014922734349966,0.0547406002879143,0.0284280460327864,0.0392258875072002,0.052215401083231
562,0.0722966715693474,0.0200639255344868,0.0607167594134808,0.0314337462186813,0.045085608959198,0.0545194000005722
563,0.0761674419045448,0.0226449947804213,0.061374269425869,0.0331971272826195,0.0462791733443737,0.0566746033728123
564,0.0777521207928658,0.0224708691239357,0.0570869147777557,0.0335219278931618,0.0420536324381828,0.0560253225266933
565,0.0767206028103828,0.0192830003798008,0.048538401722908,0.0300788562744856,0.0332317501306534,0.0487740635871887
566,0.0736457109451294,0.0145462537184358,0.0391367301344872,0.0225574336946011,0.0242622494697571,0.0357802622020245
567,0.0705852881073952,0.0108452923595905,0.0333578661084175,0.0146695598959923,0.0196280423551798,0.0223706010729074
568,0.0701473355293274,0.00979376584291458,0.0333344042301178,0.0110462233424187,0.0202601999044418,0.0140853738412261
569,0.0721981525421143,0.0103167835623026,0.0366050563752651,0.0121090961620212,0.0239681806415319,0.0125527838245034
570,0.073705181479454,0.00873504858464003,0.0386261567473412,0.0131694320589304,0.028183164075017,0.0142279947176576
571,0.0732569247484207,0.00380145967938006,0.037992961704731,0.0113361654803157,0.0312582515180111,0.0156337711960077
572,0.0715927928686142,-0.00135846179910004,0.0363490954041481,0.0087018022313714,0.0321885161101818,0.0169387720525265
573,0.0687601640820503,-0.00460731377825141,0.0343593433499336,0.00647971127182245,0.0308326501399279,0.0172794852405787
574,0.0652770772576332,-0.00626356853172183,0.031947560608387,0.00342399184592068,0.0274913664907217,0.0140586821362376
575,0.0641145035624504,-0.00506861926987767,0.0319368615746498,0.00124842778313905,0.0237500220537186,0.00942205637693405
576,0.0668697282671928,-0.00011319119221298,0.0367678627371788,0.00286331376992166,0.020434407517314,0.00780705362558365
577,0.0716020464897156,0.00644874200224876,0.0448940508067608,0.0075812004506588,0.0158568080514669,0.00975695345550776
578,0.0769700333476067,0.0127157820388675,0.0540436655282974,0.0135549027472734,0.0110770873725414,0.0142329270020127
579,0.0822890624403954,0.0173860993236303,0.0618845336139202,0.0187410749495029,0.00968069583177567,0.0198507867753506
580,0.0849147588014603,0.0178304947912693,0.0646544918417931,0.019263269379735,0.0115479966625571,0.022777646780014
581,0.0831823498010635,0.0133886272087693,0.060689102858305,0.0136107699945569,0.0125105669721961,0.0205365717411041
582,0.0795945078134537,0.00825999863445759,0.0540698431432247,0.00605125119909644,0.009753642603755,0.015753960236907
583,0.0784052908420563,0.00679336255416274,0.0503538809716702,0.00141740823164582,0.00536498473957181,0.0118182469159365
584,0.0811713337898254,0.0088361743837595,0.049959309399128,0.00051263184286654,0.00287231290712953,0.00957930646836758
585,0.0868279859423637,0.0119197433814406,0.0497388541698456,0.00229303142987192,0.00521203968673944,0.00928621366620064
586,0.0949154570698738,0.0142524382099509,0.0482094585895538,0.00599291455000639,0.0160781014710665,0.0112078264355659
587,0.104902900755405,0.0152348317205906,0.0454986952245235,0.0107657583430409,0.0351059213280678,0.0149815967306495
588,0.112082324922085,0.013521583750844,0.0407733768224716,0.0137356258928776,0.0540175065398216,0.0182372108101845
589,0.110321052372456,0.00734338350594044,0.0331925116479397,0.0113213118165731,0.0645946860313416,0.0172985680401325
590,0.10075568407774,-0.000591662130318582,0.0242163110524416,0.005138601642102,0.0666105970740318,0.0127105955034494
591,0.0912889987230301,-0.00459423614665866,0.0167024433612823,0.000794057443272322,0.0638071373105049,0.0103284418582916
592,0.0886384248733521,-0.00153695128392428,0.0140506932511926,0.00257740635424852,0.0600593574345112,0.0168424863368273
593,0.094009704887867,0.00786174647510052,0.0181604344397783,0.0108002377673984,0.0595354773104191,0.0327820889651775
594,0.103277809917927,0.019079428166151,0.0262614395469427,0.0204351674765348,0.0628893077373505,0.0488182753324509
595,0.110972657799721,0.0271166078746319,0.0338861234486103,0.0260693449527025,0.0656156539916992,0.055653378367424
596,0.11392056196928,0.0308985784649849,0.0393186062574387,0.02706453576684,0.0630402490496635,0.0529346838593483
597,0.111436411738396,0.0319130383431911,0.0426341369748116,0.0251622051000595,0.0545922368764877,0.0449274480342865
598,0.105340503156185,0.0315715298056602,0.044173289090395,0.021392023190856,0.0431478843092918,0.035069651901722
599,0.0991329401731491,0.0306606981903315,0.0445613972842693,0.0160049218684435,0.0326007530093193,0.0247078370302916
600,0.0954441651701927,0.0286268498748541,0.0425779744982719,0.00911357998847961,0.0245643462985754,0.0142601281404495
601,0.0946443825960159,0.0257046595215797,0.0369266867637634,0.00268199201673269,0.0187107790261507,0.00641121482476592
602,0.095608651638031,0.0239072889089584,0.0296454709023237,-0.000389079330489039,0.0160789769142866,0.00418687611818314
603,0.0970304012298584,0.0233741607517004,0.0232186540961266,-0.000281275802990422,0.0173256024718285,0.00622386997565627
604,0.0979184061288834,0.0221220087260008,0.0176921524107456,0.000182190196937881,0.0203799866139889,0.00833331141620874
605,0.0977988839149475,0.0185962934046984,0.0116380387917161,-0.00135467888321728,0.0215371437370777,0.0073506748303771
606,0.0970163866877556,0.0137534569948912,0.00550240511074662,-0.00449165794998407,0.0188945643603802,0.00409344537183642
607,0.09678815305233,0.0112532116472721,0.00265705003403127,-0.00622562691569328,0.0151414927095175,0.00296493875794113
608,0.0977951213717461,0.0127313109114766,0.00506068440154195,-0.00497747678309679,0.0144511749967933,0.00601962069049478
609,0.0991042256355286,0.0161759089678526,0.0110482331365347,-0.00138363789301366,0.0187964607030153,0.0127108041197062
610,0.100225798785686,0.0191390458494425,0.0175895094871521,0.00373075599782169,0.0273137483745813,0.0229903683066368
611,0.101802840828896,0.0197377055883408,0.022046335041523,0.00855587236583233,0.0359600111842155,0.0342182964086533
612,0.103767476975918,0.0177231654524803,0.0236758664250374,0.0116051947697997,0.0399715267121792,0.0415286049246788
613,0.105743378400803,0.0157805625349283,0.0245231650769711,0.013803668320179,0.0380075797438622,0.0440978892147541
614,0.107372187077999,0.0166639778763056,0.0265589635819197,0.0162882469594479,0.0323963165283203,0.0455676838755608
615,0.106449142098427,0.0179184284061193,0.0265052542090416,0.0160619523376226,0.0243417304009199,0.0460030883550644
616,0.102560967206955,0.0158735662698746,0.0205483362078667,0.0102690784260631,0.0148001965135336,0.0413011088967323
617,0.0997981652617455,0.0136308269575238,0.0123794842511415,0.00390794640406966,0.00907544232904911,0.0316366739571095
618,0.0999431908130646,0.0151863833889365,0.00672993808984756,0.00267496705055237,0.0101516311988235,0.0208609513938427
619,0.100032426416874,0.018191859126091,0.00279806670732796,0.00433030445128679,0.0131643805652857,0.00996632315218449
620,0.0972722470760345,0.0188401415944099,-0.00165779865346849,0.00362140499055386,0.013058447279036,-0.00159338407684118
621,0.0921038389205933,0.0182088073343039,-0.00611961726099253,-0.000652794842608273,0.0111807668581605,-0.0115893157199025
622,0.087865337729454,0.0205370895564556,-0.0070725129917264,-0.00426783971488476,0.0119592286646366,-0.0148090198636055
623,0.0878778323531151,0.0263257641345263,-0.00199822708964348,-0.00238765543326736,0.0186379570513964,-0.00740461423993111
624,0.0923207476735115,0.0327984169125557,0.00710151111707091,0.00480014085769653,0.0316896662116051,0.00790123827755451
625,0.0982537567615509,0.0384356565773487,0.0158001519739628,0.0129222180694342,0.0458386726677418,0.0236878581345081
626,0.10227632522583,0.0417810268700123,0.0206628143787384,0.0177388694137335,0.0522785037755966,0.0337788611650467
627,0.103353917598724,0.0419277064502239,0.0214296486228704,0.0190566219389439,0.0464268699288368,0.0367699898779392
628,0.102897182106972,0.0397949106991291,0.020556228235364,0.0197981763631105,0.0307900160551071,0.0353656299412251
629,0.102474540472031,0.0363826118409634,0.0201812572777271,0.0211504604667425,0.0135476794093847,0.0322061069309711
630,0.102855108678341,0.0322766453027725,0.0207562483847141,0.0220703389495611,0.00348553014919162,0.0277220476418734
631,0.103371620178223,0.0278716068714857,0.0213295519351959,0.0215907916426659,0.00204037223011255,0.0225181858986616
632,0.103391878306866,0.0247366242110729,0.0207751840353012,0.0203954502940178,0.00496490672230721,0.0199054181575775
633,0.104707926511765,0.0253333244472742,0.0191668123006821,0.020924087613821,0.0103584760800004,0.0229818765074015
634,0.108026787638664,0.0284479446709156,0.0163945462554693,0.0235476903617382,0.0176750440150499,0.0287801045924425
635,0.111723370850086,0.031064348295331,0.0133050456643105,0.0270578917115927,0.0262429416179657,0.0322427190840244
636,0.114820346236229,0.0330217592418194,0.0133143402636051,0.0319001935422421,0.036997277289629,0.0330512560904026
637,0.114888429641724,0.0335230603814125,0.0171546954661608,0.0366560406982899,0.0476675257086754,0.0317913852632046
638,0.109142921864986,0.0304846316576004,0.0206634625792503,0.0379953570663929,0.051873717457056,0.0285341143608093
639,0.100966617465019,0.0256563499569893,0.0218008235096931,0.0362023524940014,0.0474812388420105,0.0262057017534971
640,0.0964564457535744,0.0230683702975512,0.0226163286715746,0.0342445634305477,0.0387212038040161,0.0264201313257217
641,0.095482125878334,0.0228677242994308,0.0223124790936708,0.0320897214114666,0.0288278292864561,0.0257180370390415
642,0.0950522348284721,0.0234313644468784,0.0195861142128706,0.0286675132811069,0.0196575243026018,0.0223027411848307
643,0.0944281443953514,0.0247803702950478,0.0167607814073563,0.0255157109349966,0.0142440926283598,0.0189233031123877
644,0.0930512920022011,0.0264362972229719,0.0144501365721226,0.0238250661641359,0.0126001238822937,0.0174804665148258
645,0.0916436240077019,0.027514886111021,0.0117985280230641,0.0238847266882658,0.0134546272456646,0.0181601606309414
646,0.0929921939969063,0.0282273832708597,0.0105171902105212,0.0259697623550892,0.0182234104722738,0.0204998031258583
647,0.0989356338977814,0.0288521368056536,0.012129494920373,0.0282855369150639,0.0272802971303463,0.0222374312579632
648,0.108126409351826,0.028784079477191,0.0151907717809081,0.0287491530179977,0.0375951267778873,0.0212091524153948
649,0.11714019626379,0.0287969820201397,0.0190327446907759,0.0294930133968592,0.0469196885824203,0.0194941312074661
650,0.121699154376984,0.0295498874038458,0.0230210945010185,0.0330226458609104,0.0544003769755363,0.0201243013143539
651,0.117867149412632,0.0289658792316914,0.0237942915409803,0.0371753610670567,0.0565751530230045,0.0220666192471981
652,0.106466680765152,0.0258734207600355,0.0206498708575964,0.0384323261678219,0.0508947148919106,0.0225235093384981
653,0.0924335494637489,0.0213731806725264,0.0152282081544399,0.0347915589809418,0.0389003790915012,0.0189529974013567
654,0.0790706351399422,0.0160594414919615,0.00593035202473402,0.0251159742474556,0.020393768325448,0.00994569435715675
655,0.0674707815051079,0.0102504519745708,-0.00858437642455101,0.0103195700794458,-0.00514198234304786,-0.00239514675922692
656,0.0605959184467793,0.00677601341158152,-0.0237860772758722,-0.00421142764389515,-0.0310864895582199,-0.0131676904857159
657,0.0614767819643021,0.00888599269092083,-0.0337673239409924,-0.012252357788384,-0.0493158362805843,-0.0197453424334526
658,0.0685833692550659,0.0164053458720446,-0.0369335375726223,-0.0125789139419794,-0.0582425259053707,-0.0227587018162012
659,0.0792019069194794,0.0281852819025517,-0.0333471745252609,-0.00727470079436898,-0.0582424774765968,-0.0211617909371853
660,0.0916837900876999,0.0450985617935658,-0.0226074457168579,0.00207579252310097,-0.0484747923910618,-0.0130706550553441
661,0.103439755737782,0.0672254636883736,-0.00653454288840294,0.0136079378426075,-0.0313904844224453,0.000223108159843832
662,0.112464927136898,0.090694896876812,0.0101936487480998,0.025019122287631,-0.0127805219963193,0.0167761277407408
663,0.117792204022408,0.110199369490147,0.022547073662281,0.0359168611466885,0.000624979962594807,0.0369128175079823
664,0.118349306285381,0.121525555849075,0.0266952943056822,0.0455153957009315,0.00322582200169563,0.0572772771120071
665,0.11579941958189,0.122335344552994,0.0243764650076628,0.0510574951767921,-0.00219443975947797,0.0686660557985306
666,0.113704271614552,0.1137765198946,0.0220560319721699,0.0507594086229801,-0.00712151173502207,0.0659529343247414
667,0.112073235213757,0.0997633710503578,0.0208831634372473,0.0446099080145359,-0.00882739294320345,0.05228491127491
668,0.108351707458496,0.0844835191965103,0.0149748623371124,0.0336153097450733,-0.0109635032713413,0.0339599251747131
669,0.102725066244602,0.0707709044218063,0.00109738390892744,0.0196722522377968,-0.0172785930335522,0.0160712022334337
670,0.0993649065494537,0.0613603927195072,-0.0145173687487841,0.00731477560475469,-0.0259757936000824,0.00338149000890553
671,0.100255362689495,0.0576047971844673,-0.0252104178071022,-0.000260182307101786,-0.0339438989758492,-0.00148432166315615
672,0.101382233202457,0.0566989742219448,-0.0318756923079491,-0.00547494273632765,-0.0419528521597385,-0.00249809701927006
673,0.0983330905437469,0.0553345754742622,-0.0362927317619324,-0.010195410810411,-0.0495401360094547,-0.00385670573450625
674,0.0907730013132095,0.0531369261443615,-0.0385471433401108,-0.012732557952404,-0.05531020835042,-0.00399061478674412
675,0.0810962319374084,0.0512062013149261,-0.0403068214654922,-0.0130087705329061,-0.0608152113854885,-0.00314075173810124
676,0.072171688079834,0.0496063083410263,-0.0445791222155094,-0.0147929694503546,-0.0687384232878685,-0.00674706278368831
677,0.066779837012291,0.0475456975400448,-0.0514971874654293,-0.0204817093908787,-0.0779390186071396,-0.0170187186449766
678,0.06516482681036,0.0449595525860786,-0.0560018010437489,-0.0270980335772038,-0.0834031105041504,-0.0304472409188747
679,0.0640193596482277,0.0426677316427231,-0.0541389398276806,-0.0300144962966442,-0.0834137722849846,-0.0419793240725994
680,0.0616079866886139,0.0424883998930454,-0.0487867593765259,-0.0282038077712059,-0.0813040137290955,-0.0470352210104465
681,0.061137493699789,0.0484837554395199,-0.0434866920113564,-0.0234842393547297,-0.0781112685799599,-0.0427119918167591
682,0.0661783143877983,0.0629347488284111,-0.0367780290544033,-0.0163992680609226,-0.0712816789746284,-0.0296119842678308
683,0.0750239863991737,0.0790670365095139,-0.0278586279600859,-0.00753952981904149,-0.0621043182909489,-0.0131978690624237
684,0.0829403027892113,0.0872021839022636,-0.0190921071916819,3.11010335281026E-05,-0.0548719689249992,-0.000610192597378045
685,0.0845656171441078,0.0836746394634247,-0.0135963493958116,0.00200120452791452,-0.0522165149450302,0.00302283582277596
686,0.077702060341835,0.0715325921773911,-0.0125662311911583,-0.00287195341661572,-0.0521595068275929,-0.00247497600503266
687,0.06753009557724,0.0582047887146473,-0.0136095993220806,-0.0103968232870102,-0.0489310435950756,-0.0100015178322792
688,0.0592948757112026,0.0476460680365562,-0.0151577470824122,-0.0166548173874617,-0.0416099168360233,-0.0105930911377072
689,0.0531454645097256,0.0392604283988476,-0.0171876046806574,-0.0196246560662985,-0.0336650311946869,0.000512362981680781
690,0.0471530444920063,0.032506387680769,-0.0201703310012817,-0.0189336519688368,-0.0295398160815239,0.0191088616847992
691,0.0399198047816753,0.0266836676746607,-0.0265036076307297,-0.0187288299202919,-0.0350035801529884,0.0318702086806297
692,0.0322275497019291,0.0224366076290607,-0.0361804515123367,-0.0226315632462502,-0.0495351180434227,0.0290624517947435
693,0.0259161163121462,0.0212574005126953,-0.044963363558054,-0.0292470380663872,-0.0645934864878654,0.0133985942229629
694,0.0218946747481823,0.0227760840207338,-0.0484904870390892,-0.0349084846675396,-0.0733252242207527,-0.00493035931140184
695,0.0189402997493744,0.0249413065612316,-0.0463853105902672,-0.0381361097097397,-0.0762805119156837,-0.0193341560661793
696,0.0171806421130896,0.0275415312498808,-0.0410730615258217,-0.0383445546030998,-0.0746847465634346,-0.0288097690790892
697,0.0196407120674849,0.0330306924879551,-0.0331869423389435,-0.0330880768597126,-0.0653688609600067,-0.0313437134027481
698,0.0256800055503845,0.0407943278551102,-0.0244962703436613,-0.0239201784133911,-0.0493561290204525,-0.0268524494022131
699,0.0318448841571808,0.0480519682168961,-0.0190033223479986,-0.0166978593915701,-0.0341765321791172,-0.0198045205324888
700,0.0338814966380596,0.0532399713993073,-0.0199442636221647,-0.0159297622740269,-0.0279472786933184,-0.0151457022875547
701,0.0279793571680784,0.0559028424322605,-0.0266909170895815,-0.0218443796038628,-0.0332069806754589,-0.0120158409699798
702,0.0175207480788231,0.0554017536342144,-0.0331390723586082,-0.0290561821311712,-0.0425308123230934,-0.00319305644370615
703,0.00962267350405455,0.0497646108269691,-0.034455806016922,-0.0319739542901516,-0.046138446778059,0.012374053709209
704,0.00751892989501357,0.0415590405464172,-0.0293737482279539,-0.0282707698643208,-0.0405344143509865,0.0282921306788921
705,0.00987484771758318,0.0366256013512611,-0.0183858368545771,-0.0179664790630341,-0.0297366566956043,0.0401589423418045
706,0.0123285176232457,0.033473301678896,-0.00722010526806116,-0.00588316097855568,-0.022111875936389,0.0440969876945019
707,0.0121723040938377,0.0266937632113695,-0.00271325767971575,0.00175660895183682,-0.0203664861619473,0.0376440286636353
708,0.0104508707299829,0.0176092870533466,-0.00574628263711929,0.00286108627915382,-0.0211554579436779,0.0238609947264194
709,0.00917821563780308,0.0118357883766294,-0.0140122547745705,-0.00195642677135766,-0.0247143935412169,0.00775319477543235
710,0.00986156146973372,0.0112583553418517,-0.0248506627976894,-0.0104306358844042,-0.0330220386385918,-0.00687085278332233
711,0.0117063457146287,0.013268674723804,-0.0347446240484715,-0.0192355420440435,-0.0445027537643909,-0.0185862258076668
712,0.013001935556531,0.0157750751823187,-0.0401574708521366,-0.0248682219535112,-0.0545100867748261,-0.0267363376915455
713,0.0142079619690776,0.0188602432608604,-0.0392937809228897,-0.0243333969265223,-0.0585303194820881,-0.0287692192941904
714,0.0159550923854113,0.0216726418584585,-0.0341894812881947,-0.0189594738185406,-0.0557945817708969,-0.0241098254919052
715,0.0179349910467863,0.0220296829938889,-0.0298159308731556,-0.0147925838828087,-0.0483015738427639,-0.0175967831164598
716,0.0208623986691237,0.0205045957118273,-0.0276639219373465,-0.0143454009667039,-0.0378630347549915,-0.0120179811492562
717,0.0251758843660355,0.0207136888056993,-0.0247383173555136,-0.0146647486835718,-0.0273849237710238,-0.00367867620661855
718,0.0298535600304604,0.023233987390995,-0.0205332674086094,-0.0145632550120354,-0.0220655594021082,0.00906149577349424
719,0.0350414551794529,0.0243367720395327,-0.0164643712341785,-0.0147475553676486,-0.0242905151098967,0.0218208190053701
720,0.0405534990131855,0.0215643458068371,-0.0109515404328704,-0.0146651295945048,-0.0302012041211128,0.0288719963282347
721,0.0427579805254936,0.0167182218283415,-0.00310041569173336,-0.0142494449391961,-0.0352239087224007,0.0276613906025887
722,0.0395099855959415,0.0150267723947763,0.00445692799985409,-0.0129998838528991,-0.0363579541444778,0.0222216639667749
723,0.032730758190155,0.0189766772091389,0.00856605358421803,-0.0102376639842987,-0.0308852214366198,0.0181707665324211
724,0.0240051466971636,0.0244171321392059,0.00740772066637874,-0.00875718519091606,-0.0204296614974737,0.015922624617815
725,0.0142687782645226,0.0279374942183495,0.00323985237628222,-0.00983593054115772,-0.0100099705159664,0.0153219494968653
726,0.00554540520533919,0.0315157137811184,0.00195134384557605,-0.00892023555934429,-0.00216840370558202,0.0186639577150345
727,0.000202120805624872,0.0395586788654327,0.00745127908885479,-0.00160331174265593,0.00440402189269662,0.0274858176708221
728,-0.00212140311487019,0.0503189414739609,0.0177839547395706,0.0100492117926478,0.0109876850619912,0.0391933806240559
729,-0.00473796389997005,0.0546414293348789,0.0267256181687117,0.0195982679724693,0.0160565488040447,0.0477105602622032
730,-0.00869033765047789,0.0493932664394379,0.0298626869916916,0.0235185772180557,0.0180145334452391,0.0499755553901196
731,-0.0120869018137455,0.0398785509169102,0.027299540117383,0.0227462742477655,0.0172437019646168,0.0478355139493942
732,-0.0152593990787864,0.0294617619365454,0.0201548859477043,0.0182602871209383,0.0136270998045802,0.042904082685709
733,-0.0214632265269756,0.0176551379263401,0.0092401010915637,0.00999070983380079,0.00543106440454721,0.0352184176445007
734,-0.0318433605134487,0.00468431646004319,-0.00258019915781915,-0.000624286767560989,-0.0054953945800662,0.0261273626238108
735,-0.043412484228611,-0.00734271295368671,-0.0110450331121683,-0.0103895850479603,-0.0129323974251747,0.0186893343925476
736,-0.0529429316520691,-0.0148203801363707,-0.0125230615958571,-0.0161516070365906,-0.0135872485116124,0.015570254996419
737,-0.0591620169579983,-0.0154175153002143,-0.006131277885288,-0.0172543823719025,-0.00778807885944843,0.0155754741281271
738,-0.0609481669962406,-0.0105326129123569,0.00420254375785589,-0.0151108531281352,0.00294790370389819,0.0154695846140385
739,-0.0597320273518562,-0.00447828555479646,0.0112430490553379,-0.0116102769970894,0.0125278066843748,0.0134303569793701
740,-0.0593240931630135,-0.000370762136299163,0.0116759622469544,-0.0075728902593255,0.0143892476335168,0.00950181949883699
741,-0.0598107874393463,0.0023701733443886,0.0087983226403594,-0.00239935261197388,0.00940574053674936,0.00556559721007943
742,-0.0600069016218185,0.00248762313276529,0.00419165100902319,0.001660140696913,0.00162911356892437,0.00105925556272268
743,-0.062740184366703,-0.00308654038235545,-0.00453406665474176,0.000467142323032022,-0.00798122771084309,-0.00690853036940098
744,-0.0717189610004425,-0.0133667457848787,-0.0178453139960766,-0.00661682523787022,-0.0195830836892128,-0.0181180294603109
745,-0.0848620384931564,-0.0229165554046631,-0.0309803802520037,-0.0152109358459711,-0.029146870598197,-0.0280328560620546
746,-0.0951283350586891,-0.0262495875358582,-0.0368397124111652,-0.0192809719592333,-0.0292148273438215,-0.0316569432616234
747,-0.0987776145339012,-0.022561639547348,-0.0329047590494156,-0.0166807509958744,-0.0159227307885885,-0.0276308804750443
748,-0.0982074812054634,-0.0153558049350977,-0.0228070225566626,-0.00986671447753906,0.00624317582696676,-0.0155056044459343
749,-0.0975151062011719,-0.00874476041644812,-0.0109867434948683,-0.00193862023297697,0.0285354647785425,0.00515153864398599
750,-0.0990259647369385,-0.00490456121042371,0.000268234551185742,0.00546920346096158,0.0450915917754173,0.0284340474754572
751,-0.103533126413822,-0.00512480409815907,0.00751068675890565,0.0099524948745966,0.0522305406630039,0.0431523062288761
752,-0.111322268843651,-0.0107685457915068,0.00577647052705288,0.0073499190621078,0.0465374104678631,0.0411533415317535
753,-0.120750658214092,-0.018549956381321,-0.00448687560856342,-0.00267249438911676,0.029526824131608,0.0231530927121639
754,-0.127884954214096,-0.0222049746662378,-0.0162511803209782,-0.0137871038168669,0.00922470726072788,-0.00102194165810943
755,-0.131756484508514,-0.0223166476935148,-0.0248235985636711,-0.0206277798861265,-0.00791899859905243,-0.0210337918251753
756,-0.135406509041786,-0.0233137924224138,-0.0302491821348667,-0.0233936943113804,-0.0197817645967007,-0.0335615314543247
757,-0.140507325530052,-0.0249898340553045,-0.0312323346734047,-0.0234277825802565,-0.0222062226384878,-0.0391197353601456
758,-0.146311610937119,-0.0259543620049953,-0.025864927098155,-0.021324846893549,-0.0123165193945169,-0.038014005869627
759,-0.150682434439659,-0.0270058065652847,-0.016551598906517,-0.0179303605109453,0.00408969540148973,-0.0320757515728474
760,-0.150604084134102,-0.0286690164357424,-0.00863317400217056,-0.0138278491795063,0.0185204856097698,-0.0250900313258171
761,-0.145411998033524,-0.0304735936224461,-0.00571310613304377,-0.0097282575443387,0.0271165203303099,-0.0195744037628174
762,-0.13877534866333,-0.0313239470124245,-0.00737256556749344,-0.00634797615930438,0.0294351186603308,-0.0154429031535983
763,-0.13658794760704,-0.0319515876471996,-0.0123996054753661,-0.00556797813624144,0.0251870304346085,-0.014332533814013
764,-0.140755504369736,-0.0339253917336464,-0.0192035865038633,-0.00914246495813131,0.0157176796346903,-0.0192143972963095
765,-0.147342011332512,-0.0354398116469383,-0.0233694035559893,-0.0145035330206156,0.00692730955779552,-0.0279397834092379
766,-0.153525143861771,-0.035084567964077,-0.0228627678006887,-0.0180455800145864,0.00432776333764195,-0.0352994687855244
767,-0.158789739012718,-0.0350795686244965,-0.0206192173063755,-0.0193436816334724,0.00755942799150944,-0.0378935486078262
768,-0.161251336336136,-0.0368486009538174,-0.018738180398941,-0.0191274080425501,0.0136321559548378,-0.0351568683981895
769,-0.160492211580276,-0.039264727383852,-0.0162705630064011,-0.0174924004822969,0.0209773201495409,-0.0290748551487923
770,-0.160996958613396,-0.0430702567100525,-0.015211877413094,-0.0169548578560352,0.0254643596708775,-0.0242838598787785
771,-0.166492879390717,-0.0496302209794521,-0.0201728455722332,-0.0211179964244366,0.0215816106647253,-0.0248309876769781
772,-0.173369944095612,-0.0548786483705044,-0.029020493850112,-0.0273562781512737,0.0122216530144215,-0.0278411209583282
773,-0.176607176661491,-0.0545981228351593,-0.0353034511208534,-0.0303682778030634,0.00543604511767626,-0.0294020567089319
774,-0.177154168486595,-0.0514312162995338,-0.0389964655041695,-0.0306250769644976,0.00251131528057158,-0.0325642302632332
775,-0.177661135792732,-0.0484637022018433,-0.044855073094368,-0.0317129157483578,-0.00140863109845668,-0.0402854420244694
776,-0.176758602261543,-0.043624322861433,-0.0527524091303349,-0.0335158333182335,-0.00727965775877237,-0.0481339991092682
777,-0.172410115599632,-0.035950031131506,-0.0571534223854542,-0.0331611856818199,-0.0105969654396176,-0.0508784055709839
778,-0.166534900665283,-0.0300799664109945,-0.0550766363739967,-0.0307326447218657,-0.00815878808498383,-0.0499929115176201
779,-0.1615871489048,-0.028253611177206,-0.0484914667904377,-0.0275300797075033,0.000848579045850784,-0.0471010245382786
780,-0.158217623829842,-0.0270969215780497,-0.0416615381836891,-0.0233425535261631,0.0129161840304732,-0.0407050177454948
781,-0.157410979270935,-0.0255954973399639,-0.0378554947674274,-0.0188532955944538,0.0190990660339594,-0.0321994386613369
782,-0.15817865729332,-0.0241336263716221,-0.0351563543081284,-0.0136063145473599,0.0157122313976288,-0.0226455945521593
783,-0.158264383673668,-0.0206048060208559,-0.0307824667543173,-0.00657680723816156,0.00694231642410159,-0.0120468828827143
784,-0.158421605825424,-0.0162854287773371,-0.0271958690136671,-0.000580611173063517,-0.00343198492191732,-0.00477600935846567
785,-0.159784391522408,-0.0167894903570414,-0.0270741935819387,0.00138277281075716,-0.0120080411434174,-0.0046581132337451
786,-0.161260157823563,-0.0239295735955238,-0.0280835144221783,5.30485158378724E-06,-0.0131729729473591,-0.0107154352590442
787,-0.161819472908974,-0.0328685790300369,-0.0251450035721064,-0.0023282915353775,-0.00455723702907562,-0.0202646702528
788,-0.161813884973526,-0.0386410430073738,-0.0174667425453663,-0.0043908036313951,0.0078391507267952,-0.0311650950461626
789,-0.162925183773041,-0.0420000441372395,-0.0121907684952021,-0.00823222752660513,0.0149421514943242,-0.0435848124325275
790,-0.16576212644577,-0.044587753713131,-0.0139856114983559,-0.014244107529521,0.0145470388233662,-0.0570516549050808
791,-0.169185414910316,-0.045807309448719,-0.0201329328119755,-0.0194305554032326,0.00997877679765224,-0.0688448622822762
792,-0.17364002764225,-0.0470114536583424,-0.0279134102165699,-0.0231597069650888,0.00328085874207318,-0.077691338956356
793,-0.180400222539902,-0.0504082217812538,-0.0356654264032841,-0.0265157893300056,-0.00332328281365335,-0.0831105038523674
794,-0.189526990056038,-0.0570775046944618,-0.0435983166098595,-0.030788728967309,-0.008104526437819,-0.0855515003204346
795,-0.197770565748215,-0.065713107585907,-0.0524725243449211,-0.0356658510863781,-0.0105998562648892,-0.0861579552292824
796,-0.198649853467941,-0.071587473154068,-0.0588949359953403,-0.03720997646451,-0.00863211695104837,-0.0825910866260529
797,-0.19024170935154,-0.0719392001628876,-0.0594016797840595,-0.0334124155342579,-0.00208037928678095,-0.0701821446418762
798,-0.177844971418381,-0.0694959685206413,-0.0547785498201847,-0.0275837127119303,0.00463589327409863,-0.0493051521480083
799,-0.167241752147675,-0.0684885755181313,-0.0482891723513603,-0.0231061317026615,0.00854260474443436,-0.0283102467656136
800,-0.161156341433525,-0.0713208615779877,-0.0438403896987438,-0.0208708588033915,0.0101544801145792,-0.0180758517235518
801,-0.159222692251205,-0.0766700729727745,-0.0437621958553791,-0.020741393789649,0.00935404188930988,-0.0232552066445351
802,-0.157743453979492,-0.0796361789107323,-0.0465653017163277,-0.0204419735819101,0.00583206489682198,-0.0366690568625927
803,-0.152924060821533,-0.0765551850199699,-0.0475858747959137,-0.0162766333669424,0.00190803688019514,-0.0459845662117004
804,-0.145896509289742,-0.0689355656504631,-0.0445366315543652,-0.0087856650352478,-0.00149203615728766,-0.0477028451859951
805,-0.14115896821022,-0.0616809204220772,-0.0403363257646561,-0.00313237286172807,-0.00675874901935458,-0.0477905347943306
806,-0.140670910477638,-0.057896189391613,-0.0376514159142971,-0.00177698291372508,-0.0137807689607143,-0.0503595620393753
807,-0.143167525529861,-0.0572172924876213,-0.0363022908568382,-0.00339165236800909,-0.020019106566906,-0.0543565005064011
808,-0.146230086684227,-0.0578614696860313,-0.0348930880427361,-0.00631842482835054,-0.0237236339598894,-0.0574470981955528
809,-0.146521851420403,-0.058027409017086,-0.0320498049259186,-0.00834114383906126,-0.0232545901089907,-0.0573870502412319
810,-0.141485258936882,-0.0565394274890423,-0.0283133517950773,-0.00771546550095081,-0.0179504547268152,-0.0526672787964344
811,-0.132560178637505,-0.0539175532758236,-0.0260470900684595,-0.00558431912213564,-0.0101516637951136,-0.0447403118014336
812,-0.124972850084305,-0.0525188259780407,-0.0275532752275467,-0.00484316656365991,-0.00384182925336063,-0.037951547652483
813,-0.12288061529398,-0.0541985332965851,-0.0321447439491749,-0.00680437404662371,0.00065282144350931,-0.0361100025475025
814,-0.125647321343422,-0.0584844648838043,-0.0359527170658112,-0.0110357189550996,0.00669680535793304,-0.040282879024744
815,-0.129928782582283,-0.063292570412159,-0.0363943614065647,-0.0163927506655455,0.0147270262241364,-0.0477496311068535
816,-0.133118063211441,-0.0662569925189018,-0.0336134731769562,-0.0202265530824661,0.0220839697867632,-0.0526975020766258
817,-0.133692264556885,-0.0660043805837631,-0.0287910439074039,-0.0199576281011105,0.027147363871336,-0.0510684326291084
818,-0.13122521340847,-0.0630684345960617,-0.0240299813449383,-0.0161072127521038,0.02855559065938,-0.0434588044881821
819,-0.126404851675034,-0.0587886497378349,-0.0214066151529551,-0.0113282389938831,0.0256615281105042,-0.0325821973383427
820,-0.119766600430012,-0.0536526367068291,-0.0208198297768831,-0.00711412681266665,0.0200500283390284,-0.0209565982222557
821,-0.112222954630852,-0.0481461472809315,-0.0214094594120979,-0.00387023598887026,0.0127766504883766,-0.0114160841330886
822,-0.105653628706932,-0.0438046231865883,-0.0227949917316437,-0.00220166565850377,0.00478788139298558,-0.00696160877123475
823,-0.101657442748547,-0.0418225228786469,-0.0238714870065451,-0.00241646892391145,-0.00131195189896971,-0.00859378930181265
824,-0.100068233907223,-0.0410214848816395,-0.0228982288390398,-0.00285850907675922,-0.00315250013954937,-0.0136554762721062
825,-0.0996530801057816,-0.0396512560546398,-0.0189626384526491,-0.00158430193550885,-0.000490715319756418,-0.0187984071671963
826,-0.101205058395863,-0.0392111726105213,-0.015102731063962,-0.00137140811420977,0.00281549524515867,-0.0246930923312902
827,-0.102807685732841,-0.0389026142656803,-0.012946848757565,-0.00298010371625423,0.00571632478386164,-0.0296356733888388
828,-0.0981720387935638,-0.0330561883747578,-0.00815435778349638,-0.000156071095261723,0.0144936805590987,-0.0266246907413006
829,-0.0867028459906578,-0.0215375106781721,0.000658792734611779,0.00905335694551468,0.0308695789426565,-0.0152437128126621
830,-0.0740332081913948,-0.0103337643668056,0.00976956076920033,0.0198768880218267,0.0480520203709602,-0.00282347202301025
831,-0.0640493407845497,-0.00238935044035316,0.0163310430943966,0.0290574338287115,0.0593877732753754,0.00575774954631925
832,-0.0564255118370056,0.00398402148857713,0.0203453097492456,0.03646569699049,0.0630897134542465,0.0109795918688178
833,-0.0501885786652565,0.00948169827461243,0.022508854046464,0.0409048721194267,0.0601271502673626,0.0133969690650702
834,-0.0451670624315739,0.0131021328270435,0.0236584134399891,0.041126374155283,0.0534487850964069,0.0132275205105543
835,-0.040550384670496,0.0156389437615871,0.0244626458734274,0.0391741469502449,0.0471630282700062,0.013466733507812
836,-0.035472322255373,0.0185846891254187,0.0238431245088577,0.0374925211071968,0.0426104068756104,0.0168412774801254
837,-0.0299299173057079,0.0218907129019499,0.0207989513874054,0.035773154348135,0.0384032651782036,0.0222112834453583
838,-0.0254511423408985,0.0233419835567474,0.0149384615942836,0.0313401892781258,0.0320586189627647,0.0246698074042797
839,-0.0226684249937534,0.0216748267412186,0.008008630014956,0.0235861614346504,0.0239328928291798,0.0210067220032215
840,-0.0198728386312723,0.018826462328434,0.00467875087633729,0.015851117670536,0.0187276098877192,0.0137737030163407
841,-0.0153376366943121,0.0175567045807838,0.00809232518076897,0.0120446691289544,0.020129868760705,0.00854494329541922
842,-0.00867653638124466,0.019384341314435,0.0168923363089561,0.013679338619113,0.0277032069861889,0.00935121811926365
843,-0.00149383360985667,0.0234507322311401,0.0264041293412447,0.0182563364505768,0.0376238115131855,0.0154939666390419
844,0.00465232040733099,0.028081962838769,0.0331526473164558,0.0223427060991526,0.0457857511937618,0.0240947660058737
845,0.00865997653454542,0.0311668161302805,0.0350827015936375,0.023442717269063,0.0482346042990685,0.0316125303506851
846,0.00828089192509651,0.030340975150466,0.0308908019214869,0.0195086561143398,0.041910283267498,0.033547829836607
847,0.00404885224997997,0.0275166314095259,0.0247410796582699,0.0129783349111676,0.0306029357016087,0.0304837804287672
848,-0.00159655418246984,0.025117302313447,0.0209697857499123,0.00707467505708337,0.0196807682514191,0.0257961861789227
849,-0.00813711620867252,0.0218405667692423,0.0179754644632339,0.000995004782453179,0.00920189823955297,0.0196496769785881
850,-0.013727449811995,0.0187277588993311,0.0147360619157553,-0.00383569626137614,0.000719395815394819,0.0139914760366082
851,-0.0154902245849371,0.0190736595541239,0.0130261974409223,-0.00369391310960054,-0.00182786711957306,0.0133142210543156
852,-0.0139879956841469,0.0228495746850967,0.0133761838078499,0.00113211304415017,0.00160171836614609,0.0184468626976013
853,-0.0130810048431158,0.0265147034078836,0.0135286543518305,0.00581998750567436,0.00677984626963735,0.0246217381209135
854,-0.0141643509268761,0.0282087158411741,0.0124458950012922,0.00715063093230128,0.0116658424958587,0.0275909453630447
855,-0.0142706530168653,0.0304083023220301,0.0128266755491495,0.00745861418545246,0.018519090488553,0.0287622511386871
856,-0.0114326346665621,0.0352738983929157,0.0163277257233858,0.00979751907289028,0.0271311532706022,0.0308598279953003
857,-0.00588088575750589,0.0422048084437847,0.022383701056242,0.0145866442471743,0.0349841080605984,0.034664411097765
858,0.000961014709901065,0.0486611053347588,0.0289726927876472,0.0197294522076845,0.0404856838285923,0.0390790477395058
859,0.00699298037216067,0.0517152473330498,0.0331834964454174,0.0219321325421333,0.04277328774333,0.0414459779858589
860,0.0109991496428847,0.0511284433305264,0.034383375197649,0.020505528897047,0.0431807674467564,0.0407986044883728
861,0.0118003878742456,0.0489974431693554,0.0337132774293423,0.0177100524306297,0.0437514111399651,0.039045050740242
862,0.00761699490249157,0.0459507592022419,0.0308797899633646,0.0143587160855532,0.044323168694973,0.0365903303027153
863,-0.000192639272427186,0.041682992130518,0.0256201326847076,0.00979264918714762,0.0435273163020611,0.0319970361888409
864,-0.00576454726979136,0.037789911031723,0.0215496215969324,0.00552387489005923,0.0417828448116779,0.0270825885236263
865,-0.00839169789105654,0.0337719358503819,0.0214323978871107,0.00157882552593946,0.0403314344584942,0.0234210100024939
866,-0.0141985490918159,0.0270430855453014,0.0226691365242004,-0.00420618848875165,0.0408954657614231,0.019415095448494
867,-0.0247467700392008,0.0185232181102037,0.0224167127162218,-0.0108247231692076,0.0453675985336304,0.0150808794423938
868,-0.0380740948021412,0.0102363592013717,0.0187636855989695,-0.0166259817779064,0.0500540845096111,0.0110915089026093
869,-0.0538009293377399,0.00312505848705769,0.00989593472331762,-0.0213043559342623,0.0487669222056866,0.00789845921099186
870,-0.0690071508288383,-0.0015248532872647,-0.00236745807342231,-0.023900119587779,0.0408487133681774,0.00665364414453506
871,-0.0785198509693146,-0.00238714786246419,-0.0128120435401797,-0.023347083479166,0.0301152020692825,0.00780599797144532
872,-0.0821583941578865,0.000599219987634569,-0.0177764724940062,-0.0201468579471111,0.0204335115849972,0.010405495762825
873,-0.085229717195034,0.0057124262675643,-0.0173824615776539,-0.0163971222937107,0.0148003613576293,0.0130180483683944
874,-0.0905281528830528,0.011551252566278,-0.0124839833006263,-0.0127302948385477,0.0158178154379129,0.0160450600087643
875,-0.0984702184796333,0.016093211248517,-0.00567403715103865,-0.0100461700931191,0.0209720749408007,0.0180436298251152
876,-0.110534064471722,0.016695249825716,-0.0013718189438805,-0.0107831247150898,0.0237647145986557,0.0148799894377589
877,-0.125930264592171,0.0140182990580797,-0.000350289919879287,-0.0141951469704509,0.0223795101046562,0.00681458413600922
878,-0.140842601656914,0.0105155622586608,-0.000934490351937711,-0.0171011239290237,0.0195870250463486,-0.00159682088997215
879,-0.151315629482269,0.00735998712480068,-0.00238990900106728,-0.0179156009107828,0.0180261470377445,-0.00679182820022106
880,-0.155873626470566,0.00511724315583706,-0.00463108671829104,-0.016968872398138,0.0177594870328903,-0.00824989750981331
881,-0.155998423695564,0.00371889164671302,-0.00850126799196005,-0.0160472430288792,0.0160605888813734,-0.00888239871710539
882,-0.153023764491081,0.00245703966356814,-0.0143579859286547,-0.0171182956546545,0.0116704665124416,-0.0125015135854483
883,-0.146434113383293,0.00167149177286774,-0.0198727063834667,-0.0199326183646917,0.00780363846570253,-0.019470039755106
884,-0.136092290282249,0.00284635089337826,-0.0217503979802132,-0.0222270227968693,0.00953191146254539,-0.0264294240623713
885,-0.124028094112873,0.0058386642485857,-0.0197012517601252,-0.0230554547160864,0.0186952725052834,-0.0310866739600897
886,-0.112459592521191,0.00889841094613075,-0.0165591109544039,-0.0237734746187925,0.0313005447387695,-0.0339852757751942
887,-0.101152405142784,0.0128338616341352,-0.0133859552443028,-0.024042334407568,0.0418543666601181,-0.0329732857644558
888,-0.0905493870377541,0.0191508084535599,-0.0094685684889555,-0.0224682744592428,0.0469307452440262,-0.0253779105842113
889,-0.0830101147294044,0.0255516543984413,-0.00622034631669521,-0.0206187032163143,0.0452729910612106,-0.0155558558180928
890,-0.0777912959456444,0.02953808195889,-0.00539256911724806,-0.0197929553687572,0.0399346686899662,-0.00958253722637892
891,-0.0729506090283394,0.0306493584066629,-0.00817614793777466,-0.0201776158064604,0.0339375659823418,-0.00942864827811718
892,-0.0681305229663849,0.0305290631949902,-0.0132373217493296,-0.0213472042232752,0.0281500201672316,-0.0121710747480392
893,-0.0624067150056362,0.0331717021763325,-0.0153184682130814,-0.0203494559973478,0.0261523891240358,-0.0113359866663814
894,-0.0557102300226688,0.0399586297571659,-0.0123678594827652,-0.0159907136112452,0.0299469903111458,-0.00510901352390647
895,-0.0492692962288857,0.0479125007987022,-0.00757029186934233,-0.0110415304079652,0.0357673689723015,0.00103557831607759
896,-0.0444368906319141,0.0534689053893089,-0.00458490941673517,-0.00881277490407228,0.0380753204226494,0.00118601706344634
897,-0.0416693650186062,0.0561637729406357,-0.00432299263775349,-0.00940507650375366,0.035093117505312,-0.00423750514164567
898,-0.0401484034955502,0.0568276755511761,-0.00657668383792043,-0.0110056065022945,0.0286444835364819,-0.0111413411796093
899,-0.0401960350573063,0.0540335588157177,-0.0126522928476334,-0.0142090860754251,0.0197916384786367,-0.0188163574784994
900,-0.0420418940484524,0.0490244626998901,-0.0199653226882219,-0.0181075241416693,0.0114537579938769,-0.0259886588901281
901,-0.0427363179624081,0.0482604429125786,-0.0219231825321913,-0.0175299178808928,0.00928027369081974,-0.0264925081282854
902,-0.0396854765713215,0.054482989013195,-0.0179061740636826,-0.0107213919982314,0.0143297743052244,-0.0175782702863216
903,-0.0344965904951096,0.0630052015185356,-0.0133237242698669,-0.00207773107104003,0.0221728682518005,-0.00460613844916224
904,-0.0303538162261248,0.0686224550008774,-0.0124395852908492,0.00321577629074454,0.0282013863325119,0.0044489037245512
905,-0.0295090712606907,0.0694693475961685,-0.0165575724095106,0.00216963631100953,0.0294899363070726,0.00364950858056545
906,-0.031719695776701,0.0679921731352806,-0.0221263468265533,-0.00302644353359938,0.0287045817822218,-0.00595104927197099
907,-0.0332417190074921,0.0698190778493881,-0.0222708359360695,-0.00580085581168532,0.0331411138176918,-0.0163256730884314
908,-0.0318450666964054,0.076069176197052,-0.0160538293421268,-0.004469801671803,0.042458537966013,-0.0231780428439379
909,-0.0280926935374737,0.0833740234375,-0.00767088308930397,-0.00213966658338904,0.0499497316777706,-0.0271571408957243
910,-0.0216593407094479,0.0904748067259789,0.0016768341884017,0.00137276749592274,0.0546926558017731,-0.0262920632958412
911,-0.0139686837792397,0.0957474708557129,0.0105934850871563,0.00625059846788645,0.0588488653302193,-0.0200850013643503
912,-0.00878074672073126,0.0969538614153862,0.0157596617937088,0.00961392186582088,0.0611964203417301,-0.012050423771143
913,-0.00689812982454896,0.0957465693354607,0.0173372533172369,0.0106646278873086,0.0598717406392097,-0.00411364110186696
914,-0.00469640083611012,0.0958638861775398,0.0182630382478237,0.0121136819943786,0.0567804835736752,0.00426660245284438
915,0.00159152143169194,0.0982791855931282,0.0193659272044897,0.0154874389991164,0.0549959763884544,0.0121814906597137
916,0.0123171973973513,0.100989565253258,0.018924992531538,0.0187571123242378,0.0537539422512054,0.0162570085376501
917,0.0256184265017509,0.103111907839775,0.0167844705283642,0.0204381886869669,0.0513196960091591,0.0156599786132574
918,0.0395290888845921,0.105233378708363,0.0151930628344417,0.0213026739656925,0.0491305440664291,0.0131790358573198
919,0.052521850913763,0.106917299330235,0.0156239327043295,0.0219605974853039,0.0502574443817139,0.0111681278795004
920,0.0633945316076279,0.106746643781662,0.017561798915267,0.0219080373644829,0.0548151917755604,0.00970977265387774
921,0.0715133100748062,0.104746423661709,0.0204778164625168,0.0210526920855045,0.0593074411153793,0.00838087312877178
922,0.0782086029648781,0.103515930473804,0.0250324569642544,0.021199693903327,0.0619091242551804,0.00831265095621347
923,0.085795596241951,0.104985617101192,0.0304980743676424,0.0236702561378479,0.063032329082489,0.0103132734075189
924,0.0936371013522148,0.107660084962845,0.0331930108368397,0.0260545276105404,0.0609260089695454,0.012097081169486
925,0.0995179489254951,0.108985401690006,0.0310729742050171,0.0247683264315128,0.0537694320082664,0.0101744448766112
926,0.104620814323425,0.108666367828846,0.0282091535627842,0.0204325150698423,0.0445311851799488,0.00483033806085587
927,0.110946394503117,0.106423802673817,0.0275656338781118,0.0145903285592794,0.0367395803332329,-0.00269542075693607
928,0.117300234735012,0.100613601505756,0.0246456488966942,0.005670634098351,0.0310284495353699,-0.0137676708400249
929,0.123869828879833,0.0942354276776314,0.0178366061300039,-0.00362408463843167,0.0307150240987539,-0.024893069639802
930,0.133900508284569,0.0945145711302757,0.0143265435472131,-0.00520663615316153,0.0401350744068623,-0.0275010913610458
931,0.146729856729507,0.102581210434437,0.0190859697759151,0.00281487382017076,0.0562743544578552,-0.0194447468966246
932,0.157030791044235,0.111420087516308,0.0275626908987761,0.0133098559454083,0.0698265954852104,-0.00701700011268258
933,0.162691175937653,0.11593334376812,0.0332847870886326,0.0206625945866108,0.0749858990311623,0.00469811772927642
934,0.166811779141426,0.11819002777338,0.0360184237360954,0.0260501317679882,0.0740387886762619,0.0159889198839664
935,0.171329006552696,0.120707176625729,0.0384631939232349,0.0308307819068432,0.0706864669919014,0.0269243270158768
936,0.175467491149902,0.122249566018581,0.0416287481784821,0.0334925651550293,0.0666483789682388,0.0355034880340099
937,0.179458498954773,0.12182942032814,0.0451572462916374,0.0335934869945049,0.0642647296190262,0.0401581712067127
938,0.18486699461937,0.121394991874695,0.0480480715632439,0.0328812524676323,0.0644188225269318,0.040138702839613
939,0.192270696163177,0.123398594558239,0.0496428683400154,0.0330921970307827,0.065755195915699,0.0362327881157398
940,0.199792847037315,0.126931205391884,0.0494735538959503,0.0334641523659229,0.0678963363170624,0.029362129047513
941,0.206988885998726,0.130694925785065,0.0487910360097885,0.0339042991399765,0.0734531655907631,0.0217706095427275
942,0.215498566627502,0.135016486048698,0.0489871129393578,0.0362062752246857,0.0829851031303406,0.0174449682235718
943,0.223959177732468,0.1387939453125,0.0480169393122196,0.0394199527800083,0.0907769128680229,0.0170194357633591
944,0.22934202849865,0.141313299536705,0.0447640717029572,0.0412709414958954,0.0919217318296433,0.0179759990423918
945,0.231166437268257,0.142874136567116,0.0413007400929928,0.0409393422305584,0.0864338576793671,0.0175451319664717
946,0.231659725308418,0.143470972776413,0.0400841236114502,0.0393376722931862,0.0764815658330917,0.0153511082753539
947,0.2330332249403,0.143429011106491,0.041314821690321,0.0380564145743847,0.0649532526731491,0.0136034265160561
948,0.235186085104942,0.142204701900482,0.0416094996035099,0.0366951525211334,0.0541182644665241,0.0134089281782508
949,0.238180726766586,0.14003112912178,0.0396260358393192,0.0352757982909679,0.0468627847731113,0.01641552336514
950,0.243463292717934,0.13985650241375,0.0390705280005932,0.03608563169837,0.046926736831665,0.0248553305864334
951,0.250513106584549,0.143229052424431,0.0425562784075737,0.0395551919937134,0.0540781505405903,0.036047138273716
952,0.257555454969406,0.148612037301064,0.0493130162358284,0.0442766845226288,0.0634238198399544,0.0452403128147125
953,0.263524204492569,0.152976155281067,0.0565336421132088,0.048556063324213,0.0693470761179924,0.0503682307898998
954,0.268524587154388,0.152876242995262,0.0606597140431404,0.0496721267700195,0.069379448890686,0.0504406355321407
955,0.272160261869431,0.14584182202816,0.0590601414442062,0.0450530499219894,0.0643686950206757,0.0436459258198738
956,0.270635068416595,0.131946951150894,0.0505914874374866,0.0342525839805603,0.0550748780369759,0.029575290158391
957,0.262240320444107,0.115583099424839,0.0368830375373363,0.0215801447629929,0.0421984903514385,0.0149269010871649
958,0.252825081348419,0.103945605456829,0.0238383375108242,0.0148390978574753,0.0298429075628519,0.0108185475692153
959,0.247938975691795,0.100395634770393,0.0173255149275064,0.016303900629282,0.0229023043066263,0.0190422721207142
960,0.246807545423508,0.101900644600391,0.016564954072237,0.0200788211077452,0.0221238657832146,0.0294221118092537
961,0.247351974248886,0.105200655758381,0.0182919818907976,0.0222745928913355,0.0256926696747541,0.0339193530380726
962,0.248815506696701,0.109747551381588,0.0226022340357304,0.024828327819705,0.030514458194375,0.0330128744244576
963,0.250774264335632,0.115136116743088,0.029805451631546,0.029298972338438,0.0333539843559265,0.0304135773330927
964,0.251524865627289,0.118692956864834,0.0370488427579403,0.0331926792860031,0.0316343232989311,0.028084933757782
965,0.248317375779152,0.11659999191761,0.0406909696757793,0.0326789245009422,0.0237121433019638,0.0249568652361631
966,0.241835534572601,0.109384387731552,0.0405107624828815,0.0279501713812351,0.0129433069378138,0.0204519629478455
967,0.236092180013657,0.101725682616234,0.0391568839550018,0.0228807143867016,0.00620251940563321,0.0161763243377209
968,0.232973217964172,0.0960743576288223,0.0382571630179882,0.0201282277703285,0.00584270758554339,0.0130095677450299
969,0.230330318212509,0.0906270816922188,0.0365031622350216,0.018303144723177,0.00735284620895982,0.0101802693679929
970,0.22691510617733,0.0842036306858063,0.033572968095541,0.0154435439035296,0.00721745425835252,0.00791860558092594
971,0.223364293575287,0.0775920376181602,0.0315594896674156,0.0117004942148924,0.00637532118707895,0.00630569644272327
972,0.21884061396122,0.072485163807869,0.0318499207496643,0.00875266827642918,0.00685418676584959,0.00567957339808345
973,0.213279649615288,0.0719614773988724,0.033959124237299,0.00913905072957277,0.0103064710274339,0.00914922915399075
974,0.209374934434891,0.0758858546614647,0.0356749705970287,0.012700779363513,0.0148439146578312,0.0176264457404613
975,0.208932474255562,0.080707736313343,0.0361639186739922,0.0171459633857012,0.0155869824811816,0.0278841163963079
976,0.208775550127029,0.0829882919788361,0.0355805084109306,0.0194524060934782,0.00838495790958405,0.034685667604208
977,0.205070286989212,0.0812160223722458,0.0342307090759277,0.0175394061952829,-0.00670962454751134,0.0350948721170425
978,0.198604464530945,0.0770874917507172,0.0329240076243877,0.0133447246626019,-0.0247237309813499,0.0325003005564213
979,0.192748934030533,0.0728375613689423,0.0311575867235661,0.0105127673596144,-0.0398410260677338,0.0326368995010853
980,0.190472200512886,0.0697868764400482,0.0294614639133215,0.0115428045392036,-0.0467670001089573,0.0382583811879158
981,0.189811944961548,0.0661698430776596,0.0269702486693859,0.0137575501576066,-0.0443664714694023,0.0441759750247002
982,0.183898061513901,0.0563456006348133,0.0186163280159235,0.00956675596535206,-0.0396167747676373,0.039603304117918
983,0.171470269560814,0.0398313216865063,0.0046208743005991,-0.00222401134669781,-0.0384148508310318,0.0222600214183331
984,0.159328997135162,0.024013290181756,-0.00682278629392385,-0.0139603521674871,-0.0385286621749401,0.00197477685287595
985,0.151962175965309,0.0149037037044764,-0.00962851382791996,-0.0193830374628305,-0.0370438173413277,-0.0108681498095393
986,0.147284060716629,0.0138601362705231,-0.00445426581427455,-0.0182617697864771,-0.0354911051690578,-0.012997480109334
