,AF3,AF4,Fp1,Fp2,AF7,AF8
0,-0.0268525760620832,0.0113588077947497,0.00647132704034448,0.0241394359618425,0.00718576414510608,0.00218207249417901
1,-0.0227242652326822,0.0125653631985188,0.00514022260904312,0.0244455207139254,0.00718017620965838,0.0053731631487608
2,-0.0176765695214272,0.0107691837474704,0.00400571199133992,0.0230178870260715,0.00797130446881056,0.00923149473965168
3,-0.0139135159552097,0.00702582113444805,0.00291334884241223,0.0207433346658945,0.00796423759311438,0.0116347903385758
4,-0.0133450105786324,0.00207873433828354,0.00118029105942696,0.0183284059166908,0.00487267645075917,0.00821362063288689
5,-0.0145759610459208,-0.00222896621562541,-0.000418740703025833,0.0169937629252672,-0.000225703901378438,-0.000315363547997549
6,-0.0163696277886629,-0.00401108525693417,-0.000661024532746524,0.0175502747297287,-0.00475558172911406,-0.00902981590479612
7,-0.018771655857563,-0.00361240492202342,0.000536368635948747,0.0191570091992617,-0.0073373056948185,-0.0150837833061814
8,-0.021266020834446,-0.00228677061386406,0.0028393161483109,0.0207743607461452,-0.00745201529935002,-0.0182494055479765
9,-0.0243437085300684,-0.000492647115606815,0.00548053160309792,0.022026939317584,-0.00501398043707013,-0.0187292098999023
10,-0.0292638894170523,0.000967175059486181,0.00646163197234273,0.0223207380622625,-0.000574337318539619,-0.0177996978163719
11,-0.0353086106479168,0.00105932424776256,0.00439232215285301,0.0209675133228302,0.00373055669479072,-0.017555370926857
12,-0.0400128811597824,0.000309594324789941,0.000408700172556564,0.0187638811767101,0.00536917615681887,-0.0175827741622925
13,-0.0424005165696144,-0.000685243983753026,-0.00343664968386292,0.0168035291135311,0.00388426519930363,-0.0156392883509398
14,-0.0435147918760777,-0.00206685159355402,-0.00637064594775438,0.0146143836900592,0.000102793033875059,-0.0122533906251192
15,-0.0433681048452854,-0.00249386602081358,-0.00765326805412769,0.0127536281943321,-0.00435439636930823,-0.00951750669628382
16,-0.0406911373138428,9.59783646976575E-05,-0.00495397066697478,0.0137117030099034,-0.00675876624882221,-0.00733627332374454
17,-0.0359662622213364,0.00548700336366892,0.00218060100451112,0.0181639399379492,-0.00603294419124722,-0.00521343620494008
18,-0.0318139865994453,0.0111648244783282,0.00963633321225643,0.0234904158860445,-0.00390667701140046,-0.00393536360934377
19,-0.0310297533869743,0.0138548510149121,0.0129189621657133,0.0258340444415808,-0.0019789538346231,-0.00472370954230428
20,-0.0342239700257778,0.0123342359438539,0.0123959677293897,0.0239187255501747,0.000451665866421536,-0.00738868024200201
21,-0.0388129949569702,0.00912523362785578,0.0111683458089828,0.0200154911726713,0.0047088279388845,-0.00939847063273191
22,-0.0416405871510506,0.00655639683827758,0.00972241908311844,0.0161392167210579,0.00966498348861933,-0.00957174133509398
23,-0.0397836901247501,0.00546000199392438,0.0074861696921289,0.0138702113181353,0.0132111217826605,-0.00822959933429956
24,-0.0316721424460411,0.00653551192954183,0.00530739920213819,0.0149170402437449,0.0146126747131348,-0.00473817577585578
25,-0.0216284357011318,0.00825290195643902,0.00261316285468638,0.0174898412078619,0.0121222324669361,-0.000180745948455296
26,-0.0155546264722943,0.00868180580437183,-0.00104006240144372,0.0180808305740356,0.00478735519573092,0.00234177289530635
27,-0.0121092600747943,0.0100106000900269,-0.00136712146922946,0.0178549624979496,-0.00211370014585555,0.00244382745586336
28,-0.00695298099890351,0.0153811993077397,0.00508365640416741,0.0207265689969063,-0.00186167925130576,0.00293151498772204
29,-0.000697049661539495,0.023612642660737,0.0152981234714389,0.0267587676644325,0.00605126051232219,0.00464675296097994
30,0.00246857386082411,0.0303482245653868,0.0237516146153212,0.0313696749508381,0.0171900447458029,0.0046398458071053
31,0.000764011929277331,0.0335118770599365,0.0271271523088217,0.0314454212784767,0.027765391394496,0.00180387613363564
32,-0.00432853074744344,0.0339299961924553,0.0249825827777386,0.0279060546308756,0.0363571867346764,-0.00187106349039823
33,-0.0113895889371634,0.0319449678063393,0.0189066436141729,0.021885784342885,0.0422603227198124,-0.00599295739084482
34,-0.0207090135663748,0.0260593574494123,0.00921269785612822,0.0124263251200318,0.0415917262434959,-0.013251431286335
35,-0.0325437411665916,0.0150428656488657,-0.00495988689363003,-0.000703994825016707,0.0297251734882593,-0.0242085531353951
36,-0.041657816618681,0.00405436800792813,-0.0177022274583578,-0.0105840293690562,0.0136381322517991,-0.0297656953334808
37,-0.0413704141974449,9.50316098169424E-05,-0.0207393188029528,-0.00937317032366991,0.00597464945167303,-0.0212607271969318
38,-0.0335635356605053,0.00157505623064935,-0.0162150114774704,-0.000793674727901816,0.00634734705090523,-0.00529283424839377
39,-0.0252267345786095,0.00243622553534806,-0.0125159984454513,0.00497772032395005,0.00503011420369148,0.00459856493398547
40,-0.0192515924572945,0.00124647468328476,-0.0120813921093941,0.00455639511346817,-0.00149137387052178,0.00363282230682671
41,-0.0147201074287295,0.0013530298601836,-0.010581661015749,0.00281577557325363,-0.00903509277850389,-0.00274631869979203
42,-0.0117520559579134,0.00508994376286864,-0.00505818799138069,0.00383723410777748,-0.0137623269110918,-0.00818241573870182
43,-0.0112247113138437,0.0110970204696059,0.00237146159633994,0.00692912051454186,-0.0153678059577942,-0.0107712205499411
44,-0.0120620280504227,0.0176508147269487,0.00863565597683191,0.0109680565074086,-0.0149897094815969,-0.0110370684415102
45,-0.0133343730121851,0.0230320617556572,0.0120535772293806,0.014411904849112,-0.0146591635420918,-0.0117664616554976
46,-0.0162197854369879,0.0244828499853611,0.0120055358856916,0.0142596233636141,-0.0167634561657906,-0.0162489544600248
47,-0.020704111084342,0.0218594949692488,0.00943195354193449,0.0102806333452463,-0.0202564615756273,-0.0233101472258568
48,-0.0251275859773159,0.0176166407763958,0.00485068885609508,0.00463032023981214,-0.0217280853539705,-0.0294982362538576
49,-0.0287846922874451,0.0128737539052963,-0.00281922169961035,-0.00229567498899996,-0.0214401222765446,-0.0343721248209476
50,-0.0313585549592972,0.00777593767270446,-0.0126595487818122,-0.00997903570532799,-0.021499278023839,-0.038793470710516
51,-0.0314914956688881,0.00532940961420536,-0.0184875912964344,-0.01330322958529,-0.0188550669699907,-0.0391764901578426
52,-0.0286097694188356,0.00884433556348085,-0.0143464459106326,-0.00793914776295424,-0.00991310831159353,-0.0313439592719078
53,-0.0255128443241119,0.0152072701603174,-0.00338553730398417,0.00137030892074108,0.000193101543118246,-0.0200071968138218
54,-0.0261813029646873,0.0183337964117527,0.00552487513050437,0.00582682574167848,0.00299263373017311,-0.0143032986670733
55,-0.0312714576721191,0.0165801793336868,0.00825529173016548,0.00247464654967189,-0.00190479797311127,-0.0165451522916555
56,-0.038551602512598,0.0116697661578655,0.00657041696831584,-0.00516141066327691,-0.00754824699833989,-0.0219693873077631
57,-0.045566376298666,0.00630238186568022,0.00374397402629256,-0.0115524809807539,-0.00781255587935448,-0.0251747667789459
58,-0.0506982505321503,0.0031252910848707,0.00156727037392557,-0.0135795688256621,-0.00279625505208969,-0.024936581030488
59,-0.0545499324798584,0.00150895875412971,-0.0017279494786635,-0.0137185519561172,0.000886106747202575,-0.0249588061124086
60,-0.0590087324380875,-0.00142077018972486,-0.00874155666679144,-0.0164926070719957,-0.00309094949625432,-0.0291241742670536
61,-0.06391941010952,-0.00565981725230813,-0.0176993664354086,-0.0220722854137421,-0.0138042587786913,-0.0357371047139168
62,-0.0654322504997253,-0.00660919025540352,-0.0213696956634521,-0.0247700661420822,-0.0227715913206339,-0.037418644875288
63,-0.0612161047756672,-0.00140495272353292,-0.0152422646060586,-0.020145645365119,-0.0226235240697861,-0.0295869875699282
64,-0.0556896179914474,0.00566016556695104,-0.00500404927879572,-0.0117965545505285,-0.0158444102853537,-0.0166085008531809
65,-0.0537925362586975,0.00901830941438675,0.000477216759463772,-0.0057866619899869,-0.00941005535423756,-0.0054932008497417
66,-0.0557268857955933,0.00692526018247008,-0.00218068691901863,-0.00478575984016061,-0.0063254227861762,0.000357490876922384
67,-0.060146126896143,0.000490352977067232,-0.0102451052516699,-0.00854264758527279,-0.00555656477808952,0.000702177407220006
68,-0.0663041025400162,-0.00805063080042601,-0.0187545269727707,-0.0156237380579114,-0.00603636540472507,-0.00330506963655353
69,-0.0718641579151154,-0.0155475977808237,-0.0238648820668459,-0.0233522597700357,-0.00714042969048023,-0.00875897333025932
70,-0.0727367326617241,-0.01764852181077,-0.0234910026192665,-0.0269138310104609,-0.00704301008954644,-0.0108239706605673
71,-0.0679796487092972,-0.0132902022451162,-0.0190770551562309,-0.0244525112211704,-0.00602598674595356,-0.00804517976939678
72,-0.0609604492783546,-0.00642712041735649,-0.0151963820680976,-0.0204784106463194,-0.00762295490130782,-0.0049229534342885
73,-0.0548364445567131,-0.00016730185598135,-0.0138912703841925,-0.0192071739584208,-0.0132279973477125,-0.00521657709032297
74,-0.0518948398530483,0.00467102369293571,-0.0136532746255398,-0.0204381346702576,-0.0207562819123268,-0.0087164668366313
75,-0.0532466247677803,0.00752951018512249,-0.0140683064237237,-0.0226248633116484,-0.0279076248407364,-0.0140527635812759
76,-0.0541547648608685,0.0107781123369932,-0.0136595852673054,-0.0228793267160654,-0.0309775695204735,-0.0174577999860048
77,-0.0498269759118557,0.0165244471281767,-0.00993322301656008,-0.0191069208085537,-0.0277208145707846,-0.0156424939632416
78,-0.0422562509775162,0.022403797134757,-0.00387183483690023,-0.0131849450990558,-0.0215229839086533,-0.0100938929244876
79,-0.0346201583743095,0.0252476893365383,0.000732899294234812,-0.00907772220671177,-0.0170914884656668,-0.00513078225776553
80,-0.0299867745488882,0.0222134627401829,-0.00115587993059307,-0.0112522831186652,-0.0179894920438528,-0.00573290465399623
81,-0.0307009089738131,0.0137292705476284,-0.0102299842983484,-0.0196637324988842,-0.0234995223581791,-0.0113143920898438
82,-0.0328435674309731,0.00665552960708737,-0.0193371642380953,-0.027141185477376,-0.0254497360438108,-0.0143318064510822
83,-0.0304781813174486,0.00690765958279371,-0.0215360950678587,-0.027605352923274,-0.0173452906310558,-0.00998199079185724
84,-0.0239985417574644,0.0130939474329352,-0.0162351820617914,-0.0219989810138941,-0.00350792775861919,-0.000447771046310663
85,-0.0181944910436869,0.0198521483689547,-0.00622953148558736,-0.0143086165189743,0.00718343211337924,0.00906685832887888
86,-0.0148173840716481,0.0239808037877083,0.00597824389114976,-0.00619881879538298,0.0129764722660184,0.0155107639729977
87,-0.0134403174743056,0.0249613337218761,0.0163083449006081,0.000702785619068891,0.0169605817645788,0.0183255802839994
88,-0.0147653641179204,0.0225530788302422,0.0188913010060787,0.00257415045052767,0.0179229658097029,0.0169633496552706
89,-0.0176601596176624,0.0177793223410845,0.0126256057992578,-0.00176233134698123,0.012550494633615,0.0120741548016667
90,-0.0190919563174248,0.0131393633782864,0.00338140362873673,-0.00865245517343283,0.00212777801789343,0.0066517717204988
91,-0.0168662443757057,0.0105530228465796,-0.00193374906666577,-0.0132457371801138,-0.00765252998098731,0.00452984636649489
92,-0.0107583701610565,0.0105311321094632,-0.00205473531968892,-0.013499584980309,-0.0120793180540204,0.00690396828576922
93,-0.00293842726387084,0.012999408878386,-0.000922172097489238,-0.0108573930338025,-0.0101438919082284,0.0109712230041623
94,0.00354482629336417,0.0164615288376808,-0.00253344303928316,-0.00912855565547943,-0.00496150460094213,0.0122393472120166
95,0.00784081220626831,0.0187444631010294,-0.00727340625599027,-0.0107221566140652,-0.00179576186928898,0.00904465559870005
96,0.0113847823813558,0.0201076678931713,-0.0111108813434839,-0.013393945991993,-0.00268351938575506,0.00510131195187569
97,0.0145037900656462,0.02185676433146,-0.0101048955693841,-0.0143504766747355,-0.00606077956035733,0.0052618314512074
98,0.0168588906526566,0.0246728472411633,-0.00369347329251468,-0.0128659373149276,-0.00851620547473431,0.0108826924115419
99,0.0198421701788902,0.0292044132947922,0.00654481444507837,-0.00846641883254051,-0.00601844349876046,0.0186624899506569
100,0.0234930459409952,0.0343628600239754,0.0167434606701136,-0.00262152776122093,0.0017313928110525,0.0222041271626949
101,0.0255628079175949,0.0375715382397175,0.0228414256125689,0.0015120132593438,0.0114277843385935,0.017653351649642
102,0.0257625468075275,0.0379212386906147,0.0239694528281689,0.0027456299867481,0.0197849776595831,0.00668415613472462
103,0.0258704870939255,0.0354134365916252,0.0207392759621143,0.00130931311286986,0.0237710326910019,-0.00736390054225922
104,0.0259591806679964,0.0287555139511824,0.0126471854746342,-0.00366882048547268,0.0201821085065603,-0.0226181410253048
105,0.0245079323649406,0.0179966948926449,-0.000653709925245494,-0.0126728322356939,0.00815621670335531,-0.0366965644061565
106,0.0223252661526203,0.00713870208710432,-0.0158855188637972,-0.0228811241686344,-0.00767545867711306,-0.0458758808672428
107,0.0230449214577675,0.00191746570635587,-0.0260607153177261,-0.0292314309626818,-0.0188702419400215,-0.046742919832468
108,0.0283855237066746,0.0051539889536798,-0.0266655255109072,-0.0288567673414946,-0.0201119128614664,-0.0382684171199799
109,0.0357710495591164,0.0139679349958897,-0.0203862190246582,-0.0237524453550577,-0.013866419903934,-0.0243569929152727
110,0.0434113033115864,0.023814857006073,-0.0116965845227242,-0.0168549418449402,-0.00531030772253871,-0.0104773733764887
111,0.0518222413957119,0.0321597531437874,-0.00234463741071522,-0.00911920890212059,0.00338906492106617,0.000325043656630442
112,0.0599364563822746,0.0378228053450584,0.00605513388291001,-0.00125922844745219,0.0119744753465056,0.00728124193847179
113,0.0652999877929688,0.0401961021125317,0.011592504568398,0.00514633720740676,0.0195380486547947,0.0108781168237329
114,0.0655729323625565,0.0381159707903862,0.012873942963779,0.006898935418576,0.0227783061563969,0.00997949298471212
115,0.061631228774786,0.0331630371510983,0.0113350385800004,0.00369635340757668,0.0211009867489338,0.00482668075710535
116,0.0578912571072578,0.0293351374566555,0.0101460451260209,-0.000425167963840067,0.0186322722584009,-0.00134401873219758
117,0.0570442378520966,0.0268816091120243,0.00915437191724777,-0.00378088373690844,0.0167071241885424,-0.00778811704367399
118,0.0585016012191772,0.0238754954189062,0.00690385093912482,-0.00692503433674574,0.0146642085164785,-0.015316036529839
119,0.0597346462309361,0.0205862168222666,0.00395908486098051,-0.00898350588977337,0.0131714353337884,-0.021559676155448
120,0.0583270452916622,0.0185616463422775,0.00148409849498421,-0.00900002289563417,0.0116328382864594,-0.0217060819268227
121,0.0530604608356953,0.0168033894151449,-0.00142668641638011,-0.00892465002834797,0.00769887585192919,-0.0144000537693501
122,0.0450862869620323,0.0139818554744124,-0.00473716063424945,-0.0103667201474309,0.00201256945729256,-0.00314537831582129
123,0.0384082123637199,0.0119231920689344,-0.00568859744817019,-0.0111516145989299,-0.00120610278099775,0.00694443145766854
124,0.0359326526522636,0.0124024758115411,-0.00340263405814767,-0.00898537505418062,0.000497026718221605,0.0120793012902141
125,0.0359910055994987,0.0146985277533531,7.69045072956942E-05,-0.00518711702898145,0.00517810508608818,0.0113482773303986
126,0.0342383608222008,0.0162022113800049,0.0014855619519949,-0.00418707355856895,0.00808878242969513,0.00543374754488468
127,0.0283701792359352,0.014398418366909,-0.0020828964188695,-0.00927947834134102,0.00586899556219578,-0.00451874360442162
128,0.0210376735776663,0.00995129812508821,-0.00978862959891558,-0.0185422338545322,-0.000841182714793831,-0.0161486845463514
129,0.0188963543623686,0.00860815867781639,-0.0146610401570797,-0.0241326913237572,-0.00579193560406566,-0.0235204380005598
130,0.0238295793533325,0.0142425466328859,-0.012059947475791,-0.021013343706727,-0.00380728114396334,-0.0219435878098011
131,0.0303764175623655,0.0231240652501583,-0.00456055719405413,-0.0129341566935182,0.00355291785672307,-0.013549598865211
132,0.0343291983008385,0.0300442092120647,0.00558653939515352,-0.00517731579020619,0.0137486141175032,-0.00350928725674748
133,0.0349183715879917,0.033324558287859,0.016103483736515,0.000262149958871305,0.0240840129554272,0.00407954910770059
134,0.0319884717464447,0.0338903963565826,0.0218072980642319,0.00269569037482142,0.0300851687788963,0.00746670970693231
135,0.0268671177327633,0.0331057384610176,0.0202582329511642,0.00161967170424759,0.0297353658825159,0.00721190636977553
136,0.023042032495141,0.0316466204822063,0.0137586602941155,-0.00247685401700437,0.0251257531344891,0.00483086053282022
137,0.0222365651279688,0.0296387746930122,0.00573408976197243,-0.00792298093438149,0.0193227417767048,0.00167662196327001
138,0.0217673648148775,0.0273699015378952,-0.000984259066171944,-0.013140207156539,0.0137930251657963,-0.00131095899268985
139,0.0200514141470194,0.0267812199890614,-0.00403918465599418,-0.0164661295711994,0.00908047705888748,-0.00171762937679887
140,0.0188259165734053,0.0285720508545637,-0.00370837305672467,-0.0169034320861101,0.00547584611922503,0.00244534597732127
141,0.0178505145013332,0.0298468191176653,-0.00327669642865658,-0.0160504244267941,0.00278978538699448,0.00929849781095982
142,0.0169106498360634,0.0304063204675913,-0.00256974133662879,-0.0144051816314459,0.00264449394308031,0.017642529681325
143,0.0170736163854599,0.0326721705496311,0.00122175284195691,-0.0116288214921951,0.0063083847053349,0.0256661213934422
144,0.0179047454148531,0.0365639477968216,0.00770834041759372,-0.00926938187330961,0.0124904895201325,0.0286996271461248
145,0.0183868203312159,0.0398987419903278,0.0134467827156186,-0.0088595487177372,0.0188751574605703,0.025459723547101
146,0.0177249759435654,0.0400094836950302,0.0144724026322365,-0.0118477735668421,0.0224148780107498,0.0185126066207886
147,0.0160912424325943,0.03624427318573,0.0102298026904464,-0.0182584002614021,0.0216863993555307,0.01049470808357
148,0.0146681992337108,0.0311553198844194,0.00471671065315604,-0.0246817246079445,0.0190846547484398,0.00368322199210525
149,0.0119743151590228,0.0253661684691906,-0.00010672982170945,-0.0296222064644098,0.0153057556599379,-0.00189218518789858
150,0.00385749363340437,0.0157970543950796,-0.00682236673310399,-0.0362994000315666,0.00593350687995553,-0.00911703053861856
151,-0.00794656854122877,0.00431736279278994,-0.0143098961561918,-0.0439793951809406,-0.00796608906239271,-0.0172796063125134
152,-0.0157176125794649,-0.00178961106576025,-0.0180466119199991,-0.0474235713481903,-0.0172638259828091,-0.0219893511384726
153,-0.0151095446199179,0.00116665218956769,-0.0170563198626041,-0.0448583476245403,-0.0162125490605831,-0.0214742571115494
154,-0.00821463949978352,0.0108967674896121,-0.0126611003652215,-0.0383463762700558,-0.00659061828628182,-0.0166579354554415
155,0.000746131525374949,0.0230127591639757,-0.00553896464407444,-0.030278567224741,0.0076359030790627,-0.00897509139031172
156,0.00809207838028669,0.0325506627559662,0.00168955326080322,-0.0235970746725798,0.0226020347326994,-0.00163445086218417
157,0.0109307710081339,0.035501878708601,0.00446183094754815,-0.0218387302011251,0.0337133705615997,0.00158915272913873
158,0.00969652365893126,0.0324613228440285,0.00192328088451177,-0.0252282861620188,0.0387196056544781,0.000647372391540557
159,0.00701356353238225,0.0277054328471422,-0.00216992083005607,-0.0299562644213438,0.0387192666530609,-0.000613994081504643
160,0.0035110330209136,0.0251130312681198,-0.00439522229135036,-0.0323743000626564,0.0351629517972469,0.00169845332857221
161,0.000841718923766166,0.0267351232469082,-0.00320871802978218,-0.0304157417267561,0.0317399837076664,0.00923860445618629
162,0.00238430290482938,0.0326183512806892,0.00203596171922982,-0.0235517118126154,0.0327699780464172,0.0209402702748775
163,0.00464807543903589,0.0375290252268314,0.00717838853597641,-0.0170002225786448,0.0334608964622021,0.03020940721035
164,0.00173507840372622,0.0362661220133305,0.00697084330022335,-0.0165422763675451,0.0268627069890499,0.0316481664776802
165,-0.00403127260506153,0.0321454741060734,0.00304998666979373,-0.0195376984775066,0.0163942668586969,0.0301431268453598
166,-0.00821081083267927,0.0295332446694374,-0.0018898012349382,-0.0218839701265097,0.00688250083476305,0.0317774675786495
167,-0.0115352170541883,0.0267145019024611,-0.00920114759355783,-0.0248695779591799,-0.00354051101021469,0.0337382890284061
168,-0.0151104796677828,0.0223946683108807,-0.0177537575364113,-0.029109438881278,-0.0151628013700247,0.0315817818045616
169,-0.0165895149111748,0.019508445635438,-0.0224749855697155,-0.0311365108937025,-0.0230428241193295,0.0272736549377441
170,-0.0141357164829969,0.0206306632608175,-0.0214464534074068,-0.0282149259001017,-0.0236271303147078,0.0252038985490799
171,-0.00888558570295572,0.0253610052168369,-0.0175579134374857,-0.0213757548481226,-0.0172375794500113,0.026534466072917
172,-0.00228088023141027,0.0321594923734665,-0.0132135571911931,-0.0132237887009978,-0.00528473500162363,0.0295565538108349
173,0.00373730878345668,0.0377125255763531,-0.00905755162239075,-0.00713416608050466,0.00894056260585785,0.0308409128338099
174,0.00445932429283857,0.0357346907258034,-0.0090882945805788,-0.00898194313049316,0.0179294999688864,0.0247580036520958
175,-0.000376327516278252,0.0262012500315905,-0.0158465523272753,-0.0191886201500893,0.0184142682701349,0.0128582092002034
176,-0.00286930520087481,0.0184824299067259,-0.0231360029429197,-0.0283710286021233,0.0168665125966072,0.00647152680903673
177,0.00312525895424187,0.019239004701376,-0.0234896168112755,-0.0284420922398567,0.0199143085628748,0.012349758297205
178,0.0168711505830288,0.026293957605958,-0.0166928805410862,-0.0202557966113091,0.0274370014667511,0.0265090893954039
179,0.0339064747095108,0.0342895500361919,-0.00727552734315395,-0.00971811451017857,0.0357241183519363,0.0412341244518757
180,0.0481317341327667,0.0406686589121819,0.00120901491027325,-0.00112982105929405,0.041039451956749,0.0525254234671593
181,0.0558081492781639,0.0451012030243874,0.00704970816150308,0.00398890115320683,0.0401828251779079,0.0598406977951527
182,0.0598515868186951,0.0487294048070908,0.0116007104516029,0.00724091380834579,0.033880140632391,0.0640786439180374
183,0.0646813437342644,0.053402304649353,0.0177788697183132,0.0117579912766814,0.026867937296629,0.0667144805192947
184,0.0694013237953186,0.0579091608524323,0.024023586884141,0.0165674351155758,0.021459748968482,0.0675695091485977
185,0.0709536895155907,0.0586950927972794,0.0255341865122318,0.0176569707691669,0.0160349924117327,0.0668294280767441
186,0.0693629905581474,0.0543869808316231,0.0213810466229916,0.0137386303395033,0.0103067085146904,0.0657557398080826
187,0.0664290115237236,0.0467393323779106,0.0153332855552435,0.00690260529518127,0.0060236151330173,0.0624153576791286
188,0.0633042678236961,0.0387741848826408,0.0103086186572909,-9.46726722759195E-05,0.00332825374789536,0.0544200390577316
189,0.0605965219438076,0.0327121838927269,0.00545837450772524,-0.00532870087772608,0.00108254724182189,0.0443841554224491
190,0.0595160983502865,0.0294706113636494,-0.000603626249358058,-0.00764446472749114,-0.00107171281706542,0.0372587479650974
191,0.0618666596710682,0.029677951708436,-0.00527129136025906,-0.00626006117090583,-0.00178456981666386,0.0357348173856735
192,0.0665202140808105,0.031453512609005,-0.00605938164517283,-0.00319322478026152,-0.00146964169107378,0.0375977195799351
193,0.0680656507611275,0.0295102633535862,-0.00688262190669775,-0.0039493408985436,-0.00404389156028628,0.0369936227798462
194,0.0634160935878754,0.0216936506330967,-0.0118716936558485,-0.0103727504611015,-0.010252988897264,0.032023411244154
195,0.0556630752980709,0.0119392946362495,-0.019080676138401,-0.0177245680242777,-0.0156579632312059,0.0264106020331383
196,0.0485568642616272,0.00410001026466489,-0.0253631435334682,-0.0218632649630308,-0.0162727255374193,0.0225355196744204
197,0.0443018451333046,-0.000824245100375265,-0.0287963561713696,-0.0220067612826824,-0.0105107147246599,0.0202413778752089
198,0.0452873483300209,-0.00128544587641954,-0.0269062295556068,-0.0176449697464705,0.00124908366706222,0.0211417824029922
199,0.0515009798109531,0.00357762328349054,-0.0200774408876896,-0.00952052604407072,0.014395160600543,0.027453264221549
200,0.0607439875602722,0.0121466163545847,-0.0115125346928835,0.000208599434699863,0.0231431368738413,0.0389374680817127
201,0.0694570764899254,0.0203984286636114,-0.00439480831846595,0.00826701615005732,0.025041788816452,0.0507139079272747
202,0.0726953744888306,0.0231139026582241,-0.00109393172897398,0.0106731401756406,0.0203335639089346,0.0553783141076565
203,0.070791132748127,0.0216550827026367,0.000827615149319172,0.00953323859721422,0.0143632320687175,0.0535360388457775
204,0.0676347687840462,0.0213355235755444,0.00437642028555274,0.0101292412728071,0.0124749438837171,0.0516728758811951
205,0.0651735290884972,0.0230270307511091,0.00853087287396193,0.0134727274999022,0.0134309194982052,0.0517954044044018
206,0.0649077147245407,0.0241596754640341,0.0108096413314343,0.0173308998346329,0.0138889430090785,0.0508166551589966
207,0.0682995542883873,0.0224067438393831,0.00935191381722689,0.0192057657986879,0.0133176799863577,0.045938603579998
208,0.0761426687240601,0.0189570784568787,0.00652094231918454,0.0199658535420895,0.0150011423975229,0.0394948273897171
209,0.0832279473543167,0.0138936704024673,0.00280533311888576,0.0186207182705402,0.017739811912179,0.0327017605304718
210,0.0821155160665512,0.00590184796601534,-0.00532451923936605,0.0119808567687869,0.0150243509560823,0.0235520750284195
211,0.0752264410257339,-0.00100797507911921,-0.0150551944971085,0.00390258245170116,0.00710324151441455,0.0146199511364102
212,0.0694108307361603,-0.00266803568229079,-0.0197900272905827,0.000485801312606782,-0.000464612880023196,0.010191380046308
213,0.0654662474989891,-0.00124977855011821,-0.0186255443841219,0.000899279664736241,-0.00549411261454225,0.00933587178587914
214,0.061448447406292,-0.00108600629027933,-0.0151500459760427,0.00104814337100834,-0.00811166036874056,0.00955157447606325
215,0.0583372414112091,-0.0025243831332773,-0.0114489607512951,0.000857859791722149,-0.00673818588256836,0.0119685176759958
216,0.0583499558269978,-0.00293441698886454,-0.00758361723273993,0.00243298942223191,-8.82891908986494E-05,0.0174453314393759
217,0.0616153925657272,-0.00182344869244844,-0.00385281816124916,0.00550306448712945,0.00964328274130821,0.0231046043336391
218,0.0662980526685715,-0.00161950045730919,-0.000657522003166378,0.00827669724822044,0.0192945636808872,0.0259428322315216
219,0.069531686604023,-0.00542405946180224,-4.94846754008904E-05,0.00853145401924849,0.0253864303231239,0.0250519253313541
220,0.0677075982093811,-0.0149202002212405,-0.00550502119585872,0.00407730834558606,0.0232438836246729,0.0202824976295233
221,0.060885351151228,-0.0272588822990656,-0.0154880899935961,-0.003364113625139,0.0133241331204772,0.0135494573041797
222,0.0552074126899242,-0.0362610220909119,-0.0232960637658834,-0.00829451438039541,0.00295926094986498,0.00812890008091927
223,0.055875089019537,-0.0386415123939514,-0.0248228833079338,-0.00788138993084431,-0.00156526267528534,0.00471769040450454
224,0.0626297742128372,-0.0355904214084148,-0.0205402355641127,-0.00290986080653965,0.000762983108870685,0.00308200437575579
225,0.071633093059063,-0.0308256391435862,-0.0134449489414692,0.00402095448225737,0.00587182398885489,0.00394639000296593
226,0.0780795961618423,-0.0289011280983686,-0.00684777460992336,0.00854016281664371,0.00730779813602567,0.00620609568431973
227,0.0792962163686752,-0.0318967737257481,-0.00210662861354649,0.00773605611175299,0.00283235497772694,0.0064553995616734
228,0.077087938785553,-0.0366479083895683,0.0012210130225867,0.004072240088135,-0.00203033117577434,0.00382622424513102
229,0.0758858919143677,-0.0381052382290363,0.00331752281636,0.00258711050264537,-0.00162253493908793,0.000955727358814329
230,0.077217698097229,-0.0359378941357136,0.00252952217124403,0.00434524845331907,0.00155379844363779,-0.00055822153808549
231,0.0784578993916512,-0.0333226956427097,-0.00191680993884802,0.00710177887231112,0.00234007765538991,-0.000803818227723241
232,0.0773454234004021,-0.0323438569903374,-0.00820180866867304,0.00851774774491787,4.66558485641144E-05,-0.000470214115921408
233,0.0740481689572334,-0.0342932417988777,-0.0155046246945858,0.00580669939517975,-0.00370955956168473,-0.00123694771900773
234,0.0708454847335815,-0.0380018837749958,-0.0231652483344078,-0.000932775670662522,-0.00675578787922859,-0.00331480940803885
235,0.0710888132452965,-0.0395995788276196,-0.0280354451388121,-0.00798308290541172,-0.00677294190973043,-0.00483190082013607
236,0.0754948258399963,-0.0368079468607903,-0.027072262018919,-0.0123939970508218,-0.00361902173608541,-0.00364921241998672
237,0.0814575552940369,-0.0299484878778458,-0.0192417539656162,-0.0123541560024023,0.00192158936988562,0.00206162082031369
238,0.086229145526886,-0.0222718492150307,-0.007553496863693,-0.00821298081427813,0.00863069668412209,0.0106424195691943
239,0.0881768241524696,-0.0186429191380739,0.00166187155991793,-0.00365360104478896,0.013609517365694,0.016841834411025
240,0.0867696031928062,-0.020120233297348,0.00546975899487734,-0.00143111939541996,0.0156898275017738,0.0182722322642803
241,0.0832762941718102,-0.0227369256317616,0.00701576983556151,7.66584853408858E-05,0.0169752798974514,0.0182953663170338
242,0.0794224143028259,-0.0238305032253265,0.009030532091856,0.00243411283008754,0.0177529789507389,0.0193118862807751
243,0.0761102139949799,-0.0252688769251108,0.00942737516015768,0.00354814692400396,0.0150988763198256,0.0190900303423405
244,0.0733775570988655,-0.0296264737844467,0.00552298314869404,0.000937845674343407,0.00714982347562909,0.0153835779055953
245,0.0709623321890831,-0.0359876938164234,-0.00066040048841387,-0.00451947934925556,-0.00245196069590747,0.00989491306245327
246,0.070011243224144,-0.0401510260999203,-0.00252338917925954,-0.00796440150588751,-0.00421744957566261,0.00798028521239758
247,0.0697119981050491,-0.0413533262908459,0.00217845290899277,-0.00734546640887856,0.00525594269856811,0.0115297874435782
248,0.0668452382087708,-0.0439234934747219,0.00687068374827504,-0.00665592635050416,0.0168054532259703,0.0162267368286848
249,0.0619628913700581,-0.0495221316814423,0.00515546090900898,-0.00848197937011719,0.0208101533353329,0.0181577950716019
250,0.0584831275045872,-0.0544032268226147,-0.00198999582789838,-0.0109520731493831,0.0168183259665966,0.0171108674257994
251,0.0584216229617596,-0.0552644990384579,-0.00936413370072842,-0.0113592445850372,0.0103110065683723,0.0147316846996546
252,0.0632042288780212,-0.0512018203735352,-0.0117369079962373,-0.00713483290746808,0.00668795080855489,0.0144153470173478
253,0.0719881355762482,-0.043719194829464,-0.00806926563382149,0.00117770675569773,0.00645612040534616,0.017618864774704
254,0.0794400349259377,-0.0378901213407516,-0.00332621624693275,0.00769762508571148,0.0048926412127912,0.0202385783195496
255,0.0815360769629478,-0.0372303612530231,-0.00137830153107643,0.00807221047580242,-0.000178991205757484,0.0203584227710962
256,0.0788097828626633,-0.041321724653244,-0.00230727414600551,0.00289008533582091,-0.00595121318474412,0.020837165415287
257,0.0743422582745552,-0.047491978853941,-0.00455739768221974,-0.00418652454391122,-0.00956249516457319,0.0233227759599686
258,0.0722034722566605,-0.0519242323935032,-0.0050340318121016,-0.00869544968008995,-0.0103237954899669,0.0266912933439016
259,0.0754161700606346,-0.0526049248874187,-0.000836864986922592,-0.00839009322226048,-0.0081147737801075,0.0288286041468382
260,0.0830400213599205,-0.0515625961124897,0.00614066096022725,-0.00509852217510343,-0.00456674536690116,0.0276224091649055
261,0.0907136723399162,-0.0519450902938843,0.0105183208361268,-0.00279439240694046,-0.00253798579797149,0.0227075051516294
262,0.0949389860033989,-0.0544733330607414,0.0111570870503783,-0.00264302850700915,-0.00139502098318189,0.0161095969378948
263,0.0956239700317383,-0.0578264817595482,0.0106425452977419,-0.00217001908458769,0.00119566055946052,0.0105399768799543
264,0.0956259071826935,-0.0600669197738171,0.0103216506540775,0.000604578759521246,0.00497526628896594,0.00901552382856607
265,0.0969895422458649,-0.0604073479771614,0.0100845331326127,0.00453961873427033,0.00805411674082279,0.0135222496464849
266,0.0993470326066017,-0.0596942640841007,0.00889320112764835,0.00693981116637588,0.01037154532969,0.0217652395367622
267,0.101583287119865,-0.0597588159143925,0.00506382854655385,0.00532552599906921,0.0132194431498647,0.0270377267152071
268,0.102338090538979,-0.0616867318749428,-0.00094757421175018,-0.000350458576576784,0.0170876830816269,0.0248958431184292
269,0.0995410159230232,-0.0659447982907295,-0.00799317471683025,-0.00838017836213112,0.0196308102458715,0.01635049469769
270,0.092475488781929,-0.0732897594571114,-0.0168417692184448,-0.0179140157997608,0.0173416882753372,0.00472262734547257
271,0.0858153402805328,-0.0806931257247925,-0.0246033053845167,-0.0256904419511557,0.012727340683341,-0.00459295883774757
272,0.0865723565220833,-0.0818381309509277,-0.0249631088227034,-0.0260012056678534,0.0114019261673093,-0.00634222570806742
273,0.0945937857031822,-0.0760100707411766,-0.0178822912275791,-0.0185410417616367,0.0121748084202409,-0.00172711536288261
274,0.101634792983532,-0.0693858489394188,-0.0100170718505979,-0.00969784148037434,0.00941147934645414,0.00304810353554785
275,0.102421678602695,-0.0662127509713173,-0.00506675150245428,-0.00433049723505974,0.00400532642379403,0.00552628096193075
276,0.100368060171604,-0.0645435452461243,-0.000552848679944873,-0.00100343266967684,0.00305911502800882,0.00892730709165335
277,0.0992307737469673,-0.0623865388333797,0.0046424213796854,0.00249086017720401,0.00781837943941355,0.0147074609994888
278,0.0977959707379341,-0.0614010989665985,0.00766001082956791,0.00472178030759096,0.0125438496470451,0.0202600248157978
279,0.0945530012249947,-0.0631492361426353,0.00648600095883012,0.00332468352280557,0.0125664742663503,0.022774264216423
280,0.0908023491501808,-0.066555343568325,0.00267185736447573,-0.0015556754078716,0.00840871315449476,0.0210184194147587
281,0.088160440325737,-0.069513812661171,-0.000500052061397582,-0.00740256113931537,0.00444180611521006,0.0152788842096925
282,0.0870287194848061,-0.0710821971297264,-0.00135673675686121,-0.0121687930077314,0.00370345450937748,0.00690776016563177
283,0.0893094837665558,-0.0699554458260536,0.0011715522268787,-0.0137319415807724,0.00694061676040292,-0.000172476240550168
284,0.0962032228708267,-0.0657454580068588,0.00610723299905658,-0.0108948685228825,0.0123758036643267,-0.00218232674524188
285,0.104603514075279,-0.0609109215438366,0.0106830950826406,-0.0053730383515358,0.0163672529160976,0.00146567600313574
286,0.110926739871502,-0.0570635609328747,0.0165991690009832,0.00116462539881468,0.01858433149755,0.011161345988512
287,0.113860107958317,-0.0541412867605686,0.026353245601058,0.00814346317201853,0.0219832547008991,0.0263872761279345
288,0.110978335142136,-0.0546578466892242,0.0336796790361404,0.0120495148003101,0.0254695229232311,0.0400017835199833
289,0.0998785495758057,-0.061468593776226,0.0297776162624359,0.00828901957720518,0.0230371728539467,0.0421501584351063
290,0.084894947707653,-0.0711105540394783,0.016183378174901,-0.00129343499429524,0.0130166476592422,0.0321489758789539
291,0.0759634897112846,-0.0765058696269989,0.00330268545076251,-0.00929239857941866,0.00211921660229564,0.0189467780292034
292,0.077534630894661,-0.0755123198032379,-0.00213258434087038,-0.0114664332941175,-0.00317044812254608,0.00986763462424278
293,0.08446304500103,-0.0714040324091911,-0.00299931759946048,-0.0101198488846421,-0.00346772279590368,0.00522095104679465
294,0.0899530500173569,-0.0668785870075226,-0.00410870695486665,-0.00864704791456461,-0.00168966292403638,0.00268986844457686
295,0.0900930389761925,-0.0636175349354744,-0.00729212258011103,-0.00882984790951014,0.00023877176863607,7.81543058110401E-05
296,0.0849812552332878,-0.0621530301868916,-0.0113243237137794,-0.0106101222336292,0.00158570858184248,-0.00324858212843537
297,0.0776360109448433,-0.0604737773537636,-0.0126732168719172,-0.0120614776387811,0.00396608375012875,-0.00594346737489104
298,0.0704399570822716,-0.0571821294724941,-0.00915236677974463,-0.0116983242332935,0.00882658921182156,-0.00676639098674059
299,0.0647838711738586,-0.053137943148613,-0.00097657844889909,-0.0093576367944479,0.0148357609286904,-0.00522785494104028
300,0.0602169409394264,-0.0500493682920933,0.008692791685462,-0.00652985507622361,0.018388656899333,-0.0020679549779743
301,0.0548719018697739,-0.0495645701885223,0.0143458237871528,-0.00603245617821813,0.0172176230698824,0.000175173001480289
302,0.0493205189704895,-0.0519858002662659,0.0147228315472603,-0.00877319183200598,0.0149810202419758,-0.000236158346524462
303,0.0453675501048565,-0.055970698595047,0.013877802528441,-0.0125753628090024,0.0164871886372566,-0.00269675045274198
304,0.043657973408699,-0.0588553659617901,0.0139984106644988,-0.0140208443626761,0.0196891408413649,-0.00466036982834339
305,0.0440804176032543,-0.0590344481170177,0.0118729053065181,-0.0117090316489339,0.0176984891295433,-0.0039904834702611
306,0.0451488867402077,-0.0585995577275753,0.00347020872868598,-0.00865538138896227,0.00664753513410687,-0.00279262708500028
307,0.0452121123671532,-0.0604554302990437,-0.00980218313634396,-0.00931463856250048,-0.00940668769180775,-0.00469696708023548
308,0.0434731841087341,-0.0653290674090385,-0.0232405941933393,-0.0155427632853389,-0.0239262804389,-0.0109765054658055
309,0.0400013327598572,-0.0702147111296654,-0.0327253118157387,-0.0239505674690008,-0.0338025502860546,-0.0192492362111807
310,0.0359152555465698,-0.0701632127165794,-0.0353584624826908,-0.0283701159060001,-0.0379038341343403,-0.0243137702345848
311,0.0331785753369331,-0.0631844103336334,-0.0305910464376211,-0.0254598185420036,-0.035809587687254,-0.0220884811133146
312,0.0321565121412277,-0.0519662387669086,-0.0217563211917877,-0.0171407256275415,-0.0299515035003424,-0.0138700092211366
313,0.0320166684687138,-0.0403890199959278,-0.012221316806972,-0.00759404897689819,-0.0224541872739792,-0.00418367562815547
314,0.0330133810639381,-0.0310285799205303,-0.00206609000451863,0.000467872683657333,-0.0122558670118451,0.00429328856989741
315,0.0331444516777992,-0.0272532366216183,0.00643996754661202,0.00372440577484667,-0.00227177189663053,0.00836493819952011
316,0.0295247547328472,-0.0308482274413109,0.00867366697639227,-0.000256894651101902,0.00154026038944721,0.00595031725242734
317,0.0230089500546455,-0.0375114791095257,0.00425961380824447,-0.0079347463324666,-0.00137276633176953,0.00158290390390903
318,0.01622692681849,-0.0396871082484722,-0.00134306726977229,-0.0118891932070255,-0.00586255872622132,0.00100632477551699
319,0.0111620677635074,-0.0352540016174316,-0.00263475626707077,-0.00831369403749704,-0.00642951158806682,0.00357066839933395
320,0.00835763476788998,-0.0296054519712925,-0.0012440598802641,-0.00116783077828586,-0.00295950612053275,0.00375202368013561
321,0.00788170378655195,-0.0265651382505894,-0.00161593547090888,0.00405986187979579,0.00109495420474559,-0.000843089132104069
322,0.00954623892903328,-0.0255514457821846,-0.00372803118079901,0.00642974115908146,0.0036344681866467,-0.00660952180624008
323,0.0111669441685081,-0.0265878830105066,-0.00604637246578932,0.00629174523055553,0.00280765956267715,-0.0107524776831269
324,0.0111622614786029,-0.0290898438543081,-0.00687456876039505,0.00483379838988185,-0.00135300389956683,-0.012978682294488
325,0.00971490703523159,-0.0295456126332283,-0.00275424448773265,0.00589091936126351,-0.00361415627412498,-0.0114705953747034
326,0.00538842752575874,-0.0266630854457617,0.00626001367345452,0.0100939841940999,0.00014377263141796,-0.00734214717522264
327,-0.00321261375211179,-0.023854048922658,0.0137877985835075,0.0126175377517939,0.00627619680017233,-0.00647302344441414
328,-0.0139585873112082,-0.0241436548531055,0.0139104938134551,0.0100986147299409,0.00817624386399984,-0.0115915611386299
329,-0.0252113062888384,-0.0289220474660397,0.00509252119809389,0.00213824072852731,0.00211564148776233,-0.0221486166119576
330,-0.0367697589099407,-0.0374252460896969,-0.00950919557362795,-0.00925713963806629,-0.0106651829555631,-0.0363578610122204
331,-0.0441148020327091,-0.0441208481788635,-0.0215782560408115,-0.0175322685390711,-0.0228409804403782,-0.0477633103728294
332,-0.0424869880080223,-0.0437144674360752,-0.0243693590164185,-0.0170604605227709,-0.0265911966562271,-0.0499808266758919
333,-0.0352753326296806,-0.0378633253276348,-0.0196258742362261,-0.0100371483713388,-0.0218420512974262,-0.0438989959657192
334,-0.0287521462887526,-0.0315307565033436,-0.0128893181681633,-0.00256557366810739,-0.0142499785870314,-0.0336539447307587
335,-0.0249932017177343,-0.0274602733552456,-0.00720324460417032,0.00188760878518224,-0.0079241069033742,-0.0221914481371641
336,-0.024617150425911,-0.0277307815849781,-0.00456084916368127,0.00211174972355366,-0.00388909550383687,-0.0134178241714835
337,-0.0277795754373074,-0.0332455821335316,-0.00637223292142153,-0.00193207641132176,-0.00194926047697663,-0.0107049541547894
338,-0.0326355434954166,-0.041381049901247,-0.0111984750255942,-0.00868088658899069,-0.00202775676734746,-0.0141520174220204
339,-0.0373998619616032,-0.0490412078797817,-0.01610360853374,-0.0159767344594002,-0.00355243356898427,-0.0215023998171091
340,-0.0407495647668839,-0.0538125857710838,-0.0177957452833653,-0.0206561572849751,-0.00468634115532041,-0.0287713650614023
341,-0.0413768291473389,-0.0534384325146675,-0.0138493552803993,-0.0201381053775549,-0.00394928315654397,-0.0331551022827625
342,-0.0398976691067219,-0.0484271645545959,-0.00675069121643901,-0.015760013833642,-0.0018091828096658,-0.0353070124983788
343,-0.0378176867961884,-0.0414463691413403,-0.00176957878284156,-0.0104941856116056,0.000362965249223635,-0.0365463010966778
344,-0.0355318710207939,-0.0348320826888084,-0.00097581569571048,-0.00655136117711663,0.00211069639772177,-0.0375157073140144
345,-0.0332824513316154,-0.0309877004474401,-0.00350878713652492,-0.00579455867409706,0.0027283679228276,-0.0389038324356079
346,-0.0313922315835953,-0.0313504971563816,-0.00693470891565084,-0.00782073568552732,0.000971702102106065,-0.0399313494563103
347,-0.0303491055965424,-0.033689558506012,-0.00753123220056295,-0.00919151771813631,-0.000792880309745669,-0.0384083762764931
348,-0.0324400588870049,-0.0348742492496967,-0.00459667714312673,-0.00756831280887127,0.00150693254545331,-0.0343355126678944
349,-0.0380127690732479,-0.0332743786275387,0.000261558743659407,-0.00293724541552365,0.00872008036822081,-0.0289893429726362
350,-0.0430497266352177,-0.0288112536072731,0.00529257068410516,0.00283470912836492,0.0178400669246912,-0.0237874444574118
351,-0.0478760451078415,-0.0266976524144411,0.00424844119697809,0.00367096392437816,0.0206091776490211,-0.024263720959425
352,-0.0560001991689205,-0.0312388800084591,-0.00613179616630077,-0.00333032966591418,0.011903865262866,-0.0340741388499737
353,-0.064171589910984,-0.0365051813423634,-0.0173452850431204,-0.0110265091061592,-0.0011341858189553,-0.0457884185016155
354,-0.0677869096398354,-0.0352289564907551,-0.0206059627234936,-0.0123582556843758,-0.00901247002184391,-0.049864549189806
355,-0.0680429488420486,-0.028648354113102,-0.0174132455140352,-0.00856506451964378,-0.0101821012794971,-0.0464543700218201
356,-0.0674776360392571,-0.0207113716751337,-0.0133180106058717,-0.00360448425635695,-0.00708972942084074,-0.0397142320871353
357,-0.0665333494544029,-0.0125301200896502,-0.0101042361930013,0.00146548612974584,-0.000978299416601658,-0.0297934599220753
358,-0.0659033507108688,-0.00578150106593966,-0.0071555464528501,0.00680515449494123,0.0073561635799706,-0.0170648936182261
359,-0.0677772909402847,-0.00331577099859715,-0.00472125969827175,0.011112823151052,0.0159084256738424,-0.00584874860942364
360,-0.0729305669665337,-0.00491189863532782,-0.0037861003074795,0.0124133536592126,0.0224911291152239,-0.00071543111698702
361,-0.0787849798798561,-0.00595837971195579,-0.00499112438410521,0.0106295505538583,0.0258573666214943,-0.00272089289501309
362,-0.0831251218914986,-0.00472831400111318,-0.0096183130517602,0.00644681882113218,0.0232124030590057,-0.0103592062368989
363,-0.0862003490328789,-0.00577023392543197,-0.017979834228754,0.00013108599523548,0.0128765245899558,-0.0213261619210243
364,-0.0895582363009453,-0.0116318305954337,-0.0273887887597084,-0.00746553344652057,-0.00204293127171695,-0.0328660719096661
365,-0.0943120121955872,-0.0200238581746817,-0.0347853489220142,-0.0152853485196829,-0.0171480067074299,-0.0421371050179005
366,-0.0987502261996269,-0.0272711720317602,-0.0378171019256115,-0.0206919126212597,-0.0285573378205299,-0.045701552182436
367,-0.101072691380978,-0.0320467427372932,-0.0359017737209797,-0.0217974241822958,-0.0348171852529049,-0.0433950759470463
368,-0.099618062376976,-0.0346419475972652,-0.0302875135093927,-0.0195324961096048,-0.0367569625377655,-0.0380737073719502
369,-0.0907732173800468,-0.0334915146231651,-0.0219285860657692,-0.0135104106739163,-0.0343080163002014,-0.0288116037845612
370,-0.075906053185463,-0.0290460176765919,-0.0132000502198935,-0.00393221899867058,-0.0286318697035313,-0.0143126705661416
371,-0.0618528574705124,-0.0242213513702154,-0.0069763595238328,0.00601357035338879,-0.0218071825802326,0.00111727206967771
372,-0.0533850565552711,-0.0208100061863661,-0.00474327290430665,0.012735272757709,-0.0154047319665551,0.0106299705803394
373,-0.0556625090539455,-0.0232498236000538,-0.0109146628528833,0.0105747757479548,-0.0151215521618724,0.00719965621829033
374,-0.0703176334500313,-0.0339417010545731,-0.0265548713505268,-0.00255934591405094,-0.0233820807188749,-0.0104756373912096
375,-0.0869159027934074,-0.0439189560711384,-0.0406724363565445,-0.0175732783973217,-0.0299959741532803,-0.0311640910804272
376,-0.093588575720787,-0.0415743067860603,-0.0416423603892326,-0.0237120799720287,-0.0241526011377573,-0.0415803827345371
377,-0.0892433226108551,-0.0264508239924908,-0.0296316221356392,-0.0191424936056137,-0.00667299004271626,-0.0387354679405689
378,-0.0806619450449944,-0.0090007558465004,-0.014155643992126,-0.00941052380949259,0.0130842449143529,-0.0273357313126326
379,-0.0737221017479897,0.000955385447014123,-0.0043100118637085,-0.000711626431439072,0.027224350720644,-0.0123585546389222
380,-0.0691934674978256,0.00218694843351841,-0.00110765942372382,0.00486263772472739,0.035113800317049,0.00283192913047969
381,-0.0648151859641075,-0.0001588829618413,0.000603207445237786,0.00918766390532255,0.0399850681424141,0.0148276817053556
382,-0.0605240911245346,-0.00260380515828729,0.00201210007071495,0.0125442575663328,0.0411553829908371,0.0193666163831949
383,-0.0594404339790344,-0.00633007101714611,-0.0011270345421508,0.0118704438209534,0.0339302942156792,0.0139491576701403
384,-0.0621353574097157,-0.0116667486727238,-0.00902706384658813,0.00708989147096872,0.0179695934057236,0.00189587788190693
385,-0.0657158121466637,-0.0163956135511398,-0.016494408249855,0.00141641509253532,-0.00123009667731822,-0.0105947367846966
386,-0.0683994591236115,-0.0193017702549696,-0.0196680463850498,-0.00339198717847466,-0.0177551042288542,-0.020420340821147
387,-0.070642277598381,-0.0208007469773293,-0.0194416753947735,-0.00674160942435265,-0.0283498223870993,-0.0278735067695379
388,-0.0727443620562553,-0.0210664924234152,-0.0180704090744257,-0.00801044888794422,-0.0318547748029232,-0.033468883484602
389,-0.0752322003245354,-0.0207890514284372,-0.0165816955268383,-0.00833866186439991,-0.0299959555268288,-0.0374082624912262
390,-0.0783714130520821,-0.0201817788183689,-0.0151373269036412,-0.00847295112907887,-0.0258825328201056,-0.0384672582149506
391,-0.0796379595994949,-0.0177602134644985,-0.0123314615339041,-0.00635699508711696,-0.0194210465997458,-0.034633431583643
392,-0.0771742761135101,-0.0136484457179904,-0.00756874540820718,-0.00110818771645427,-0.00972856394946575,-0.026997746899724
393,-0.0727724879980087,-0.0100768934935331,-0.00248033832758665,0.00532562006264925,0.00115435034967959,-0.0184088461101055
394,-0.0691856741905212,-0.00960863381624222,0.00116434704978019,0.00973560754209757,0.00953711476176977,-0.0127000501379371
395,-0.0680610314011574,-0.0135978264734149,0.00242301402613521,0.00917878001928329,0.0130253341048956,-0.0141552872955799
396,-0.0686483830213547,-0.0186853967607021,0.00229589571245015,0.00520057650282979,0.0133897596970201,-0.0212648417800665
397,-0.068192332983017,-0.0192046333104372,0.00207117153331637,0.00284999725408852,0.0137563617900014,-0.0280603654682636
398,-0.0654635652899742,-0.0146191082894802,0.000271696015261114,0.0037376219406724,0.0131822237744927,-0.0324236415326595
399,-0.0610311403870583,-0.00800434313714504,-0.00385789782740176,0.00660124747082591,0.0100663546472788,-0.0342040061950684
400,-0.0576429218053818,-0.00295595824718475,-0.00988607574254274,0.00906299147754908,0.00444336561486125,-0.0338688977062702
401,-0.0583034791052341,-0.0020111131016165,-0.0173473935574293,0.00909034535288811,-0.00281239440664649,-0.0336723327636719
402,-0.0617710165679455,-0.00406639417633414,-0.023807717487216,0.00755216274410486,-0.00934040080755949,-0.0343915857374668
403,-0.0656177178025246,-0.00769619038328528,-0.0284353531897068,0.00465921079739928,-0.0145449051633477,-0.0365435816347599
404,-0.0693303048610687,-0.0113609237596393,-0.0319640040397644,-7.25531790521927E-05,-0.0181016065180302,-0.0397561751306057
405,-0.0725036859512329,-0.0100478511303663,-0.031889408826828,-0.00421020854264498,-0.0170457158237696,-0.0406046435236931
406,-0.0751732736825943,-0.00263665081001818,-0.0265637338161469,-0.00587586825713515,-0.0109892953187227,-0.0371707901358604
407,-0.0780934914946556,0.00351686007343233,-0.0194248855113983,-0.006500035058707,-0.00390790076926351,-0.0312789902091026
408,-0.0802240297198296,0.00341818132437766,-0.0137480609118938,-0.00692922249436378,0.00181526993401349,-0.0250663105398417
409,-0.0818722546100616,-0.003093526000157,-0.0125256320461631,-0.00878883432596922,0.00433462345972657,-0.0222181286662817
410,-0.0858111679553986,-0.0152421100065112,-0.0187679585069418,-0.0146983144804835,0.000463005882920697,-0.0265320353209972
411,-0.0904308035969734,-0.0280136037617922,-0.0286717675626278,-0.0218440722674131,-0.00811357330530882,-0.0344683490693569
412,-0.0913083478808403,-0.0342874750494957,-0.0347247309982777,-0.0244821850210428,-0.0160429067909718,-0.0390846990048885
413,-0.0878618061542511,-0.0311425346881151,-0.0338648594915867,-0.0206490196287632,-0.0203798115253448,-0.0391045399010181
414,-0.081767700612545,-0.0204551760107279,-0.0272000692784786,-0.0120114469900727,-0.0193502847105265,-0.0367457456886768
415,-0.0750192478299141,-0.00769273936748505,-0.0190274100750685,-0.00287731224671006,-0.0131551651284099,-0.0340489745140076
416,-0.0703509375452995,0.000340498809237033,-0.0142750823870301,0.00250729150138795,-0.00529286963865161,-0.0331846289336681
417,-0.067159041762352,0.00278369151055813,-0.0113381380215287,0.00587907480075955,0.00368549814447761,-0.0325971506536007
418,-0.0623213835060596,0.00400229264050722,-0.00608391361311078,0.0112871490418911,0.01424490660429,-0.02820317260921
419,-0.0572156645357609,0.00423590699210763,-0.00145926733966917,0.0167104545980692,0.0206587128341198,-0.0211443100124598
420,-0.0552698411047459,0.00129086652304977,-0.00199059955775738,0.0179607663303614,0.0179649870842695,-0.0160436164587736
421,-0.0559822805225849,-0.00356164202094078,-0.00654645636677742,0.0146677363663912,0.00859403144568205,-0.0157843362540007
422,-0.0578986443579197,-0.00818277429789305,-0.0124885141849518,0.00793906953185797,-0.00344302295707166,-0.0208512209355831
423,-0.0622188486158848,-0.0120728965848684,-0.0184591338038445,-0.000664619146846235,-0.0161239374428988,-0.0293273665010929
424,-0.0696161091327667,-0.014731434173882,-0.0221650321036577,-0.0076871607452631,-0.0261143855750561,-0.0380678661167622
425,-0.0770833194255829,-0.014521487057209,-0.0213539786636829,-0.0099387289956212,-0.0279665999114513,-0.0429589562118053
426,-0.0804474577307701,-0.0102049773558974,-0.0168347954750061,-0.00738371443003416,-0.0196906514465809,-0.0402758978307247
427,-0.0785084590315819,-0.002822479698807,-0.0114765781909227,-0.00268255569972098,-0.0063599981367588,-0.0307829696685076
428,-0.0745216310024261,0.00337481987662613,-0.00934982858598232,-0.000525046954862773,0.0032662411686033,-0.0213757548481226
429,-0.0724563896656036,0.0037606367841363,-0.0141235003247857,-0.00514606013894081,0.0036854799836874,-0.0197892878204584
430,-0.0715428665280342,-0.000179722541361116,-0.0227947942912579,-0.0142534868791699,-0.0020350266713649,-0.0246342029422522
431,-0.0694233253598213,-0.00319209415465593,-0.0285706296563149,-0.0215851794928312,-0.0073630940169096,-0.0277696549892426
432,-0.0671769678592682,-0.00363202835433185,-0.029866736382246,-0.0250343568623066,-0.0105587216094136,-0.0264500807970762
433,-0.0662689656019211,-0.00252831634134054,-0.0289330687373877,-0.0257337260991335,-0.0131021570414305,-0.0234214384108782
434,-0.0664123818278313,-0.000900459534022957,-0.0279783587902784,-0.0251774024218321,-0.0158248897641897,-0.0216733906418085
435,-0.0665437132120132,0.000340784783475101,-0.0282159559428692,-0.0248434580862522,-0.0186248980462551,-0.0230780988931656
436,-0.0657724514603615,0.000733906636014581,-0.0293662659823895,-0.0250774696469307,-0.0209525376558304,-0.0268498938530684
437,-0.0645865350961685,-4.2280455090804E-05,-0.0305225644260645,-0.0254205968230963,-0.0217172168195248,-0.029959736391902
438,-0.0635665953159332,-0.00233775214292109,-0.0299605280160904,-0.025355763733387,-0.0190793704241514,-0.0304752662777901
439,-0.0622662715613842,-0.00568364467471838,-0.025727266445756,-0.0245365612208843,-0.0120571758598089,-0.0294438395649195
440,-0.0596840940415859,-0.00787888746708632,-0.0160511285066605,-0.0214666537940502,-0.000775675405748189,-0.0275713726878166
441,-0.0561333149671555,-0.0072569134645164,-0.00071768753696233,-0.0143990945070982,0.0131398066878319,-0.0233400352299213
442,-0.054175965487957,-0.00452952040359378,0.0151389613747597,-0.00478949304670095,0.0249697342514992,-0.0137350894510746
443,-0.0560042150318623,-0.000650636677164584,0.0227631404995918,0.00286227581091225,0.0290975123643875,0.0035655174870044
444,-0.0611120611429214,0.001985251205042,0.0172321647405624,0.00426241522654891,0.0232133623212576,0.0227610133588314
445,-0.0660907775163651,0.000168956525158137,0.00225669168867171,-0.00117793690878898,0.0108102392405272,0.0312788113951683
446,-0.0677283480763435,-0.00407307734712958,-0.0128207616508007,-0.00922886002808809,-0.00141133205033839,0.0237392783164978
447,-0.0661133900284767,-0.00763799529522657,-0.0222133751958609,-0.0161052439361811,-0.0113594345748425,0.00550243258476257
448,-0.0624704957008362,-0.0117104295641184,-0.0267395339906216,-0.0220459084957838,-0.021946556866169,-0.0146174728870392
449,-0.0563061647117138,-0.0148241277784109,-0.0265487637370825,-0.0255384612828493,-0.0318078622221947,-0.0274163857102394
450,-0.0462003499269485,-0.0127194784581661,-0.0195780843496323,-0.0230230893939734,-0.0343121439218521,-0.0281608868390322
451,-0.0329033993184567,-0.00596190011128783,-0.00694736232981086,-0.015333634801209,-0.0257250107824802,-0.0210783798247576
452,-0.0215664431452751,0.000847664719913155,0.00681280670687556,-0.00763425091281533,-0.0101875886321068,-0.0144202318042517
453,-0.0183857288211584,0.00365295051597059,0.0164437238126993,-0.00515697058290243,0.00208451389335096,-0.0140492236241698
454,-0.0230888426303864,0.00259451335296035,0.0191576089709997,-0.00824808981269598,0.00469422386959195,-0.0194150321185589
455,-0.0285340026021004,0.00225314171984792,0.0171502456068993,-0.0115737253800035,0.000819604319985956,-0.0232803169637918
456,-0.0300225466489792,0.00511874631047249,0.0138227362185717,-0.011205785907805,-0.00432889768853784,-0.0204428043216467
457,-0.0293557941913605,0.00912242475897074,0.0103166569024324,-0.00825471803545952,-0.00887330528348684,-0.0138060702010989
458,-0.030575105920434,0.0113168116658926,0.00614211056381464,-0.00601998576894403,-0.0135926939547062,-0.00858536828309298
459,-0.0352119356393814,0.0108661325648427,0.00118369131814688,-0.00623964099213481,-0.019097562879324,-0.00566874351352453
460,-0.0409916490316391,0.0101632038131356,-0.00271232193335891,-0.00828098319470882,-0.0229102447628975,-0.00361090735532343
461,-0.0464538708329201,0.0108313290402293,-0.00586033659055829,-0.0133696394041181,-0.0243276432156563,-0.00457977363839746
462,-0.0517766028642654,0.0112079866230488,-0.0107411937788129,-0.0219321083277464,-0.025514742359519,-0.0110212126746774
463,-0.0548189766705036,0.01008465513587,-0.0151227163150907,-0.0284309051930904,-0.0249159689992666,-0.0191938988864422
464,-0.0540040917694569,0.00850380025804043,-0.0147194340825081,-0.0289739388972521,-0.020343940705061,-0.0244222469627857
465,-0.0515842661261559,0.00757503928616643,-0.0101569574326277,-0.026533417403698,-0.0153044825419784,-0.0269680190831423
466,-0.050580658018589,0.00587849877774715,-0.0054370011202991,-0.0250510293990374,-0.0148415872827172,-0.0290221832692623
467,-0.051679864525795,0.00148685998283327,-0.00416259979829192,-0.0257202740758657,-0.0192658975720406,-0.0307226497679949
468,-0.0522912368178368,-0.00343827693723142,-0.00605006795376539,-0.0263510048389435,-0.0232810042798519,-0.0293247513473034
469,-0.0495677031576633,-0.00519339367747307,-0.00641335221007466,-0.0231873597949743,-0.0208557974547148,-0.0231199227273464
470,-0.0431006997823715,-0.00252198660746217,-0.00138362601865083,-0.0152468923479319,-0.0105566643178463,-0.0141298640519381
471,-0.0338464975357056,0.00362081662751734,0.00888431444764137,-0.00560610648244619,0.00418544793501496,-0.00540583999827504
472,-0.0263893008232117,0.00794655457139015,0.0180415622889996,-0.00139904615934938,0.0151024078950286,-0.00260969647206366
473,-0.0264709461480379,0.00472009275108576,0.0175642799586058,-0.00796100497245789,0.015177434310317,-0.0112050455063581
474,-0.0319668501615524,-0.00306239863857627,0.00806662626564503,-0.0204350054264069,0.00801451411098242,-0.0267317704856396
475,-0.0354418382048607,-0.00802868697792292,-0.00231577316299081,-0.029913704842329,0.00124394393060356,-0.0392032004892826
476,-0.0334041565656662,-0.00628347275778651,-0.00787043292075396,-0.032873310148716,-0.00300110667012632,-0.0425066947937012
477,-0.0275015644729137,0.00287583330646157,-0.00745771639049053,-0.0298137497156858,-0.0050324141047895,-0.0349073521792889
478,-0.0204799007624388,0.015025595203042,-0.00243701552972198,-0.0228823628276587,-0.00418549124151468,-0.0176971778273582
479,-0.0130274780094624,0.0234510619193316,0.00570051092654467,-0.0148614225909114,-8.55471735121682E-05,0.00581618538126349
480,-0.00567376660183072,0.0250844955444336,0.0142565220594406,-0.00918641034513712,0.00466183945536613,0.027150696143508
481,-0.00108514854218811,0.0202810578048229,0.0190417990088463,-0.0092428820207715,0.0064950562082231,0.0350706689059734
482,-4.06862127420027E-05,0.013549086637795,0.0193578004837036,-0.0137973697856069,0.00697741145268083,0.0282358638942242
483,-0.000950028595980257,0.00879024434834719,0.0171510335057974,-0.019447635859251,0.00854863226413727,0.0146189220249653
484,-0.00375885935500264,0.00546344695612788,0.0137241911143065,-0.0251908656209707,0.00904672127217054,0.000527993543073535
485,-0.00816639605909586,0.0033348030410707,0.0105711463838816,-0.0292592532932758,0.0079712625592947,-0.0111368168145418
486,-0.0120930913835764,0.00260156509466469,0.00827278010547161,-0.0296650528907776,0.00773949874565005,-0.0194596312940121
487,-0.0132064884528518,0.00324098696000874,0.00718740886077285,-0.0272758565843105,0.00842320453375578,-0.0255239345133305
488,-0.0122130736708641,0.00498844916000962,0.00677944673225284,-0.0253243427723646,0.0069268299266696,-0.0311320424079895
489,-0.0124421389773488,0.00663494970649481,0.00556581793352962,-0.0260942857712507,0.00197556358762085,-0.0357260555028915
490,-0.0127940876409411,0.00929827429354191,0.00654088612645864,-0.0269027482718229,-0.000878789345733821,-0.034938421100378
491,-0.0115925008431077,0.0122570749372244,0.0108972219750285,-0.0264599956572056,0.000754461041651666,-0.029903830960393
492,-0.0122403930872679,0.0106755429878831,0.0122360810637474,-0.028697669506073,1.18126026791288E-05,-0.0294456817209721
493,-0.0160874109715223,0.00554578239098191,0.00734806945547462,-0.0339819677174091,-0.00588763784617186,-0.0366251021623611
494,-0.0202707387506962,0.00301356217823923,0.000105406572401989,-0.0387219898402691,-0.011771397665143,-0.0461655557155609
495,-0.0224225707352161,0.00501538952812552,-0.00513537554070354,-0.0408240407705307,-0.0128952376544476,-0.0512315630912781
496,-0.0232881903648376,0.00756042310968041,-0.00782359763979912,-0.0412297658622265,-0.010396420955658,-0.0485836416482925
497,-0.0261389650404453,0.00564626464620233,-0.0114311221987009,-0.0431450307369232,-0.0103522697463632,-0.0411094427108765
498,-0.0310493689030409,0.000522549031302333,-0.0169473774731159,-0.0456140004098415,-0.0147264376282692,-0.0310197416692972
499,-0.0343265682458878,-0.0028122563380748,-0.0214284490793943,-0.0446783974766731,-0.0195136610418558,-0.0189528577029705
500,-0.0338918417692184,-0.00306257070042193,-0.023819038644433,-0.0409245193004608,-0.0213447138667107,-0.00980203598737717
501,-0.0305558051913977,-0.00205603148788214,-0.0247629415243864,-0.0370662622153759,-0.0199955217540264,-0.00721735646948218
502,-0.0275258738547564,-0.00201182439923286,-0.0247159041464329,-0.0341051481664181,-0.0176557451486588,-0.00908184610307217
503,-0.0270109251141548,-0.00208662240765989,-0.0223823208361864,-0.0312865264713764,-0.0145837003365159,-0.0117340935394168
504,-0.0283036381006241,0.00158469146117568,-0.0156385581940413,-0.0284728799015284,-0.00949263665825129,-0.0139978481456637
505,-0.0294774677604437,0.00956194289028645,-0.00480421353131533,-0.02639115229249,-0.00325479148887098,-0.0151807507500052
506,-0.0297416690737009,0.017110412940383,0.00575017975643277,-0.0253159776329994,0.0014152938965708,-0.0148103721439838
507,-0.030895447358489,0.019758515059948,0.00840652734041214,-0.0271822139620781,0.000947783351875842,-0.0168808307498693
508,-0.0341357626020908,0.01704391092062,-0.00102166563738137,-0.0336815901100636,-0.00669345166534185,-0.0255048852413893
509,-0.0394320674240589,0.00994947832077742,-0.0197210367769003,-0.0438453294336796,-0.0215393211692572,-0.0389187708497047
510,-0.046075988560915,-8.30127828521654E-05,-0.0399775765836239,-0.0546028353273869,-0.0399432070553303,-0.0502363964915276
511,-0.0499400459229946,-0.00850389432162046,-0.0516505986452103,-0.0608222857117653,-0.0525823645293713,-0.0514575317502022
512,-0.0464410595595837,-0.010101699270308,-0.0486421026289463,-0.0585947148501873,-0.0509982258081436,-0.0399936437606812
513,-0.0374251939356327,-0.00526813929900527,-0.0351932384073734,-0.0504616908729076,-0.0361364334821701,-0.0228362921625376
514,-0.0296304039657116,0.00161815981846303,-0.0211379062384367,-0.0425755456089973,-0.016999052837491,-0.0105842519551516
515,-0.0273831374943256,0.00765815051272511,-0.0132544925436378,-0.0380477830767632,-0.00289742415770888,-0.00790321081876755
516,-0.0307200308889151,0.0109980907291174,-0.0137717202305794,-0.0373890735208988,0.00108983507379889,-0.0137368477880955
517,-0.03800393268466,0.0098270196467638,-0.0208744741976261,-0.0402122251689434,-0.00453571323305368,-0.0257623884826899
518,-0.0457183159887791,0.00522366492077708,-0.0285419765859842,-0.0433243364095688,-0.01376439537853,-0.0387815088033676
519,-0.0502712167799473,0.00110847828909755,-0.0311591867357492,-0.0424249432981014,-0.0199695322662592,-0.0440410412847996
520,-0.0508752539753914,0.000840282300487161,-0.0274328738451004,-0.0354818664491177,-0.0201854649931192,-0.0362282358109951
521,-0.0483405217528343,0.00460511818528175,-0.0199266206473112,-0.0235962215811014,-0.0152642829343677,-0.0196870397776365
522,-0.0434874556958675,0.0103896362707019,-0.0122499251738191,-0.0101585341617465,-0.00745892897248268,-0.00361178163439035
523,-0.0366936028003693,0.0166140031069517,-0.00559832993894815,0.00111224362626672,0.00307097635231912,0.00632291845977306
524,-0.0303138568997383,0.0208848882466555,-0.00131997675634921,0.0064893732778728,0.0144192781299353,0.00836064945906401
525,-0.0291814133524895,0.0194740984588861,-0.00338826468214393,0.00313577381893992,0.0192843377590179,0.0024336080532521
526,-0.035975705832243,0.00994060002267361,-0.0143280941992998,-0.00908188708126545,0.0109991682693362,-0.00927155371755362
527,-0.0456294938921928,-0.00328391045331955,-0.0281089581549168,-0.023516446352005,-0.00552713824436069,-0.0201450958848
528,-0.0493418052792549,-0.0107793295755982,-0.0331776477396488,-0.0302625112235546,-0.0160790905356407,-0.0243429597467184
529,-0.0448667667806149,-0.0088386507704854,-0.0253129675984383,-0.0270333215594292,-0.0131353363394737,-0.0228830371052027
530,-0.0373737961053848,-0.00156625593081117,-0.0117993960157037,-0.0190550945699215,-0.00193166162353009,-0.0196876190602779
531,-0.0321609601378441,0.00596729340031743,-0.00237104389816523,-0.0112405847758055,0.00796234607696533,-0.0163406487554312
532,-0.0298935119062662,0.0120136495679617,0.000175702647538856,-0.00533099705353379,0.0119984988123178,-0.0119348531588912
533,-0.0289397351443768,0.0164724830538034,-0.00120106223039329,-0.00178449903614819,0.0115560377016664,-0.00673855515196919
534,-0.0293344371020794,0.0188202001154423,-0.00298191700130701,-0.000682716257870197,0.00967943575233221,-0.00358306360431015
535,-0.0330577157437801,0.0177447218447924,-0.00496278703212738,-0.00273083988577127,0.00697358744218946,-0.00563170434907079
536,-0.0403239876031876,0.0132226161658764,-0.00908999238163233,-0.00749165564775467,0.00295781879685819,-0.0107382638379931
537,-0.0468123108148575,0.00955537706613541,-0.0140119390562177,-0.010545814409852,0.000165626901434734,-0.00882318243384361
538,-0.0471072047948837,0.0119422040879726,-0.0164520163089037,-0.00816273968666792,0.00159669842105359,0.00697098998352885
539,-0.0401433482766151,0.0185737255960703,-0.0155453383922577,-0.00181438028812408,0.00672885682433844,0.0289866030216217
540,-0.0292368307709694,0.0228848867118359,-0.0121962856501341,0.00461377622559667,0.0133484406396747,0.0426542274653912
541,-0.0193508211523294,0.0226390548050404,-0.00841996632516384,0.00763458572328091,0.0185703560709953,0.0402758233249187
542,-0.0128273470327258,0.020899998024106,-0.00600160658359528,0.00626896182075143,0.0196209326386452,0.0248876325786114
543,-0.0071638566441834,0.0198327042162418,-0.00616796547546983,0.00219296314753592,0.0162393692880869,0.00453657237812877
544,-0.000458789640106261,0.0180688891559839,-0.00952528603374958,-0.00251178257167339,0.0105980187654495,-0.0138735985383391
545,0.00390038825571537,0.0140364374965429,-0.0148157700896263,-0.00653401389718056,0.00466628279536963,-0.0266352947801352
546,0.00253771664574742,0.00881549622863531,-0.0203378796577454,-0.00895427446812391,-0.000252366502536461,-0.0332985147833824
547,-0.000866716145537794,0.00724750477820635,-0.0226662009954453,-0.00715491268783808,-7.4635558121372E-05,-0.0331229381263256
548,-0.00093177828239277,0.0128087187185884,-0.0190065838396549,-8.87217684066854E-05,0.00747398333624005,-0.0260412525385618
549,0.00249161315150559,0.0223849415779114,-0.0119573269039392,0.00866662617772818,0.0169531125575304,-0.014847768470645
550,0.00758503191173077,0.0312482621520758,-0.0043098172172904,0.0161213278770447,0.0231310501694679,-0.00183397531509399
551,0.013395169749856,0.0375693589448929,0.00479274289682508,0.0226624608039856,0.0267885345965624,0.0111719164997339
552,0.0158300194889307,0.0384863130748272,0.013006653636694,0.026152353733778,0.0269489847123623,0.0184647012501955
553,0.010524625889957,0.0319916643202305,0.0153959048911929,0.0232004877179861,0.0222863927483559,0.0152719430625439
554,0.000512552971486002,0.0229071881622076,0.0127930054441094,0.01677480712533,0.0186509974300861,0.00560201751068234
555,-0.00824391283094883,0.0172336213290691,0.00913380924612284,0.0115328244864941,0.0202875193208456,-0.00352615630254149
556,-0.0127008045092225,0.0170423202216625,0.00660857325419784,0.00933681428432465,0.0244106836616993,-0.00680178822949529
557,-0.0118259079754353,0.0212036352604628,0.00585178704932332,0.0107004269957542,0.0274042300879955,0.000147272163303569
558,-0.00531482789665461,0.0269582848995924,0.00709466822445393,0.0147381499409676,0.0284345056861639,0.0177896153181791
559,0.00526767410337925,0.0325345806777477,0.0110266413539648,0.0208854917436838,0.0291106048971415,0.0397895537316799
560,0.0157572515308857,0.0374979302287102,0.0177901778370142,0.0289848111569881,0.0310405809432268,0.0557662919163704
561,0.0223991349339485,0.0420845076441765,0.0258292201906443,0.0365668199956417,0.0335172154009342,0.0588363483548164
562,0.0241463836282492,0.0458421297371387,0.0321509651839733,0.039842139929533,0.0334452949464321,0.0493845753371716
563,0.0225635375827551,0.0473515167832375,0.0352864824235439,0.0376999862492085,0.0287204049527645,0.033541277050972
564,0.0202258974313736,0.0468731708824635,0.0362057499587536,0.0322825647890568,0.0210616886615753,0.019056960940361
565,0.0189884547144175,0.0471131764352322,0.036406759172678,0.0274905655533075,0.0153435785323381,0.0113392742350698
566,0.0204531420022249,0.0517985038459301,0.0391481965780258,0.0280353017151356,0.0171381998807192,0.0134515818208456
567,0.0241834968328476,0.0617538169026375,0.0465669967234135,0.0348982028663158,0.026755141094327,0.0247681327164173
568,0.0261980425566435,0.0705734416842461,0.0540334694087505,0.0420378670096397,0.0376692563295364,0.0378140695393085
569,0.0248528532683849,0.0716570466756821,0.0562207624316216,0.0443333238363266,0.0457112528383732,0.0452979207038879
570,0.0228299982845783,0.0675943195819855,0.0535968132317066,0.0427867695689201,0.0517970994114876,0.0481417737901211
571,0.021805614233017,0.0639401078224182,0.0486393719911575,0.0389660894870758,0.0557526424527168,0.0499244295060635
572,0.0215077046304941,0.0608168840408325,0.04343531280756,0.0343741774559021,0.0558909028768539,0.0506409108638763
573,0.022000914439559,0.0579555481672287,0.0405815616250038,0.0323384925723076,0.0523355975747108,0.0489378236234188
574,0.0231958255171776,0.0572653338313103,0.0407940596342087,0.0335758291184902,0.0472687073051929,0.0439547449350357
575,0.024261400103569,0.0577593930065632,0.0417188741266727,0.0351403206586838,0.0429166294634342,0.0351170301437378
576,0.0249117370694876,0.0567753314971924,0.0410347916185856,0.0346144884824753,0.0402271114289761,0.0231624394655228
577,0.0266210399568081,0.0543689355254173,0.0384277701377869,0.0322607308626175,0.0394177958369255,0.0111625483259559
578,0.0307029541581869,0.0528041757643223,0.0356619693338871,0.0306789185851812,0.0403825417160988,0.00408913614228368
579,0.0343757383525372,0.0515352413058281,0.0330171063542366,0.0305436626076698,0.0400454588234425,0.0036805875133723
580,0.032624501734972,0.0464769639074802,0.0275071319192648,0.0284467469900846,0.0332138948142529,0.00576192978769541
581,0.0234637688845396,0.0361415259540081,0.0176413785666227,0.0220517478883266,0.0189025197178125,0.0069698984734714
582,0.0112380348145962,0.0259326081722975,0.00735933566465974,0.0151246581226587,0.00322260032407939,0.0110510177910328
583,0.00349887716583908,0.0229569580405951,0.00314937089569867,0.0139716686680913,-0.00561282923445106,0.0232456512749195
584,0.00223973044194281,0.0264434218406677,0.00640371255576611,0.0189335010945797,-0.00571898510679603,0.0393337048590183
585,0.00528720207512379,0.0315264463424683,0.0144819710403681,0.0266198460012674,0.000293909484753385,0.0500424839556217
586,0.0109851509332657,0.0359028354287148,0.0248090568929911,0.0348772369325161,0.00943941064178944,0.0517907701432705
587,0.0162121970206499,0.0377193465828896,0.0336917527019978,0.0415484011173248,0.0167315602302551,0.0471613816916943
588,0.018993379548192,0.0379368849098682,0.0390359647572041,0.0469391010701656,0.0193459130823612,0.042911134660244
589,0.0200133342295885,0.0397041514515877,0.0408775210380554,0.0521229952573776,0.0179723761975765,0.0430837869644165
590,0.019024820998311,0.0417619943618774,0.0380590669810772,0.0537705644965172,0.0128806019201875,0.0424451790750027
591,0.0180537439882755,0.0430626235902309,0.0331212393939495,0.0514598079025745,0.00776480045169592,0.0378508605062962
592,0.0212673395872116,0.0462888181209564,0.033145047724247,0.0505783967673779,0.00839680712670088,0.0354570969939232
593,0.0269530117511749,0.0504543520510197,0.0389401875436306,0.0519409142434597,0.0126673309132457,0.0380299054086208
594,0.0304925721138716,0.0521645434200764,0.0442029237747192,0.0522131212055683,0.0142025602981448,0.040892519056797
595,0.0309245213866234,0.0506146475672722,0.0435321480035782,0.0499626733362675,0.0108439112082124,0.0391906760632992
596,0.0306174922734499,0.0476194992661476,0.0377381183207035,0.0461631715297699,0.00591480731964111,0.0324461050331593
597,0.0323150008916855,0.0463380664587021,0.0326150394976139,0.0431427098810673,0.00446357112377882,0.0243409872055054
598,0.0362255088984966,0.0477160513401031,0.031161492690444,0.0416639596223831,0.00649616168811917,0.0184685047715902
599,0.04081991314888,0.0501957088708878,0.0324514992535114,0.040644958615303,0.00871544238179922,0.016404427587986
600,0.043624646961689,0.0520924217998981,0.0351347178220749,0.0393480136990547,0.00950515829026699,0.0179585572332144
601,0.0426064804196358,0.0524014458060265,0.0373347587883472,0.0380337983369827,0.00889383908361197,0.0221891533583403
602,0.0381908752024174,0.050345316529274,0.0373111590743065,0.0366755202412605,0.00755008310079575,0.0278899986296892
603,0.0337900891900063,0.0472239032387733,0.0368142165243626,0.0362732149660587,0.0075820479542017,0.0342770703136921
604,0.033758569508791,0.0456508956849575,0.038236778229475,0.0387146510183811,0.010734910145402,0.040535356849432
605,0.0383939929306507,0.0441650561988354,0.0388340391218662,0.0413121990859509,0.0131021216511726,0.0433389507234097
606,0.0450938083231449,0.0412855558097363,0.0361684560775757,0.0401546247303486,0.0100805154070258,0.0413154549896717
607,0.0520371124148369,0.039373230189085,0.0323794670403004,0.036276388913393,0.00392152741551399,0.0382135808467865
608,0.0568744242191315,0.0393301621079445,0.0294804628938437,0.0322816483676434,-0.0013899146579206,0.0368820801377296
609,0.0570327490568161,0.0404279120266438,0.0282833706587553,0.0293371118605137,-0.00579557567834854,0.0371423624455929
610,0.0531211867928505,0.0433127619326115,0.0305729396641254,0.0287237651646137,-0.00945241935551167,0.0400943793356419
611,0.0467986427247524,0.0460130646824837,0.0348189510405064,0.029442822560668,-0.0131231285631657,0.0442627780139446
612,0.0372428074479103,0.0424983128905296,0.0340662859380245,0.0260929986834526,-0.0214573219418526,0.041530929505825
613,0.0268362406641245,0.032960020005703,0.0271752513945103,0.0180820375680923,-0.0339827761054039,0.0301601383835077
614,0.0220523104071617,0.0255569368600845,0.0213109981268644,0.0121935168281198,-0.0433187708258629,0.0191812086850405
615,0.0256838370114565,0.025684492662549,0.0219486057758331,0.0131939062848687,-0.0451687164604664,0.016181031242013
616,0.0359006822109222,0.0325991585850716,0.0298826023936272,0.0208686534315348,-0.0395925268530846,0.0223470106720924
617,0.0486105307936668,0.0417397171258926,0.0408868379890919,0.0308707188814878,-0.0302362516522408,0.0331959612667561
618,0.0596267022192478,0.0479313991963863,0.0486324168741703,0.0373792126774788,-0.0228266622871161,0.0415214411914349
619,0.067438043653965,0.0497423522174358,0.0510128997266293,0.0385415218770504,-0.0195027776062489,0.0434783510863781
620,0.0721442028880119,0.0491767264902592,0.0502480231225491,0.0365509428083897,-0.0186678878962994,0.0407192967832088
621,0.0740891247987747,0.0479104705154896,0.0492341704666615,0.0336147621273994,-0.0182151421904564,0.0370884276926517
622,0.0741390809416771,0.0467326380312443,0.0495475493371487,0.0308587960898876,-0.0161951016634703,0.0354820601642132
623,0.0730755776166916,0.046228788793087,0.0510999821126461,0.0289986375719309,-0.0117095978930593,0.0368451662361622
624,0.0711231902241707,0.0460009165108204,0.0520878732204437,0.0280326176434755,-0.0060695051215589,0.0401749052107334
625,0.0687869563698769,0.0453971475362778,0.0510406792163849,0.0278810746967793,-0.00143280893098563,0.0442009046673775
626,0.0664006099104881,0.0431279055774212,0.0481551326811314,0.027699189260602,8.49534990265965E-05,0.0465967506170273
627,0.064051553606987,0.0384195670485497,0.0443412847816944,0.0261965654790401,-0.00245407340116799,0.0449520647525787
628,0.0623879097402096,0.0337200984358788,0.0402932465076447,0.0237837769091129,-0.00781228160485625,0.0406481325626373
629,0.0620866119861603,0.0319417119026184,0.0370897687971592,0.0221136994659901,-0.0133443064987659,0.0370754078030586
630,0.0629326030611992,0.0328995175659657,0.0362004451453686,0.0219578836113214,-0.0168344676494598,0.0356094874441624
631,0.0638193935155869,0.0342483371496201,0.0372847765684128,0.0222520586103201,-0.018070112913847,0.0356370210647583
632,0.064113013446331,0.0344824604690075,0.0381945334374905,0.0220041126012802,-0.0176462139934301,0.0376039706170559
633,0.0632229968905449,0.0330588780343533,0.0363822132349014,0.0205132625997067,-0.0167949050664902,0.0412745475769043
634,0.0611283518373966,0.0297403205186129,0.03158013895154,0.0177034605294466,-0.0164439473301172,0.0426444448530674
635,0.0603211149573326,0.0257862117141485,0.0268863011151552,0.0153506929054856,-0.0158225949853659,0.0381176620721817
636,0.0630625411868095,0.0229125637561083,0.0244828853756189,0.0145128667354584,-0.0143521968275309,0.0280667282640934
637,0.067069947719574,0.0201416071504354,0.0223656613379717,0.0131071954965591,-0.0134355695918202,0.014115353114903
638,0.0675479099154472,0.0148773388937116,0.0177520513534546,0.00867636315524578,-0.0151347098872066,-0.00181606214027852
639,0.0634888783097267,0.00787669792771339,0.012134775519371,0.00282212416641414,-0.0189201142638922,-0.015477086417377
640,0.0597644634544849,0.00443130172789097,0.0111317029222846,0.00131926138419658,-0.0208013989031315,-0.020058810710907
641,0.060399055480957,0.00723096029832959,0.0171630159020424,0.00661201821640134,-0.0189045704901218,-0.0127590959891677
642,0.0635591372847557,0.0119025856256485,0.0254211593419313,0.013414447195828,-0.0169373415410519,-0.000383036385755986
643,0.0677123069763184,0.0146600883454084,0.0311881583184004,0.0173918437212706,-0.0168641414493322,0.009565694257617
644,0.0743489935994148,0.0169657748192549,0.034530334174633,0.02015152387321,-0.0157678686082363,0.0168382432311773
645,0.0818629711866379,0.0195896215736866,0.0357339531183243,0.0225113164633513,-0.0133690293878317,0.0217373576015234
646,0.0867079272866249,0.0207723528146744,0.0338549166917801,0.0227936841547489,-0.0125979362055659,0.0223425440490246
647,0.088634304702282,0.0202340744435787,0.0300532877445221,0.0215357895940542,-0.0136910881847143,0.0203543230891228
648,0.0881597623229027,0.0183286219835281,0.0260298792272806,0.0199292749166489,-0.0156753994524479,0.0187689960002899
649,0.0854105427861214,0.0148183861747384,0.0219301022589207,0.0177227202802897,-0.0183497294783592,0.0180459730327129
650,0.0814411863684654,0.0104633774608374,0.0174137447029352,0.0148853817954659,-0.0213480852544308,0.0174546502530575
651,0.077297031879425,0.00721441442146897,0.0129906237125397,0.0122858788818121,-0.0234672799706459,0.0161195322871208
652,0.0742871463298798,0.00645664753392339,0.0102462843060493,0.0112395817413926,-0.0229285508394241,0.0139639191329479
653,0.0743107944726944,0.00861851964145899,0.0106210168451071,0.0127479499205947,-0.0192609634250402,0.0126305958256125
654,0.0784412994980812,0.0142358532175422,0.0149079114198685,0.0170644037425518,-0.0127516873180866,0.0150793017819524
655,0.0833582729101181,0.0203370321542025,0.0199412703514099,0.0212115719914436,-0.00711985072121024,0.0200739782303572
656,0.0844115018844604,0.022278755903244,0.0210014581680298,0.021656209602952,-0.00750484829768538,0.0221558194607496
657,0.0828917771577835,0.0212846156209707,0.0200090035796165,0.0203662924468517,-0.010375889018178,0.0197550319135189
658,0.0812697410583496,0.0214291177690029,0.0208485890179873,0.0195143148303032,-0.00859501864761114,0.0139415832236409
659,0.0787615701556206,0.0233840625733137,0.0229677855968475,0.0174816958606243,-0.0024135410785675,0.00465651880949736
660,0.0750706642866135,0.0234077665954828,0.0233183745294809,0.0130757736042142,0.00247535156086087,-0.00750750536099076
661,0.0712213739752769,0.0180367156863213,0.0191180724650621,0.00684899557381868,0.00147044938057661,-0.0204150304198265
662,0.0700544267892838,0.00927962455898523,0.0119850421324372,0.00128722633235157,-0.00420850422233343,-0.0299271456897259
663,0.075232207775116,0.00235101743601263,0.00802733656018972,2.23630358959781E-05,-0.00864710099995136,-0.0311220083385706
664,0.0849233418703079,-0.000411313551012427,0.00964426901191473,0.00323780323378742,-0.00958359986543655,-0.0242404490709305
665,0.0920751169323921,-0.00151994114276022,0.0124841686338186,0.00683323619887233,-0.0108029078692198,-0.0161685477942228
666,0.0943054631352425,-0.00260419002734125,0.0142625672742724,0.00918782409280539,-0.0136892218142748,-0.0108322165906429
667,0.0953257977962494,-0.002176224719733,0.0172443836927414,0.0123074296861887,-0.015209874138236,-0.00613356754183769
668,0.0969451293349266,4.92922445118893E-05,0.0211585648357868,0.0165448244661093,-0.0146737629547715,-0.0007121991366148
669,0.0969917774200439,0.00208848435431719,0.0221694055944681,0.0193662960082293,-0.0147049967199564,0.00384914455935359
670,0.0937414169311523,0.00201393268071115,0.0187686625868082,0.0181744582951069,-0.0159042626619339,0.00536783924326301
671,0.0876668095588684,-0.000518004526384175,0.0133169488981366,0.0131848054006696,-0.0162161495536566,0.00311053683981299
672,0.0801017433404922,-0.00441344361752272,0.0083669601008296,0.00686964672058821,-0.0150894680991769,-0.00175349635537714
673,0.0736275538802147,-0.00754091655835509,0.00580902118235826,0.00209835544228554,-0.0127673074603081,-0.00611965404823422
674,0.0714075639843941,-0.00767442164942622,0.00705512380227447,0.00128303130622953,-0.00795593019574881,-0.00586945563554764
675,0.0738829597830772,-0.00448070233687758,0.0114369969815016,0.00480385776609182,-0.000532413832843304,0.000815767853055149
676,0.0779795944690704,6.07946003583493E-06,0.0160656459629536,0.010182567872107,0.006556561216712,0.0106547428295016
677,0.0801647827029228,0.00347842811606824,0.0183386765420437,0.0142242442816496,0.00977032538503408,0.0166506133973598
678,0.0800186395645142,0.0061673866584897,0.0195972863584757,0.0167981088161469,0.00935939978808165,0.0153814880177379
679,0.0790727734565735,0.0096013518050313,0.0230243597179651,0.0198310278356075,0.00871636625379324,0.00997312180697918
680,0.0764963626861572,0.0121900020167232,0.0273785814642906,0.0218077804893255,0.0084253316745162,0.00298802298493683
681,0.0706609115004539,0.0109542449936271,0.0288044549524784,0.0197029802948236,0.00802192185074091,-0.0055440878495574
682,0.063157320022583,0.00617424165830016,0.0265015158802271,0.0144604928791523,0.010060615837574,-0.0144160436466336
683,0.0568869188427925,-0.000512365775648505,0.0217536054551601,0.00824474077671766,0.0150650953873992,-0.0224809926003218
684,0.053194310516119,-0.00773663120344281,0.0163023676723242,0.00212352629750967,0.0198135673999786,-0.0286891218274832
685,0.0521537289023399,-0.0129293901845813,0.0124942678958178,-0.00164309958927333,0.022149134427309,-0.0300010126084089
686,0.0525711998343468,-0.0143600143492222,0.0109396688640118,-0.00129303231369704,0.0212373770773411,-0.0234782788902521
687,0.0530375838279724,-0.0131401801481843,0.010087326169014,0.00197470467537642,0.0167947858572006,-0.00972588267177343
688,0.0521538630127907,-0.0126943849027157,0.00700838444754481,0.00493309274315834,0.00887403544038534,0.00467230333015323
689,0.0488942749798298,-0.0144380629062653,0.00148199463728815,0.00634571630507708,-0.000872467819135636,0.012174841016531
690,0.0446522049605846,-0.0157934594899416,-0.00151108996942639,0.00794994086027145,-0.00757235242053866,0.0117059145122766
691,0.0402253456413746,-0.0165056344121695,-0.000692940200679004,0.00853096600621939,-0.00960217975080013,0.00440239999443293
692,0.0348190441727638,-0.0186042096465826,-0.000549465708900243,0.00540537433698773,-0.0108303977176547,-0.00880348309874535
693,0.0286755990236998,-0.0203920379281044,-0.0022858097217977,0.000510655925609171,-0.0127871297299862,-0.0229346081614494
694,0.0229359064251184,-0.0180642865598202,-0.00274345278739929,-0.0020585092715919,-0.0128689603880048,-0.0317954048514366
695,0.0189696867018938,-0.0111966272816062,-0.000552228360902518,-0.00104186392854899,-0.00965627748519182,-0.033952608704567
696,0.0165445730090141,-0.00384817575104535,0.00183815462514758,0.00130939832888544,-0.00462192762643099,-0.0324597060680389
697,0.014240100979805,-5.24901406606659E-06,0.00235912948846817,0.00305995112285018,0.000831797311548144,-0.0297344587743282
698,0.0113108465448022,-0.000288241368252784,0.000971771136391908,0.00423839827999473,0.00611430499702692,-0.0265123695135117
699,0.00733297551050782,-0.00335174426436424,-0.00271090748719871,0.00483165821060538,0.0096011096611619,-0.0242007244378328
700,0.00256027653813362,-0.00747099658474326,-0.00885554403066635,0.00442261155694723,0.00981216598302126,-0.0239224322140217
701,-0.00257269735448062,-0.0120881563052535,-0.0173551924526691,0.00173608097247779,0.00646462570875883,-0.0260748025029898
702,-0.00924758147448301,-0.0186297185719013,-0.0288161300122738,-0.00525805028155446,-0.000515907187946141,-0.0314342007040977
703,-0.0176626201719046,-0.0273130517452955,-0.0414823107421398,-0.0155455227941275,-0.00889762490987778,-0.038838192820549
704,-0.0234017595648766,-0.0338827483355999,-0.0492263212800026,-0.0229425877332687,-0.0127081330865622,-0.0437018871307373
705,-0.0220134519040585,-0.0329946838319302,-0.0462392456829548,-0.0216864142566919,-0.00762338656932116,-0.0421898178756237
706,-0.0153549565002322,-0.024823697283864,-0.0338318273425102,-0.0132320700213313,0.00330931483767927,-0.0359813086688519
707,-0.00801693834364414,-0.0135189294815063,-0.0185941532254219,-0.00236682314425707,0.0142518570646644,-0.029240507632494
708,-0.00253071286715567,-0.00272552203387022,-0.00620496831834316,0.00796407926827669,0.0218654070049524,-0.0239321179687977
709,-0.00190676876809448,0.00338058080524206,-0.00133003306109458,0.0138480924069881,0.0221383329480886,-0.021767457947135
710,-0.00681913690641522,0.00406303629279137,-0.00346407201141119,0.0143763422966003,0.0151792047545314,-0.0217230599373579
711,-0.0125508420169353,0.00401516165584326,-0.00505708297714591,0.0147613445296884,0.0097952401265502,-0.0192193053662777
712,-0.017658069729805,0.00419662380591035,-0.00342764751985669,0.0161682050675154,0.00958520546555519,-0.0153145166113973
713,-0.0242672897875309,0.00261305645108223,-0.00178484653588384,0.0156925115734339,0.00957957282662392,-0.0140164950862527
714,-0.0308282934129238,0.00153479143045843,-0.000427624152507633,0.0147909829393029,0.00843119155615568,-0.013045690022409
715,-0.0360172055661678,0.002243188675493,0.000124751299154013,0.01472282782197,0.00709487730637193,-0.0101211816072464
716,-0.0409669429063797,0.00211723637767136,-0.00174129055812955,0.0135289588943124,0.00505611300468445,-0.00814071111381054
717,-0.0457360818982124,-0.000556482991669327,-0.00465162051841617,0.0106171062216163,0.00382980704307556,-0.0093720518052578
718,-0.0484265573322773,-0.00441605411469936,-0.00489462679252028,0.00838279072195292,0.00806208793073893,-0.0119913369417191
719,-0.0476582907140255,-0.00744940899312496,0.000131350563606247,0.00924561638385057,0.0205978248268366,-0.0133810574188828
720,-0.0463210344314575,-0.00989202875643969,0.00815460458397865,0.0124734379351139,0.0362090319395065,-0.0132207022979856
721,-0.0474723950028419,-0.010838913731277,0.01488331053406,0.0170716587454081,0.0469937659800053,-0.0107401944696903
722,-0.0503390654921532,-0.00905513390898705,0.016905328258872,0.0213193073868752,0.0495386235415936,-0.00719418609514833
723,-0.0541215389966965,-0.00770256295800209,0.0113278413191438,0.0208327900618315,0.0426959581673145,-0.00760193727910519
724,-0.0588665455579758,-0.0105873150750995,-0.00230195373296738,0.0134923234581947,0.0262857303023338,-0.0133932800963521
725,-0.0615963339805603,-0.0159332752227783,-0.0188522301614285,0.00406512804329395,0.00523638632148504,-0.0188287012279034
726,-0.0584807693958282,-0.0176180973649025,-0.02985236980021,0.000355360913090408,-0.0114140883088112,-0.0165928304195404
727,-0.0513244643807411,-0.0130137633532286,-0.0319790430366993,0.00416981009766459,-0.0194435212761164,-0.00733059551566839
728,-0.0447054281830788,-0.0046320310793817,-0.0275155138224363,0.0121173243969679,-0.0206092242151499,0.00226056552492082
729,-0.0405136980116367,0.00418389355763793,-0.0194023754447699,0.020658990368247,-0.0174525752663612,0.00784693006426096
730,-0.0389485992491245,0.0106356404721737,-0.0106737390160561,0.0262148845940828,-0.0127823632210493,0.00794852711260319
731,-0.0399422496557236,0.0126250730827451,-0.00458805775269866,0.0261025838553905,-0.010235732421279,0.00238332943990827
732,-0.0425173342227936,0.00966270547360182,-0.00246563879773021,0.0205296594649553,-0.0113536044955254,-0.00728122610598803
733,-0.044926643371582,0.00406681187450886,-0.00243110209703445,0.0134215233847499,-0.0134376473724842,-0.0165742859244347
734,-0.0468710549175739,-0.000905317137949169,-0.00313324737362564,0.00886327587068081,-0.0146192889660597,-0.0208846013993025
735,-0.0489585660398006,-0.00336170825175941,-0.00455332081764936,0.00767463259398937,-0.0161509141325951,-0.0193657968193293
736,-0.0507267937064171,-0.00316582783125341,-0.00614367192611098,0.00819984823465347,-0.019062602892518,-0.0143025452271104
737,-0.0514989383518696,-0.00223374669440091,-0.00832538586109877,0.00770082091912627,-0.0237475968897343,-0.00910080783069134
738,-0.0500818938016891,-0.000982198514975607,-0.0102590061724186,0.00645416136831045,-0.027949832379818,-0.00389895541593432
739,-0.0464878678321838,0.00115398259367794,-0.0102794673293829,0.0068458947353065,-0.0287096779793501,0.00323403114452958
740,-0.0439091213047504,0.00142523145768791,-0.00970856379717588,0.00792465079575777,-0.0273667462170124,0.0097975330427289
741,-0.0446458421647549,-0.00227477657608688,-0.010150614194572,0.00755077507346869,-0.0262532401829958,0.0118869226425886
742,-0.046578835695982,-0.00674217380583286,-0.0102507956326008,0.00658279750496149,-0.0247645601630211,0.0110787525773048
743,-0.04626439884305,-0.00733314640820026,-0.00759433163329959,0.00753955496475101,-0.0218550991266966,0.0123082604259253
744,-0.0429416187107563,-0.00313367904163897,-0.00128575565759093,0.0116760469973087,-0.0175951980054379,0.0176328103989363
745,-0.0379424169659615,0.00376491737551987,0.00809391494840384,0.0184367299079895,-0.0120774041861296,0.025569399818778
746,-0.0337273217737675,0.010148505680263,0.0177312791347504,0.0252353493124247,-0.00682528736069798,0.0330086275935173
747,-0.0319250114262104,0.013775197789073,0.0245399959385395,0.0296933334320784,-0.00322194956243038,0.0380226410925388
748,-0.0315131396055222,0.0150020737200975,0.0286265294998884,0.0323921367526054,-1.9894278011634E-05,0.0414878204464912
749,-0.0318709462881088,0.0139605905860662,0.0299554225057364,0.0335896089673042,0.00232241628691554,0.0432270169258118
750,-0.0330862179398537,0.0104728220030665,0.0276115853339434,0.0321008190512657,0.00171017297543585,0.0418191812932491
751,-0.0342974402010441,0.0056520476937294,0.0227279085665941,0.0280091390013695,-0.0015582594787702,0.0379832237958908
752,-0.0361905246973038,-0.000354672403773293,0.0159098263829947,0.0215021837502718,-0.00738214701414108,0.0331131853163242
753,-0.0387113317847252,-0.0060185119509697,0.00895683746784925,0.0146286254748702,-0.0141539303585887,0.0295735560357571
754,-0.0383748076856136,-0.00655327131971717,0.00676015019416809,0.0125315794721246,-0.016651339828968,0.0311136357486248
755,-0.0334160849452019,-0.000269023032160476,0.0104366205632687,0.0166864302009344,-0.0132116368040442,0.0382060073316097
756,-0.0271448437124491,0.00794693641364574,0.0151035198941827,0.0223151613026857,-0.00845133699476719,0.0462167486548424
757,-0.022738141939044,0.0134908268228173,0.0184272341430187,0.0264438632875681,-0.00521200522780418,0.0515302717685699
758,-0.0199714209884405,0.0164093319326639,0.0224056653678417,0.0305798836052418,-0.00242169736884534,0.0547119118273258
759,-0.0192758329212666,0.0169754456728697,0.0255844444036484,0.0340975038707256,-0.00147811998613179,0.0561264604330063
760,-0.0206167045980692,0.0156385377049446,0.0256634615361691,0.03498849645257,-0.00354587752372026,0.0558626875281334
761,-0.0204973351210356,0.0150039978325367,0.0253240335732698,0.0343533121049404,-0.00532229244709015,0.0550332218408585
762,-0.0171847753226757,0.0154842156916857,0.0268905032426119,0.0334070883691311,-0.00501417508348823,0.0531334951519966
763,-0.0135047240182757,0.0142481615766883,0.0284090526401997,0.031285434961319,-0.00526882708072662,0.048582024872303
764,-0.0112468721345067,0.0110091799870133,0.0284852348268032,0.0287043359130621,-0.00713060237467289,0.0422466099262238
765,-0.0103531293570995,0.00732977315783501,0.0263894014060497,0.0262030623853207,-0.00981291104108095,0.0352111533284187
766,-0.0112478574737906,0.00306003517471254,0.0209613312035799,0.0222324095666409,-0.0135148800909519,0.0272629801183939
767,-0.0129582127556205,-0.00162983336485922,0.0140436477959156,0.0172750577330589,-0.0172618273645639,0.0202529300004244
768,-0.0132862413302064,-0.00523256324231625,0.00905165262520313,0.0136594567447901,-0.0189980156719685,0.0167972203344107
769,-0.0117197865620255,-0.00662211515009403,0.00691911252215505,0.0118014924228191,-0.0179436169564724,0.0167216677218676
770,-0.00928124785423279,-0.00535502890124917,0.00686919363215566,0.0110139409080148,-0.014490214176476,0.0188619662076235
771,-0.00625959411263466,-0.0015910929068923,0.00895353499799967,0.0117797078564763,-0.00895262695848942,0.0230535473674536
772,-0.00343784526921809,0.00216594873927534,0.0122827887535095,0.0131832100450993,-0.00321327522397041,0.0269067790359259
773,-0.00209192838519812,0.0032806727103889,0.0152530819177628,0.0134949153289199,0.000364629493560642,0.0275009013712406
774,-0.00185525312554091,0.00197741738520563,0.0175005104392767,0.0131490742787719,0.00179531809408218,0.0256916750222445
775,-0.0019735365640372,-0.000167398175108247,0.0186655763536692,0.0129109248518944,0.00206931889988482,0.0233024973422289
776,-0.00314566330052912,-0.00244763866066933,0.0175207015126944,0.0115600489079952,0.00115920533426106,0.0198298711329699
777,-0.00537633756175637,-0.00460781063884497,0.0140922656282783,0.00825792364776134,-0.000876116391737014,0.0165085606276989
778,-0.00587668363004923,-0.00474188243970275,0.0112344399094582,0.00568956695497036,-0.00216308608651161,0.0184763018041849
779,-0.00345184816978872,-0.00176177558023483,0.0111954137682915,0.00614367704838514,-0.00100148655474186,0.0263583827763796
780,-0.00132635561749339,0.00189405912533402,0.0132772326469421,0.00789007171988487,0.00201575574465096,0.0335872322320938
781,-0.00134586775675416,0.004306067712605,0.0163124669343233,0.00942664686590433,0.00623149424791336,0.0354572869837284
782,-0.00174066459294409,0.00537271052598953,0.0197571702301502,0.0112233869731426,0.0117977159097791,0.0328264832496643
783,-0.0031094579026103,0.00248944689519703,0.0206402726471424,0.0104856314137578,0.0153686571866274,0.0257527101784945
784,-0.00735965743660927,-0.00600328296422958,0.0156590398401022,0.00386666716076434,0.0124158961698413,0.013563072308898
785,-0.0112920943647623,-0.0144477533176541,0.00792574416846037,-0.00425834488123655,0.0051965145394206,0.00195052230264992
786,-0.0100696636363864,-0.0156752075999975,0.00370760099031031,-0.00656385952606797,0.000263068999629468,-0.00153714849147946
787,-0.00456495676189661,-0.0103355282917619,0.00357416272163391,-0.00293100206181407,-0.000340403261361644,0.00252573844045401
788,0.000250666635110974,-0.00517347408458591,0.00292088324204087,0.000732966582290828,0.000176239700522274,0.00708073796704412
789,0.00348565517924726,-0.00303439935669303,0.00106697774026543,0.00225745560601354,0.00102837872691453,0.00919910799711943
790,0.00951394811272621,-0.000839488580822945,0.00217159581370652,0.00454583624377847,0.00556897092610598,0.0116617744788527
791,0.0196183975785971,0.00232180673629045,0.00641261646524072,0.00742998253554106,0.0136769600212574,0.0142701929435134
792,0.0294323153793812,0.00443703914061189,0.0104786204174161,0.0082552544772625,0.0210882127285004,0.0146948378533125
793,0.0356811545789242,0.00608753971755505,0.0141589352861047,0.00788524001836777,0.0259976889938116,0.0143416030332446
794,0.0386799983680248,0.00832509063184261,0.0185064617544413,0.00803890358656645,0.0283367689698935,0.0146602783352137
795,0.0389961637556553,0.00924297515302897,0.0218226723372936,0.00778660411015153,0.0261680576950312,0.0135475313290954
796,0.0378136374056339,0.00833619944751263,0.0227973237633705,0.00736176874488592,0.0199432708323002,0.0102593367919326
797,0.037409957498312,0.00781464669853449,0.0225392337888479,0.00847672112286091,0.0136607103049755,0.00719364220276475
798,0.0390347391366959,0.00935046840459108,0.0229500848799944,0.0115855531767011,0.0107267126441002,0.00674314377829432
799,0.0423998646438122,0.012988805770874,0.0255562458187342,0.016347523778677,0.0129672382026911,0.00975663866847754
800,0.0456069260835648,0.0165305901318789,0.0286802817136049,0.0208896417170763,0.019039660692215,0.0140193747356534
801,0.0486682690680027,0.0191952828317881,0.0302543565630913,0.0244548209011555,0.0265615917742252,0.0176311153918505
802,0.0549463145434856,0.023221243172884,0.0316398665308952,0.0289552472531796,0.0351154804229736,0.0222779344767332
803,0.0644816309213638,0.0288615934550762,0.0334836132824421,0.0340823866426945,0.0432212948799133,0.0283627193421125
804,0.0717711746692657,0.0324309393763542,0.0327829048037529,0.0359944440424442,0.0469916053116322,0.0310855805873871
805,0.0742839947342873,0.0314660146832466,0.0284607168287039,0.0333565138280392,0.0461286157369614,0.0267371218651533
806,0.0758741348981857,0.0282531455159187,0.0238555539399385,0.0296768639236689,0.0452388003468513,0.0181454196572304
807,0.0777524039149284,0.0242977384477854,0.0190993268042803,0.0258699785917997,0.0439008064568043,0.00825519207865
808,0.0767408087849617,0.0186976585537195,0.011676112189889,0.0195284765213728,0.0374479629099369,-0.00243348767980933
809,0.0741382390260696,0.013973169028759,0.00498456554487348,0.0130465654656291,0.0284318048506975,-0.0101411566138268
810,0.0742886886000633,0.0137656172737479,0.00440757861360908,0.0110812885686755,0.0229258295148611,-0.011145206168294
811,0.0765827819705009,0.0173693615943193,0.00940113235265017,0.0132577335461974,0.0212252475321293,-0.00752252107486129
812,0.0772706046700478,0.0217534694820642,0.0155631368979812,0.0159899201244116,0.0207635406404734,-0.00372142670676112
813,0.0754631832242012,0.0247055180370808,0.0195648707449436,0.0168307311832905,0.0204431694000959,-0.00288842339068651
814,0.0738050863146782,0.0265602096915245,0.0214447528123856,0.0163098815828562,0.0204253345727921,-0.00454766722396016
815,0.0744537338614464,0.0293055288493633,0.0229365322738886,0.0163341127336025,0.0210862848907709,-0.00537725724279881
816,0.0767737776041031,0.0332075357437134,0.0250875800848007,0.0175763070583344,0.0220376197248697,-0.00425011431798339
817,0.0789290815591812,0.0362905524671078,0.0271441750228405,0.0191428419202566,0.0219449028372765,-0.00373851577751338
818,0.0803820490837097,0.0374749861657619,0.0278683714568615,0.0206055752933025,0.0209719687700272,-0.00550579512491822
819,0.0803695321083069,0.0360354334115982,0.0258180499076843,0.0207644179463387,0.0191324017941952,-0.00986343622207642
820,0.076543428003788,0.0298443045467138,0.0187170747667551,0.0159789845347404,0.0132247358560562,-0.0184425618499517
821,0.0699981451034546,0.0203558206558228,0.00836826674640179,0.0067697842605412,0.0035228964406997,-0.0289623662829399
822,0.0654278695583344,0.0127047328278422,0.000141625117976218,-0.00101693673059344,-0.00396057032048702,-0.0350031107664108
823,0.0654636397957802,0.0100767919793725,-0.00292652565985918,-0.00327335763722658,-0.00458062579855323,-0.0332215577363968
824,0.0694127753376961,0.012593574821949,-0.000932744238525629,7.70733968238346E-05,0.00193726818542928,-0.0250470768660307
825,0.0754068642854691,0.0181315578520298,0.00451900297775865,0.00670299772173166,0.0134890517219901,-0.0140560213476419
826,0.0819591954350472,0.0238310825079679,0.011780091561377,0.0143569689244032,0.0273948255926371,-0.00294274697080255
827,0.0876161530613899,0.0282908771187067,0.019971951842308,0.022402374073863,0.0413083098828793,0.00751265976577997
828,0.0905866846442223,0.031415369361639,0.028474684804678,0.0303329955786467,0.0542682893574238,0.0175389964133501
829,0.0894691571593285,0.0317717976868153,0.0347096137702465,0.035798329859972,0.0645448341965675,0.0257074609398842
830,0.0856501683592796,0.0294523239135742,0.0371169149875641,0.0382874608039856,0.0703089758753777,0.0298001673072577
831,0.082867719233036,0.0278412383049726,0.0375048853456974,0.0400605425238609,0.0709718093276024,0.0293026268482208
832,0.0823298096656799,0.0277603138238192,0.036015409976244,0.0406923554837704,0.0647276192903519,0.0233808103948832
833,0.081989973783493,0.028067184612155,0.0329013913869858,0.0390153862535954,0.052724651992321,0.0123233012855053
834,0.0804474651813507,0.029298173263669,0.0312964655458927,0.0366096757352352,0.0409694872796535,-0.00041522816172801
835,0.0776356309652328,0.0304036419838667,0.0310566332191229,0.0337372981011868,0.0326727703213692,-0.0126355215907097
836,0.073692724108696,0.0289715323597193,0.0296434294432402,0.0289592687040567,0.027525408193469,-0.024307643994689
837,0.0688969045877457,0.0254235193133354,0.0272027868777514,0.0228369645774364,0.0253518037497997,-0.0341052711009979
838,0.063347153365612,0.0211095679551363,0.0236964002251625,0.0163234807550907,0.0241845902055502,-0.0403925627470016
839,0.0585197173058987,0.0168474037200212,0.0187749620527029,0.00995566789060831,0.0225673504173756,-0.0420476868748665
840,0.0560435988008976,0.0133440988138318,0.0130517249926925,0.00462009152397513,0.0213016737252474,-0.038674283772707
841,0.0561407133936882,0.0109724970534444,0.00787272956222296,0.00131267216056585,0.0217303447425365,-0.031238216906786
842,0.0576792508363724,0.00906779710203409,0.0037362992297858,-0.000758782029151917,0.023878226056695,-0.0234281830489635
843,0.0591715574264526,0.00655755819752812,-0.000545919989235699,-0.00370796420611441,0.0261233150959015,-0.0199632290750742
844,0.0597909577190876,0.00303455372340977,-0.00561759946867824,-0.00815538596361876,0.0265926457941532,-0.0225417148321867
845,0.0582224503159523,-0.00257922359742224,-0.0112425051629543,-0.0142905749380589,0.0231816954910755,-0.0310524571686983
846,0.0554171092808247,-0.0099524175748229,-0.0161949675530195,-0.021167179569602,0.0162254348397255,-0.0430782660841942
847,0.0552259273827076,-0.0162701029330492,-0.0199030991643667,-0.0262178052216768,0.0085488548502326,-0.0536812916398048
848,0.0612718164920807,-0.0186991412192583,-0.0221617314964533,-0.0273918453603983,0.00317267933860421,-0.0590739063918591
849,0.0739968568086624,-0.0164773818105459,-0.0217734891921282,-0.0247229803353548,0.00176790240220726,-0.0586295016109943
850,0.0889922231435776,-0.0119529543444514,-0.0194846652448177,-0.0212386697530746,0.00321337720379233,-0.0550829879939556
851,0.102719992399216,-0.00670039933174849,-0.0178714748471975,-0.0195985957980156,0.00568719208240509,-0.0512605421245098
852,0.116002731025219,-0.00118118827231228,-0.0186667311936617,-0.0190880484879017,0.00704506551846862,-0.0473657809197903
853,0.127949193120003,-0.000604235858190805,-0.0244617816060781,-0.0205659586936235,0.00266182143241167,-0.0460019074380398
854,0.136751294136047,-0.00774837238714099,-0.0349555946886539,-0.025121433660388,-0.00797547679394484,-0.0500232167541981
855,0.144377321004868,-0.0164092462509871,-0.0435562916100025,-0.0291322562843561,-0.0172484051436186,-0.0556992180645466
856,0.152348160743713,-0.0214808899909258,-0.0461655519902706,-0.0302071291953325,-0.0194761510938406,-0.0590079687535763
857,0.159559994935989,-0.0230948068201542,-0.0441510565578938,-0.0292551107704639,-0.015130627900362,-0.0598431900143623
858,0.164102762937546,-0.0228168480098248,-0.0402421727776527,-0.027604267001152,-0.00759256863966584,-0.0594532452523708
859,0.166273817420006,-0.0204922780394554,-0.0347971618175507,-0.0249869152903557,0.0003140585613437,-0.057856734842062
860,0.170090854167938,-0.0139202540740371,-0.0250310059636831,-0.0186225902289152,0.00969523284584284,-0.0531899966299534
861,0.176729694008827,-0.00424849661067128,-0.012565465644002,-0.00889327749609947,0.0206288136541843,-0.0465075224637985
862,0.182596161961555,0.00527379661798477,-0.00268825888633728,0.00077566527761519,0.0304676741361618,-0.0399385318160057
863,0.184632062911987,0.0135527886450291,0.00363861559890211,0.0089479424059391,0.0380252413451672,-0.032335065305233
864,0.182221978902817,0.0199042949825525,0.00833782553672791,0.0150394169613719,0.042596273124218,-0.0229229591786861
865,0.176675945520401,0.0240823850035667,0.0123071428388357,0.0186751522123814,0.0437078066170216,-0.0132536357268691
866,0.169879481196404,0.0273419115692377,0.0159876793622971,0.0209402795881033,0.0426193848252296,-0.0049193468876183
867,0.163498982787132,0.0315855741500854,0.0202330909669399,0.0237562377005816,0.0417081639170647,0.00154460372868925
868,0.159713879227638,0.0384755320847034,0.0255783330649138,0.028432335704565,0.0432512536644936,0.00695534562692046
869,0.159910500049591,0.0477207526564598,0.0307409204542637,0.0342558734118938,0.0472867228090763,0.0134426020085812
870,0.163366377353668,0.0572463199496269,0.0336756780743599,0.039130974560976,0.0514626316726208,0.0220333021134138
871,0.170016512274742,0.0662513822317123,0.0356078520417213,0.0428385511040688,0.0556980296969414,0.0311556179076433
872,0.181348815560341,0.0764978900551796,0.0408346876502037,0.0482974052429199,0.0637233778834343,0.040672555565834
873,0.196262672543526,0.0911376625299454,0.0517117157578468,0.0578763112425804,0.0768745541572571,0.0545518696308136
874,0.209268480539322,0.111829541623592,0.0644658580422401,0.0684990435838699,0.0886438265442848,0.072508342564106
875,0.216965764760971,0.135686203837395,0.0746507495641708,0.0763673111796379,0.0944085344672203,0.0869695022702217
876,0.221869289875031,0.154975891113281,0.082818865776062,0.0820764005184174,0.0997111722826958,0.0920861437916756
877,0.2258230894804,0.162011712789536,0.0877049043774605,0.0843664035201073,0.106740549206734,0.0854218006134033
878,0.227401584386826,0.156496837735176,0.0861061960458755,0.0800841152667999,0.107944622635841,0.0681712403893471
879,0.228443965315819,0.14772655069828,0.0814777165651321,0.0731438025832176,0.100394517183304,0.0504670068621635
880,0.234609976410866,0.145587012171745,0.0804470255970955,0.071507528424263,0.0916533619165421,0.0452616550028324
881,0.247888088226318,0.150284767150879,0.0837642475962639,0.0770876929163933,0.0896717980504036,0.0567938312888145
882,0.263849467039108,0.156161844730377,0.0872583836317062,0.0860955715179443,0.0954882726073265,0.0785950049757957
883,0.275266945362091,0.161504864692688,0.086790919303894,0.0939900502562523,0.102752812206745,0.0985121876001358
884,0.277219325304031,0.167297914624214,0.0806307569146156,0.0986183285713196,0.102491021156311,0.108221359550953
885,0.271498620510101,0.173726439476013,0.0724742040038109,0.101509340107441,0.0941490307450294,0.110909827053547
886,0.265130341053009,0.180983871221542,0.0693821460008621,0.105005145072937,0.0872076228260994,0.11740193516016
887,0.262218773365021,0.186370730400085,0.0732663348317146,0.108210563659668,0.0876289680600166,0.129886388778687
888,0.260731399059296,0.18761582672596,0.0784681811928749,0.107282251119614,0.091027520596981,0.138715356588364
889,0.256044507026672,0.186984837055206,0.0777042210102081,0.0991531237959862,0.0892075449228287,0.137237384915352
890,0.245282605290413,0.185326561331749,0.0692053437232971,0.0854401439428329,0.0783698111772537,0.123508393764496
891,0.229914128780365,0.180532082915306,0.0580774545669556,0.0713498964905739,0.0629312545061111,0.0964714586734772
892,0.21402134001255,0.172923266887665,0.0493815802037716,0.0585759542882442,0.0507117696106434,0.060526680201292
893,0.202730149030685,0.160872310400009,0.0401678197085857,0.0417921543121338,0.042529609054327,0.021497406065464
894,0.198222205042839,0.13982355594635,0.0242217797785997,0.017304353415966,0.0323611162602901,-0.0175456833094358
895,0.193932637572289,0.116845466196537,0.00527604855597019,-0.00490804389119148,0.0207430925220251,-0.0414070934057236
896,0.183831110596657,0.10633309930563,-0.00394268333911896,-0.0105183878913522,0.016569197177887,-0.0278993025422096
897,0.171888187527657,0.108334638178349,0.00152304710354656,-0.00165226764511317,0.0203146561980248,0.0144956195726991
898,0.162926897406578,0.111268192529678,0.0123706655576825,0.00805685203522444,0.0225959755480289,0.0485398545861244
899,0.157536298036575,0.110806241631508,0.0175112579017878,0.0118895620107651,0.0189694277942181,0.0541978552937508
900,0.157742500305176,0.111795388162136,0.0144367218017578,0.0123913902789354,0.0109303621575236,0.0488245077431202
901,0.165638834238052,0.117297567427158,0.0071065784431994,0.0125768855214119,-0.0011489778989926,0.0521020404994488
902,0.175588250160217,0.125494137406349,-0.000692213710863143,0.0106393797323108,-0.0167144499719143,0.0528402142226696
903,0.179082944989204,0.133651196956635,-0.00638147164136171,0.00551782362163067,-0.0284094866365194,0.0312584042549133
904,0.173764526844025,0.136626020073891,-0.010811279527843,-0.00137921050190926,-0.0321137495338917,-0.0158741232007742
905,0.158794194459915,0.126207962632179,-0.0215103477239609,-0.0146259972825646,-0.0386019088327885,-0.0803002491593361
906,0.13612899184227,0.103632427752018,-0.0395245179533958,-0.0373043827712536,-0.0520752482116222,-0.144762367010117
907,0.112934373319149,0.0831184610724449,-0.0544077195227146,-0.0590157583355904,-0.0602654963731766,-0.18436661362648
908,0.0922276452183723,0.0724403560161591,-0.0617012307047844,-0.0687753260135651,-0.0575830191373825,-0.183433398604393
909,0.0745258256793022,0.0646106079220772,-0.0655481442809105,-0.0684777498245239,-0.0494650416076183,-0.148961037397385
910,0.0628965422511101,0.052635844796896,-0.0683278664946556,-0.066204197704792,-0.041926734149456,-0.103559620678425
911,0.0573704615235329,0.0403443314135075,-0.0702568590641022,-0.0653702840209007,-0.0403673946857452,-0.0685833245515823
912,0.0549656003713608,0.036816094070673,-0.0720607861876488,-0.0645647644996643,-0.0478162243962288,-0.050753228366375
913,0.0540172159671783,0.0445858798921108,-0.0731777548789978,-0.0614220462739468,-0.0615648776292801,-0.0386412404477596
914,0.0507175959646702,0.0521696396172047,-0.0739370211958885,-0.0563803128898144,-0.077378898859024,-0.0237534269690514
915,0.0389031358063221,0.0452427826821804,-0.0789567157626152,-0.0562336146831512,-0.0946526750922203,-0.0200295001268387
916,0.017968513071537,0.0255203396081924,-0.0899385064840317,-0.0664539262652397,-0.111710444092751,-0.0433111004531384
917,-0.00678769778460264,0.0047840247862041,-0.103181801736355,-0.0843332707881927,-0.124493002891541,-0.0890038385987282
918,-0.0297694578766823,-0.00982625223696232,-0.114533461630344,-0.102889500558376,-0.130159184336662,-0.138516739010811
919,-0.0500147081911564,-0.0180901866406202,-0.123499326407909,-0.118227832019329,-0.130700916051865,-0.176158100366592
920,-0.0731262192130089,-0.0272978153079748,-0.137213215231895,-0.134724661707878,-0.136544495820999,-0.199683681130409
921,-0.0995330289006233,-0.0443615578114986,-0.159605771303177,-0.155372440814972,-0.153475299477577,-0.213175773620605
922,-0.118209101259708,-0.0644005313515663,-0.182928919792175,-0.173514038324356,-0.173335999250412,-0.217912822961807
923,-0.121257789433002,-0.0778417885303497,-0.198361501097679,-0.182458996772766,-0.187514945864677,-0.214967727661133
924,-0.111737236380577,-0.0821856334805489,-0.2013830691576,-0.181887283921242,-0.193104848265648,-0.205241844058037
925,-0.0980345085263252,-0.0822275653481483,-0.193943470716476,-0.175936385989189,-0.191545218229294,-0.189246565103531
926,-0.0876948833465576,-0.0822374522686005,-0.184051752090454,-0.167814135551453,-0.188112810254097,-0.167309552431107
927,-0.0838984251022339,-0.0792944803833961,-0.17656421661377,-0.156292870640755,-0.186684086918831,-0.139578878879547
928,-0.0874631553888321,-0.070887990295887,-0.172588720917702,-0.142767086625099,-0.189245373010635,-0.111242339015007
929,-0.0976934880018234,-0.0630197674036026,-0.172947660088539,-0.13381065428257,-0.196183145046234,-0.0897373259067535
930,-0.109880097210407,-0.0618513748049736,-0.175441697239876,-0.132222831249237,-0.203666239976883,-0.0769884884357452
931,-0.119026713073254,-0.0660923793911934,-0.176020607352257,-0.134748727083206,-0.206820726394653,-0.0738445222377777
932,-0.126463696360588,-0.0727924481034279,-0.175272881984711,-0.140023306012154,-0.206984803080559,-0.0866206958889961
933,-0.135455369949341,-0.0806428715586662,-0.175356417894363,-0.148731470108032,-0.208951115608215,-0.117181070148945
934,-0.144238710403442,-0.0860273241996765,-0.173358350992203,-0.158006578683853,-0.211635887622833,-0.153201773762703
935,-0.14995564520359,-0.0878779292106628,-0.167390584945679,-0.164149209856987,-0.210132867097855,-0.179464221000671
936,-0.153421089053154,-0.0927018225193024,-0.162059143185616,-0.168374538421631,-0.203367859125137,-0.194399043917656
937,-0.158990666270256,-0.107276491820812,-0.165325835347176,-0.177563935518265,-0.195369496941566,-0.209915965795517
938,-0.170175656676292,-0.130097821354866,-0.180449023842812,-0.196109712123871,-0.190880835056305,-0.234686627984047
939,-0.185141444206238,-0.152615919709206,-0.198924466967583,-0.218140468001366,-0.190955981612206,-0.260043978691101
940,-0.197678700089455,-0.167180582880974,-0.209240555763245,-0.233109846711159,-0.193290799856186,-0.268439650535584
941,-0.204428821802139,-0.170824438333511,-0.211887001991272,-0.237121716141701,-0.198284536600113,-0.255134046077728
942,-0.209490448236465,-0.166341751813889,-0.215267807245255,-0.233014896512032,-0.21018198132515,-0.23117783665657
943,-0.215690895915031,-0.1604885160923,-0.220547243952751,-0.221833989024162,-0.227583691477776,-0.207171335816383
944,-0.220891490578651,-0.157089084386826,-0.222716584801674,-0.20488329231739,-0.242763876914978,-0.187060192227364
945,-0.224106594920158,-0.155716836452484,-0.220856085419655,-0.188940599560738,-0.25139856338501,-0.174421086907387
946,-0.2248804718256,-0.156116738915443,-0.217167347669601,-0.179563507437706,-0.253508776426315,-0.172125250101089
947,-0.223234057426453,-0.160039678215981,-0.212700128555298,-0.176771745085716,-0.249980837106705,-0.177032917737961
948,-0.220783337950706,-0.169007614254951,-0.207143440842628,-0.178368210792542,-0.241612136363983,-0.182046562433243
949,-0.219804033637047,-0.183002963662148,-0.201849415898323,-0.183615267276764,-0.230647444725037,-0.186061948537827
950,-0.22674335539341,-0.20172081887722,-0.202221274375916,-0.195054098963737,-0.223586112260818,-0.196332976222038
951,-0.243438616394997,-0.219910755753517,-0.208196043968201,-0.209952548146248,-0.222904339432716,-0.213632732629776
952,-0.260000079870224,-0.228651493787766,-0.212192267179489,-0.219154506921768,-0.223416984081268,-0.228258028626442
953,-0.269239574670792,-0.225433185696602,-0.212531358003616,-0.219949051737785,-0.223211228847504,-0.234315559267998
954,-0.27041482925415,-0.215022146701813,-0.213592171669006,-0.215360999107361,-0.224137902259827,-0.233551368117332
955,-0.262680619955063,-0.205666601657867,-0.215774565935135,-0.207409635186195,-0.224916085600853,-0.228996768593788
956,-0.24971829354763,-0.202048450708389,-0.215244963765144,-0.198892012238503,-0.222280785441399,-0.221526741981506
957,-0.241466179490089,-0.200112491846085,-0.211615592241287,-0.193339422345161,-0.214981138706207,-0.209601581096649
958,-0.242780268192291,-0.194838836789131,-0.207656532526016,-0.190165191888809,-0.201808542013168,-0.191360861063004
959,-0.248181611299515,-0.187032029032707,-0.203006789088249,-0.185661166906357,-0.18243870139122,-0.16996394097805
960,-0.25249907374382,-0.181896656751633,-0.198173016309738,-0.181230470538139,-0.165257960557938,-0.155397310853004
961,-0.25410521030426,-0.183796241879463,-0.194635733962059,-0.181020021438599,-0.159713193774223,-0.155844300985336
962,-0.252095133066177,-0.19164103269577,-0.191018968820572,-0.184391409158707,-0.164400815963745,-0.170787751674652
963,-0.250626683235168,-0.200585350394249,-0.188195079565048,-0.18920923769474,-0.173342913389206,-0.193622425198555
964,-0.254247218370438,-0.205905795097351,-0.188610404729843,-0.194224789738655,-0.181684836745262,-0.215026244521141
965,-0.260056227445602,-0.207505196332932,-0.1924067735672,-0.198017552495003,-0.185379192233086,-0.226657137274742
966,-0.261351823806763,-0.210687860846519,-0.196644812822342,-0.199874699115753,-0.183245047926903,-0.227053090929985
967,-0.255450457334518,-0.217897459864616,-0.1967703551054,-0.199260517954826,-0.177383348345757,-0.22092267870903
968,-0.244226947426796,-0.224179118871689,-0.191032961010933,-0.195109367370605,-0.171069160103798,-0.211205139756203
969,-0.23030161857605,-0.224733531475067,-0.180927917361259,-0.186986148357391,-0.166927367448807,-0.197694107890129
970,-0.217311784625053,-0.220166489481926,-0.168788030743599,-0.176158934831619,-0.165074408054352,-0.181779801845551
971,-0.209659695625305,-0.214509204030037,-0.158512771129608,-0.166577592492104,-0.164711818099022,-0.168456643819809
972,-0.207775518298149,-0.210947528481483,-0.154134511947632,-0.161526799201965,-0.165591299533844,-0.161213025450706
973,-0.205410048365593,-0.205307975411415,-0.153975769877434,-0.157982423901558,-0.163949146866798,-0.154376700520515
974,-0.197438761591911,-0.19250351190567,-0.153794765472412,-0.152355328202248,-0.155248448252678,-0.141009122133255
975,-0.185441583395004,-0.178384780883789,-0.15157949924469,-0.145523637533188,-0.138662710785866,-0.123243637382984
976,-0.175333186984062,-0.173707664012909,-0.146452859044075,-0.140613421797752,-0.116601698100567,-0.109039641916752
977,-0.171203970909119,-0.181681379675865,-0.139202877879143,-0.14037974178791,-0.0941697433590889,-0.106262750923634
978,-0.168177962303162,-0.193798422813416,-0.131697997450829,-0.142167434096336,-0.0753923505544662,-0.11493942886591
979,-0.16026346385479,-0.197234317660332,-0.126548618078232,-0.141661152243614,-0.0633454993367195,-0.127643436193466
980,-0.149159401655197,-0.187707990407944,-0.124827690422535,-0.137782722711563,-0.061738945543766,-0.139164179563522
981,-0.139865830540657,-0.172765642404556,-0.125381916761398,-0.131501406431198,-0.0720729678869247,-0.149311423301697
982,-0.135367661714554,-0.162446141242981,-0.127583965659142,-0.125726044178009,-0.0914818421006203,-0.159041836857796
983,-0.134695425629616,-0.159508183598518,-0.128880798816681,-0.121898248791695,-0.112022541463375,-0.166339263319969
984,-0.136658772826195,-0.160431504249573,-0.126025557518005,-0.119783267378807,-0.125664860010147,-0.168450251221657
