,AF3,AF4,Fp1,Fp2,AF7,AF8
0,0.0501354187726974,-0.0287969522178173,-0.0220914576202631,-0.00693642208352685,-0.0179217718541622,0.0020113829523325
1,0.0601241588592529,-0.019450630992651,-0.0105658676475286,0.00195034197531641,-0.00682758912444115,0.015494822524488
2,0.0716063976287842,-0.0102406088262796,0.00178547203540802,0.00991079770028591,0.00545540824532509,0.0223686266690493
3,0.0797570943832397,-0.00415276363492012,0.00972387194633484,0.0130886062979698,0.0119941914454103,0.020783431828022
4,0.08366759121418,-0.00080337660619989,0.0121119134128094,0.0124731156975031,0.0112816337496042,0.0143741369247437
5,0.0853285789489746,0.00291443965397775,0.0118382489308715,0.0115055721253157,0.00803415849804878,0.00827897153794765
6,0.0860435366630554,0.0098249539732933,0.0116420481353998,0.0117382444441319,0.00667371088638902,0.0046614003367722
7,0.0852449461817741,0.0180373955518007,0.0118099665269256,0.0121838161721826,0.00746288895606995,0.00240383693017066
8,0.0822747573256493,0.0217675566673279,0.0119697730988264,0.0112191373482347,0.0084488783031702,-0.000326733541442081
9,0.0792713090777397,0.0194739438593388,0.0141603704541922,0.00963624287396669,0.0105180134996772,-0.00227681617252529
10,0.0780463367700577,0.0131387207657099,0.0178980585187674,0.00847925152629614,0.0145395370200276,-0.00200093071907759
11,0.0781959965825081,0.0047385236248374,0.0187440440058708,0.00727978302165866,0.0179924536496401,-0.00104093400295824
12,0.0803287401795387,-0.00252696522511542,0.0158534348011017,0.00660724192857742,0.0184987466782331,3.98753691115417E-05
13,0.084754966199398,-0.00634643295779824,0.0128972046077251,0.00699266046285629,0.0149972466751933,0.00211782939732075
14,0.0896948724985123,-0.00728635583072901,0.0112569723278284,0.00707226851955056,0.00742901396006346,0.00465823570266366
15,0.094417504966259,-0.00652236584573984,0.00870757456868887,0.00628848467022181,-0.00163775007240474,0.00702671706676483
16,0.0997723191976547,-0.00498160813003778,0.00410331087186933,0.00523308152332902,-0.00899971555918455,0.00884538050740957
17,0.104923292994499,-0.00378324650228024,-0.0016542273806408,0.00347726396284997,-0.0140212988480926,0.00898859929293394
18,0.108537793159485,-0.00242395489476621,-0.00634524179622531,0.00107109500095248,-0.0163668673485518,0.00747950933873653
19,0.111680671572685,0.000510552432388067,-0.00784350000321865,-0.000721155141945928,-0.0138852661475539,0.00522750802338123
20,0.116487577557564,0.00546903489157557,-0.00534905912354589,-0.000553080055397004,-0.0056424024514854,0.0030132366809994
21,0.122465267777443,0.0104993348941207,-0.000733572174794972,0.000380913261324167,0.00315389665775001,0.000441830896306783
22,0.127146184444427,0.0125796133652329,0.00184716982766986,-0.00118178909178823,0.00514018349349499,-0.00363467400893569
23,0.129846051335335,0.0117972195148468,0.000725975376553833,-0.00551143335178494,4.961392187397E-05,-0.00796571373939514
24,0.130962669849396,0.00986001174896955,-0.00301034655421972,-0.0107990121468902,-0.00721550639718771,-0.0116343293339014
25,0.13149730861187,0.00783319491893053,-0.00697158789262176,-0.0154266376048326,-0.0126115530729294,-0.0156726744025946
26,0.131929591298103,0.00551028130576015,-0.0101542863994837,-0.0192577969282866,-0.0162302646785975,-0.0208539143204689
27,0.130782127380371,0.0017076168442145,-0.0147067736834288,-0.0238290727138519,-0.0223250146955252,-0.0262536760419607
28,0.128889858722687,-0.00206355634145439,-0.0202008355408907,-0.0282195173203945,-0.0324284993112087,-0.0290131028741598
29,0.130194216966629,-0.00247335224412382,-0.023044615983963,-0.0298281777650118,-0.0419507324695587,-0.0276035815477371
30,0.135794475674629,0.000648769841063768,-0.0226767510175705,-0.0289905965328217,-0.0462511442601681,-0.0239265020936728
31,0.14295619726181,0.00435467297211289,-0.022165747359395,-0.0282798018306494,-0.0452972240746021,-0.0222664624452591
32,0.149556890130043,0.00533704832196236,-0.0248252246528864,-0.0297055821865797,-0.0422788262367249,-0.0269733723253012
33,0.155348673462868,0.00204734946601093,-0.0315127968788147,-0.0339382030069828,-0.0406876169145107,-0.0391944088041782
34,0.159713760018349,-0.00442684115841985,-0.0403376929461956,-0.0407061316072941,-0.0423226952552795,-0.0564166866242886
35,0.160636126995087,-0.0138263469561934,-0.0507125817239285,-0.051184207201004,-0.0484598688781261,-0.0771865695714951
36,0.159017607569695,-0.0258848406374455,-0.0621068701148033,-0.065158948302269,-0.0585664212703705,-0.100051030516624
37,0.160942241549492,-0.0348382703959942,-0.0691783577203751,-0.0762012973427773,-0.0668427422642708,-0.118013583123684
38,0.169823095202446,-0.0345836356282234,-0.0673467889428139,-0.0790011063218117,-0.0680679902434349,-0.125115752220154
39,0.181181013584137,-0.0277302879840136,-0.0598774030804634,-0.0771239325404167,-0.0653483644127846,-0.124760925769806
40,0.189051911234856,-0.0210669934749603,-0.0541524365544319,-0.076490730047226,-0.065422385931015,-0.122817769646645
41,0.191880092024803,-0.0178810581564903,-0.0550925694406033,-0.0790780186653137,-0.0705391392111778,-0.121805623173714
42,0.191766977310181,-0.0187111869454384,-0.0622066669166088,-0.0846671834588051,-0.0780475810170174,-0.12312962859869
43,0.193416595458984,-0.0210844688117504,-0.0701196417212486,-0.0901997685432434,-0.0830866992473602,-0.12459497153759
44,0.200184598565102,-0.0221056807786226,-0.0753674507141113,-0.0929410830140114,-0.0834252387285233,-0.123441711068153
45,0.209013223648071,-0.0231763385236263,-0.0800731331110001,-0.0955603793263435,-0.0813324898481369,-0.122456043958664
46,0.214836210012436,-0.0253833420574665,-0.085617333650589,-0.100133113563061,-0.078561969101429,-0.124999225139618
47,0.216942369937897,-0.0271481052041054,-0.0898501351475716,-0.104550868272781,-0.0757368206977844,-0.131333470344543
48,0.216296583414078,-0.0289561245590448,-0.0930042490363121,-0.108317494392395,-0.075462318956852,-0.141373440623283
49,0.213159546256065,-0.0329773090779781,-0.0993065387010574,-0.113680332899094,-0.0811156556010246,-0.15466533601284
50,0.211128979921341,-0.0371894724667072,-0.107980944216251,-0.119365572929382,-0.0915625244379044,-0.165757581591606
51,0.214195743203163,-0.0370891727507114,-0.112623170018196,-0.12121295183897,-0.10146589577198,-0.168100669980049
52,0.220636442303658,-0.0333649106323719,-0.111422993242741,-0.119505912065506,-0.107519336044788,-0.163889840245247
53,0.227007552981377,-0.0298762246966362,-0.10700211673975,-0.117206104099751,-0.108665697276592,-0.15937764942646
54,0.232960820198059,-0.0268284920603037,-0.10052066296339,-0.114073164761066,-0.104522563517094,-0.156252473592758
55,0.238768428564072,-0.0230016950517893,-0.0939919129014015,-0.109468705952168,-0.0981662720441818,-0.154690399765968
56,0.243333354592323,-0.0197858009487391,-0.0914588123559952,-0.10556198656559,-0.0946966037154198,-0.156384587287903
57,0.245601639151573,-0.01928835734725,-0.0935903862118721,-0.104463577270508,-0.0964735299348831,-0.161480158567429
58,0.245729804039001,-0.0217876061797142,-0.0962932631373405,-0.106243275105953,-0.101710177958012,-0.167673245072365
59,0.24426506459713,-0.0245183128863573,-0.0954328775405884,-0.109935231506824,-0.105687409639359,-0.173081859946251
60,0.240297213196754,-0.0255815181881189,-0.0924468189477921,-0.115804627537727,-0.106208510696888,-0.177745699882507
61,0.235177367925644,-0.0254814028739929,-0.0922115966677666,-0.123455807566643,-0.104823395609856,-0.18059603869915
62,0.234190657734871,-0.0240649525076151,-0.0961893051862717,-0.128950789570808,-0.102021254599094,-0.178626403212547
63,0.239366859197617,-0.024273756891489,-0.103799998760223,-0.129647672176361,-0.0998420640826225,-0.173081293702126
64,0.247887521982193,-0.0295935422182083,-0.11442381888628,-0.126951590180397,-0.102933302521706,-0.169088616967201
65,0.258665561676025,-0.0354438535869122,-0.123581200838089,-0.121068380773067,-0.109551198780537,-0.167145982384682
66,0.270988583564758,-0.0363911502063274,-0.126857221126556,-0.111787036061287,-0.113405123353004,-0.165142878890038
67,0.280899345874786,-0.0333709456026554,-0.124687038362026,-0.101394392549992,-0.112517707049847,-0.163188382983208
68,0.286421298980713,-0.0288735367357731,-0.118462778627872,-0.091627836227417,-0.108307123184204,-0.160814508795738
69,0.288458287715912,-0.0256257969886065,-0.110099442303181,-0.0834825560450554,-0.104075044393539,-0.157608404755592
70,0.286251664161682,-0.0256647206842899,-0.103118069469929,-0.0782305151224136,-0.10334088653326,-0.154961735010147
71,0.278413712978363,-0.0285223536193371,-0.0992156937718391,-0.0764715820550919,-0.105508849024773,-0.153961405158043
72,0.265901446342468,-0.0337735898792744,-0.0969321355223656,-0.0782404094934464,-0.105899475514889,-0.15443429350853
73,0.252904444932938,-0.0399708487093449,-0.0929617062211037,-0.0809068828821182,-0.100095726549625,-0.153079479932785
74,0.245596468448639,-0.043019600212574,-0.0854298174381256,-0.0787520110607147,-0.0887051746249199,-0.143949404358864
75,0.247256949543953,-0.0400753505527973,-0.0760307610034943,-0.0685321465134621,-0.0767686665058136,-0.125936761498451
76,0.254312366247177,-0.0316975153982639,-0.0671729743480682,-0.0529673993587494,-0.0695692226290703,-0.105516895651817
77,0.259496033191681,-0.0224817413836718,-0.0602365210652351,-0.0385838225483894,-0.0690274238586426,-0.0901088938117027
78,0.257357209920883,-0.0190661046653986,-0.0572006665170193,-0.0314668528735638,-0.0724749490618706,-0.0841238126158714
79,0.24555678665638,-0.0248584821820259,-0.0623077601194382,-0.0353038460016251,-0.0781341195106506,-0.0912843719124794
80,0.227017343044281,-0.037612572312355,-0.0762913227081299,-0.0480015464127064,-0.0852599069476128,-0.109518110752106
81,0.209390386939049,-0.0510610491037369,-0.0917300209403038,-0.0615948438644409,-0.0893455445766449,-0.127793341875076
82,0.196672841906548,-0.0609554275870323,-0.102193899452686,-0.0710410177707672,-0.0878291502594948,-0.138592481613159
83,0.187599912285805,-0.0668124258518219,-0.107260964810848,-0.075826495885849,-0.0839154645800591,-0.143147692084312
84,0.182331934571266,-0.0678554996848106,-0.106898754835129,-0.0746193155646324,-0.0799640119075775,-0.142757564783096
85,0.180742263793945,-0.0648878067731857,-0.101466119289398,-0.067745178937912,-0.0758998990058899,-0.137587741017342
86,0.179598271846771,-0.0615615583956242,-0.092978723347187,-0.0589049533009529,-0.0710689499974251,-0.129924118518829
87,0.177456274628639,-0.0605619996786118,-0.0833137258887291,-0.0513767451047897,-0.0643272995948792,-0.122222706675529
88,0.175200060009956,-0.0612237975001335,-0.0742272362112999,-0.0462036281824112,-0.0562575161457062,-0.114426158368587
89,0.172108113765717,-0.0608898252248764,-0.0658755898475647,-0.0426911637187004,-0.0482726246118546,-0.104667268693447
90,0.166288629174232,-0.0592077970504761,-0.0575402677059174,-0.0406332574784756,-0.0413173213601112,-0.0934974476695061
91,0.157267466187477,-0.0583032183349133,-0.0509961508214474,-0.040964987128973,-0.0375634953379631,-0.0838252305984497
92,0.146980792284012,-0.0576732829213142,-0.0474331751465797,-0.0426648072898388,-0.0379409529268742,-0.0762525126338005
93,0.138761922717094,-0.054166104644537,-0.0452039837837219,-0.042302530258894,-0.0394883342087269,-0.0683607533574104
94,0.135682418942451,-0.0474519282579422,-0.0431744419038296,-0.0382098630070686,-0.0394749753177166,-0.0587812066078186
95,0.140147984027863,-0.0394392721354961,-0.039988923817873,-0.030728617683053,-0.0381126664578915,-0.0468669719994068
96,0.15120804309845,-0.030718382447958,-0.0350779928267002,-0.0212147329002619,-0.0374834761023521,-0.0301601178944111
97,0.163513004779816,-0.021315012127161,-0.0311377458274364,-0.0118170185014606,-0.0394134819507599,-0.00943978503346443
98,0.171095058321953,-0.0144615629687905,-0.0309711154550314,-0.00383519195020199,-0.0431248731911182,0.0076785902492702
99,0.17021144926548,-0.0157823134213686,-0.0356400273740292,0.000852047000080347,-0.0476579926908016,0.0128051415085793
100,0.161348611116409,-0.0262161772698164,-0.0434927083551884,0.000299805717077106,-0.0525781475007534,0.00467560766264796
101,0.148788660764694,-0.0410602912306786,-0.0498167648911476,-0.00426349742338061,-0.055241547524929,-0.0103812273591757
102,0.136797830462456,-0.0549615472555161,-0.0510446839034557,-0.00944004487246275,-0.0533666275441647,-0.0254542995244265
103,0.127213060855865,-0.0648500174283981,-0.0481114014983177,-0.0138961421325803,-0.0481265150010586,-0.0379892289638519
104,0.120023436844349,-0.0703611373901367,-0.0437735728919506,-0.018886961042881,-0.0411647222936153,-0.047640860080719
105,0.114309728145599,-0.0720837190747261,-0.0386644341051579,-0.0245788805186749,-0.031714852899313,-0.0532287769019604
106,0.109372824430466,-0.0703445822000504,-0.0323591977357864,-0.0287274662405252,-0.0193622279912233,-0.0534423254430294
107,0.107063166797161,-0.0646488592028618,-0.0243013165891171,-0.0270670372992754,-0.00516783865168691,-0.046211801469326
108,0.109085015952587,-0.0554876625537872,-0.0141661977395415,-0.0175609905272722,0.00897509232163429,-0.0299371443688869
109,0.113359399139881,-0.0453515350818634,-0.0032983710989356,-0.00473765563219786,0.0199442282319069,-0.00602033175528049
110,0.117168985307217,-0.0347881093621254,0.00636022025719285,0.00605707941576838,0.0264288410544395,0.0229748617857695
111,0.119419753551483,-0.0240522306412458,0.0124800940975547,0.0136074963957071,0.0291301161050797,0.05136564001441
112,0.11930026859045,-0.0161650478839874,0.0134810376912355,0.0179631449282169,0.0272692665457726,0.0698589012026787
113,0.115447446703911,-0.0134642524644732,0.0108738532289863,0.0186479780822992,0.0195663329213858,0.0724423825740814
114,0.107452869415283,-0.0148820392787457,0.00777020771056414,0.0164714846760035,0.00843962840735912,0.0611629001796246
115,0.0960828885436058,-0.0182046201080084,0.00424487981945276,0.0126108806580305,-0.00186895288061351,0.0425276905298233
116,0.0828740373253822,-0.0220647547394037,-0.000650237605441362,0.00776175502687693,-0.00812132377177477,0.0227964129298925
117,0.0712978839874268,-0.0252719670534134,-0.00334984459914267,0.00455201370641589,-0.0069578168913722,0.00809256266802549
118,0.063882552087307,-0.0276429336518049,-0.000898153986781836,0.00605592876672745,0.00137083372101188,0.00304796476848423
119,0.0606033205986023,-0.0290881283581257,0.00517193367704749,0.0128442365676165,0.0124809285625815,0.00875266641378403
120,0.0613988824188709,-0.0283862482756376,0.0123244104906917,0.0227042809128761,0.0230731274932623,0.0229722913354635
121,0.0647754445672035,-0.0258197095245123,0.0176954716444016,0.0312808975577354,0.031575296074152,0.0400518663227558
122,0.0642010420560837,-0.0257126558572054,0.0166396349668503,0.0328066609799862,0.0343764871358871,0.0513327680528164
123,0.0524950958788395,-0.0321201495826244,0.00620285933837295,0.0241234712302685,0.0279091000556946,0.0525969080626965
124,0.0325961336493492,-0.0405682809650898,-0.00733040878549218,0.0110525703057647,0.0171258263289928,0.0529744029045105
125,0.0151908146217465,-0.0438443347811699,-0.0132521921768785,0.00360696506686509,0.0120337400585413,0.0643505305051804
126,0.00510520720854402,-0.044526144862175,-0.00937413983047009,0.0039549870416522,0.0154509264975786,0.0823588445782661
127,0.000958894437644631,-0.0476791299879551,-0.000195430868188851,0.00858640111982822,0.0242692716419697,0.0930026993155479
128,0.0032110542524606,-0.0493031553924084,0.0117159597575665,0.0171404723078012,0.0389477126300335,0.0918600261211395
129,0.0126795452088118,-0.0437667816877365,0.0251148175448179,0.0294105522334576,0.0602031089365482,0.0839365720748901
130,0.0252377279102802,-0.0343116037547588,0.0362153276801109,0.039792500436306,0.0795807167887688,0.073050856590271
131,0.0353745296597481,-0.0281527899205685,0.04150465503335,0.0437528565526009,0.0863135159015656,0.0625204518437386
132,0.0415038540959358,-0.0271789189428091,0.0408101938664913,0.0430088751018047,0.0791116580367088,0.0567075423896313
133,0.0452036894857883,-0.0275514125823975,0.0366013012826443,0.0416291430592537,0.0656686276197433,0.0569076277315617
134,0.0471333786845207,-0.0264946036040783,0.0318347811698914,0.0413379035890102,0.0530430674552917,0.0607846230268478
135,0.0451433695852757,-0.0256071984767914,0.0281842369586229,0.0409243926405907,0.0412841811776161,0.0655693411827087
136,0.0388812683522701,-0.0258081685751677,0.0276313535869122,0.0405385382473469,0.0292006079107523,0.0712796598672867
137,0.0315313078463078,-0.0257609337568283,0.0311983823776245,0.0412926189601421,0.018640561029315,0.0790881142020226
138,0.0269704293459654,-0.023685110732913,0.0385663658380508,0.0436869040131569,0.0139363529160619,0.0896074548363686
139,0.0261748805642128,-0.0188348516821861,0.0488360226154327,0.0477058440446854,0.0185417626053095,0.100854143500328
140,0.0249329768121243,-0.0138045884668827,0.0572231858968735,0.0507756173610687,0.0291601158678532,0.106399364769459
141,0.0192318428307772,-0.0118275471031666,0.0578731782734394,0.0500185862183571,0.039854995906353,0.101015351712704
142,0.0100852502509952,-0.0117227723821998,0.0511577427387238,0.045806460082531,0.0496760495007038,0.0863500386476517
143,0.000432454340625554,-0.0104260761290789,0.0422310829162598,0.0406871177256107,0.0602493584156036,0.0691668391227722
144,-0.00925630703568459,-0.0107824886217713,0.0338501185178757,0.0360097959637642,0.0684174820780754,0.0555950962007046
145,-0.0183182805776596,-0.0172575693577528,0.0257460791617632,0.0315693505108356,0.0673848092556,0.0480088666081429
146,-0.02034249342978,-0.0254412740468979,0.0204270519316196,0.0300455205142498,0.0577917471528053,0.0482166968286037
147,-0.00985532719641924,-0.027938399463892,0.0218364149332047,0.0351337604224682,0.0486032739281654,0.0573819279670715
148,0.0100206462666392,-0.0238355249166489,0.0294192992150784,0.045486643910408,0.0456845387816429,0.0726257562637329
149,0.0323017463088036,-0.0166323892772198,0.0391004234552383,0.0567749068140984,0.0481204353272915,0.0893884375691414
150,0.0511013194918633,-0.00988907460123301,0.0474856533110142,0.0660046935081482,0.0535860285162926,0.104224324226379
151,0.0626179575920105,-0.00594635820016265,0.0528080388903618,0.0713307186961174,0.0604916252195835,0.113851480185986
152,0.0673617050051689,-0.00468682078644633,0.0560095384716988,0.07302076369524,0.0672525689005852,0.117352195084095
153,0.068309597671032,-0.00457545230165124,0.060886088758707,0.0739986076951027,0.0728891789913177,0.117628529667854
154,0.0660552680492401,-0.00589009607210755,0.0684111714363098,0.0757158845663071,0.0776910334825516,0.116810441017151
155,0.0599834620952606,-0.0100283091887832,0.0741412863135338,0.0766527205705643,0.0822277367115021,0.115142129361629
156,0.0519295632839203,-0.0153809282928705,0.0745497420430183,0.0758421942591667,0.0862990617752075,0.113091364502907
157,0.0470263995230198,-0.0169598162174225,0.0727550238370895,0.0751868411898613,0.0906906500458717,0.111841320991516
158,0.0488631464540958,-0.0130981635302305,0.0738709270954132,0.0760624557733536,0.0955364778637886,0.111640714108944
159,0.0543372817337513,-0.00788258947432041,0.0773201584815979,0.0770496428012848,0.0980998128652573,0.110577523708344
160,0.0572157837450504,-0.00543090049177408,0.0781775265932083,0.0769529864192009,0.0966577604413033,0.10816041380167
161,0.0540207475423813,-0.00680897291749716,0.0730728507041931,0.0753827467560768,0.0919686630368233,0.10526505112648
162,0.0458288118243217,-0.0108163580298424,0.0633857399225235,0.072283610701561,0.0856545493006706,0.10193495452404
163,0.0363584458827972,-0.0148527007550001,0.0537117533385754,0.0684468969702721,0.0792325437068939,0.100166715681553
164,0.0282579455524683,-0.016746724024415,0.0472500696778297,0.0644082874059677,0.07261723279953,0.102169767022133
165,0.0205540750175714,-0.0170203596353531,0.0429779477417469,0.0593086928129196,0.0637333914637566,0.105486363172531
166,0.0119261024519801,-0.0154044972732663,0.0392504222691059,0.0530243664979935,0.0521631985902786,0.106612958014011
167,0.00561368884518743,-0.0102380849421024,0.0392511375248432,0.0488977208733559,0.0431475080549717,0.106921091675758
168,0.00461447797715664,-0.00505961943417788,0.0455240607261658,0.0493290573358536,0.0423642657697201,0.108075350522995
169,0.00832052249461412,-0.00308793201111257,0.0551546514034271,0.0534404888749123,0.050135713070631,0.108527608215809
170,0.0153505317866802,-0.000865409383550286,0.0653449967503548,0.0605168789625168,0.0629817992448807,0.107689335942268
171,0.0228050723671913,0.00348581257276237,0.0759193450212479,0.0689664930105209,0.0765366479754448,0.105789929628372
172,0.0273116212338209,0.00635188585147262,0.0864045023918152,0.0754021927714348,0.0876651778817177,0.102836012840271
173,0.0278268400579691,0.00534546189010143,0.0952355414628983,0.0782831907272339,0.0955598056316376,0.0997463166713715
174,0.0259941425174475,0.00252985069528222,0.101749278604984,0.0798885077238083,0.101478062570095,0.0978269726037979
175,0.0245915614068508,0.000506671145558357,0.105666227638721,0.0831903740763664,0.10611255466938,0.0976988300681114
176,0.0245883427560329,-0.000532160571310669,0.106242589652538,0.0875952616333961,0.109031103551388,0.0992369651794434
177,0.024152310565114,-0.0021660253405571,0.102699004113674,0.0890091210603714,0.110202215611935,0.102701254189014
178,0.0216220505535603,-0.00497578456997871,0.0957790389657021,0.08597481995821,0.110324785113335,0.10993629693985
179,0.0197461452335119,-0.00558869959786534,0.0895224139094353,0.0828721672296524,0.110541351139545,0.122019365429878
180,0.0228068251162767,-0.00136693334206939,0.0862442329525948,0.0824058577418327,0.109502136707306,0.133657902479172
181,0.0303971879184246,0.00427827052772045,0.0838600695133209,0.0817902088165283,0.10416080057621,0.13712452352047
182,0.0378106497228146,0.00617198692634702,0.0803597941994667,0.0776730105280876,0.093810647726059,0.129828244447708
183,0.0419129058718681,0.00329846446402371,0.0757704079151154,0.070397824048996,0.0805779024958611,0.114912763237953
184,0.0459105260670185,0.00021262132213451,0.0732573866844177,0.0654255226254463,0.0697024539113045,0.100250937044621
185,0.0527621731162071,0.000945541018154472,0.0761333629488945,0.0663598254323006,0.0645315051078796,0.0911557152867317
186,0.0576889887452126,0.00364240910857916,0.0823685079813004,0.0690712034702301,0.0609082877635956,0.0856274589896202
187,0.0548652671277523,0.00534764816984534,0.087318129837513,0.0685881674289703,0.0538332015275955,0.0805038958787918
188,0.044653132557869,0.00601141573861241,0.0876850709319115,0.0646211579442024,0.0449981763958931,0.0752423852682114
189,0.0326279327273369,0.0058894706889987,0.0825763493776321,0.0591399520635605,0.0403686799108982,0.0710606947541237
190,0.0242972951382399,0.00389754446223378,0.0736962184309959,0.0540072023868561,0.0427839234471321,0.0685550570487976
191,0.0211195833981037,0.000396332383388653,0.064756341278553,0.0512161254882813,0.0500090941786766,0.0673457831144333
192,0.0210511703044176,-0.00257861264981329,0.0593535602092743,0.0513025932013988,0.058375108987093,0.06719671189785
193,0.0217747744172812,-0.00373871601186693,0.0583241283893585,0.0527846999466419,0.0653613358736038,0.0676067844033241
194,0.0229899790138006,-0.00206799968145788,0.0610455349087715,0.0550142489373684,0.0708065629005432,0.0681164041161537
195,0.0245176944881678,0.00270914426073432,0.066209614276886,0.0577558018267155,0.0755785405635834,0.0686854049563408
196,0.0250982958823442,0.011149694211781,0.0717887729406357,0.0607543215155602,0.0797091796994209,0.0712619796395302
197,0.0237169396132231,0.0228525083512068,0.0768760293722153,0.0654391348361969,0.0837295800447464,0.079680860042572
198,0.019784364849329,0.0312117505818605,0.0807823315262794,0.0723515674471855,0.0896420702338219,0.0932534784078598
199,0.0129334079101682,0.0294317957013845,0.0822770819067955,0.0780874341726303,0.0963445752859116,0.103986002504826
200,0.0048846984282136,0.0201350171118975,0.0827365815639496,0.0798387080430985,0.0997343808412552,0.105985462665558
201,-0.0026434080209583,0.00996552221477032,0.0830212980508804,0.077317863702774,0.097695954144001,0.0992587804794312
202,-0.0119564943015575,0.00118237582501024,0.0788160189986229,0.0695112645626068,0.0887275338172913,0.0843825042247772
203,-0.0244373958557844,-0.00616420852020383,0.0674077868461609,0.0573864541947842,0.0730099007487297,0.0642814412713051
204,-0.0359548106789589,-0.0109892627224326,0.0537210330367088,0.0460790619254112,0.0557335503399372,0.0465685501694679
205,-0.0435323305428028,-0.0138556864112616,0.044006984680891,0.0393916182219982,0.041808195412159,0.036289919167757
206,-0.0485370084643364,-0.0162556301802397,0.0403635650873184,0.0370283573865891,0.0330986715853214,0.0333078131079674
207,-0.0512292832136154,-0.0168754905462265,0.0428254678845406,0.0379454419016838,0.0311904475092888,0.0380179025232792
208,-0.050663735717535,-0.0148325841873884,0.0489082410931587,0.0408859923481941,0.0352074205875397,0.048903938382864
209,-0.0484496206045151,-0.0119145289063454,0.0527699515223503,0.043538473546505,0.0404909960925579,0.0598948374390602
210,-0.047744132578373,-0.00967151671648026,0.0503793656826019,0.0443541258573532,0.042748149484396,0.0666150823235512
211,-0.0492495819926262,-0.00839866697788239,0.0436869449913502,0.0438282005488873,0.0419004783034325,0.0687878206372261
212,-0.0505984015762806,-0.00726921064779162,0.0382860861718655,0.0437796488404274,0.0413448624312878,0.0678365528583527
213,-0.0501721352338791,-0.00641814153641462,0.0372840911149979,0.0442534200847149,0.043324239552021,0.0642035156488419
214,-0.0505368374288082,-0.00952323712408543,0.0368423014879227,0.0409267134964466,0.0443110242486,0.0552255809307098
215,-0.0563670881092548,-0.019932622089982,0.0307578351348639,0.0292152240872383,0.0385626778006554,0.0388345010578632
216,-0.0663956701755524,-0.0339162759482861,0.0203373953700066,0.0125329187139869,0.0281970035284758,0.0195993203669786
217,-0.0720267817378044,-0.0406227484345436,0.0151503514498472,0.00247705332003534,0.0229769609868526,0.0085963262245059
218,-0.0687336772680283,-0.0313240401446819,0.022424815222621,0.00662593171000481,0.0283018220216036,0.0136711038649082
219,-0.0612061731517315,-0.00939629040658474,0.0392760224640369,0.0206543151289225,0.0394297093153,0.0312516316771507
220,-0.0561938174068928,0.0114084519445896,0.0558776594698429,0.034071646630764,0.0476659685373306,0.0500924922525883
221,-0.0561937279999256,0.021042600274086,0.0652580931782722,0.0406118631362915,0.0497706942260265,0.0618628114461899
222,-0.0595415867865086,0.0213907398283482,0.0684622377157211,0.0421023033559322,0.0512359887361526,0.0672000721096992
223,-0.0646329671144485,0.0180511381477118,0.0692788735032082,0.0417931117117405,0.0589768327772617,0.0692737028002739
224,-0.0711730867624283,0.0123459119349718,0.0688811764121056,0.0395894795656204,0.0723696574568748,0.0676794499158859
225,-0.0775072276592255,0.00437801238149405,0.0659583508968353,0.0350566804409027,0.0843619108200073,0.0617446452379227
226,-0.0804706364870071,-0.00329928426072001,0.0600767098367214,0.0301462393254042,0.0889874398708344,0.0540058203041554
227,-0.0793672949075699,-0.00676256278529763,0.0536024086177349,0.0279953312128782,0.0842150300741196,0.0495970286428928
228,-0.0772847607731819,-0.00438310811296105,0.0475412495434284,0.028823172673583,0.0704436376690865,0.0508769750595093
229,-0.0764220058917999,0.0015001060673967,0.0408664718270302,0.0296764206141233,0.050621509552002,0.0535101778805256
230,-0.0762681066989899,0.00777671253308654,0.0346421375870705,0.0292475838214159,0.0304124318063259,0.0520832389593124
231,-0.0761497691273689,0.0133183328434825,0.0315235555171967,0.0296283569186926,0.015874557197094,0.0472372621297836
232,-0.0777823403477669,0.0164870359003544,0.0305654611438513,0.0304797235876322,0.00824601761996746,0.0423429235816002
233,-0.0840687155723572,0.0141553590074182,0.0273098945617676,0.0271655470132828,0.00332601927220821,0.0379475206136703
234,-0.0927626714110374,0.00793147832155228,0.0219080355018377,0.0204417984932661,-0.000292114011244848,0.0344774313271046
235,-0.0977972969412804,0.00311790290288627,0.018703069537878,0.0164994392544031,-0.000437779090134427,0.0328490100800991
236,-0.0967934429645538,0.00157318264245987,0.0196968354284763,0.0171554517000914,0.00386471627280116,0.0323378033936024
237,-0.092638224363327,0.00171149999368936,0.0244628116488457,0.0197523329406977,0.0132809961214662,0.031852263957262
238,-0.0898516327142715,0.00146858731750399,0.0320652574300766,0.0221913680434227,0.0264093410223722,0.0309213288128376
239,-0.0892299264669418,0.00129227410070598,0.0406567491590977,0.0244782269001007,0.0388202890753746,0.030018724501133
240,-0.0891257598996162,0.002494698157534,0.0451532490551472,0.0259884167462587,0.0462230890989304,0.0291637424379587
241,-0.0911381989717484,0.00244134408421814,0.0395449921488762,0.0230997521430254,0.0451372377574444,0.0259360298514366
242,-0.0964085608720779,-0.00210302462801337,0.0252947639673948,0.0138401323929429,0.0361277908086777,0.0196584947407246
243,-0.101784631609917,-0.0112771242856979,0.0101075377315283,0.000929374597035348,0.0248210243880749,0.0127203315496445
244,-0.103697024285793,-0.0224201790988445,-0.000580200750846416,-0.0103835966438055,0.0169250816106796,0.00663297204300761
245,-0.100666351616383,-0.0301254726946354,-0.00499227317050099,-0.014522816054523,0.0151442410424352,0.00385917630046606
246,-0.0932543277740479,-0.0310634523630142,-0.00420865556225181,-0.0104800369590521,0.0182262007147074,0.00660092756152153
247,-0.0812142416834831,-0.0259764436632395,-0.000182862582732923,-0.00208709551952779,0.0249611455947161,0.0133527778089046
248,-0.0638082921504974,-0.0172674842178822,0.00578423868864775,0.00713813491165638,0.0350301340222359,0.0216374378651381
249,-0.0449303649365902,-0.00811454933136702,0.0116323633119464,0.0151817705482244,0.0435088314116001,0.0291993692517281
250,-0.0307324808090925,0.00120636762585491,0.0160160735249519,0.021632045507431,0.044203732162714,0.0345066040754318
251,-0.0224806778132916,0.0124861719086766,0.0203034374862909,0.0278272982686758,0.0377218462526798,0.0388137735426426
252,-0.0190871432423592,0.0220108572393656,0.0241346135735512,0.0321434773504734,0.0276896618306637,0.0419133752584457
253,-0.0214585326611996,0.0239494852721691,0.0237512532621622,0.0304944887757301,0.0147831151261926,0.0396838523447514
254,-0.027258513495326,0.0200701709836721,0.0199184063822031,0.0242912583053112,0.00164844968821853,0.0312258563935757
255,-0.0313198752701283,0.0158286970108747,0.0175137687474489,0.0184464305639267,-0.00763177964836359,0.0205840338021517
256,-0.0322328321635723,0.0130819911137223,0.0179295837879181,0.0147032048553228,-0.0131488079205155,0.0113848261535168
257,-0.0311915706843138,0.0119843082502484,0.0201464518904686,0.0127983754500747,-0.0155837638303638,0.00592761766165495
258,-0.0298084877431393,0.0124558275565505,0.0232512652873993,0.0126754883676767,-0.0135923475027084,0.0048875417560339
259,-0.0302596874535084,0.0134840849786997,0.0261523984372616,0.0141228316351771,-0.0065310844220221,0.00634634774178267
260,-0.0345747172832489,0.0122161479666829,0.0275832805782557,0.0147117711603642,0.00261570420116186,0.00674798619002104
261,-0.0413755141198635,0.00683516077697277,0.0286954715847969,0.0124822566285729,0.0110504627227783,0.00509543716907501
262,-0.0460813157260418,0.000870996620506048,0.033389288932085,0.0102718006819487,0.0198327228426933,0.00526219978928566
263,-0.0484481416642666,-0.00225685094483197,0.0395895391702652,0.0104783736169338,0.0269438996911049,0.00980682857334614
264,-0.0508181788027287,-0.00248392904177308,0.0398478582501411,0.0125685790553689,0.0280801355838776,0.0184194687753916
265,-0.05264812707901,-0.000847030139993876,0.0314980894327164,0.0152176106348634,0.0222683176398277,0.0288259834051132
266,-0.0519155897200108,0.00157780712470412,0.0186957996338606,0.0169999934732914,0.0121338348835707,0.0361324734985828
267,-0.0471991449594498,0.0051944749429822,0.00817727297544479,0.0182774197310209,0.00385495042428374,0.0371685847640038
268,-0.0426440499722958,0.00758807314559817,0.000645224819891155,0.0175453405827284,-0.000515716790687293,0.0296472012996674
269,-0.0442943945527077,0.00449261534959078,-0.00845625996589661,0.0116258496418595,-0.00520808808505535,0.012383178807795
270,-0.0491999015212059,-0.000496759777888656,-0.016712998971343,0.00454423762857914,-0.00909814983606339,-0.00745030911639333
271,-0.0501034818589687,-0.000393492635339499,-0.017133604735136,0.00374673726037145,-0.0066197463311255,-0.0186496768146753
272,-0.0462259575724602,0.00514285126700997,-0.00946871284395456,0.0095627885311842,0.00148346379864961,-0.0168172437697649
273,-0.0417245700955391,0.01248431019485,0.00109618017449975,0.017102537676692,0.0098341191187501,-0.00536060100421309
274,-0.0386620946228504,0.0183633733540773,0.00933084264397621,0.0220930315554142,0.0141555899754167,0.00776340160518885
275,-0.0362418480217457,0.0205732062458992,0.0120671102777123,0.0231029838323593,0.0134572153910995,0.0149340974166989
276,-0.0361820384860039,0.0180195830762386,0.00902337860316038,0.0202471949160099,0.0104367528110743,0.0130242947489023
277,-0.042631134390831,0.0107076587155461,0.00107039383146912,0.0127512188628316,0.00818295031785965,0.0024840640835464
278,-0.0551917292177677,0.00183259730692953,-0.00895258877426386,0.00200711493380368,0.00772352237254381,-0.0124796098098159
279,-0.0686940252780914,-0.0037685907445848,-0.0164533965289593,-0.00732146855443716,0.00748697947710752,-0.0252595189958811
280,-0.0795129090547562,-0.00456702196970582,-0.0190877839922905,-0.0118809584528208,0.00530003197491169,-0.0321888588368893
281,-0.087526947259903,-0.00265389867126942,-0.017348799854517,-0.0116774877533317,0.00231209164485335,-0.0338814780116081
282,-0.0925881490111351,0.00021810429461766,-0.0124879349023104,-0.00827899016439915,0.000821972556877881,-0.0320168174803257
283,-0.0937656983733177,0.00416632788255811,-0.0052867759950459,-0.0024885032325983,-0.000287481117993593,-0.02639489620924
284,-0.0936251804232597,0.00802378728985786,0.002421909943223,0.00444843666628003,-0.00415878975763917,-0.0151225011795759
285,-0.0964026972651482,0.0096470769494772,0.0073524690233171,0.0102909971028566,-0.0104204481467605,0.00178843212779611
286,-0.102840311825275,0.00856406055390835,0.00756496656686068,0.0136395506560802,-0.0143473790958524,0.0179728846997023
287,-0.111318729817867,0.0052140885964036,0.00347454193979502,0.0138467876240611,-0.0127304466441274,0.0239670295268297
288,-0.119190029799938,0.00192432862240821,-0.00168688804842532,0.0120536917820573,-0.00565021764487028,0.0181052852421999
289,-0.124249756336212,0.00204620370641351,-0.00386176304891706,0.0111909350380301,0.00495479349046946,0.00840558297932148
290,-0.127685129642487,0.00444282777607441,-0.00374055397696793,0.0116044133901596,0.0136735998094082,0.00134302314836532
291,-0.131211340427399,0.00562159204855561,-0.00403684284538031,0.0117053836584091,0.0155713930726051,-0.00398125406354666
292,-0.134338840842247,0.00560879614204168,-0.0046204524114728,0.0120846889913082,0.0116186095401645,-0.0101056201383471
293,-0.136550650000572,0.00560447620227933,-0.00527693703770638,0.014016455039382,0.00630260119214654,-0.0166015271097422
294,-0.139063522219658,0.004161745775491,-0.00823539588600397,0.0156159456819296,0.00211858120746911,-0.0227483566850424
295,-0.144119620323181,-0.000641644757706672,-0.0163306593894959,0.0127906575798988,-0.00283542252145708,-0.0295683536678553
296,-0.151181384921074,-0.00682122120633721,-0.027363358065486,0.0061958534643054,-0.00992634333670139,-0.0349279344081879
297,-0.157329171895981,-0.0103945778682828,-0.0351602099835873,0.00104343774728477,-0.0171545185148716,-0.0346434190869331
298,-0.161530643701553,-0.0107408687472343,-0.0368791446089745,-0.000760408584028482,-0.022650308907032,-0.0296968519687653
299,-0.16398674249649,-0.00963883008807898,-0.0337624847888947,-0.000711675849743187,-0.0256168693304062,-0.0236440990120173
300,-0.166021704673767,-0.00904321577399969,-0.0293875299394131,-0.000926979526411742,-0.0266403090208769,-0.0193099547177553
301,-0.172397375106812,-0.0126773603260517,-0.0288561638444662,-0.00511617958545685,-0.0286372434347868,-0.0210395697504282
302,-0.183840215206146,-0.0198276340961456,-0.0314388759434223,-0.0125925857573748,-0.030735457316041,-0.0280371848493814
303,-0.192873552441597,-0.0208293385803699,-0.0297768246382475,-0.0157609675079584,-0.026991605758667,-0.0308874547481537
304,-0.195078700780869,-0.00992874801158905,-0.021965816617012,-0.0108907949179411,-0.0165764968842268,-0.0239784214645624
305,-0.192951336503029,0.005983907263726,-0.0124067822471261,-0.00180827639997005,-0.00453502312302589,-0.0121844466775656
306,-0.189256712794304,0.0178938414901495,-0.00273542036302388,0.00757607538253069,0.00669925939291716,-0.00240379897877574
307,-0.1855478733778,0.0252582598477602,0.00872995611280203,0.0168899446725845,0.0177444852888584,0.00401108898222446
308,-0.18519988656044,0.0298429969698191,0.0199282839894295,0.0238955896347761,0.0260986816138029,0.00689563900232315
309,-0.189245566725731,0.031316302716732,0.026531744748354,0.0257060434669256,0.0302111841738224,0.00644437177106738
310,-0.193929672241211,0.0303551610559225,0.0272139776498079,0.0243650935590267,0.0330688171088696,0.00538672367110848
311,-0.19711409509182,0.0271045174449682,0.0216618347913027,0.0226998813450336,0.0343931838870049,0.00394124537706375
312,-0.198914900422096,0.0209926385432482,0.0106820352375507,0.0207438338547945,0.0301541406661272,-0.000496922410093248
313,-0.199578866362572,0.0124463969841599,-0.00246066879481077,0.0173318088054657,0.0187635682523251,-0.00968449283391237
314,-0.20040288567543,0.00348608638159931,-0.0134758660569787,0.0128989173099399,0.003101916750893,-0.0212904009968042
315,-0.204003214836121,-0.00367090804502368,-0.0209782626479864,0.00842886604368687,-0.0129301892593503,-0.0303861498832703
316,-0.211433663964272,-0.00712520489469171,-0.0259123463183641,0.00396117381751537,-0.0264004152268171,-0.0342914089560509
317,-0.219692885875702,-0.0056508406996727,-0.0277766026556492,0.000240471374127083,-0.0343542210757732,-0.0333539508283138
318,-0.223473340272903,0.000202338851522654,-0.0256040133535862,-0.000699409225489944,-0.0348189026117325,-0.0284872427582741
319,-0.221054419875145,0.00795616488903761,-0.020071042701602,0.00227989396080375,-0.02835488691926,-0.0207224916666746
320,-0.21849824488163,0.0130032747983933,-0.0147072607651353,0.00587803963571787,-0.0194758120924234,-0.0145077900961041
321,-0.221240416169167,0.0133738033473492,-0.0121750431135297,0.00667524849995971,-0.0124415084719658,-0.0139839323237538
322,-0.227014541625977,0.0119985034689307,-0.0107075329869986,0.0061257304623723,-0.00702829286456108,-0.0165922529995441
323,-0.232156306505203,0.0109093636274338,-0.00880535319447517,0.00570574542507529,-0.00290827616117895,-0.0176559966057539
324,-0.235800415277481,0.00972074456512928,-0.00743900239467621,0.00529630156233907,-0.00103276525624096,-0.0165052581578493
325,-0.238053470849991,0.00830974336713552,-0.00671682180836797,0.00538494344800711,-0.00075730390381068,-0.015644233673811
326,-0.237368181347847,0.00776871852576733,-0.00424019619822502,0.00684190820902586,0.000699852243997157,-0.0160162411630154
327,-0.232522666454315,0.00848694331943989,0.00101114041171968,0.00966263376176357,0.00554288970306516,-0.015136462636292
328,-0.227243989706039,0.00771044753491879,0.00417585298418999,0.0106446845456958,0.0114650698378682,-0.0121991289779544
329,-0.225853890180588,0.00455588661134243,0.00161647074855864,0.00765406340360641,0.014703574590385,-0.00806762371212244
330,-0.227410927414894,0.00324432388879359,-0.000878839171491563,0.00474799843505025,0.015906261280179,-0.0015850382624194
331,-0.228609964251518,0.00667164754122496,0.00322545995004475,0.00647941185161471,0.0170369055122137,0.00675282021984458
332,-0.228600680828094,0.0129080377519131,0.0103957988321781,0.011899528093636,0.0161400996148586,0.0136844124644995
333,-0.228739514946938,0.0178497061133385,0.0133730126544833,0.0170676466077566,0.011260136961937,0.0161676444113255
334,-0.22944512963295,0.0193765107542276,0.0108976671472192,0.0196942556649446,0.00500162644311786,0.0135127007961273
335,-0.22951528429985,0.0194889977574348,0.00627164077013731,0.020498963072896,0.00128710945136845,0.00988247711211443
336,-0.229364618659019,0.0198910254985094,0.000899780658073723,0.0194211732596159,-0.000246803945628926,0.00879793893545866
337,-0.230771884322166,0.0192903578281403,-0.00627271318808198,0.0148105593398213,-0.00272183865308762,0.00742491427809
338,-0.232691884040833,0.0177961960434914,-0.0136291654780507,0.00870782230049372,-0.00560377491638064,0.0032798966858536
339,-0.233806729316711,0.0167389176785946,-0.0174414739012718,0.0046936827711761,-0.00596218835562468,-0.0020701305475086
340,-0.235721528530121,0.0154335387051106,-0.0162115171551704,0.00257037719711661,-0.00258995732292533,-0.00678293406963348
341,-0.238985747098923,0.0140286777168512,-0.0107291731983423,0.000993116293102503,0.00418826937675476,-0.00924596376717091
342,-0.241901576519012,0.0151311447843909,-0.00393718108534813,-0.000269598589511588,0.0112493121996522,-0.00851424224674702
343,-0.242019638419151,0.0212934706360102,0.000511233345605433,-0.00047691268264316,0.0141012351959944,-0.0048374542966485
344,-0.237944781780243,0.0295996069908142,0.000110843779111747,0.000241575282416306,0.00982528831809759,-0.00105702527798712
345,-0.232294872403145,0.0319515243172646,-0.00626089842990041,-0.00130163633730263,-0.00184749031905085,-0.00251482473686337
346,-0.228922799229622,0.0257667992264032,-0.0158820934593678,-0.00696012703701854,-0.0162603463977575,-0.00991707481443882
347,-0.228394523262978,0.0171524472534657,-0.0226629097014666,-0.0137097844853997,-0.0258687231689692,-0.0176092237234116
348,-0.229668989777565,0.0118279699236155,-0.0241088178008795,-0.0186474584043026,-0.0270254760980606,-0.0218023862689734
349,-0.230983331799507,0.0101334266364574,-0.0233140122145414,-0.0215174239128828,-0.0219990164041519,-0.0229184832423925
350,-0.228669166564941,0.0106345284730196,-0.0223096925765276,-0.0216356310993433,-0.0146618522703648,-0.0212927795946598
351,-0.22312106192112,0.00959975179284811,-0.0231355391442776,-0.0211338456720114,-0.00986747443675995,-0.0192074123769999
352,-0.218632414937019,0.00385931762866676,-0.0276800934225321,-0.0228612348437309,-0.0100170010700822,-0.0185443814843893
353,-0.216402471065521,-0.0031302587594837,-0.0323270112276077,-0.0245320312678814,-0.0108140865340829,-0.0164186973124743
354,-0.215847223997116,-0.00686096400022507,-0.0334856063127518,-0.0241605248302221,-0.00820142030715942,-0.0111146625131369
355,-0.215106606483459,-0.00551630510017276,-0.0306596495211124,-0.0210485868155956,-0.00182250130455941,-0.00150246580597013
356,-0.212353229522705,0.000165867866599001,-0.024700278416276,-0.0144771533086896,0.00594055419787765,0.0129002463072538
357,-0.209704920649529,0.00552640575915575,-0.0194899123162031,-0.0076296990737319,0.00974991731345654,0.0250776074826717
358,-0.208770662546158,0.00719754211604595,-0.0177992228418589,-0.00466719036921859,0.00820355210453272,0.027256740257144
359,-0.207593590021133,0.0055426312610507,-0.0180561859160662,-0.0065987566486001,0.00628998083993793,0.0190936122089624
360,-0.20601461827755,0.00125479721464217,-0.0190274305641651,-0.0127602554857731,0.00643466925248504,0.00406040856614709
361,-0.207765832543373,-0.0049089016392827,-0.0218321494758129,-0.0222500283271074,0.00469796359539032,-0.014277083799243
362,-0.213428869843483,-0.0101142879575491,-0.0256866235285997,-0.0320056900382042,-0.00139738759025931,-0.0302965044975281
363,-0.218082830309868,-0.0111884940415621,-0.0281500071287155,-0.0382237061858177,-0.0095668463036418,-0.038342110812664
364,-0.218932285904884,-0.00904505420476198,-0.0299786999821663,-0.0414801985025406,-0.018335884436965,-0.0393719933927059
365,-0.21691569685936,-0.00645237555727363,-0.0320268794894218,-0.0439589582383633,-0.0264722444117069,-0.037620697170496
366,-0.211307540535927,-0.00293566868640482,-0.0303046330809593,-0.0441211573779583,-0.0289920791983604,-0.0332331694662571
367,-0.200443521142006,0.00408514263108373,-0.0200679134577513,-0.038748063147068,-0.0217761360108852,-0.0240990705788136
368,-0.188355401158333,0.0132194627076387,-0.00443408126011491,-0.0291438158601522,-0.00994283985346556,-0.0124932946637273
369,-0.181164368987083,0.0204394105821848,0.00825968291610479,-0.0198991298675537,-0.00265319831669331,-0.00253276084549725
370,-0.179472669959068,0.0238674096763134,0.013345705345273,-0.0140540432184935,-0.002383190440014,0.00391895743086934
371,-0.181704640388489,0.0218965671956539,0.00924656074494123,-0.0141075169667602,-0.00744690746068954,0.00400006119161844
372,-0.186197459697723,0.015057135373354,-0.00231899879872799,-0.0195449311286211,-0.0154244657605886,-0.00243905000388622
373,-0.19066309928894,0.00669498089700937,-0.0167022105306387,-0.0264902580529451,-0.0234576556831598,-0.0110517600551248
374,-0.194303452968597,-0.00133576442021877,-0.0306197572499514,-0.0331103838980198,-0.0294981822371483,-0.0188355445861816
375,-0.196892946958542,-0.0068307532928884,-0.040243212133646,-0.0383292995393276,-0.0304010976105928,-0.0217128954827785
376,-0.199039772152901,-0.00752565916627645,-0.0429295003414154,-0.0413559190928936,-0.0254986528307199,-0.0158824995160103
377,-0.201118737459183,-0.00486943311989307,-0.0405232161283493,-0.0428229160606861,-0.0187288876622915,-0.0047226483002305
378,-0.200452968478203,-0.00128011964261532,-0.0352570042014122,-0.0415388010442257,-0.0124605717137456,0.00540739158168435
379,-0.196633383631706,0.0014321292983368,-0.0302424728870392,-0.0371586680412292,-0.00830957014113665,0.00935589149594307
380,-0.193596854805946,0.00145571620669216,-0.0301575288176537,-0.033271249383688,-0.00928649678826332,0.00417517824098468
381,-0.192421928048134,-0.00111550069414079,-0.0358872562646866,-0.0328999571502209,-0.0149369491264224,-0.00764052849262953
382,-0.188354045152664,-0.00347808888182044,-0.0421961508691311,-0.0341365598142147,-0.0194849502295256,-0.0186506081372499
383,-0.178099542856216,-0.00316800782456994,-0.0438828207552433,-0.0336722396314144,-0.0188398752361536,-0.023238867521286
384,-0.164692878723145,-0.000251081772148609,-0.0411215014755726,-0.0314015708863735,-0.015617098659277,-0.0221347957849503
385,-0.153723746538162,0.00348490616306663,-0.0375321283936501,-0.0296914856880903,-0.015334983356297,-0.0198258645832539
386,-0.147305965423584,0.00657288217917085,-0.0355249755084515,-0.0298530273139477,-0.0197624787688255,-0.0195137206465006
387,-0.142122000455856,0.00966896675527096,-0.0332290828227997,-0.0301358159631491,-0.0243010055273771,-0.020778676494956
388,-0.136132776737213,0.0123748872429132,-0.0291124489158392,-0.0303413942456245,-0.025049077346921,-0.0230179559439421
389,-0.131947338581085,0.0124950651079416,-0.0255858916789293,-0.0329521000385284,-0.0236188098788261,-0.02696961350739
390,-0.133425265550613,0.00852663628757,-0.026321230456233,-0.0397759303450584,-0.0244407691061497,-0.0338536649942398
391,-0.14079524576664,0.000161482865223661,-0.0326832011342049,-0.0501696094870567,-0.0300478488206863,-0.0435223057866097
392,-0.147569373250008,-0.00940572004765272,-0.0408940762281418,-0.0595500394701958,-0.0369483418762684,-0.051593478769064
393,-0.144801050424576,-0.0132267288863659,-0.04316246509552,-0.0610421411693096,-0.0375560857355595,-0.0515423566102982
394,-0.129580914974213,-0.00758467614650726,-0.0354687012732029,-0.0520825572311878,-0.0292447283864021,-0.0418696179986
395,-0.108603350818157,0.00370882218703628,-0.0232020746916533,-0.0379545241594315,-0.0186483282595873,-0.0284784082323313
396,-0.0909036695957184,0.0159130394458771,-0.0133255999535322,-0.0251308493316174,-0.0112569499760866,-0.0166031401604414
397,-0.0796688422560692,0.0277782194316387,-0.00658753933385015,-0.0152151314541698,-0.00486181676387787,-0.00548282824456692
398,-0.073600098490715,0.0372735112905502,-0.00226569082587957,-0.00802376866340637,0.00167068000882864,0.00632873550057411
399,-0.0708770453929901,0.041684340685606,-0.000665767700411379,-0.00427530007436872,0.00547654181718826,0.0157151762396097
400,-0.0701263695955276,0.0417277403175831,-0.00055923726176843,-0.00319052208214998,0.00614520907402039,0.0185533221811056
401,-0.0702305138111115,0.0401301458477974,-0.000950307468883693,-0.00300243054516613,0.0049682199023664,0.0146097373217344
402,-0.0696380287408829,0.0398793257772923,-0.00214325287379324,-0.00324836885556579,0.00255826790817082,0.00622849212959409
403,-0.0673509016633034,0.0410005412995815,-0.00507528195157647,-0.0047702738083899,-0.000479441630886868,-0.00498304702341557
404,-0.0628155916929245,0.0401677750051022,-0.00920448824763298,-0.00749303912743926,-0.00254849484190345,-0.0168882701545954
405,-0.0557816103100777,0.0362523086369038,-0.0125547908246517,-0.0105569930747151,-0.00199541775509715,-0.0260644163936377
406,-0.0484082289040089,0.0286753941327333,-0.0157099962234497,-0.015557031147182,-0.00110711436718702,-0.0318714156746864
407,-0.0426973812282085,0.0179367270320654,-0.0187900271266699,-0.0221354980021715,-0.00223263469524682,-0.0348929166793823
408,-0.0380279868841171,0.00840009097009897,-0.019654206931591,-0.0260297451168299,-0.00457568746060133,-0.0341884382069111
409,-0.0348488949239254,0.0023805582895875,-0.0190969277173281,-0.0268347077071667,-0.00885447859764099,-0.0309026055037975
410,-0.0347231365740299,-0.000976374081801623,-0.0184706524014473,-0.0267501398921013,-0.0149808367714286,-0.0273761879652739
411,-0.036891981959343,-0.0025731660425663,-0.0166780836880207,-0.0259651578962803,-0.0191298052668571,-0.0239381995052099
412,-0.0397342294454575,-0.00502692442387342,-0.0144038116559386,-0.0263878479599953,-0.0197771918028593,-0.0222810860723257
413,-0.0403032079339027,-0.00858678482472897,-0.0117169367149472,-0.028133874759078,-0.0176368393003941,-0.0236794967204332
414,-0.0353336222469807,-0.00872793700546026,-0.00749744893983006,-0.0270743388682604,-0.0131191583350301,-0.0247301068156958
415,-0.027528204023838,-0.0045334598980844,-0.00554412929341197,-0.0239395368844271,-0.0109893381595612,-0.023547176271677
416,-0.0211256872862577,0.00166207773145288,-0.00843931268900633,-0.0219450779259205,-0.014970351010561,-0.0214809831231833
417,-0.0163071043789387,0.00867682229727507,-0.0131746577098966,-0.0206228289753199,-0.0222018454223871,-0.0197885036468506
418,-0.0158272553235292,0.0114458939060569,-0.020775131881237,-0.0227089300751686,-0.0325760319828987,-0.0234483778476715
419,-0.0222869291901588,0.0057117622345686,-0.0332358703017235,-0.0310216825455427,-0.0472756251692772,-0.0356134474277496
420,-0.0299304760992527,-0.00291935191489756,-0.0437539257109165,-0.0394472368061543,-0.0595659911632538,-0.0486634969711304
421,-0.0317876078188419,-0.00675808219239116,-0.0441959239542484,-0.0410435236990452,-0.0611256062984467,-0.0533982925117016
422,-0.0273052398115397,-0.0048100589774549,-0.0339929647743702,-0.0359536074101925,-0.0504848696291447,-0.0486492104828358
423,-0.0191153716295958,0.000438266404671595,-0.0183615237474442,-0.026890991255641,-0.0318957343697548,-0.0382448695600033
424,-0.00892830826342106,0.00673804106190801,-0.00423101941123605,-0.016809094697237,-0.0115501340478659,-0.0268538873642683
425,0.00184099446050823,0.0114239566028118,0.00323647353798151,-0.010400396771729,0.00484402989968657,-0.0185863971710205
426,0.0110672889277339,0.0137091325595975,0.00398423988372087,-0.00924045778810978,0.0142880892381072,-0.0125477202236652
427,0.0169428568333387,0.0150466924533248,0.00122040591668338,-0.0104196453467011,0.0169021692126989,-0.00480243423953652
428,0.0194538068026304,0.0150639256462455,-0.00309683475643396,-0.0125101301819086,0.0144606232643127,0.0024418372195214
429,0.0205121915787458,0.0132563812658191,-0.0079211825504899,-0.0155758121982217,0.0096613634377718,0.00457527954131365
430,0.0230870731174946,0.0122246239334345,-0.0107251135632396,-0.0179966688156128,0.00560403754934669,0.00315185356885195
431,0.0281047541648149,0.0140602681785822,-0.00960194226354361,-0.0184304248541594,0.00303240912035108,0.00238176994025707
432,0.031987939029932,0.0168632864952087,-0.00605162233114243,-0.0183908995240927,-0.000457638670923188,0.00274252402596176
433,0.0321337580680847,0.0183068159967661,-0.00206728209741414,-0.0194218307733536,-0.00515993684530258,0.00260376231744885
434,0.0299896970391274,0.018065107986331,0.0011090855114162,-0.0214593932032585,-0.00907130818814039,0.00147286627907306
435,0.0274268016219139,0.017103835940361,0.00262231472879648,-0.0234753750264645,-0.0117342686280608,-0.000615248805843294
436,0.0262912474572659,0.0184498224407434,0.00355976284481585,-0.0227784067392349,-0.0129757020622492,-0.00278465519659221
437,0.0281097125262022,0.0242303628474474,0.00470511987805367,-0.0181939471513033,-0.0126721858978271,-0.00396380061283708
438,0.0312132686376572,0.0307731404900551,0.00319158798083663,-0.0137241519987583,-0.0133244814351201,-0.00636058952659369
439,0.0327831320464611,0.0328071489930153,-0.00336878118105233,-0.0138934096321464,-0.0168262403458357,-0.0131922392174602
440,0.0329742431640625,0.0301145184785128,-0.0119717763736844,-0.0182879958301783,-0.020674217492342,-0.0231569670140743
441,0.0326373726129532,0.0237845107913017,-0.0200614184141159,-0.0251650381833315,-0.0238930489867926,-0.033747173845768
442,0.0325827747583389,0.0143401836976409,-0.0277062468230724,-0.0333380252122879,-0.0282763000577688,-0.0438870191574097
443,0.0343445725739002,0.00473604397848248,-0.0325816497206688,-0.0403030216693878,-0.0326680690050125,-0.0509678386151791
444,0.0378255695104599,-0.00222531193867326,-0.0307172574102879,-0.0438551120460033,-0.0340659990906715,-0.0523520894348621
445,0.0423198416829109,-0.00594427203759551,-0.0210521705448627,-0.0432686097919941,-0.0321322530508041,-0.0475278720259666
446,0.0477419905364513,-0.00698268972337246,-0.00863557960838079,-0.039275161921978,-0.0295755229890347,-0.0376661382615566
447,0.0547959059476852,-0.00544333038851619,-0.00021602628112305,-0.032806783914566,-0.028146730735898,-0.0241261273622513
448,0.0630853325128555,-0.000226071890210733,0.00153620354831219,-0.0253505036234856,-0.0279760789126158,-0.00947246979922056
449,0.0702693909406662,0.00869597867131233,-0.00158267223741859,-0.0192238278687,-0.0287046637386084,0.00172323558945209
450,0.0761346891522408,0.0179743394255638,-0.0051677948795259,-0.0149457771331072,-0.0286953020840883,0.007598333992064
451,0.0818381235003471,0.0235079750418663,-0.00646453117951751,-0.011860410682857,-0.0265517774969339,0.0107333604246378
452,0.0871057510375977,0.0247281026095152,-0.00564647512510419,-0.0100542055442929,-0.0218154173344374,0.0129476534202695
453,0.0909234508872032,0.0234667174518108,-0.00399286719039083,-0.00991746131330729,-0.013992409221828,0.0121112260967493
454,0.0931450799107552,0.0210674069821835,-0.00187535735312849,-0.0106591051444411,-0.00225514941848814,0.00674488861113787
455,0.0952278077602386,0.0179386790841818,0.00178241427056491,-0.0109446030110121,0.0133538581430912,-0.00152294407598674
456,0.0983724370598793,0.0143455192446709,0.00679534580558538,-0.010687449015677,0.0302062407135963,-0.0108960503712296
457,0.101834923028946,0.0108209988102317,0.0109887132421136,-0.0108503634110093,0.0431668609380722,-0.0199700687080622
458,0.102859646081924,0.00711178919300437,0.012053769081831,-0.0131332967430353,0.0459235869348049,-0.0278034508228302
459,0.0996952205896378,0.00311642931774259,0.0110585289075971,-0.0169954244047403,0.0365708954632282,-0.0332902334630489
460,0.0944110527634621,0.0012009326601401,0.0116692306473851,-0.0183725897222757,0.0210723262280226,-0.0340517461299896
461,0.0894531384110451,0.00298954453319311,0.0124825416132808,-0.016780799254775,0.00522808730602264,-0.0306941382586956
462,0.0855041220784187,0.00617860676720738,0.00842901598662138,-0.0163904000073671,-0.0103767672553658,-0.0273112636059523
463,0.0834313258528709,0.0090740853920579,0.000389861030271277,-0.017615644261241,-0.0241956990212202,-0.0248584803193808
464,0.0836935788393021,0.0124728167429566,-0.00588456029072404,-0.0176373012363911,-0.0321148373186588,-0.022013995796442
465,0.0851612687110901,0.0153608834370971,-0.00766003737226129,-0.0165870655328035,-0.0329808443784714,-0.0193853434175253
466,0.0857489332556725,0.0149698788300157,-0.00671496149152517,-0.0167048759758472,-0.0299728997051716,-0.0176062826067209
467,0.0832870677113533,0.00982637051492929,-0.00660873809829354,-0.0200575236231089,-0.0276974160224199,-0.0163186602294445
468,0.0772066488862038,0.000745917612221092,-0.00837464537471533,-0.0271489731967449,-0.0283546168357134,-0.0161612406373024
469,0.0697396099567413,-0.00901581160724163,-0.0088507579639554,-0.0349551141262054,-0.0301892850548029,-0.0183911193162203
470,0.0643472522497177,-0.0153123093768954,-0.00601431541144848,-0.0388005971908569,-0.0302691217511892,-0.0219460614025593
471,0.0627178996801376,-0.0168503765016794,-0.002972123445943,-0.0374934151768684,-0.0273909717798233,-0.0239297542721033
472,0.0651181265711784,-0.0151594681665301,-0.00255972170270979,-0.0328570902347565,-0.0211708471179008,-0.0223592277616262
473,0.0710596367716789,-0.0120645547285676,-0.00320318760350347,-0.0267568342387676,-0.0123584801331162,-0.0182582885026932
474,0.0769630298018456,-0.0107710119336843,-0.00445047160610557,-0.0234992019832134,-0.00546556618064642,-0.0170482490211725
475,0.0804496631026268,-0.0129222506657243,-0.00702146301046014,-0.0258307550102472,-0.00299766124226153,-0.0223549753427505
476,0.0852957367897034,-0.0154037280008197,-0.00872888509184122,-0.0297522079199553,-0.00160403270274401,-0.0306958220899105
477,0.0960153639316559,-0.0147098619490862,-0.0075717605650425,-0.0306383557617664,0.00108647160232067,-0.0362422801554203
478,0.112787954509258,-0.0101242698729038,-0.00318574020639062,-0.0271865595132113,0.00416215555742383,-0.0356684438884258
479,0.131808966398239,-0.00372509774751961,0.00335504626855254,-0.0204435735940933,0.00568072544410825,-0.0301647298038006
480,0.147979810833931,0.000563512265216559,0.00771941849961877,-0.0148035623133183,0.00283708050847054,-0.0251255743205547
481,0.160519763827324,0.00172466004732996,0.00735707767307758,-0.0131646879017353,-0.00308498810045421,-0.0233923941850662
482,0.171046078205109,0.0028575595933944,0.00530222384259105,-0.012753264978528,-0.00544311152771115,-0.0221155975013971
483,0.177837386727333,0.00521420454606414,0.00382168916985393,-0.0112930135801435,-0.00168454879894853,-0.0189780537039042
484,0.179872840642929,0.00696406234055758,0.00227682269178331,-0.00949798431247473,0.00427807215601206,-0.0139196794480085
485,0.178322210907936,0.00642618024721742,-0.000141996875754558,-0.0086479177698493,0.0081341490149498,-0.00781853776425123
486,0.174108371138573,0.00351331266574562,-0.00317662348970771,-0.00961717497557402,0.00916809588670731,-0.00294704223051667
487,0.168988153338432,-0.00118406303226948,-0.00558577897027135,-0.0119395302608609,0.00905405916273594,-0.0011607714695856
488,0.164623722434044,-0.00712927477434278,-0.00671387230977416,-0.0145040433853865,0.00804016552865505,-0.00333697185851634
489,0.161708265542984,-0.0126955090090632,-0.00658477144315839,-0.0167705956846476,0.00464759767055511,-0.00961811561137438
490,0.160519391298294,-0.0163970645517111,-0.00519244791939855,-0.018423629924655,-0.00178316107485443,-0.0188664942979813
491,0.160925909876823,-0.0191387701779604,-0.00261385017074645,-0.0193892121315002,-0.0099030053243041,-0.0300222355872393
492,0.163554728031158,-0.0217030141502619,0.000395203882362694,-0.0196374170482159,-0.0170226972550154,-0.0405607111752033
493,0.169520333409309,-0.0220110453665257,0.00242828601039946,-0.0182420238852501,-0.0199639517813921,-0.0452960915863514
494,0.177328258752823,-0.0195523239672184,0.0014993017539382,-0.015931598842144,-0.0179561246186495,-0.0434947349131107
495,0.18321904540062,-0.0165823772549629,-0.00370924314484,-0.0159037597477436,-0.0136246783658862,-0.040471039712429
496,0.186333134770393,-0.0138434283435345,-0.0116843543946743,-0.0191803947091103,-0.00945787597447634,-0.0392108447849751
497,0.190779030323029,-0.0116340182721615,-0.0180255249142647,-0.0224302988499403,-0.00602184562012553,-0.0368403270840645
498,0.199149534106255,-0.0119841871783137,-0.0195768773555756,-0.0229782536625862,-0.00400992296636105,-0.0305027402937412
499,0.208578675985336,-0.015545517206192,-0.0169973969459534,-0.0213849637657404,-0.00405904464423656,-0.0206673219799995
500,0.216108307242393,-0.0196551196277142,-0.0113356877118349,-0.0181114505976439,-0.00420627789571881,-0.00947066210210323
501,0.220658659934998,-0.0226510055363178,-0.00467277504503727,-0.0146487448364496,-0.00403378205373883,-0.00224386597983539
502,0.21943487226963,-0.0270706322044134,-0.00325560895726085,-0.0154743939638138,-0.008703020401299,-0.00560621824115515
503,0.211558595299721,-0.0344775840640068,-0.0110156619921327,-0.0226380098611116,-0.0212705992162228,-0.0194556005299091
504,0.203385263681412,-0.0401740819215775,-0.0222184900194407,-0.0308720488101244,-0.0352509841322899,-0.0344999879598618
505,0.200887650251389,-0.0396176129579544,-0.0284480359405279,-0.0337441153824329,-0.0419453456997871,-0.042121522128582
506,0.203068509697914,-0.034585814923048,-0.0276912003755569,-0.0305931270122528,-0.0399142913520336,-0.0414039976894856
507,0.206403240561485,-0.0290234312415123,-0.0226611886173487,-0.0244490951299667,-0.0318402461707592,-0.0349364466965199
508,0.20973989367485,-0.0242914073169231,-0.016154708340764,-0.0180392805486918,-0.0184426177293062,-0.0256200768053532
509,0.213473498821259,-0.019348680973053,-0.00961966812610626,-0.012499401345849,-0.000981033779680729,-0.0168108511716127
510,0.216913640499115,-0.0132992994040251,-0.00341678294353187,-0.00768852746114135,0.0156064433977008,-0.0111889913678169
511,0.21963769197464,-0.00646087434142828,0.00350711517967284,-0.00282354257069528,0.0273339226841927,-0.00891895592212677
512,0.221963867545128,-0.0013263177825138,0.0113454889506102,0.00102091394364834,0.033904891461134,-0.00872765388339758
513,0.223582237958908,-0.00117584003601223,0.018199110403657,0.00127547059673816,0.0361638180911541,-0.00883846078068018
514,0.223542243242264,-0.00601841369643807,0.0220603998750448,-0.00187222566455603,0.0339115001261234,-0.00741054909303784
515,0.221303775906563,-0.0129684340208769,0.0213811099529266,-0.00637361081317067,0.0266582202166319,-0.00573667418211699
516,0.217970222234726,-0.0189545899629593,0.0160390306264162,-0.0114125702530146,0.0171110592782497,-0.00683057121932507
517,0.215259745717049,-0.0221868120133877,0.00736387260258198,-0.0168257672339678,0.00877025537192822,-0.0103244073688984
518,0.213246703147888,-0.02239322476089,-0.00224414537660778,-0.0214204210788012,0.00142557895742357,-0.0129739204421639
519,0.211095407605171,-0.0192060489207506,-0.00803939905017614,-0.0226861592382193,-0.00436501018702984,-0.0122672021389008
520,0.208715528249741,-0.0134930433705449,-0.00646541593596339,-0.0201464965939522,-0.00633316952735186,-0.00911191571503878
521,0.204644337296486,-0.00957764219492674,-0.00128887314349413,-0.0181813407689333,-0.00729306600987911,-0.00883869826793671
522,0.197538897395134,-0.00977169908583164,0.00132911314722151,-0.0198517143726349,-0.0115717118605971,-0.01410813909024
523,0.190798074007034,-0.0108897984027863,0.00136328162625432,-0.0216748341917992,-0.0169190894812346,-0.0200170762836933
524,0.187969863414764,-0.0112636517733335,0.000707566388882697,-0.0208568461239338,-0.0192514918744564,-0.0234878677874804
525,0.188809543848038,-0.0125040924176574,-0.000570468604564667,-0.0188969075679779,-0.0173473469913006,-0.025836294516921
526,0.193345963954926,-0.0139837497845292,-0.00052630587015301,-0.0158530063927174,-0.00979278981685638,-0.025262638926506
527,0.201114550232887,-0.0144587205722928,0.0022911261767149,-0.0111621990799904,0.00295928260311484,-0.0200383570045233
528,0.20822836458683,-0.0152114853262901,0.0055167768150568,-0.00730858044698834,0.0157926194369793,-0.0135739659890532
529,0.210979089140892,-0.0171541478484869,0.00679859006777406,-0.00623940862715244,0.0228531733155251,-0.00853800401091576
530,0.208851680159569,-0.0189477950334549,0.00586425513029099,-0.00710501242429018,0.0212850756943226,-0.00425925571471453
531,0.204476043581963,-0.0176855083554983,0.0046417280100286,-0.00743323750793934,0.013908083550632,-0.000192757943295874
532,0.200866997241974,-0.0126233659684658,0.00536859594285488,-0.0060293497517705,0.00601570354774594,0.00295175286009908
533,0.19718810915947,-0.00769504019990563,0.00597468158230186,-0.00566847901791334,-0.00186699244659394,0.00321032200008631
534,0.192209735512733,-0.00536021124571562,0.00409686332568526,-0.00793136563152075,-0.00979352369904518,0.00031272167689167
535,0.187712281942368,-0.00458254106342793,0.000779370951931924,-0.0110631808638573,-0.0146506298333406,-0.00404444243758917
536,0.185014560818672,-0.00575098022818565,-0.00321892439387739,-0.0142220044508576,-0.0147236026823521,-0.00933978147804737
537,0.182892590761185,-0.0106360139325261,-0.00831936951726675,-0.0180915426462889,-0.0114559419453144,-0.0159019976854324
538,0.179473370313644,-0.0191055741161108,-0.0144972279667854,-0.0235446318984032,-0.00806272216141224,-0.023262919858098
539,0.175855934619904,-0.0278816614300013,-0.0197400376200676,-0.0296697318553925,-0.00582150276750326,-0.0297471676021814
540,0.175677314400673,-0.0327688828110695,-0.0202806740999222,-0.0331701450049877,-0.00190728239249438,-0.0338762626051903
541,0.180181741714478,-0.0321207940578461,-0.0142937060445547,-0.0319074541330338,0.00654723728075624,-0.0357379242777824
542,0.187104359269142,-0.0276347734034061,-0.00507813040167093,-0.0274036470800638,0.0170925352722406,-0.0362429544329643
543,0.194711402058601,-0.0222014337778091,0.00175427389331162,-0.022448442876339,0.0240836590528488,-0.0348251834511757
544,0.2029168009758,-0.017911609262228,0.00320734875276685,-0.018829332664609,0.0247326716780663,-0.0297930911183357
545,0.211358606815338,-0.0155240269377828,0.00063225778285414,-0.0165713559836149,0.0198374092578888,-0.0205635018646717
546,0.219843924045563,-0.0153247630223632,-0.00219527189619839,-0.014270881190896,0.0114614982157946,-0.00837080273777246
547,0.227797985076904,-0.0183357764035463,-0.00385472550988197,-0.0124483043327928,0.00139625230804086,0.00239226315170527
548,0.232766434550285,-0.0246893037110567,-0.00561702298000455,-0.0131771210581064,-0.00835400354117155,0.00623336201533675
549,0.232918262481689,-0.0311297886073589,-0.00691889179870486,-0.0155808068811893,-0.0151681806892157,0.00244661536999047
550,0.229615598917007,-0.0340481288731098,-0.00680334074422717,-0.0174696408212185,-0.0184209309518337,-0.00506098661571741
551,0.225722774863243,-0.0343148037791252,-0.00823691487312317,-0.0195440258830786,-0.0204740669578314,-0.0127861779183149
552,0.223403036594391,-0.0346079766750336,-0.0131830759346485,-0.0228196028620005,-0.0226496402174234,-0.0189829152077436
553,0.224031612277031,-0.0349373035132885,-0.0177419781684875,-0.0254428889602423,-0.0223644468933344,-0.0228346586227417
554,0.227605059742928,-0.0335160382091999,-0.0179224368184805,-0.0252257119864225,-0.0176545567810535,-0.0243189390748739
555,0.231475055217743,-0.0299279876053333,-0.0146750370040536,-0.0229181945323944,-0.0112413987517357,-0.024719400331378
556,0.231967821717262,-0.0267690103501081,-0.0115016968920827,-0.0213834438472986,-0.00702204555273056,-0.0266067031770945
557,0.22764952480793,-0.0268783178180456,-0.0112304883077741,-0.0225345976650715,-0.0062629678286612,-0.0310270339250565
558,0.220964506268501,-0.0292586646974087,-0.0133748184889555,-0.0252797696739435,-0.00600051786750555,-0.034751582890749
559,0.215955212712288,-0.0312406737357378,-0.0146218212321401,-0.0268653873354197,-0.00137727637775242,-0.0338700152933598
560,0.214325979351997,-0.0323804542422295,-0.0133492043241858,-0.0260517410933971,0.00772335240617394,-0.0287865065038204
561,0.21575964987278,-0.032822672277689,-0.0108809117227793,-0.0237682778388262,0.016662897542119,-0.0228136051446199
562,0.219446778297424,-0.0321956463158131,-0.00917296763509512,-0.021746814250946,0.0213368684053421,-0.0187739916145802
563,0.222446709871292,-0.0315074473619461,-0.00934699270874262,-0.0213047415018082,0.0189595222473145,-0.0181351229548454
564,0.222020909190178,-0.0308755729347467,-0.00953085906803608,-0.0216166973114014,0.00987822562456131,-0.0201842803508043
565,0.218777894973755,-0.0287345312535763,-0.00711999135091901,-0.0213154051452875,-0.00211233831942081,-0.0229944009333849
566,0.21411669254303,-0.0258191023021936,-0.00436969753354788,-0.0215564016252756,-0.0138686643913388,-0.0261109918355942
567,0.208611890673637,-0.025036970153451,-0.00558771518990397,-0.0243084616959095,-0.0229378715157509,-0.030107494443655
568,0.203747808933258,-0.0267324075102806,-0.0100847724825144,-0.028286449611187,-0.0253916960209608,-0.0332687199115753
569,0.202521428465843,-0.0272069480270147,-0.0120051261037588,-0.028880350291729,-0.0177805554121733,-0.0313366018235683
570,0.204989165067673,-0.0259489994496107,-0.0103153036907315,-0.026260944083333,-0.00557565176859498,-0.0248221196234226
571,0.209157228469849,-0.0262346602976322,-0.0102576026692986,-0.0250082220882177,-1.61996449605795E-05,-0.0187236592173576
572,0.214367493987083,-0.0297245997935534,-0.0150634609162807,-0.0271455626934767,-0.00627429597079754,-0.0167002025991678
573,0.219283655285835,-0.0361226089298725,-0.0243548210710287,-0.0325550548732281,-0.0220813266932964,-0.0208268221467733
574,0.224949195981026,-0.0405586175620556,-0.0325671210885048,-0.0366870686411858,-0.0383312851190567,-0.027079114690423
575,0.234677329659462,-0.0374034903943539,-0.0323201939463615,-0.0335175506770611,-0.0448206663131714,-0.0267267134040594
576,0.24803838133812,-0.0281713213771582,-0.023716501891613,-0.0239595510065556,-0.0395829305052757,-0.0166843179613352
577,0.262349516153336,-0.0179052744060755,-0.0126112196594477,-0.01288684271276,-0.0274288058280945,-0.00123657868243754
578,0.275461345911026,-0.0102619146928191,-0.00385133922100067,-0.00436964072287083,-0.0138044012710452,0.0128815500065684
579,0.286713570356369,-0.00627928832545877,0.00160289439372718,0.000129782216390595,0.000231025493121706,0.0218382999300957
580,0.296962529420853,-0.00397841818630695,0.00598664022982121,0.00278987432830036,0.016575587913394,0.0254196152091026
581,0.305089086294174,-0.00209983810782433,0.00947190914303064,0.00501281348988414,0.032427690923214,0.0234753638505936
582,0.309915155172348,7.58541573304683E-05,0.0103447595611215,0.00629083951935172,0.0423198491334915,0.0173886381089687
583,0.312716424465179,0.00330827943980694,0.00833902694284916,0.00598686560988426,0.0434515066444874,0.00965984258800745
584,0.315726161003113,0.00695909233763814,0.00567015493288636,0.00499217957258224,0.0380611158907413,0.00262618809938431
585,0.320625752210617,0.0103824511170387,0.00575771508738399,0.00590394297614694,0.0319079533219337,-0.00165345903951675
586,0.325729429721832,0.0117671163752675,0.00828642211854458,0.00802829582244158,0.0250294078141451,-0.00454507675021887
587,0.328137755393982,0.00941954925656319,0.0108721349388361,0.00808024220168591,0.0141712743788958,-0.00762610835954547
588,0.327274769544601,0.0042337947525084,0.0128356022760272,0.00518551468849182,0.00206075538881123,-0.00947868637740612
589,0.325270116329193,-0.00067408848553896,0.0147025398910046,0.00216957181692123,-0.0054307309910655,-0.00764791527763009
590,0.324439495801926,-0.003832878312096,0.0161404497921467,0.000798908877186477,-0.00780260795727372,-0.00266413460485637
591,0.323895484209061,-0.00821583904325962,0.0159906279295683,-0.00171656475868076,-0.00865719560533762,0.000356390693923458
592,0.322165787220001,-0.0142657337710261,0.0157588981091976,-0.00580095266923308,-0.00752221001312137,-0.00111164373811334
593,0.319700390100479,-0.0179824847728014,0.0161794014275074,-0.00808042287826538,-0.00332472869195044,-0.00462868064641953
594,0.318169772624969,-0.0172596778720617,0.0140869719907641,-0.00751032447442412,0.000283569417661056,-0.00775555754080415
595,0.320036470890045,-0.0124380653724074,0.00838025286793709,-0.0049615097232163,-1.0462185855431E-05,-0.00865617580711842
596,0.32467332482338,-0.00565947312861681,0.00133110082242638,-0.00170911254826933,-0.00371674029156566,-0.00635335873812437
597,0.327038049697876,-0.000529727782122791,-0.00563163217157125,0.00101102201733738,-0.0075515853241086,-0.00169960816856474
598,0.324784725904465,0.00112764700315893,-0.0118701169267297,0.00367238908074796,-0.00806826259940863,0.00433842884376645
599,0.318904221057892,-0.00301462318748236,-0.0191756766289473,0.00433993525803089,-0.00856166332960129,0.00796275772154331
600,0.309241116046906,-0.0159566309303045,-0.0307165719568729,-0.00138682569377124,-0.0170519649982452,0.00375685701146722
601,0.298442840576172,-0.032378613948822,-0.0425920113921165,-0.0109199527651072,-0.0319176353514194,-0.00530453305691481
602,0.292947560548782,-0.0409665033221245,-0.0462135747075081,-0.0159940160810947,-0.0414320416748524,-0.0103423362597823
603,0.295257359743118,-0.0375363044440746,-0.038650456815958,-0.0131994970142841,-0.0381487160921097,-0.00726306391879916
604,0.302680283784866,-0.0256208162754774,-0.0229330100119114,-0.0046728034503758,-0.0236300677061081,0.00308245839551091
605,0.312623918056488,-0.00974850263446569,-0.00426249578595161,0.00606049969792366,-0.00329587096348405,0.0168963167816401
606,0.320879638195038,0.00449209799990058,0.00981615670025349,0.0139821469783783,0.0151693243533373,0.0263123456388712
607,0.322627305984497,0.0138816367834806,0.0153169278055429,0.0176265351474285,0.0256925150752068,0.0270092431455851
608,0.318767815828323,0.020189555361867,0.0161444153636694,0.0211214367300272,0.0295880008488894,0.0240324679762125
609,0.311359226703644,0.0230423137545586,0.0154124433174729,0.0244012326002121,0.0292553100734949,0.0225368123501539
610,0.300259083509445,0.0206485241651535,0.0128771932795644,0.0234516691416502,0.0238701906055212,0.0219999812543392
611,0.287250459194183,0.0152366254478693,0.0107541102916002,0.018602641299367,0.0149705791845918,0.0201760809868574
612,0.274858236312866,0.00974209979176521,0.01275878213346,0.0135570792481303,0.00677510816603899,0.0174917615950108
613,0.263686418533325,0.00457402179017663,0.0177008993923664,0.0102335931733251,0.0015730612212792,0.0161916241049767
614,0.253711521625519,1.25158676382853E-05,0.0192212201654911,0.00772269302979112,-0.00120394094847143,0.0150792226195335
615,0.246271133422852,-0.00202201143838465,0.0144288102164865,0.0053882272914052,-0.00113102106843144,0.0116960741579533
616,0.242986395955086,-0.000332124647684395,0.00633483799174428,0.00328062754124403,0.00360975856892765,0.00638933386653662
617,0.243504568934441,0.00396188907325268,-0.00166192185133696,0.00120358087588102,0.0124417738988996,0.000718684517778456
618,0.246092781424522,0.0084676081314683,-0.00761421956121922,-0.000145266531035304,0.0212911013513803,-0.00354007049463689
619,0.249519258737564,0.011079853400588,-0.010177350603044,0.000372049718862399,0.0244220588356256,-0.00497857388108969
620,0.252441257238388,0.0106944553554058,-0.0097611928358674,0.0022187540307641,0.0185287445783615,-0.00399416079744697
621,0.252163261175156,0.00762657215818763,-0.00873925443738699,0.00339784286916256,0.0056722960434854,-0.0025410286616534
622,0.246794685721397,0.00459281168878078,-0.00888900365680456,0.00360419740900397,-0.00865418091416359,-0.00141127069946378
623,0.236807867884636,0.00379259209148586,-0.0110004413872957,0.00373723125085235,-0.021195650100708,-0.000491354847326875
624,0.225826308131218,0.00521168811246753,-0.0142734134569764,0.004768424667418,-0.0312024895101786,0.00136631517671049
625,0.219679936766624,0.00850945804268122,-0.0158646143972874,0.00800674967467785,-0.0364094413816929,0.00709385797381401
626,0.218817427754402,0.011143060401082,-0.015596997924149,0.0116870198398829,-0.0362813211977482,0.0151825128123164
627,0.216924250125885,0.00926484633237123,-0.0161325708031654,0.0119195748120546,-0.0333152674138546,0.0191944353282452
628,0.210164502263069,0.00260598445311189,-0.0183330550789833,0.00743282865732908,-0.0287638064473867,0.0156682468950748
629,0.201199695467949,-0.00241289380937815,-0.0207043681293726,0.000644792336970568,-0.0223081689327955,0.00720524042844772
630,0.194228664040565,0.00145494320895523,-0.0210915524512529,-0.00465833442285657,-0.0143524259328842,-0.00129436515271664
631,0.191204890608788,0.0111180143430829,-0.0186720788478851,-0.00675910990685225,-0.00719746435061097,-0.00746220117434859
632,0.193156808614731,0.0180065277963877,-0.0145276971161366,-0.00589644443243742,-0.00342602003365755,-0.0114582702517509
633,0.199070066213608,0.0190154276788235,-0.00985791254788637,-0.00279912981204689,-0.00327125354669988,-0.0144372889772058
634,0.204267233610153,0.0158911272883415,-0.00466253841295838,0.00168993801344186,-0.00444402592256665,-0.0174352508038282
635,0.204745382070541,0.0121936928480864,0.000721820979379117,0.00716405175626278,-0.00401063077151775,-0.0199338961392641
636,0.19988189637661,0.0109297530725598,0.0044178650714457,0.0129623673856258,-0.00123003614135087,-0.0204920396208763
637,0.190795078873634,0.0114271147176623,0.00531993992626667,0.017188549041748,0.00153699819929898,-0.0184792727231979
638,0.179820239543915,0.0108048319816589,0.00406481372192502,0.0184022020548582,0.00171591271646321,-0.0141219850629568
639,0.170966073870659,0.00884018186479807,0.00138835841789842,0.0175917893648148,-0.000722915458027273,-0.00752771273255348
640,0.168404653668404,0.00758808059617877,-0.0024244268424809,0.0165671668946743,-0.00343540613539517,-2.71133194473805E-05
641,0.174418598413467,0.0081660570576787,-0.00676554068922997,0.0162965804338455,-0.00500196218490601,0.0065924976952374
642,0.187375366687775,0.0103479819372296,-0.011089320294559,0.0166576523333788,-0.00710326759144664,0.0125090340152383
643,0.201734736561775,0.0123734334483743,-0.0156470499932766,0.0162538327276707,-0.0114869000390172,0.0177759230136871
644,0.212022081017494,0.0109477769583464,-0.0213492456823587,0.0129627240821719,-0.0182980820536613,0.0196908172219992
645,0.216416448354721,0.00416450155898929,-0.0285146478563547,0.00641954876482487,-0.0267332848161459,0.0151872476562858
646,0.217575833201408,-0.00493795005604625,-0.0344611518085003,-4.82579816889483E-05,-0.0340304635465145,0.00528906099498272
647,0.2191162109375,-0.011299510486424,-0.035239465534687,-0.00310281664133072,-0.0372238866984844,-0.00560772605240345
648,0.22218082845211,-0.012645598500967,-0.0299123413860798,-0.00266513274982572,-0.0358506813645363,-0.0134792095050216
649,0.225340411067009,-0.00941058620810509,-0.0218176562339067,-0.000815361621789634,-0.0319969654083252,-0.016684103757143
650,0.226465135812759,-0.00355586246587336,-0.0153189888224006,0.000970282650087029,-0.0280906986445189,-0.016042921692133
651,0.227022483944893,0.0033763381652534,-0.0104602295905352,0.00398443872109056,-0.0236998237669468,-0.0134550724178553
652,0.230895534157753,0.0110152587294579,-0.00429933704435825,0.00930334068834782,-0.0169105250388384,-0.0108614340424538
653,0.236347451806068,0.0160815361887217,0.000898991478607059,0.0130075793713331,-0.0103561263531446,-0.0109619293361902
654,0.238945290446281,0.0156917683780193,0.000733306631445885,0.0119554819539189,-0.00736999930813909,-0.0135944942012429
655,0.238958701491356,0.0123665602877736,-0.0037858213763684,0.00830420572310686,-0.00543229328468442,-0.0144042195752263
656,0.236956968903542,0.00783229805529118,-0.0102370129898191,0.00302551127970219,-0.00222486234270036,-0.0129704959690571
657,0.230943694710732,0.000526823685504496,-0.0174969807267189,-0.0048324828967452,-0.000453616725280881,-0.0145701635628939
658,0.221124216914177,-0.0079855602234602,-0.0233849603682756,-0.0134036270901561,-0.00308495806530118,-0.0204507242888212
659,0.211688801646233,-0.0116173513233662,-0.0253617577254772,-0.0180133990943432,-0.00905604939907789,-0.0238226354122162
660,0.20632466673851,-0.00829062890261412,-0.0239765010774136,-0.016546631231904,-0.0165494009852409,-0.0204458180814981
661,0.20604695379734,-0.00242966925725341,-0.0214231200516224,-0.0114851156249642,-0.0241592992097139,-0.0146573651582003
662,0.20946241915226,0.00125765439588577,-0.0195419397205114,-0.00687224511057138,-0.0295183509588242,-0.0121129620820284
663,0.213841423392296,0.0026711190585047,-0.0183567460626364,-0.00321906385943294,-0.0286456644535065,-0.0110107157379389
664,0.216715455055237,0.00445430818945169,-0.0159478057175875,0.00174952880479395,-0.0184451378881931,-0.00695607485249639
665,0.215968430042267,0.0065147066488862,-0.012909553013742,0.00653010187670588,-0.00356177799403667,-0.00274833897128701
666,0.211636498570442,0.00741765229031444,-0.0113329887390137,0.00842887908220291,0.00693512987345457,-0.00264319381676614
667,0.205175399780273,0.00727575086057186,-0.0119183985516429,0.00777251040562987,0.00838091783225536,-0.00664334651082754
668,0.196561485528946,0.00713054742664099,-0.0146907800808549,0.00601812452077866,0.00188662088476121,-0.013098401017487
669,0.184914693236351,0.00682909693568945,-0.0194987710565329,0.00320365885272622,-0.00964369252324104,-0.0204030126333237
670,0.171958237886429,0.00566087570041418,-0.0238493103533983,-0.000471217295853421,-0.0225678905844688,-0.026207959279418
671,0.160850197076797,0.00488983560353518,-0.0237037371844053,-0.00226885476149619,-0.0316849127411842,-0.0272703543305397
672,0.150929674506187,0.00480798305943608,-0.0199732631444931,-0.00142649922054261,-0.0352386459708214,-0.0232730451971293
673,0.140769585967064,0.0046500158496201,-0.0162251088768244,0.000857504666782916,-0.0351041965186596,-0.0159521251916885
674,0.132556691765785,0.00554184429347515,-0.0123024191707373,0.00521080102771521,-0.0314787924289703,-0.00588966673240066
675,0.127390474081039,0.00705031352117658,-0.00808028597384691,0.0101488158106804,-0.0255981292575598,0.00481547834351659
676,0.122821412980556,0.00737186381593347,-0.00456924736499786,0.0127631640061736,-0.0204812120646238,0.0133021418005228
677,0.116303846240044,0.00691671948879957,-0.00130478315986693,0.0130503876134753,-0.0159586276859045,0.0179557390511036
678,0.106659308075905,0.00629304395988584,0.00109217234421521,0.011655674315989,-0.00967007875442505,0.0162499845027924
679,0.0934312641620636,0.00510040204972029,0.000985629507340491,0.00782048795372248,-0.0014527355087921,0.00616410793736577
680,0.0781640559434891,0.003449403680861,-0.000219788067624904,0.00162342272233218,0.00647255778312683,-0.00940161012113094
681,0.064750961959362,0.00167709239758551,0.00100935704540461,-0.0037828697822988,0.0115986792370677,-0.0234201680868864
682,0.0557170137763023,-0.000677513075061142,0.00353480083867908,-0.00525877997279167,0.0116599136963487,-0.0312644951045513
683,0.0513261370360851,-0.0029998745303601,0.00274109467864037,-0.00209918897598982,0.00713954726234078,-0.0310962423682213
684,0.0502785928547382,-0.00366913969628513,-0.00204888242296875,0.00465012341737747,0.00135882396716625,-0.0225959476083517
685,0.0471668653190136,-0.00508323265239596,-0.010319602675736,0.00962535291910172,-0.00522216083481908,-0.0134043050929904
686,0.0391125306487083,-0.00877376366406679,-0.0200472585856915,0.00914150848984718,-0.0114476354792714,-0.0111817503347993
687,0.0317000672221184,-0.00953631103038788,-0.0242095217108727,0.00804504659026861,-0.0116968294605613,-0.0118026174604893
688,0.0289194714277983,-0.00488474313169718,-0.0202780403196812,0.0100906156003475,-0.00494579970836639,-0.00995615217834711
689,0.0291655380278826,0.0021577225998044,-0.0128222554922104,0.0135421473532915,0.00367346312850714,-0.00637025479227304
690,0.0308746080845594,0.0105441492050886,-0.00430491520091891,0.0179065614938736,0.0113160312175751,-0.00178819347638637
691,0.0317274555563927,0.0197186954319477,0.00494143227115273,0.0233998913317919,0.0174523741006851,0.00316695380024612
692,0.0291276033967733,0.0277719311416149,0.0137679511681199,0.0288415607064962,0.0205967668443918,0.00734203308820724
693,0.0223623663187027,0.0331405699253082,0.0198389403522015,0.0326569750905037,0.0191040951758623,0.00980652961879969
694,0.0120534226298332,0.0345288291573524,0.02027184702456,0.0333395414054394,0.012284129858017,0.00865488592535257
695,0.0019330820068717,0.0342662259936333,0.0178171955049038,0.033140491694212,0.00341229094192386,0.0057177166454494
696,-0.00490705017000437,0.0353818610310555,0.0170454829931259,0.0352852940559387,-0.00374004803597927,0.00562202651053667
697,-0.0102989133447409,0.0352593883872032,0.0159163624048233,0.0370571911334991,-0.010779645293951,0.00769610377028584
698,-0.0169570911675692,0.0305511467158794,0.011568384245038,0.0342537648975849,-0.0197213236242533,0.00795446801930666
699,-0.0249832924455404,0.0233363918960094,0.00644487142562866,0.0283042974770069,-0.0272534247487783,0.00595166767016053
700,-0.0317365564405918,0.0184812117367983,0.00465157255530357,0.0246857199817896,-0.0273828692734241,0.00490678753703833
701,-0.035041693598032,0.0177835524082184,0.00665616570040584,0.0258591305464506,-0.0192912016063929,0.006573929451406
702,-0.0360724106431007,0.0193002447485924,0.00970834214240313,0.0290020257234573,-0.00923457369208336,0.0108008161187172
703,-0.0370118319988251,0.0207880884408951,0.0118514569476247,0.0311204232275486,-0.00286516128107905,0.0178470518440008
704,-0.0404790975153446,0.0197874940931797,0.0106037883087993,0.0297666359692812,-0.00275911949574947,0.023201335221529
705,-0.047338929027319,0.0159601271152496,0.00492194248363376,0.0242593213915825,-0.00793465226888657,0.0212682466953993
706,-0.0536337569355965,0.0133365141227841,-0.000361808313755319,0.0188450943678617,-0.0124016925692558,0.0149402990937233
707,-0.0558779537677765,0.014893701300025,-0.000645905500277877,0.0170650687068701,-0.0123225059360266,0.00966210849583149
708,-0.0546609498560429,0.0193828009068966,0.00370822474360466,0.018121374770999,-0.00945642776787281,0.00691418955102563
709,-0.0526336990296841,0.0239472407847643,0.00958978291600943,0.0204377733170986,-0.00579618848860264,0.0065976339392364
710,-0.0529254414141178,0.0265183970332146,0.0127845965325832,0.0227563846856356,-0.00249834195710719,0.00773094221949577
711,-0.0570131205022335,0.0263280086219311,0.0113033279776573,0.0238242633640766,-0.00100973120424896,0.00825363863259554
712,-0.062826432287693,0.024748956784606,0.00892363395541906,0.0248420722782612,4.74352236778941E-05,0.00895214732736349
713,-0.0681731179356575,0.0233839992433786,0.00900013837963343,0.0268700215965509,0.00303755281493068,0.0115781100466847
714,-0.0738344490528107,0.021573493257165,0.00946828257292509,0.0278795473277569,0.00677232397720218,0.0140254385769367
715,-0.0816516205668449,0.0177391655743122,0.00726545415818691,0.0259823221713305,0.00705459387972951,0.0126057118177414
716,-0.0923212021589279,0.0111487796530128,0.00150752463378012,0.0210223253816366,0.000535288185346872,0.00569400936365128
717,-0.101800553500652,0.00547077879309654,-0.00286115892231464,0.0170734021812677,-0.00664346199482679,-0.00198473897762597
718,-0.104773342609406,0.00574062345549464,-0.000142529024742544,0.0186800230294466,-0.00420206505805254,-0.00395590253174305
719,-0.102224767208099,0.0102562261745334,0.00672490941360593,0.0234472062438726,0.00580573501065373,-0.00160252093337476
720,-0.0979813188314438,0.0145677011460066,0.0129671078175306,0.027645530179143,0.0145066548138857,0.00112603872548789
721,-0.0944925546646118,0.0167801342904568,0.017528124153614,0.0302110910415649,0.0176832843571901,0.00346038327552378
722,-0.0933743342757225,0.016429478302598,0.0196670461446047,0.0304397568106651,0.0150421010330319,0.00505789741873741
723,-0.0936326533555985,0.0160704925656319,0.020926509052515,0.0305506326258183,0.0102440128102899,0.00760200992226601
724,-0.0934416353702545,0.0179400499910116,0.0238173976540565,0.0328068658709526,0.00737634301185608,0.0126521401107311
725,-0.093914620578289,0.0197550412267447,0.0271380562335253,0.0347432233393192,0.00587242841720581,0.0171752832829952
726,-0.0951573401689529,0.0202596727758646,0.0305177792906761,0.0351098403334618,0.00476273754611611,0.0191632751375437
727,-0.0947128981351852,0.0208017732948065,0.0360073558986187,0.0363206900656223,0.00574522279202938,0.0204537883400917
728,-0.093611054122448,0.0210229959338903,0.0413453280925751,0.0385218411684036,0.00885570235550404,0.0217142179608345
729,-0.0958935767412186,0.0200202278792858,0.0414216741919518,0.0394185446202755,0.0111422650516033,0.0219601504504681
730,-0.102742329239845,0.0179468207061291,0.0349967442452908,0.037751816213131,0.0099969208240509,0.0215360131114721
731,-0.111086785793304,0.0157481525093317,0.0260122120380402,0.0345732159912586,0.00613076146692038,0.0216390565037727
732,-0.11716465651989,0.0155200976878405,0.0203716270625591,0.0326545313000679,0.00316210673190653,0.0218133665621281
733,-0.120339252054691,0.0187979955226183,0.0209813304245472,0.0337520204484463,0.00361878238618374,0.0204647183418274
734,-0.12257194519043,0.0239050090312958,0.0252337958663702,0.036543644964695,0.00602474343031645,0.0166182368993759
735,-0.125841364264488,0.0270486585795879,0.0280824210494757,0.0378643311560154,0.00657603843137622,0.010311720892787
736,-0.130293384194374,0.0269546713680029,0.0278044361621141,0.0362104438245296,0.00373426638543606,0.00299047073349357
737,-0.133640363812447,0.0259340330958366,0.0271204728633165,0.0337119922041893,-0.000143691839184612,-0.00222318526357412
738,-0.13370843231678,0.025991952046752,0.0284594241529703,0.0331414192914963,-0.002021508757025,-0.0023588864132762
739,-0.131611332297325,0.0267020855098963,0.0307632945477962,0.0343661494553089,-0.00131105189211667,0.00244333874434233
740,-0.130941614508629,0.0265291351824999,0.0317322984337807,0.0355094186961651,5.91218886256684E-05,0.00947335734963417
741,-0.133853614330292,0.0241309180855751,0.0309496745467186,0.0351588428020477,0.000501999980770051,0.0159323029220104
742,-0.138208657503128,0.0207685437053442,0.031153092160821,0.0348543263971806,0.00292594241909683,0.02223658002913
743,-0.141729101538658,0.018438782542944,0.0329480208456516,0.0361685045063496,0.00958008319139481,0.029434647411108
744,-0.145623460412025,0.0161369182169437,0.0315410904586315,0.036464549601078,0.0162106957286596,0.0343315824866295
745,-0.150904446840286,0.0123577769845724,0.0240187216550112,0.0331837274134159,0.0183843392878771,0.033440537750721
746,-0.15545254945755,0.00874381326138973,0.0141769256442785,0.0284867901355028,0.0175851862877607,0.0290998220443726
747,-0.156203776597977,0.0087710777297616,0.00802852027118206,0.0265024304389954,0.0183074120432138,0.0272749904543161
748,-0.15430261194706,0.0114971082657576,0.00620636763051152,0.0264910981059074,0.0211117677390575,0.0283437222242355
749,-0.153751447796822,0.0127526810392737,0.00500556267797947,0.0243870839476585,0.0228350181132555,0.0282763820141554
750,-0.154747039079666,0.0129876295104623,0.00429766532033682,0.0205690506845713,0.0226378105580807,0.0275658946484327
751,-0.153914526104927,0.016192315146327,0.00792487058788538,0.0200847294181585,0.0232140123844147,0.0299615282565355
752,-0.151028454303741,0.0222303625196218,0.0160287842154503,0.0245735161006451,0.0252210516482592,0.035037849098444
753,-0.149946868419647,0.026913795620203,0.023959694430232,0.0296158511191607,0.0258699487894773,0.0380578860640526
754,-0.153455719351768,0.0273057390004396,0.0282869879156351,0.0305773243308067,0.0229973681271076,0.0357845053076744
755,-0.159819543361664,0.0247690863907337,0.0306280869990587,0.0283361822366714,0.0188295114785433,0.0310880318284035
756,-0.165512010455132,0.0228146854788065,0.0337620936334133,0.0273251626640558,0.0180347785353661,0.0283518563956022
757,-0.170762658119202,0.0210014749318361,0.0355210863053799,0.0270912013947964,0.0191066134721041,0.025262113660574
758,-0.175725370645523,0.018178828060627,0.0346726588904858,0.0250166598707438,0.0176963787525892,0.0191943850368261
759,-0.177754074335098,0.0167720764875412,0.0342850908637047,0.0224709901958704,0.015212039463222,0.0133811943233013
760,-0.177089288830757,0.0182221289724112,0.035075519233942,0.0213441718369722,0.0155125493183732,0.0117422798648477
761,-0.176251664757729,0.0217608194798231,0.0356562361121178,0.0225101355463266,0.0202199444174767,0.0160775426775217
762,-0.176662549376488,0.0254645105451345,0.0352183729410172,0.0255309101194143,0.0270651932805777,0.0244164224714041
763,-0.178148478269577,0.0271896086633205,0.0336170829832554,0.0283701829612255,0.0312945619225502,0.031419862061739
764,-0.178664654493332,0.0273078680038452,0.0323660895228386,0.0304655432701111,0.0312014874070883,0.0344194397330284
765,-0.178008005023003,0.0264476966112852,0.0316456146538258,0.031321108341217,0.0281939916312695,0.0339866690337658
766,-0.177832916378975,0.0247954558581114,0.0308786425739527,0.0302936919033527,0.0251041930168867,0.0320245511829853
767,-0.178794041275978,0.0228177234530449,0.0307178311049938,0.0279976762831211,0.0244041122496128,0.0302969515323639
768,-0.181909590959549,0.019123837351799,0.0301182456314564,0.0241219289600849,0.024226538836956,0.0276931282132864
769,-0.185237497091293,0.0135724572464824,0.0292018614709377,0.0201463978737593,0.0221171416342258,0.0248564500361681
770,-0.183552384376526,0.00807162187993526,0.0290836468338966,0.0184298306703568,0.0184438023716211,0.0244312044233084
771,-0.177241235971451,0.00296325120143592,0.0271707195788622,0.016828952357173,0.0133692538365722,0.0244867708534002
772,-0.172388017177582,-0.00131198239978403,0.0217908620834351,0.0128172161057591,0.00674234656617045,0.0219238512217999
773,-0.17275932431221,-0.00348391942679882,0.0154504105448723,0.00727203674614429,-0.000609189679380506,0.0167009457945824
774,-0.176593989133835,-0.00259870616719127,0.0123496735468507,0.00289603974670172,-0.00607085088267922,0.0111134042963386
775,-0.179840058088303,0.00231149233877659,0.0146235264837742,0.00248147593811154,-0.00715847034007311,0.00908188614994287
776,-0.181557238101959,0.00927014835178852,0.018788319081068,0.00550097040832043,-0.00563747202977538,0.0129786757752299
777,-0.18329268693924,0.0138564193621278,0.0204634517431259,0.00896867457777262,-0.00455732084810734,0.0218644756823778
778,-0.186404511332512,0.0134830558672547,0.0186479780822992,0.0104005411267281,-0.00494563253596425,0.0299043580889702
779,-0.191998153924942,0.00812784675508738,0.0138867981731892,0.00782637018710375,-0.00777428457513452,0.0293683856725693
780,-0.1978809684515,0.00170678598806262,0.00974308047443628,0.00323608727194369,-0.0110342064872384,0.0210911016911268
781,-0.199204489588737,-6.96588176651858E-05,0.0109829343855381,0.00243554078042507,-0.00950545817613602,0.0133408894762397
782,-0.195495948195457,0.00323736295104027,0.0163985043764114,0.00684165908023715,-0.00299710198305547,0.0104708345606923
783,-0.189660757780075,0.00799618940800428,0.0211626403033733,0.013119088485837,0.00440309196710587,0.0121544497087598
784,-0.183933466672897,0.0108279837295413,0.0221031457185745,0.0178339928388596,0.00940399803221226,0.0161282233893871
785,-0.181890472769737,0.00869754143059254,0.0172943733632565,0.0176421105861664,0.00854053162038326,0.0170611664652824
786,-0.185149416327477,0.00233326572924852,0.00874884054064751,0.0125955743715167,0.0017520118271932,0.0120864883065224
787,-0.189034461975098,-0.00232833041809499,0.00364023260772228,0.0084026986733079,-0.00424853339791298,0.00619688024744391
788,-0.190687641501427,-0.00302609382197261,0.00469062197953463,0.00792171619832516,-0.00512912776321173,0.00360495876520872
789,-0.192209005355835,-0.00250894320197403,0.00773324817419052,0.00918105058372021,-0.00258899829350412,0.00314861838705838
790,-0.193416953086853,-0.000671469315420836,0.0109069300815463,0.0124634839594364,0.00255924835801125,0.00537054939195514
791,-0.193370595574379,0.00308162090368569,0.0137488031759858,0.017282085493207,0.00838430877774954,0.0105613069608808
792,-0.193462431430817,0.00729099195450544,0.0145269818603992,0.0203759111464024,0.0108146378770471,0.0160412155091763
793,-0.195008605718613,0.0105715235695243,0.0136159174144268,0.0202062390744686,0.00857422407716513,0.019595505669713
794,-0.199764654040337,0.00950481463223696,0.0106618199497461,0.0150508573278785,0.00199227128177881,0.0179425422102213
795,-0.208434239029884,0.0022759682033211,0.0046472204849124,0.0042591723613441,-0.00721264770254493,0.00996802560985088
796,-0.217591255903244,-0.00576285691931844,-0.00074369553476572,-0.00617204373702407,-0.0146182393655181,0.0022786792833358
797,-0.225020587444305,-0.00945746246725321,-0.00291258096694946,-0.0104194264858961,-0.0188668370246887,0.000651875277981162
798,-0.23222042620182,-0.00915633793920279,-0.0038341109175235,-0.00904666539281607,-0.0218942370265722,0.00435828790068626
799,-0.239283174276352,-0.00621690880507231,-0.003628752194345,-0.00422196881845593,-0.0227496568113565,0.0117459455505013
800,-0.244559556245804,-0.00142159999813885,-0.000470898841740564,0.00235059997066855,-0.0191928613930941,0.0210340544581413
801,-0.247775599360466,0.00266426987946033,0.00519129261374474,0.00716444291174412,-0.0123664457350969,0.0276921223849058
802,-0.249078035354614,0.00424034474417567,0.0119856698438525,0.00837699323892593,-0.00429667299613357,0.0292598064988852
803,-0.247397467494011,0.00571057479828596,0.0198158174753189,0.00925751775503159,0.00605072919279337,0.0301278121769428
804,-0.243936240673065,0.00911415833979845,0.0272900853306055,0.0120411850512028,0.0185433998703957,0.0342495776712894
805,-0.241627618670464,0.0141466772183776,0.0331844985485077,0.016129270195961,0.0296834744513035,0.0408297218382359
806,-0.240612983703613,0.0198848973959684,0.0380634963512421,0.0210447795689106,0.0360310561954975,0.048046812415123
807,-0.241154715418816,0.0228184331208467,0.0399316251277924,0.0236525274813175,0.0347407683730125,0.0521565340459347
808,-0.245777651667595,0.0190488435328007,0.0351347960531712,0.0192046817392111,0.0252992156893015,0.0481560043990612
809,-0.254724532365799,0.00994003936648369,0.0237715262919664,0.0074762818403542,0.01215551327914,0.0352637320756912
810,-0.264616906642914,0.000953038048464805,0.0105991000309587,-0.00599192082881927,0.00178649101871997,0.018822094425559
811,-0.272848516702652,-0.004348901566118,0.000493790197651833,-0.0156145608052611,-0.00316093186847866,0.00484235538169742
812,-0.280041486024857,-0.00687778182327747,-0.00604527117684484,-0.021166605874896,-0.00573601480573416,-0.00543916551396251
813,-0.28659999370575,-0.0085401926189661,-0.0100404359400272,-0.0244874861091375,-0.00936898216605186,-0.0118795726448298
814,-0.291621625423431,-0.0101431114599109,-0.0116030033677816,-0.0260950550436974,-0.0149220246821642,-0.013204887509346
815,-0.29532253742218,-0.0119838025420904,-0.0114604383707047,-0.0262340195477009,-0.0219240728765726,-0.010199161246419
816,-0.297927290201187,-0.0124573819339275,-0.00948386639356613,-0.0242041163146496,-0.0273104589432478,-0.00462454790249467
817,-0.299198150634766,-0.0113430693745613,-0.00651925476267934,-0.0212630778551102,-0.0290738400071859,0.000488281424622983
818,-0.299793750047684,-0.0116411233320832,-0.00552411656826735,-0.0211082454770803,-0.029629135504365,0.00140928872860968
819,-0.301659196615219,-0.0146278236061335,-0.00737783359363675,-0.0242423694580793,-0.03143659979105,-0.00153122015763074
820,-0.305517673492432,-0.0179662723094225,-0.00909831747412682,-0.0269760675728321,-0.032817680388689,-0.0037422829773277
821,-0.308766454458237,-0.0186415165662766,-0.00669728452339768,-0.0251572895795107,-0.0295483805239201,-0.000976580777205527
822,-0.309052109718323,-0.0164881236851215,0.000272598990704864,-0.0181921422481537,-0.0201582573354244,0.00622640969231725
823,-0.305904269218445,-0.0124165015295148,0.00966108497232199,-0.0082585234194994,-0.00633113738149405,0.0145197799429297
824,-0.301291257143021,-0.00775164179503918,0.0172851718962193,0.00076720817014575,0.00715441815555096,0.0197236202657223
825,-0.298594921827316,-0.00553680071607232,0.0187788344919682,0.00459601916372776,0.0144180590286851,0.0191292390227318
826,-0.299026161432266,-0.00736427307128906,0.0147306872531772,0.00232968991622329,0.0136408777907491,0.0152204222977161
827,-0.302593231201172,-0.012220086529851,0.00750421732664108,-0.00480455812066793,0.00556478509679437,0.0100252907723188
828,-0.306467771530151,-0.0161812137812376,-9.54653514781967E-05,-0.0129587659612298,-0.00477065471932292,0.00466358195990324
829,-0.305652499198914,-0.0152581632137299,-0.00362217449583113,-0.0168309677392244,-0.00929129216820002,0.00258814892731607
830,-0.299620538949966,-0.0105804791674018,-0.00131853448692709,-0.0157212093472481,-0.00693976972252131,0.00417011417448521
831,-0.292206436395645,-0.00601558014750481,0.00367993372492492,-0.0122173484414816,-0.00261041917838156,0.00625487836077809
832,-0.286950677633286,-0.00396544067189097,0.00635024113580585,-0.00867576152086258,0.000261784560279921,0.00627455022186041
833,-0.284617096185684,-0.00441226223483682,0.00504596903920174,-0.0064051728695631,0.000938735320232809,0.00404513208195567
834,-0.283453643321991,-0.00524616520851851,0.00277346349321306,-0.00431763101369143,0.000739216397050768,0.00148198253009468
835,-0.282188951969147,-0.00481958827003837,0.00277540786191821,-0.00096541759558022,0.000874446472153068,-0.000271785276709124
836,-0.281211614608765,-0.00328266876749694,0.00551590695977211,0.00290443492121995,0.000723124016076326,-0.00210600160062313
837,-0.280335307121277,-0.000839765067212284,0.00962687656283379,0.00658444780856371,-0.000388425192795694,-0.00464672921225429
838,-0.279623955488205,0.00155667576473206,0.0122443623840809,0.00943002477288246,-0.00285274186171591,-0.0077608497813344
839,-0.279914140701294,0.00174785417038947,0.0114407334476709,0.00962036475539207,-0.00617104303091764,-0.0119443256407976
840,-0.280149608850479,-0.00132563849911094,0.00879174750298262,0.00630062771961093,-0.00895179063081741,-0.0176896471530199
841,-0.278610646724701,-0.00622075656428933,0.00593825662508607,0.00082031701458618,-0.0115610007196665,-0.0239585619419813
842,-0.274858862161636,-0.00875414162874222,0.00404308177530766,-0.00281404028646648,-0.0130876041948795,-0.0269919391721487
843,-0.269920438528061,-0.00738305365666747,0.00362859340384603,-0.00228531565517187,-0.0113134188577533,-0.0241717137396336
844,-0.266193300485611,-0.0061090299859643,0.00207406375557184,-0.0010369309457019,-0.00855584815144539,-0.0180313847959042
845,-0.265581786632538,-0.00820151902735233,-0.00321742263622582,-0.00299391825683415,-0.00962088443338871,-0.0128491688519716
846,-0.266933441162109,-0.0130687775090337,-0.0113589782267809,-0.00753561034798622,-0.0154298208653927,-0.00989651866257191
847,-0.267159909009933,-0.0179561916738749,-0.018567755818367,-0.0111016817390919,-0.0217088349163532,-0.00633757561445236
848,-0.265701949596405,-0.021153524518013,-0.0223776325583458,-0.0122705101966858,-0.0249088741838932,0.000510462326928973
849,-0.263225048780441,-0.0227533951401711,-0.0224310383200645,-0.0119550805538893,-0.0246537365019321,0.00954644847661257
850,-0.259229987859726,-0.0218795519322157,-0.0177035219967365,-0.0101377470418811,-0.020325068384409,0.0173328835517168
851,-0.255000829696655,-0.0181987620890141,-0.0102119082584977,-0.00769658666104078,-0.0129071455448866,0.0194944757968187
852,-0.252280354499817,-0.0132707618176937,-0.00420481944456697,-0.00621825130656362,-0.00559089565649629,0.0141757279634476
853,-0.250990837812424,-0.00812835060060024,3.41834856953938E-05,-0.00500709284096956,-0.000537199259269983,0.004643389955163
854,-0.252036809921265,-0.00384314358234406,0.00293136807158589,-0.00386558822356164,0.000729946186766028,-0.00594436749815941
855,-0.256199151277542,-0.00246309861540794,0.00159520376473665,-0.00546539621427655,-0.00339297018945217,-0.0175080336630344
856,-0.259977847337723,-0.00409617740660906,-0.00530455773696303,-0.0104926656931639,-0.0117570087313652,-0.0283945873379707
857,-0.259224683046341,-0.00681916205212474,-0.0146390339359641,-0.0161572508513927,-0.0201029349118471,-0.0356960482895374
858,-0.256152391433716,-0.0109348138794303,-0.0239294767379761,-0.0219604130834341,-0.0259423404932022,-0.0407822094857693
859,-0.254807859659195,-0.0175639633089304,-0.0319909229874611,-0.0286265797913074,-0.0287849754095078,-0.0459210984408855
860,-0.253137975931168,-0.0234837234020233,-0.0350374728441238,-0.0324269905686378,-0.0264498312026262,-0.0476308763027191
861,-0.247007742524147,-0.0241295956075192,-0.0301699694246054,-0.0292633548378944,-0.0170070510357618,-0.0414574407041073
862,-0.236583590507507,-0.0195169150829315,-0.0195217281579971,-0.0205767266452312,-0.00211466941982508,-0.0287139154970646
863,-0.224532410502434,-0.0124892853200436,-0.00702136289328337,-0.00964726507663727,0.0142547814175487,-0.0124254552647471
864,-0.213837474584579,-0.00674736127257347,0.00217491202056408,-0.000374111026758328,0.0264181178063154,0.00387784792110324
865,-0.206878617405891,-0.00583318062126637,0.00252686254680157,0.00178476900327951,0.0289206001907587,0.0143835842609406
866,-0.202854827046394,-0.00815150048583746,-0.00448644021525979,-0.00318154413253069,0.0220327936112881,0.0181662850081921
867,-0.19937327504158,-0.00842845533043146,-0.0114509947597981,-0.00898876506835222,0.0111734503880143,0.020253848284483
868,-0.19516983628273,-0.00479691941291094,-0.0137020573019981,-0.0110227968543768,0.00120394700206816,0.0240103770047426
869,-0.190777838230133,-0.000357178156264126,-0.0119821364060044,-0.00922475010156631,-0.00703232083469629,0.0288021024316549
870,-0.187327325344086,0.000708898238372058,-0.00885843671858311,-0.00606011692434549,-0.0146970553323627,0.0323534347116947
871,-0.183554723858833,-0.00142474903259426,-0.00521288486197591,-0.00366696389392018,-0.0202930979430676,0.0343537889420986
872,-0.178481414914131,-0.00401645340025425,-0.00285088689997792,-0.00404256861656904,-0.0225272234529257,0.0351347588002682
873,-0.1734718978405,-0.00632954854518175,-0.00473075686022639,-0.00906205177307129,-0.0225033294409513,0.0326406396925449
874,-0.167663440108299,-0.00714417034760118,-0.00793466437608004,-0.0163086373358965,-0.018163776025176,0.0264154598116875
875,-0.15812748670578,-0.00478909816592932,-0.00532918283715844,-0.0203895885497332,-0.0073546702042222,0.0193123929202557
876,-0.144944369792938,-0.00027102991589345,0.00385485985316336,-0.018991619348526,0.00561308953911066,0.0141212176531553
877,-0.13254626095295,0.00343633675947785,0.0123768988996744,-0.0151936355978251,0.0134935081005096,0.010893777012825
878,-0.125017747282982,0.00435025617480278,0.0141654787585139,-0.0136441951617599,0.0126770650967956,0.00759499706327915
879,-0.12153534591198,0.00284634227864444,0.0100264800712466,-0.0155884884297848,0.00641065184026957,0.0030076471157372
880,-0.119556061923504,-0.000401141151087359,0.00360864284448326,-0.0197304170578718,0.000515055551659316,-0.00319104664959013
881,-0.118403904139996,-0.0046984045766294,-0.0023930526804179,-0.0238770209252834,-0.00234059523791075,-0.00929392501711845
882,-0.118098869919777,-0.00867418386042118,-0.00590844452381134,-0.0258492473512888,-0.00228729704394937,-0.0114532504230738
883,-0.118764542043209,-0.0117262247949839,-0.00643745297566056,-0.025830777361989,-0.00117829814553261,-0.00899559166282415
884,-0.119902990758419,-0.0135580794885755,-0.00489301001653075,-0.0251392833888531,-0.000627901288680732,-0.00534442020580173
885,-0.12122268974781,-0.014461481012404,-0.00417829817160964,-0.0249409750103951,-0.00137391814496368,-0.00347277102991939
886,-0.121891260147095,-0.014533681795001,-0.00696659414097667,-0.0252968762069941,-0.00297280261293054,-0.00195026327855885
887,-0.11845325678587,-0.0125352954491973,-0.0113281300291419,-0.024275416508317,-0.0029252921231091,0.0027936038095504
888,-0.109072476625443,-0.00977948494255543,-0.0148275904357433,-0.0222310237586498,-0.000226948017370887,0.00972403772175312
889,-0.0966908112168312,-0.00937712751328945,-0.0164015721529722,-0.0216014236211777,0.00444317748770118,0.0146816177293658
890,-0.0875432342290878,-0.0118564693257213,-0.0162478238344193,-0.0230086054652929,0.00905956700444222,0.0150976944714785
891,-0.0865539610385895,-0.0167616829276085,-0.0184194426983595,-0.0268222596496344,0.00839623436331749,0.00992358569055796
892,-0.0926810801029205,-0.0245816670358181,-0.0256935600191355,-0.0334547348320484,-0.000809191376902163,0.000135780035634525
893,-0.100291840732098,-0.0336705222725868,-0.0343936085700989,-0.0399204380810261,-0.0144364591687918,-0.0095862839370966
894,-0.103307455778122,-0.0392957367002964,-0.0383543632924557,-0.0408508591353893,-0.0234147980809212,-0.012629677541554
895,-0.0990742594003677,-0.0382103808224201,-0.0347672924399376,-0.0343792885541916,-0.0211757272481918,-0.00596419209614396
896,-0.0898797735571861,-0.0311787836253643,-0.0252715889364481,-0.0239431727677584,-0.00934520177543163,0.0065822210162878
897,-0.0813769623637199,-0.0221237279474735,-0.014730173163116,-0.0149096865206957,0.00417766254395247,0.0169498454779387
898,-0.0774052962660789,-0.0144249312579632,-0.00648829806596041,-0.00950653105974197,0.0143492585048079,0.0209890492260456
899,-0.0767336264252663,-0.00855749100446701,-5.31035475432873E-05,-0.00629457645118237,0.0222726091742516,0.0210626721382141
900,-0.0772139206528664,-0.00545647693797946,0.00326818623580039,-0.0049704322591424,0.0280116703361273,0.0191318020224571
901,-0.0761649906635284,-0.00511124730110168,0.00271602114662528,-0.00450731068849564,0.0302845481783152,0.0159589070826769
902,-0.0708179026842117,-0.00548182567581534,0.000189284663065337,-0.00300532672554255,0.0285996105521917,0.0121998460963368
903,-0.0634057223796844,-0.00788735877722502,-0.00548006827011704,-0.00389176583848894,0.0217078644782305,0.00495427800342441
904,-0.0573156140744686,-0.0138638559728861,-0.0138783687725663,-0.0101351253688335,0.0126949530094862,-0.00728418538346887
905,-0.0536295734345913,-0.0215008612722158,-0.0207602642476559,-0.0187829360365868,0.00637881411239505,-0.0202368479222059
906,-0.0542979091405869,-0.0295451302081347,-0.0257185474038124,-0.0271938946098089,0.000793547194916755,-0.0291548855602741
907,-0.0575552359223366,-0.0359639264643192,-0.0302026681602001,-0.033097080886364,-0.00594143103808165,-0.0310777090489864
908,-0.0558449141681194,-0.0372914895415306,-0.0324045196175575,-0.0330970101058483,-0.0100023373961449,-0.0254374351352453
909,-0.0468902252614498,-0.0351090393960476,-0.0320100821554661,-0.0291872620582581,-0.0109401186928153,-0.0175834000110626
910,-0.0363923534750938,-0.0340970195829868,-0.0314740799367428,-0.0271242000162601,-0.0127645432949066,-0.0144462585449219
911,-0.0286282021552324,-0.0342075526714325,-0.0307521261274815,-0.0276050306856632,-0.0160432793200016,-0.016406686976552
912,-0.0236159041523933,-0.0326300412416458,-0.0282500013709068,-0.0273667741566896,-0.0182786844670773,-0.0192126538604498
913,-0.0204161945730448,-0.0301456432789564,-0.025253327563405,-0.0258788913488388,-0.0183835048228502,-0.0209722723811865
914,-0.0180336926132441,-0.0287622511386871,-0.0228183139115572,-0.024022039026022,-0.0157299414277077,-0.0211229138076305
915,-0.0166069865226746,-0.0276624914258718,-0.0192970130592585,-0.0206074584275484,-0.00955404061824083,-0.0172114036977291
916,-0.017032029107213,-0.0253266375511885,-0.014543890953064,-0.0150356506928802,-0.00180394458584487,-0.00854963064193726
917,-0.0176515057682991,-0.0211244001984596,-0.00890368223190308,-0.0088218729943037,0.00473897298797965,0.0019057528115809
918,-0.0167526677250862,-0.0160731542855501,-0.00269618607126176,-0.00460958713665605,0.00863381009548903,0.00928089488297701
919,-0.0156260207295418,-0.0119066005572677,0.000750297331251204,-0.00356626533903182,0.00869337376207113,0.00999903492629528
920,-0.0170069597661495,-0.0100055988878012,-0.00287296110764146,-0.00514452857896686,0.00351539137773216,0.00409026443958282
921,-0.0208361372351646,-0.0105993645265698,-0.0127677675336599,-0.00855734571814537,-0.00493214791640639,-0.00570717547088861
922,-0.0245207790285349,-0.013761019334197,-0.0237439889460802,-0.0139847286045551,-0.0129745919257402,-0.0181381292641163
923,-0.0270362980663776,-0.0207882337272167,-0.032722394913435,-0.0226619113236666,-0.0203443523496389,-0.0340303368866444
924,-0.0263291914016008,-0.029003681614995,-0.037174504250288,-0.0313161052763462,-0.0252406839281321,-0.0484685078263283
925,-0.0200339779257774,-0.0325323492288589,-0.0345432385802269,-0.0337940938770771,-0.0239293240010738,-0.0529385432600975
926,-0.0105621516704559,-0.0303317159414291,-0.0269415806978941,-0.0301012974232435,-0.0174260083585978,-0.0470771938562393
927,-0.00219508982263505,-0.0257725398987532,-0.0184307415038347,-0.0244938395917416,-0.00981756672263145,-0.0378231629729271
928,0.00382124725729227,-0.0215359982103109,-0.0112616224214435,-0.0188614409416914,-0.00361291435547173,-0.0303215179592371
929,0.00803844351321459,-0.0185198206454515,-0.00686593446880579,-0.0133137106895447,0.000243987800786272,-0.025276331230998
930,0.011000950820744,-0.0167456939816475,-0.00491751870140433,-0.00760651752352715,0.00272518186829984,-0.0210481267422438
931,0.0120719932019711,-0.0178615525364876,-0.00538335088640451,-0.00374942691996694,0.00360867800191045,-0.0192135162651539
932,0.00978626310825348,-0.0236652046442032,-0.0093535678461194,-0.00525205116719007,0.000220250018173829,-0.0244196932762861
933,0.00544046144932508,-0.031095003709197,-0.0150465732440352,-0.0110434899106622,-0.00626242952421308,-0.0354360230267048
934,0.00333138508722186,-0.0340742990374565,-0.0189161021262407,-0.0163465440273285,-0.0103298295289278,-0.0448738001286983
935,0.00537402788177133,-0.030762379989028,-0.0198258869349957,-0.0186127070337534,-0.00919661391526461,-0.0480748526751995
936,0.00811109971255064,-0.0251499991863966,-0.0195058640092611,-0.019058708101511,-0.00596683379262686,-0.0462908782064915
937,0.0074724443256855,-0.0212060678750277,-0.01991974003613,-0.0197962746024132,-0.00502273393794894,-0.0432199835777283
938,0.00494763674214482,-0.018858028575778,-0.0202492754906416,-0.0204205811023712,-0.00649444106966257,-0.0402343608438969
939,0.00612372066825628,-0.0159514117985964,-0.0176098085939884,-0.0179469659924507,-0.00716401031240821,-0.0347157269716263
940,0.0113195823505521,-0.0130319809541106,-0.0130840605124831,-0.0123114502057433,-0.005797547288239,-0.0259849838912487
941,0.0157312750816345,-0.0121594928205013,-0.0100461011752486,-0.0065325740724802,-0.0014866046840325,-0.0167468301951885
942,0.0175299122929573,-0.0131950210779905,-0.00907798204571009,-0.00217750598676503,0.0070421053096652,-0.00898989196866751
943,0.0169059894979,-0.0156341940164566,-0.0103891678154469,-0.000546081981156021,0.0152225196361542,-0.00519172148779035
944,0.0148226404562593,-0.0189184863120317,-0.0134291108697653,-0.00232299324125052,0.0166621822863817,-0.00739386351779103
945,0.0132928667590022,-0.0217772647738457,-0.0165224522352219,-0.00654633808881044,0.010763649828732,-0.0150629514828324
946,0.0126112336292863,-0.0238183066248894,-0.019510792568326,-0.0123177412897348,0.000517687934916466,-0.0264176335185766
947,0.0120714576914907,-0.0246454402804375,-0.0212719663977623,-0.0173161774873734,-0.0103074442595243,-0.0377073176205158
948,0.011089950799942,-0.024279061704874,-0.020033773034811,-0.0191661641001701,-0.0185857061296701,-0.0449012741446495
949,0.00827174074947834,-0.0250689368695021,-0.0182803254574537,-0.0191582441329956,-0.0250272899866104,-0.048222865909338
950,0.00277542695403099,-0.0287752561271191,-0.0198320522904396,-0.0199737157672644,-0.0323061868548393,-0.0504788085818291
951,-0.00314823631197214,-0.0334402844309807,-0.0239610597491264,-0.0216131657361984,-0.0399623364210129,-0.0515789091587067
952,-0.00614590896293521,-0.0361679941415787,-0.0269129890948534,-0.0222627613693476,-0.0451774708926678,-0.0497748479247093
953,-0.00706107914447784,-0.0375096835196018,-0.0276319738477468,-0.0228768587112427,-0.0476932264864445,-0.0465933755040169
954,-0.00988549273461103,-0.0400428213179111,-0.0292171072214842,-0.0267229918390512,-0.0503894425928593,-0.0442443490028381
955,-0.0144067751243711,-0.0428529269993305,-0.032799381762743,-0.0326316244900227,-0.0531063824892044,-0.0407796949148178
956,-0.0160469692200422,-0.0424113571643829,-0.0346414744853973,-0.03532799705863,-0.0513174124062061,-0.0341937467455864
957,-0.0128285083919764,-0.0379332304000854,-0.0316951312124729,-0.0326308347284794,-0.0427617765963078,-0.0269219242036343
958,-0.00600701477378607,-0.0305707063525915,-0.024072740226984,-0.0251383241266012,-0.028547378256917,-0.0215481873601675
959,0.00170936726499349,-0.0226634293794632,-0.0149688106030226,-0.0153710544109344,-0.0127745801582932,-0.0194179583340883
960,0.00715135037899017,-0.0172319319099188,-0.00829857960343361,-0.00752498954534531,-0.00126504932995886,-0.0205641034990549
961,0.00919259991496801,-0.014647445641458,-0.00430425675585866,-0.00287122116424143,0.00402186857536435,-0.0217053480446339
962,0.00770691502839327,-0.0151464575901628,-0.00325138750486076,-0.00185460562352091,0.00327185029163957,-0.0219715479761362
963,0.00480923615396023,-0.0190541818737984,-0.00626373710110784,-0.00494481297209859,-0.00240786233916879,-0.0244255438446999
964,0.00435741664841771,-0.0234433207660913,-0.0114149414002895,-0.00964419078081846,-0.0103577533736825,-0.0296397563070059
965,0.00698211183771491,-0.0245747286826372,-0.0147606451064348,-0.0123064406216145,-0.0184197593480349,-0.0336594581604004
966,0.00952912401407957,-0.0225792191922665,-0.0132176745682955,-0.0115565955638886,-0.0250318851321936,-0.0331066399812698
967,0.00894057378172874,-0.0207793638110161,-0.00748141622170806,-0.00910166837275028,-0.0297756213694811,-0.0291775856167078
968,0.00679112924262881,-0.020893432199955,-0.00199688854627311,-0.00709516974166036,-0.0321681834757328,-0.0256608184427023
969,0.00614260416477919,-0.0231244564056396,-0.00133225147146732,-0.00712273735553026,-0.0317493304610252,-0.0263854376971722
970,0.00763357290998101,-0.0266439653933048,-0.00534377433359623,-0.00900059193372726,-0.0289474055171013,-0.0310930032283068
971,0.0111647881567478,-0.0293064601719379,-0.0107099721208215,-0.0108580524101853,-0.0243397001177073,-0.0362406596541405
972,0.015346746891737,-0.0298443716019392,-0.0154417352750897,-0.0112150218337774,-0.0179694201797247,-0.0390424132347107
973,0.0175125002861023,-0.0281260516494513,-0.0180904306471348,-0.00915787741541862,-0.00984123814851046,-0.037312563508749
974,0.0157653819769621,-0.0255211722105742,-0.0183970034122467,-0.00646401569247246,-0.00265715201385319,-0.0321571156382561
975,0.0105034792795777,-0.0239692907780409,-0.017560251057148,-0.00577753083780408,0.00141836237162352,-0.0270229279994965
976,0.0039777522906661,-0.0241776015609503,-0.0170732196420431,-0.00686044944450259,0.00351072335615754,-0.0238414499908686
977,-0.00115620857104659,-0.0254335384815931,-0.0171462334692478,-0.00767870107665658,0.0049345949664712,-0.0228229872882366
978,-0.00285390368662775,-0.0258841793984175,-0.0157117079943419,-0.00629816483706236,0.00702745793387294,-0.0218518171459436
979,-0.00204202765598893,-0.0252206418663263,-0.0127704674378037,-0.00322347762994468,0.00925196707248688,-0.0197268631309271
980,-0.0017846985720098,-0.0254466347396374,-0.0115114971995354,-0.000836604391224682,0.00710570439696312,-0.0189928468316793
981,-0.00372277665883303,-0.0278067514300346,-0.0142163289710879,-0.00106248259544373,-0.00305706332437694,-0.0221867747604847
982,-0.00596164260059595,-0.0294870790094137,-0.0185669139027596,-0.00282865948975086,-0.0172599442303181,-0.0269630830734968
983,-0.00709334993734956,-0.0284347683191299,-0.021518137305975,-0.00437410734593868,-0.0290904380381107,-0.0303025990724564
984,-0.00915623735636473,-0.0272535234689713,-0.02364307269454,-0.00625963229686022,-0.0367881692945957,-0.0331403091549873
985,-0.0121925231069326,-0.0264741331338882,-0.0244547631591558,-0.00726574612781405,-0.0387014821171761,-0.0352510884404182
