,AF3,AF4,Fp1,Fp2,AF7,AF8
0,0.0719872787594795,-0.129881680011749,-0.0414290353655815,-0.0382390283048153,-0.04114630818367,-0.0225507896393538
1,0.0728814527392387,-0.135196968913078,-0.0440067239105701,-0.0408416464924812,-0.0404908359050751,-0.0261978078633547
2,0.0719128400087357,-0.137661889195442,-0.0443678200244904,-0.0433440916240215,-0.0402375608682632,-0.0351041294634342
3,0.0682087913155556,-0.138061374425888,-0.0443165488541126,-0.0460524782538414,-0.0437263138592243,-0.0479543544352055
4,0.0645549148321152,-0.136352568864822,-0.0434757582843304,-0.04728864133358,-0.0490336157381535,-0.0585415028035641
5,0.0640196725726128,-0.13313065469265,-0.0402181856334209,-0.0460124835371971,-0.0505016259849072,-0.0619511120021343
6,0.0651260614395142,-0.131663784384727,-0.0356404669582844,-0.0446946658194065,-0.0466519929468632,-0.060242336243391
7,0.0643765479326248,-0.13387693464756,-0.0320467576384544,-0.0453677140176296,-0.0402887351810932,-0.0576115362346172
8,0.061531737446785,-0.136335536837578,-0.0285078343003988,-0.0452434420585632,-0.0312528796494007,-0.0539250001311302
9,0.0589061453938484,-0.135290905833244,-0.0240236986428499,-0.0415243022143841,-0.0190777312964201,-0.0484835281968117
10,0.0572018623352051,-0.131902098655701,-0.0213730838149786,-0.0361597165465355,-0.009072027169168,-0.0435125157237053
11,0.0553295873105526,-0.129254579544067,-0.0229257941246033,-0.0323304608464241,-0.00650314707309008,-0.0407193675637245
12,0.0532853342592716,-0.128246247768402,-0.02636494114995,-0.030083267018199,-0.00844069104641676,-0.0385434851050377
13,0.0508456528186798,-0.129278898239136,-0.0300317611545324,-0.0289568826556206,-0.0100130848586559,-0.0358035825192928
14,0.0448536947369576,-0.134788036346436,-0.0381177514791489,-0.0317414291203022,-0.0144984954968095,-0.0366367138922215
15,0.0326990634202957,-0.145545735955238,-0.0536308623850346,-0.0403063632547855,-0.0284796450287104,-0.0457545593380928
16,0.0191118139773607,-0.156275033950806,-0.0702564045786858,-0.0500317811965942,-0.0487285293638706,-0.0597051195800304
17,0.012709061615169,-0.159607067704201,-0.077878050506115,-0.0532915890216827,-0.0626521036028862,-0.069161556661129
18,0.0148741342127323,-0.154089003801346,-0.0742942318320274,-0.0486768521368504,-0.0635947585105896,-0.0698971822857857
19,0.0199388079345226,-0.143641203641891,-0.0655665248632431,-0.0410581976175308,-0.0567743442952633,-0.0643699020147324
20,0.0226288121193647,-0.13320317864418,-0.0587855167686939,-0.0352304205298424,-0.0519038997590542,-0.0563654899597168
21,0.0216186586767435,-0.126859307289124,-0.0565471798181534,-0.0334332101047039,-0.0543487407267094,-0.0489958710968494
22,0.0192419160157442,-0.1252361536026,-0.0559639893472195,-0.0345422141253948,-0.060788307338953,-0.043634157627821
23,0.0183748286217451,-0.125815540552139,-0.0545370765030384,-0.0351650938391685,-0.0637368261814117,-0.0398567505180836
24,0.0192759688943625,-0.126551523804665,-0.0534129701554775,-0.0331961885094643,-0.0596798174083233,-0.0352917052805424
25,0.0197821799665689,-0.127959012985229,-0.0538411401212215,-0.0303724557161331,-0.0504647828638554,-0.02828099578619
26,0.0187214091420174,-0.130539000034332,-0.0544233992695808,-0.0293297059834003,-0.0381867699325085,-0.0211982559412718
27,0.01715705730021,-0.132465496659279,-0.0531461872160435,-0.0293578561395407,-0.0240456759929657,-0.0169841181486845
28,0.0161856040358543,-0.13277131319046,-0.0503303892910481,-0.0285624116659164,-0.0111646223813295,-0.0170270185917616
29,0.0152029516175389,-0.133159548044205,-0.0481238178908825,-0.0278894100338221,-0.00388218718580902,-0.0222087632864714
30,0.0133627029135823,-0.134633630514145,-0.0476552434265614,-0.0291374810039997,-0.00426040636375546,-0.0304634161293507
31,0.0108077907934785,-0.135601848363876,-0.0474098213016987,-0.0311536528170109,-0.0104555049911141,-0.0369796566665173
32,0.0080785071477294,-0.134545102715492,-0.0452477782964706,-0.0318106263875961,-0.0178230609744787,-0.0391034930944443
33,0.00642921403050423,-0.131914541125298,-0.0414702743291855,-0.0311296172440052,-0.0208407007157803,-0.038399800658226
34,0.00644901301711798,-0.129423812031746,-0.0386382415890694,-0.0306049846112728,-0.0178921166807413,-0.0378920920193195
35,0.00731282774358988,-0.128599777817726,-0.0376174971461296,-0.0306720305234194,-0.0131518831476569,-0.037682194262743
36,0.00848956592381001,-0.128200024366379,-0.036104891449213,-0.0291403438895941,-0.00974021106958389,-0.0341061130166054
37,0.00824334844946861,-0.12613819539547,-0.0337981358170509,-0.025315910577774,-0.00832109246402979,-0.0259931553155184
38,0.00496176723390818,-0.122452139854431,-0.0321889519691467,-0.0216601248830557,-0.00861280504614115,-0.0167899876832962
39,0.00172003358602524,-0.116933010518551,-0.0295192319899797,-0.0186485126614571,-0.00762395188212395,-0.00947112869471312
40,0.00205442425794899,-0.110444612801075,-0.0252247955650091,-0.016281396150589,-0.00488009722903371,-0.00641936808824539
41,0.00368169602006674,-0.107938498258591,-0.023845661431551,-0.0183348245918751,-0.00618204195052385,-0.0113129746168852
42,0.00190892652608454,-0.112832687795162,-0.0285729952156544,-0.0275112967938185,-0.0171173587441444,-0.0250865593552589
43,-0.00268144975416362,-0.120089471340179,-0.0354257114231586,-0.0382455624639988,-0.0343912877142429,-0.0400243513286114
44,-0.0052518593147397,-0.121655151247978,-0.0375177189707756,-0.0412137843668461,-0.0480694882571697,-0.0452804304659367
45,-0.00482575222849846,-0.116726107895374,-0.0337987691164017,-0.0351346395909786,-0.0530157126486301,-0.0393819734454155
46,-0.00474428106099367,-0.110752485692501,-0.0287687536329031,-0.0265848413109779,-0.0516925118863583,-0.0285409484058619
47,-0.00698348553851247,-0.10767725110054,-0.0244988575577736,-0.0209355931729078,-0.046646062284708,-0.0178240798413754
48,-0.0104421628639102,-0.106703415513039,-0.0184616353362799,-0.0181949995458126,-0.0363868847489357,-0.00944016873836517
49,-0.0131073435768485,-0.104981139302254,-0.00951146241277456,-0.0151872551068664,-0.0208979621529579,-0.00316082639619708
50,-0.0133995981886983,-0.101510569453239,-0.000154942725203,-0.00985340029001236,-0.00598656432703137,0.00242323195561767
51,-0.0117141352966428,-0.0980941951274872,0.00601609982550144,-0.00349915819242597,0.00124103471171111,0.00744284922257066
52,-0.0121707860380411,-0.0978236719965935,0.00504955975338817,1.85940953087993E-05,-0.00271095894277096,0.00983648095279932
53,-0.0171424280852079,-0.101092547178268,-0.00191601784899831,0.000184108517714776,-0.0140997525304556,0.00961333699524403
54,-0.0248744301497936,-0.105554476380348,-0.00893003307282925,-0.0005962282884866,-0.0253347065299749,0.00976444594562054
55,-0.0345453843474388,-0.11005100607872,-0.0145321004092693,-0.0033034912776202,-0.0333723723888397,0.0107130352407694
56,-0.0443733930587769,-0.113126523792744,-0.0190770551562309,-0.0079549066722393,-0.037256620824337,0.0114616500213742
57,-0.0515676625072956,-0.113964289426804,-0.020667415112257,-0.0122725227847695,-0.034943263977766,0.0108866496011615
58,-0.0560260079801083,-0.115145899355412,-0.0187745895236731,-0.0163795053958893,-0.0260674636811018,0.00702615175396204
59,-0.0586877763271332,-0.117912970483303,-0.0144283510744572,-0.019949359819293,-0.0131464600563049,0.000802044349256903
60,-0.0606096982955933,-0.119896732270718,-0.0093366326764226,-0.0211461111903191,-0.000741749652661383,-0.00422943383455276
61,-0.0630763545632362,-0.119996823370457,-0.00591615308076143,-0.0204885061830282,0.00691691879183054,-0.00722949672490358
62,-0.0673379302024841,-0.119968362152576,-0.00615758914500475,-0.0204134732484818,0.00778128299862146,-0.010409239679575
63,-0.0735762268304825,-0.120873533189297,-0.0107677103951573,-0.0221619736403227,0.00249796872958541,-0.0146931549534202
64,-0.0805425271391869,-0.121807932853699,-0.0186240505427122,-0.0252908989787102,-0.00644839648157358,-0.0191775895655155
65,-0.0877046510577202,-0.121868014335632,-0.026727257296443,-0.028678011149168,-0.0161968488246202,-0.0229729972779751
66,-0.0952143371105194,-0.120816498994827,-0.0322464667260647,-0.0306288097053766,-0.025404704734683,-0.0245140325278044
67,-0.102982215583324,-0.119597092270851,-0.0356230735778809,-0.0307714734226465,-0.0358627401292324,-0.0224379990249872
68,-0.111180439591408,-0.12235601991415,-0.0408908873796463,-0.0325823239982128,-0.0503001399338245,-0.0189741067588329
69,-0.11820288002491,-0.131498485803604,-0.0496980957686901,-0.0377213098108768,-0.0673167482018471,-0.0164455603808165
70,-0.118336513638496,-0.140084162354469,-0.0563245974481106,-0.0399804711341858,-0.0800156220793724,-0.0119862891733646
71,-0.107664279639721,-0.138887301087379,-0.054847028106451,-0.0332180000841618,-0.0825283229351044,-0.00255618686787784
72,-0.0918392166495323,-0.129354268312454,-0.0478829629719257,-0.0212013553828001,-0.077714666724205,0.00750016700476408
73,-0.079931728541851,-0.119788117706776,-0.0406677834689617,-0.0117532890290022,-0.0728034451603889,0.0105197336524725
74,-0.0728726387023926,-0.112351514399052,-0.0320126935839653,-0.00530574470758438,-0.0685227960348129,0.00660785054787993
75,-0.0660458356142044,-0.104168638586998,-0.0193853061646223,0.00209804065525532,-0.060547512024641,0.00275049661286175
76,-0.0582961142063141,-0.0948807150125504,-0.00522694829851389,0.0108517715707421,-0.0473551228642464,0.00398899661377072
77,-0.0527248233556747,-0.0863565281033516,0.00640848558396101,0.018976952880621,-0.0315857194364071,0.0104954550042748
78,-0.0519486740231514,-0.0806975737214088,0.0128358043730259,0.0244441218674183,-0.0174913369119167,0.0183602795004845
79,-0.0550096966326237,-0.0791238248348236,0.0131180509924889,0.0257720667868853,-0.008048334158957,0.0226997286081314
80,-0.0590594336390495,-0.0810407400131226,0.00886723399162292,0.0229704193770885,-0.00347974174655974,0.0216029118746519
81,-0.0627713352441788,-0.084910660982132,0.00293951714411378,0.0170795544981956,-0.00287948036566377,0.0162225421518087
82,-0.0663658753037453,-0.0891176834702492,-0.00324132852256298,0.00977497268468142,-0.00587560143321753,0.00871174037456512
83,-0.0690432414412498,-0.0913120582699776,-0.00783076137304306,0.00463918875902891,-0.0100332098081708,0.00253732781857252
84,-0.070700891315937,-0.0905842781066895,-0.00804754626005888,0.0038384145591408,-0.0117284264415503,-0.000402630248572677
85,-0.0734811797738075,-0.0889874994754791,-0.00450366130098701,0.00457779224961996,-0.0111213456839323,-0.00211400026455522
86,-0.0782021582126617,-0.0879330784082413,-0.00125190697144717,0.00367600610479712,-0.0104043362662196,-0.00376871903426945
87,-0.0830963477492332,-0.0869304910302162,-0.00144146766979247,0.00062680256087333,-0.00983058009296656,-0.00451718550175428
88,-0.0857573226094246,-0.0851471051573753,-0.00439584674313664,-0.00357917067594826,-0.00809886213392019,-0.00413475651293993
89,-0.0856178477406502,-0.0826263427734375,-0.00730764912441373,-0.00702722324058414,-0.00416937191039324,-0.00208239769563079
90,-0.0852780267596245,-0.0809612348675728,-0.00855799950659275,-0.00879709981381893,0.000770846731029451,0.00318768597207963
91,-0.0878422409296036,-0.081174448132515,-0.00785622000694275,-0.00939632393419743,0.00394008914008737,0.0131257064640522
92,-0.0924204215407372,-0.0813222378492355,-0.00452208751812577,-0.0084087522700429,0.00453988742083311,0.027879785746336
93,-0.0947917029261589,-0.0785994753241539,0.00246919575147331,-0.00529022328555584,0.00412078015506268,0.0427304804325104
94,-0.093528151512146,-0.073197990655899,0.0114113045856357,-0.00187777890823781,0.00246978458017111,0.0487929470837116
95,-0.0905599966645241,-0.0667697042226791,0.0182477571070194,-0.000338304322212934,-0.00182632519863546,0.0421100631356239
96,-0.0872926265001297,-0.060606274753809,0.0198307037353516,-0.00174463237635791,-0.00805914308875799,0.0258835647255182
97,-0.0850029662251472,-0.0576559826731682,0.0145349949598312,-0.0075636301189661,-0.0154014304280281,0.00391125353053212
98,-0.0831698328256607,-0.0577102527022362,0.00571472058072686,-0.0145021043717861,-0.0206994283944368,-0.0174148697406054
99,-0.0792640969157219,-0.0568962544202805,-0.00118772475980222,-0.0165886450558901,-0.0194572918117046,-0.030743308365345
100,-0.0735335722565651,-0.0557711161673069,-0.00662070047110319,-0.0150427930057049,-0.0142593923956156,-0.0376300066709518
101,-0.0688038319349289,-0.0569791533052921,-0.0123631414026022,-0.0141378436237574,-0.0113034853711724,-0.0439135506749153
102,-0.0670078322291374,-0.0600796826183796,-0.0167392883449793,-0.0147747350856662,-0.0121442964300513,-0.0506328530609608
103,-0.0697615370154381,-0.0650634542107582,-0.020131366327405,-0.0184084624052048,-0.0157883185893297,-0.0573371462523937
104,-0.0785773620009422,-0.073701798915863,-0.0258392468094826,-0.027576319873333,-0.0220187474042177,-0.0650143846869469
105,-0.0894317477941513,-0.0842982232570648,-0.0326030850410461,-0.0387196913361549,-0.0270376224070787,-0.0715012773871422
106,-0.0937798321247101,-0.0910011529922485,-0.0340441539883614,-0.043585617095232,-0.0231360252946615,-0.0719964578747749
107,-0.0883516222238541,-0.089239276945591,-0.0263885539025068,-0.0385580100119114,-0.00857802201062441,-0.0644162446260452
108,-0.0775156319141388,-0.0790041163563728,-0.0121914334595203,-0.026778781786561,0.00942750461399555,-0.0505724586546421
109,-0.0676119104027748,-0.0645850300788879,0.00177716393955052,-0.0143436016514897,0.0225063748657703,-0.0355477035045624
110,-0.0626332759857178,-0.0510059371590614,0.0102000813931227,-0.00529430154711008,0.0278598200529814,-0.023946600034833
111,-0.063251331448555,-0.0404603146016598,0.0133670624345541,0.000516542640980333,0.0284553356468678,-0.0159525573253632
112,-0.0662557259202003,-0.0328580848872662,0.0143549703061581,0.00435730535537004,0.0284676011651754,-0.00954348221421242
113,-0.0664459094405174,-0.0275129731744528,0.0151101183146238,0.00683622527867556,0.0301560033112764,-0.00392462965101004
114,-0.0631970912218094,-0.0241242945194244,0.0163704995065928,0.00853351689875126,0.0323591008782387,-6.07464244239964E-05
115,-0.0612003169953823,-0.0227010231465101,0.0188986901193857,0.0101309949532151,0.0320901870727539,0.00214719166979194
116,-0.0651119351387024,-0.0241477955132723,0.0202641505748034,0.0103450957685709,0.0268180202692747,0.00390134938061237
117,-0.0758392661809921,-0.0294459145516157,0.014478555880487,0.00656580040231347,0.016376905143261,0.00357830291613936
118,-0.0896502584218979,-0.0354973636567593,0.000674943963531405,-0.000678563606925309,0.00429393909871578,-0.00260861706919968
119,-0.101204447448254,-0.0363034121692181,-0.0140422163531184,-0.00711024180054665,-0.00599294202402234,-0.0146607216447592
120,-0.108479917049408,-0.0323872454464436,-0.0225382465869188,-0.00953886471688747,-0.013900245539844,-0.0285342894494534
121,-0.112334914505482,-0.0294764097779989,-0.0227698814123869,-0.00847456883639097,-0.0189214125275612,-0.0398077704012394
122,-0.11350067704916,-0.0287644006311893,-0.0182997863739729,-0.00658871605992317,-0.0205169767141342,-0.0461529232561588
123,-0.11378601193428,-0.0291052013635635,-0.016193900257349,-0.00672258483245969,-0.020270137116313,-0.0497642867267132
124,-0.115168169140816,-0.0308740045875311,-0.0197129808366299,-0.009386345744133,-0.0192999970167875,-0.0537877902388573
125,-0.116475932300091,-0.0338452346622944,-0.024526858702302,-0.0120805464684963,-0.0156004680320621,-0.0574771761894226
126,-0.113996230065823,-0.0360900945961475,-0.0236705560237169,-0.0111823389306664,-0.00523102935403585,-0.0568244978785515
127,-0.107219897210598,-0.0366219095885754,-0.0164064019918442,-0.0067084738984704,0.0120761217549443,-0.0501520931720734
128,-0.101148433983326,-0.037754699587822,-0.00951478257775307,-0.00393799273297191,0.0296492483466864,-0.0419735461473465
129,-0.0994395613670349,-0.0413449183106422,-0.00897821597754955,-0.0064905071631074,0.0390678867697716,-0.0381876565515995
130,-0.0994316563010216,-0.0437487810850143,-0.0133784906938672,-0.0106401406228542,0.0375965312123299,-0.0391216576099396
131,-0.0967747867107391,-0.0398295596241951,-0.0163596924394369,-0.0104489214718342,0.0290295574814081,-0.0410973504185677
132,-0.0910260379314423,-0.0298891086131334,-0.0145423104986548,-0.00480137020349503,0.0185898505151272,-0.0416304133832455
133,-0.0862775817513466,-0.0194067824631929,-0.0113084558397532,0.00191337079741061,0.0086603807285428,-0.0413898229598999
134,-0.0856026038527489,-0.0131421508267522,-0.0107095763087273,0.00491721741855145,0.00182354112621397,-0.0415652357041836
135,-0.0875054970383644,-0.0114595135673881,-0.0120113138109446,0.00423253234475851,0.00194129894953221,-0.0402304232120514
136,-0.0917746797204018,-0.0123120099306107,-0.0131237655878067,0.00243349722586572,0.0066367145627737,-0.035770371556282
137,-0.0991008207201958,-0.011955195106566,-0.0107346456497908,0.0024993191473186,0.0105177601799369,-0.0273964554071426
138,-0.107214421033859,-0.00761055015027523,-0.00303787225857377,0.00609654327854514,0.0127040324732661,-0.0145754721015692
139,-0.115937054157257,-0.00266894628293812,0.00255517545156181,0.00869585853070021,0.0126365898177028,-0.00441862130537629
140,-0.125799119472504,-0.0015595561126247,-0.0015403893776238,0.0056369723752141,0.00955000147223473,-0.00516737764701247
141,-0.13269767165184,-0.00318553298711777,-0.0121945235878229,-0.000676033203490078,0.00473343580961227,-0.0140490708872676
142,-0.133685275912285,-0.00557242427021265,-0.0234372559934855,-0.00738428067415953,-0.00247685797512531,-0.0242619924247265
143,-0.130687519907951,-0.00892435479909182,-0.0325758419930935,-0.0136516029015183,-0.0128467241302133,-0.0322095118463039
144,-0.126802191138268,-0.0132306450977921,-0.0378351397812366,-0.0178461745381355,-0.0238778218626976,-0.035923209041357
145,-0.122994519770145,-0.0162830334156752,-0.0378813557326794,-0.017779590561986,-0.0310708098113537,-0.0340310744941235
146,-0.119192413985729,-0.0161484926939011,-0.0337637104094028,-0.0132789378985763,-0.0317479856312275,-0.0281661693006754
147,-0.116908520460129,-0.0150667037814856,-0.0291168596595526,-0.00812460388988256,-0.0292061064392328,-0.0235680937767029
148,-0.116727255284786,-0.0156248928979039,-0.0265696235001087,-0.0053631211631,-0.0272577628493309,-0.0237570554018021
149,-0.116701424121857,-0.01692820712924,-0.026421070098877,-0.004946518689394,-0.0250567495822906,-0.0286395084112883
150,-0.116625964641571,-0.018587589263916,-0.0295203104615211,-0.00813102908432484,-0.0227795001119375,-0.0377086587250233
151,-0.11829861998558,-0.02137840539217,-0.0352374240756035,-0.0160055514425039,-0.0203273072838783,-0.0492297075688839
152,-0.12096493691206,-0.0238582827150822,-0.0387553833425045,-0.0253897737711668,-0.0131354918703437,-0.057951282709837
153,-0.121884420514107,-0.0238624010235071,-0.0369573868811131,-0.0313714034855366,-0.00114028330426663,-0.0580080822110176
154,-0.120385035872459,-0.0215693209320307,-0.0331959873437881,-0.0323415175080299,0.00822140276432037,-0.0495055243372917
155,-0.119799010455608,-0.0211814865469933,-0.0345602333545685,-0.0334095545113087,0.00743188243359327,-0.0415248610079288
156,-0.121394321322441,-0.0252435840666294,-0.0426917783915997,-0.0388145595788956,-0.00438108155503869,-0.0410602651536465
157,-0.12045181542635,-0.0291839819401503,-0.0506989993155003,-0.0442098304629326,-0.0202877689152956,-0.0445435605943203
158,-0.113331243395805,-0.02744010835886,-0.0524759851396084,-0.0439312309026718,-0.0328419096767902,-0.0463999658823013
159,-0.102525182068348,-0.0199673213064671,-0.0488952361047268,-0.0380291379988194,-0.0399232842028141,-0.045977458357811
160,-0.0933410823345184,-0.0102211553603411,-0.04444644972682,-0.0298255570232868,-0.0432693995535374,-0.044204942882061
161,-0.0890432074666023,-0.000853796431329101,-0.0418895035982132,-0.0223688688129187,-0.0444771647453308,-0.0412039272487164
162,-0.0908168256282806,0.00570869911462069,-0.0418986305594444,-0.0180762764066458,-0.0448143109679222,-0.0379455350339413
163,-0.0976731032133102,0.00739633431658149,-0.044263917952776,-0.0171662047505379,-0.0453771091997623,-0.034831065684557
164,-0.106217578053474,0.00480292458087206,-0.0478033162653446,-0.0180054064840078,-0.0457744747400284,-0.0311825424432755
165,-0.113904267549515,-0.000633595220278949,-0.0517641790211201,-0.0207399986684322,-0.046565692871809,-0.0280472002923489
166,-0.119813665747643,-0.00839805882424116,-0.0558211170136929,-0.0261906739324331,-0.0496259927749634,-0.027751699090004
167,-0.122659049928188,-0.0159049481153488,-0.0578628219664097,-0.031850591301918,-0.0537873767316341,-0.0299924574792385
168,-0.1215760409832,-0.0193253979086876,-0.0553274303674698,-0.0340038277208805,-0.0548051968216896,-0.0318471826612949
169,-0.11743650585413,-0.0184770449995995,-0.0487721040844917,-0.0323689430952072,-0.0510611720383167,-0.0317901708185673
170,-0.112525418400764,-0.0163515936583281,-0.042245265096426,-0.0293838866055012,-0.0463843569159508,-0.0297119952738285
171,-0.109560929238796,-0.0160362999886274,-0.0399442799389362,-0.0280023515224457,-0.0453150421380997,-0.025475824251771
172,-0.108555339276791,-0.0177455134689808,-0.0410446971654892,-0.0289350878447294,-0.0466089472174644,-0.0187885742634535
173,-0.106576956808567,-0.0182536263018847,-0.0401312112808228,-0.0297397393733263,-0.044681616127491,-0.0105041852220893
174,-0.101866871118546,-0.0152789801359177,-0.0335294455289841,-0.0288619101047516,-0.035640012472868,-0.0043595228344202
175,-0.096115417778492,-0.0101604526862502,-0.0228387545794249,-0.0275366753339767,-0.0197985544800758,-0.00420907652005553
176,-0.091631643474102,-0.00509789492934942,-0.0120775708928704,-0.026512011885643,-0.00171887234319001,-0.00962487049400806
177,-0.0877827554941177,-0.000657945114653558,-0.00404042052105069,-0.0241783857345581,0.011292202398181,-0.0163526311516762
178,-0.0830296128988266,0.00255310372449458,-0.00117863086052239,-0.0205585584044456,0.0127458982169628,-0.0211732294410467
179,-0.0763723105192184,0.00360343395732343,-0.00413305498659611,-0.0178092382848263,0.00315873208455741,-0.0227656438946724
180,-0.0672772750258446,0.00286414171569049,-0.0102382441982627,-0.0161190517246723,-0.00898534990847111,-0.0198384057730436
181,-0.0573883578181267,0.00205183168873191,-0.0160623081028461,-0.013820399530232,-0.0157574154436588,-0.0120818018913269
182,-0.0505663119256496,0.00223452784121037,-0.0204091407358646,-0.011057460680604,-0.0172563660889864,-0.00275553646497428
183,-0.0503386482596397,0.00215309462510049,-0.0247910246253014,-0.0106197400018573,-0.0190187245607376,0.00211198884062469
184,-0.0559892728924751,0.000623752595856786,-0.028711311519146,-0.0132593903690577,-0.0227164551615715,0.000161832213052548
185,-0.0643655881285667,-0.00277981068938971,-0.0311955884099007,-0.0177665799856186,-0.0266022086143494,-0.00754046766087413
186,-0.0739365071058273,-0.00825389102101326,-0.0346145816147327,-0.0242751818150282,-0.0313550010323524,-0.0205129478126764
187,-0.0810034647583961,-0.0124248554930091,-0.037485383450985,-0.029965141788125,-0.0352072529494762,-0.0335304699838161
188,-0.0800958275794983,-0.0112635670229793,-0.0351386219263077,-0.0298298206180334,-0.033304538577795,-0.0375613979995251
189,-0.0724521949887276,-0.00622449209913611,-0.0289781093597412,-0.0242473445832729,-0.0256588011980057,-0.0308932587504387
190,-0.0653484985232353,-0.00136403925716877,-0.0239134281873703,-0.0179704502224922,-0.016726441681385,-0.0199702735990286
191,-0.0634505152702332,0.0011858141515404,-0.022208821028471,-0.0149447545409203,-0.0105995992198586,-0.0112009504809976
192,-0.0652115270495415,0.00263901217840612,-0.021819319576025,-0.0145230917260051,-0.00884051248431206,-0.00533110881224275
193,-0.0675828009843826,0.00489561539143324,-0.0194635726511478,-0.0131810074672103,-0.0106563745066524,-0.000990922329947352
194,-0.0708462968468666,0.00629147421568632,-0.016223045065999,-0.0111617930233479,-0.0144524332135916,-0.000494799634907395
195,-0.0750689953565598,0.00495297834277153,-0.0146658960729837,-0.0101081393659115,-0.0176349245011806,-0.00427298713475466
196,-0.0785645321011543,0.00165359827224165,-0.0150488680228591,-0.00959867890924215,-0.0193968135863543,-0.00826338399201632
197,-0.0818568468093872,-0.00226599117740989,-0.016922228038311,-0.00987940281629562,-0.0216614566743374,-0.010596975684166
198,-0.0869541093707085,-0.00543757202103734,-0.0192372854799032,-0.0116837276145816,-0.0249754823744297,-0.0126866111531854
199,-0.0944104641675949,-0.00680363969877362,-0.0217354185879231,-0.0156103521585464,-0.0294712334871292,-0.0163318477571011
200,-0.101899497210979,-0.00604731077328324,-0.024779861792922,-0.0206346232444048,-0.0352160967886448,-0.0197772346436977
201,-0.106786027550697,-0.00523156067356467,-0.027685871347785,-0.0241538099944592,-0.0400216244161129,-0.0190107375383377
202,-0.109363451600075,-0.00754238292574883,-0.0303740277886391,-0.0252006091177464,-0.0409086979925632,-0.0147271314635873
203,-0.109295859932899,-0.012354576960206,-0.0328790955245495,-0.0237114373594522,-0.0370524488389492,-0.00962586794048548
204,-0.105396300554276,-0.0163762960582972,-0.0348925851285458,-0.0202961135655642,-0.0317842923104763,-0.00479836855083704
205,-0.0981464833021164,-0.0171470660716295,-0.035963948816061,-0.0160663928836584,-0.0281908065080643,-0.00165424577426165
206,-0.0891479849815369,-0.014954418875277,-0.0353728085756302,-0.0117723047733307,-0.0251376945525408,-0.00133206881582737
207,-0.0826461389660835,-0.0124730784446001,-0.0337000116705894,-0.00831784401088953,-0.0205361023545265,-0.00312284310348332
208,-0.0828055366873741,-0.011579972691834,-0.0319874212145805,-0.00618560565635562,-0.0144797870889306,-0.00488948356360197
209,-0.0896462574601173,-0.0134183876216412,-0.03165253251791,-0.00674055237323046,-0.0109025966376066,-0.00700959144160151
210,-0.0992256179451942,-0.0169496741145849,-0.0334497876465321,-0.010116252116859,-0.0132538042962551,-0.0108184795826674
211,-0.105947680771351,-0.0187317486852407,-0.0357742942869663,-0.0133347054943442,-0.0199079606682062,-0.0148696042597294
212,-0.107759013772011,-0.0179315973073244,-0.0368078090250492,-0.0144362775608897,-0.0277967900037766,-0.0175888016819954
213,-0.108171857893467,-0.0171710290014744,-0.0368127077817917,-0.0149691542610526,-0.0349453985691071,-0.0190909709781408
214,-0.111220762133598,-0.0191423781216145,-0.0378485359251499,-0.0184930488467216,-0.0396589525043964,-0.0208027828484774
215,-0.117298766970634,-0.0242920871824026,-0.0412078350782394,-0.0263122394680977,-0.0420426912605762,-0.0239441301673651
216,-0.124014042317867,-0.0312821492552757,-0.0461490377783775,-0.0358066037297249,-0.0447366014122963,-0.0280597396194935
217,-0.125749364495277,-0.036268912255764,-0.0478232577443123,-0.0411555171012878,-0.0461133420467377,-0.0302302483469248
218,-0.118229441344738,-0.0354801937937737,-0.0413332432508469,-0.0383643247187138,-0.0410986766219139,-0.0285472068935633
219,-0.106062337756157,-0.031948234885931,-0.0312734879553318,-0.0327133648097515,-0.0328343398869038,-0.0282607264816761
220,-0.0958406776189804,-0.0310537461191416,-0.0265332479029894,-0.0322965458035469,-0.0295917969197035,-0.0353995151817799
221,-0.0875060334801674,-0.0326430127024651,-0.0290162097662687,-0.037455853074789,-0.0328761041164398,-0.0474908202886581
222,-0.0782694071531296,-0.033499825745821,-0.0337642654776573,-0.0433370023965836,-0.0373516790568829,-0.0580776482820511
223,-0.0674292892217636,-0.0316185541450977,-0.0347224399447441,-0.0457112044095993,-0.0377932339906693,-0.0632139891386032
224,-0.0569521486759186,-0.0277068447321653,-0.0312534421682358,-0.0441405028104782,-0.0341783426702023,-0.0631865337491035
225,-0.048576932400465,-0.0231975689530373,-0.0276301503181458,-0.0405181162059307,-0.0290460027754307,-0.0597403831779957
226,-0.0418821312487125,-0.0182433295994997,-0.0260805748403072,-0.0355289913713932,-0.0231950879096985,-0.0532397255301476
227,-0.0368978306651115,-0.0140205193310976,-0.0266646090894938,-0.0305359456688166,-0.0179727636277676,-0.0455569103360176
228,-0.0337102897465229,-0.0121361641213298,-0.0292906109243631,-0.0275518745183945,-0.0149077577516437,-0.0400224030017853
229,-0.0313586071133614,-0.0121245021000504,-0.0330737009644508,-0.02701086550951,-0.0132383657619357,-0.0384636893868446
230,-0.0292321406304836,-0.0122638856992126,-0.035711407661438,-0.0275479350239038,-0.0106169376522303,-0.0398684851825237
231,-0.0282603949308395,-0.0123700266703963,-0.0356510169804096,-0.0281882081180811,-0.00657341396436095,-0.042144026607275
232,-0.0303767845034599,-0.0138016846030951,-0.0346245877444744,-0.0298548154532909,-0.00440276460722089,-0.0447510220110416
233,-0.034233421087265,-0.0154693629592657,-0.0337012000381947,-0.0309728533029556,-0.00465899286791682,-0.0460539050400257
234,-0.0345694236457348,-0.0139442505314946,-0.0313031226396561,-0.0276968535035849,-0.00196389248594642,-0.04327542334795
235,-0.0287299249321222,-0.0087137371301651,-0.027674563229084,-0.0206666737794876,0.0063427435234189,-0.037851307541132
236,-0.0192200131714344,-0.00305901700630784,-0.0251038894057274,-0.0136198550462723,0.0167580563575029,-0.0337038077414036
237,-0.0100728021934628,-0.000188609963515773,-0.0244108680635691,-0.00855446979403496,0.0252020135521889,-0.0324476696550846
238,-0.00442847423255444,-0.00162451050709933,-0.0252034086734056,-0.00698380591347814,0.0300827249884605,-0.0344145409762859
239,-0.00284501072019339,-0.00705075263977051,-0.0275461357086897,-0.00968193076550961,0.0317308679223061,-0.0384828262031078
240,-0.00201042019762099,-0.013552232645452,-0.0298660844564438,-0.0134350759908557,0.0309737175703049,-0.0400842502713203
241,0.00023652525851503,-0.018958942964673,-0.0296914428472519,-0.0149624962359667,0.0273737013339996,-0.0361541844904423
242,0.00235020276159048,-0.0223302561789751,-0.026549719274044,-0.0137874381616712,0.0209624655544758,-0.0279193222522736
243,0.00406889105215669,-0.0206722356379032,-0.02089823782444,-0.00917725544422865,0.0148107511922717,-0.0168371852487326
244,0.00566565804183483,-0.0140341008082032,-0.0156924687325954,-0.00324716721661389,0.010068847797811,-0.0062195067293942
245,0.00645834347233176,-0.00692840712144971,-0.0143220983445644,0.000380870362278074,0.00575425988063216,-0.000492874183692038
246,0.0067697842605412,-0.0026960598770529,-0.0160926468670368,0.00166074489243329,0.00326141272671521,-0.00144466012716293
247,0.00591636495664716,-0.00298418942838907,-0.0190217755734921,0.000987806590273976,0.00342820212244987,-0.0102123944088817
248,0.000592599040828645,-0.00945637747645378,-0.0244507249444723,-0.00400714809074998,0.00294354720972478,-0.0283182933926582
249,-0.0095624877139926,-0.0207259710878134,-0.0334274284541607,-0.0141112403944135,-0.000788369565270841,-0.0532031543552876
250,-0.0178713109344244,-0.0296626836061478,-0.0399211123585701,-0.0233331061899662,-0.00317870290018618,-0.0750580877065659
251,-0.0174820236861706,-0.0301779378205538,-0.0370582826435566,-0.0247917510569096,0.00160155643243343,-0.0851519256830215
252,-0.00850873719900846,-0.0239128805696964,-0.0274399686604738,-0.0193442162126303,0.0120682949200273,-0.0843894183635712
253,0.00350362854078412,-0.015924459323287,-0.0192872360348701,-0.0127830980345607,0.0231026578694582,-0.0781857296824455
254,0.0129687311127782,-0.00929894763976336,-0.0167901869863272,-0.00868849828839302,0.0315502062439919,-0.070603646337986
255,0.0185321625322104,-0.00481826905161142,-0.0179762504994869,-0.00662352703511715,0.0370048247277737,-0.0643520727753639
256,0.0211829822510481,-0.00143074512016028,-0.0188901610672474,-0.00460096355527639,0.0407420620322227,-0.0602182149887085
257,0.0202575959265232,0.00125247426331043,-0.0182658787816763,-0.00258284388110042,0.0432353354990482,-0.0579490959644318
258,0.0155246173962951,0.00186745182145387,-0.0173512808978558,-0.00239480775780976,0.04475312307477,-0.0573594570159912
259,0.00888107251375914,0.000249535631155595,-0.0166940726339817,-0.00421957299113274,0.0458563715219498,-0.0570782460272312
260,0.002233044244349,-0.00225246348418295,-0.0148742562159896,-0.00631828373298049,0.0458005405962467,-0.0552015639841557
261,-0.00335479131899774,-0.00511490739881992,-0.0113253593444824,-0.00795852765440941,0.0427361987531185,-0.0520566962659359
262,-0.00621613766998053,-0.00701963948085904,-0.0081249913200736,-0.00850288663059473,0.0365199856460094,-0.0483760982751846
263,-0.00422509806230664,-0.00488806189969182,-0.00639809621497989,-0.00576974358409643,0.0307079292833805,-0.0428315885365009
264,0.00223106937482953,0.00222247047349811,-0.00487704901024699,0.00151384656783193,0.0287349037826061,-0.0341948159039021
265,0.00981116015464067,0.0115614542737603,-0.00363744841888547,0.0114377457648516,0.029230372980237,-0.0230875834822655
266,0.0156072843819857,0.0194109007716179,-0.00458909850567579,0.0199293736368418,0.0282853748649359,-0.0123856700956821
267,0.0188880302011967,0.0235918369144201,-0.00791724398732185,0.0242675077170134,0.0245710834860802,-0.0055361962877214
268,0.0197960641235113,0.0236273258924484,-0.0122944628819823,0.0242185443639755,0.0190772917121649,-0.00387124577537179
269,0.0199866201728582,0.0215591248124838,-0.0152558106929064,0.0220380276441574,0.0146837336942554,-0.00516308424994349
270,0.0218959432095289,0.0212300103157759,-0.0132548110559583,0.0218595489859581,0.0151813281700015,-0.00484285317361355
271,0.0253626480698586,0.0244167931377888,-0.00558241130784154,0.0260467529296875,0.0203180946409702,-0.000282187334960327
272,0.0283528678119183,0.0294851735234261,0.004428097512573,0.0331734903156757,0.0263400208204985,0.00665894895792007
273,0.0290237832814455,0.0326189883053303,0.0116928135976195,0.0386839658021927,0.0300117898732424,0.0111356405541301
274,0.0285963006317616,0.0314598195254803,0.0136823374778032,0.0393168553709984,0.0318355374038219,0.0106711974367499
275,0.0310307871550322,0.0275458861142397,0.0124275553971529,0.0369681417942047,0.0363888889551163,0.00818044412881136
276,0.0358788371086121,0.0230269692838192,0.0106373112648726,0.0347393937408924,0.0459859594702721,0.0069152326323092
277,0.0380944721400738,0.0184653997421265,0.0101361637935042,0.03319176658988,0.0574522316455841,0.00642471155151725
278,0.0350093543529511,0.0144352577626705,0.0119778551161289,0.0318934507668018,0.0655969232320786,0.00524038728326559
279,0.0283950790762901,0.0123415803536773,0.0158529467880726,0.0312636010348797,0.0662121474742889,0.00378172541968524
280,0.0223325490951538,0.0137328868731856,0.0212990436702967,0.0326189212501049,0.0585646033287048,0.00414242735132575
281,0.0194074381142855,0.0180768854916096,0.0267454385757446,0.0355316288769245,0.04515665397048,0.00660271989181638
282,0.0185939986258745,0.0222631860524416,0.0290924515575171,0.0375008024275303,0.0288318134844303,0.00908165331929922
283,0.017381563782692,0.023450804874301,0.0261339712888002,0.0370815806090832,0.0116481771692634,0.0104233352467418
284,0.0152083160355687,0.0217239391058683,0.0186822302639484,0.0352153293788433,-0.00375910731963813,0.0120552508160472
285,0.0133493719622493,0.0188431963324547,0.00965020339936018,0.03326815366745,-0.0144244339317083,0.0158735066652298
286,0.0122237363830209,0.0160917975008488,0.00156340352259576,0.0314708761870861,-0.0195461753755808,0.0210489295423031
287,0.0123195890337229,0.0151324328035116,-0.00291459425352514,0.0306074414402246,-0.0195509698241949,0.0251241624355316
288,0.0141460774466395,0.0168234333395958,-0.00188823160715401,0.0315316468477249,-0.0152352936565876,0.0262918584048748
289,0.0154825802892447,0.0194035433232784,0.00305020832456648,0.0329341888427734,-0.00875325594097376,0.024890897795558
290,0.0138705065473914,0.0208079945296049,0.00811012089252472,0.0329105705022812,-0.00283918017521501,0.0241476204246283
291,0.0108570102602243,0.021583616733551,0.0107909170910716,0.0320295095443726,0.00106923363637179,0.0276135038584471
292,0.00947225745767355,0.0230507366359234,0.0112612433731556,0.031744085252285,0.00328255514614284,0.0345595888793468
293,0.0101899392902851,0.0248998571187258,0.0115824723616242,0.0318258740007877,0.00485935248434544,0.0401778779923916
294,0.0119386445730925,0.0267229229211807,0.0133554069325328,0.0317881889641285,0.00673729414120317,0.0400991290807724
295,0.0141075272113085,0.0281003285199404,0.0157360918819904,0.0309784058481455,0.00854132510721684,0.0326685197651386
296,0.0159897040575743,0.0271521769464016,0.0164997708052397,0.0275557544082403,0.00877329707145691,0.0193479619920254
297,0.0166538804769516,0.02289461158216,0.0152936317026615,0.0214648377150297,0.00745520694181323,0.00481760827824473
298,0.0181096140295267,0.0186996087431908,0.015098575502634,0.0166743844747543,0.00760879274457693,-0.00478378962725401
299,0.0239185094833374,0.0194972679018974,0.0187045354396105,0.0172512326389551,0.0119821466505528,-0.00559508008882403
300,0.0321066305041313,0.0256738532334566,0.0248644966632128,0.0222294293344021,0.0190519783645868,0.000628995359875262
301,0.0377657562494278,0.034270666539669,0.0315020643174648,0.0283828899264336,0.0263730902224779,0.0091103371232748
302,0.0389130264520645,0.0422598235309124,0.0376158617436886,0.0336259417235851,0.0331365242600441,0.0156891569495201
303,0.0359896272420883,0.0468719527125359,0.0412698201835155,0.0358558036386967,0.0385151877999306,0.0172408483922482
304,0.0314901061356068,0.0481092557311058,0.0424352250993252,0.035302497446537,0.0423254184424877,0.0146402362734079
305,0.0278795976191759,0.0484336018562317,0.0440455749630928,0.0348746851086617,0.0444859750568867,0.0125449243932962
306,0.0267532002180815,0.0497672222554684,0.0490899533033371,0.0372802652418613,0.0467828661203384,0.0155334314331412
307,0.0281434580683708,0.0512358620762825,0.056193545460701,0.0416658669710159,0.0508164949715137,0.0234402436763048
308,0.0302901733666658,0.0506260208785534,0.0598241873085499,0.0440553203225136,0.0524878166615963,0.030784610658884
309,0.0332368835806847,0.0490772351622581,0.0590507388114929,0.0441498123109341,0.0480644032359123,0.0354107432067394
310,0.0365624241530895,0.0492507070302963,0.0572472363710403,0.0448041409254074,0.0395019389688969,0.0400904342532158
311,0.0373262837529182,0.0514442324638367,0.056018341332674,0.0467069782316685,0.031359177082777,0.0456198193132877
312,0.0340980254113674,0.0543772913515568,0.0558381825685501,0.0487448051571846,0.0261925272643566,0.0512635968625546
313,0.0279550142586231,0.0567839331924915,0.0548672452569008,0.0490878559648991,0.0213721990585327,0.0563707612454891
314,0.0212799180299044,0.0587784312665462,0.0507399551570416,0.0469657182693481,0.0139722805470228,0.0593068711459637
315,0.0162420496344566,0.0608123056590557,0.0445538982748985,0.0438779145479202,0.00480430806055665,0.0585139766335487
316,0.0138358529657125,0.0623606704175472,0.0386435724794865,0.041357658803463,-0.00440150406211615,0.053235799074173
317,0.0145201627165079,0.0635188221931458,0.0345600619912148,0.0398158244788647,-0.0118815023452044,0.0448566675186157
318,0.0174723640084267,0.0644645467400551,0.0320590250194073,0.0381669513881207,-0.0164705235511065,0.0358698256313801
319,0.0208031255751848,0.0645740032196045,0.0297155566513538,0.0353607982397079,-0.0180734470486641,0.0282129142433405
320,0.0239845011383295,0.0639928355813026,0.0279194824397564,0.0323282815515995,-0.0159362517297268,0.0241975970566273
321,0.0276649165898561,0.0639302730560303,0.028825344517827,0.0304783843457699,-0.00933052320033312,0.0256375931203365
322,0.0316050499677658,0.0652696490287781,0.0337045043706894,0.0303915906697512,0.00064689468126744,0.0318159684538841
323,0.0335521101951599,0.0663001611828804,0.0398823954164982,0.0303085781633854,0.0103942370042205,0.037904541939497
324,0.0308585204184055,0.0638326853513718,0.0420073866844177,0.0270234420895576,0.0156712476164103,0.0382887981832027
325,0.0255132354795933,0.0589671768248081,0.0397477485239506,0.0216178558766842,0.0167475640773773,0.034158743917942
326,0.0234729796648026,0.0566887930035591,0.0384675599634647,0.0186600591987371,0.0173074584454298,0.0318342335522175
327,0.0270649045705795,0.0585162453353405,0.0404966957867146,0.0192817356437445,0.0179189871996641,0.0336090959608555
328,0.0339015536010265,0.0627878829836845,0.044001929461956,0.0224258881062269,0.0171685628592968,0.0393666364252567
329,0.0421059653162956,0.070057101547718,0.0487755537033081,0.0291496403515339,0.0164658073335886,0.051419660449028
330,0.0500276684761047,0.0795565098524094,0.0544076263904572,0.0382059328258038,0.017013056203723,0.0676095709204674
331,0.0559399873018265,0.0875762328505516,0.0590768381953239,0.0460060685873032,0.0183427631855011,0.0821136087179184
332,0.0613464526832104,0.0939139500260353,0.0642982944846153,0.0535709299147129,0.0226032845675945,0.0954789891839027
333,0.0661409795284271,0.0987460315227509,0.0702744200825691,0.0609386786818504,0.0307210311293602,0.107916854321957
334,0.0664724484086037,0.0987582802772522,0.0729561522603035,0.0630408748984337,0.0409131981432438,0.113509111106396
335,0.0611773990094662,0.0927905961871147,0.0709369331598282,0.0574257597327232,0.0514947958290577,0.108903847634792
336,0.0521659776568413,0.0833337381482124,0.0654595717787743,0.0463184230029583,0.057815320789814,0.0958157703280449
337,0.04283357411623,0.0747944340109825,0.0579338632524014,0.0348409861326218,0.0553086549043655,0.079401895403862
338,0.0360646061599255,0.0695978477597237,0.0498039945960045,0.0266782213002443,0.0431936271488667,0.0645524337887764
339,0.0325332842767239,0.0666233971714973,0.0422091633081436,0.0213068723678589,0.0239562969654799,0.0522599704563618
340,0.0336862131953239,0.0665537193417549,0.0372573435306549,0.0191546939313412,0.0039112945087254,0.0443766824901104
341,0.0400766655802727,0.0697146728634834,0.0356702357530594,0.0204740650951862,-0.0115109505131841,0.0430631786584854
342,0.048883281648159,0.0734662115573883,0.0357066504657269,0.0229048766195774,-0.020606329664588,0.0467617623507977
343,0.0570033676922321,0.0762862488627434,0.0353552028536797,0.0248989891260862,-0.0231608655303717,0.0523754805326462
344,0.0628978833556175,0.0774812251329422,0.0326588302850723,0.0252855531871319,-0.0208119358867407,0.0572070106863976
345,0.0658619627356529,0.0773134753108025,0.0285292696207762,0.0243304204195738,-0.0156752523034811,0.0608499720692635
346,0.0643147528171539,0.0770457088947296,0.025788027793169,0.0234097633510828,-0.00905802007764578,0.0633886829018593
347,0.058563482016325,0.0779594704508781,0.0263400860130787,0.02329221367836,-0.00067993433913216,0.0646872445940971
348,0.0522958375513554,0.0805718302726746,0.0304748229682446,0.0242462232708931,0.00931394007056952,0.0661367177963257
349,0.0474073924124241,0.0825137868523598,0.0352864861488342,0.0240773037075996,0.0165884457528591,0.0669095367193222
350,0.0433370731770992,0.081821121275425,0.0388027206063271,0.0211240909993649,0.0179782621562481,0.0642929077148438
351,0.0388128124177456,0.0790272951126099,0.040908195078373,0.0157134793698788,0.015052504837513,0.0570846162736416
352,0.0335545651614666,0.0753215849399567,0.0401688143610954,0.0085582472383976,0.0116424886509776,0.0467852167785168
353,0.0294023808091879,0.0720335245132446,0.036036591976881,0.0018721038941294,0.010145828127861,0.0365733690559864
354,0.0261714123189449,0.0680713802576065,0.0283160619437695,-0.00427980208769441,0.00696169305592775,0.0264678467065096
355,0.0239925570785999,0.0625291094183922,0.0184857677668333,-0.0112171769142151,-0.00112399156205356,0.0166617296636105
356,0.0268210619688034,0.0592158176004887,0.0118904812261462,-0.0157464221119881,-0.0109023172408342,0.0116910319775343
357,0.0369888693094254,0.0626666396856308,0.0126490909606218,-0.01321782451123,-0.0176148433238268,0.0146613856777549
358,0.053343940526247,0.0731611922383308,0.0207174867391586,-0.0032311046961695,-0.0186206884682179,0.0236862655729055
359,0.0711426138877869,0.0854724794626236,0.0313854403793812,0.00859856884926558,-0.0162187311798334,0.0326051078736782
360,0.0855370312929153,0.0949128121137619,0.0397477485239506,0.0170282162725925,-0.0128845395520329,0.0374923422932625
361,0.0960816442966461,0.101560190320015,0.0441494844853878,0.0221863575279713,-0.00722376676276326,0.0397640764713287
362,0.102724567055702,0.106066167354584,0.0438543483614922,0.0248780809342861,0.000352896982803941,0.0398620441555977
363,0.106094472110271,0.11055938154459,0.0421247407793999,0.0269441436976194,0.00953488610684872,0.0395485572516918
364,0.108580954372883,0.118737205862999,0.0435346700251102,0.0311638955026865,0.0203592088073492,0.0449807494878769
365,0.111332632601261,0.129389241337776,0.0476103350520134,0.0371286831796169,0.0285915117710829,0.0594759322702885
366,0.115124866366386,0.136692732572556,0.0516757667064667,0.042637936770916,0.0296047851443291,0.0780640691518784
367,0.119722530245781,0.13748674094677,0.0542286112904549,0.045876432210207,0.022613113746047,0.0906093940138817
368,0.122018255293369,0.132468521595001,0.0538192018866539,0.0451048798859119,0.00893761031329632,0.0897262245416641
369,0.120270647108555,0.124436244368553,0.0499457381665707,0.0399626567959785,-0.00796352792531252,0.0765099078416824
370,0.117497734725475,0.117654494941235,0.0457881316542625,0.0331524834036827,-0.0215948633849621,0.0592691116034985
371,0.116898246109486,0.11446987837553,0.0453548245131969,0.0282046534121037,-0.0260924845933914,0.0456603653728962
372,0.11887864023447,0.114913821220398,0.0498381368815899,0.0267609972506762,-0.019621605053544,0.0379395261406899
373,0.12308232486248,0.117960400879383,0.0568142682313919,0.0278736911714077,-0.00612868834286928,0.0340028144419193
374,0.128524899482727,0.121349155902863,0.0611924938857555,0.0291636567562819,0.00695478916168213,0.0302032995969057
375,0.132386669516563,0.122328191995621,0.0582459606230259,0.0283511001616716,0.0126047423109412,0.0245756823569536
376,0.133784055709839,0.12088393419981,0.0485510751605034,0.0256077796220779,0.00873786117881536,0.0194825734943151
377,0.13521845638752,0.120261259377003,0.03807432949543,0.0232947673648596,0.000328903610352427,0.0191510934382677
378,0.138120219111443,0.123096227645874,0.0319518633186817,0.0228199250996113,-0.00644656736403704,0.0249588899314404
379,0.142397597432137,0.12974525988102,0.0319337621331215,0.0249354504048824,-0.00787531584501266,0.0362761355936527
380,0.147479549050331,0.138710588216782,0.0368543267250061,0.0296855047345161,-0.00350915803574026,0.0508892796933651
381,0.150839760899544,0.147045463323593,0.0430177748203278,0.0348123908042908,0.00269565358757973,0.0634793192148209
382,0.148824796080589,0.151087567210197,0.0458633303642273,0.0364496782422066,0.00472764112055302,0.0681525468826294
383,0.141703769564629,0.150500938296318,0.0440398715436459,0.0335344560444355,0.000268027361016721,0.0643300265073776
384,0.133352726697922,0.148485317826271,0.0394363924860954,0.0283659994602203,-0.00813314598053694,0.056354433298111
385,0.125314578413963,0.146488383412361,0.032825093716383,0.0219276361167431,-0.0179204829037189,0.0473594553768635
386,0.116940855979919,0.144183412194252,0.0249217990785837,0.0145230367779732,-0.0273380074650049,0.0386867523193359
387,0.108822278678417,0.141301050782204,0.018096873536706,0.00770343746989965,-0.0346542410552502,0.0313913263380528
388,0.102328471839428,0.137337148189545,0.0138763310387731,0.00231847120448947,-0.0397987030446529,0.0254434607923031
389,0.0985338315367699,0.13326720893383,0.0130937853828073,-0.000983618665486574,-0.041390772908926,0.0218514706939459
390,0.0980415716767311,0.132083132863045,0.0169289987534285,-0.000154990557348356,-0.0367879830300808,0.0244574546813965
391,0.0986497923731804,0.133457884192467,0.022224074229598,0.00348771107383072,-0.029864015057683,0.0331413522362709
392,0.098456934094429,0.134595319628716,0.024155905470252,0.00573059823364019,-0.0261276047676802,0.0423278473317623
393,0.100316017866135,0.136673420667648,0.02439334243536,0.00694889854639769,-0.0233814474195242,0.0494973212480545
394,0.105093970894814,0.140370458364487,0.0252151731401682,0.00829580333083868,-0.0193653330206871,0.0540593601763248
395,0.107153862714767,0.140978276729584,0.0232695247977972,0.0057506593875587,-0.0191618911921978,0.0518539361655712
396,0.10357391089201,0.136672660708427,0.0172173343598843,-0.00247265072539449,-0.0255124792456627,0.0410820953547955
397,0.0994043424725533,0.13324548304081,0.0116675812751055,-0.011048604734242,-0.0322486534714699,0.0271957367658615
398,0.0999860838055611,0.136510848999023,0.0106006022542715,-0.0149632887914777,-0.0339192263782024,0.0159841384738684
399,0.105416417121887,0.146707221865654,0.013378718867898,-0.0143079916015267,-0.0322481840848923,0.00886888615787029
400,0.112409763038158,0.160046756267548,0.0170898921787739,-0.0116072278469801,-0.0316190458834171,0.00596268475055695
401,0.118342898786068,0.172847524285316,0.0202147178351879,-0.00870279315859079,-0.0333863720297813,0.0077538164332509
402,0.122962631285191,0.183400079607964,0.023083658888936,-0.00617891317233443,-0.0361590273678303,0.0138082085177302
403,0.128667905926704,0.193318739533424,0.0280394423753023,-0.00215710303746164,-0.0367434918880463,0.0243057850748301
404,0.137050822377205,0.204182267189026,0.0348483696579933,0.00394120998680592,-0.0339257456362247,0.0370894260704517
405,0.1470105946064,0.214486941695213,0.0387571379542351,0.00901338830590248,-0.0304225385189056,0.0461568832397461
406,0.158110767602921,0.223313391208649,0.0377225205302238,0.0114647960290313,-0.0273266490548849,0.0485778525471687
407,0.169815972447395,0.230515733361244,0.0335351973772049,0.0117616662755609,-0.0239462330937386,0.045805174857378
408,0.180675253272057,0.235768541693687,0.0286155715584755,0.0108843464404345,-0.0193765182048082,0.0410954095423222
409,0.189619064331055,0.238162904977798,0.0242190659046173,0.00934746861457825,-0.0130259348079562,0.0375216193497181
410,0.196935519576073,0.237493544816971,0.0212503708899021,0.00766029860824347,-0.00618083775043488,0.0371382310986519
411,0.204317301511765,0.235491842031479,0.0212784092873335,0.00717097939923406,-0.0012835948728025,0.0393200144171715
412,0.212767109274864,0.232597440481186,0.0234951674938202,0.00735887652263045,-0.000703166704624891,0.0393650867044926
413,0.221458405256271,0.228587061166763,0.0244642309844494,0.00664549181237817,-0.00519773317500949,0.0342519246041775
414,0.229676261544228,0.225262880325317,0.0223567876964808,0.0057868966832757,-0.0128217451274395,0.0265282429754734
415,0.236740157008171,0.223041549324989,0.0171271730214357,0.00473566073924303,-0.0218286141753197,0.0185728594660759
416,0.240438386797905,0.220104664564133,0.00981120672076941,0.00136597559321672,-0.0304336529225111,0.00982449669390917
417,0.238843962550163,0.21659143269062,0.00415609963238239,-0.00392598938196898,-0.034359734505415,0.000179529713932425
418,0.231260418891907,0.214063137769699,0.00223719561472535,-0.00948809832334518,-0.033280972391367,-0.0100344438105822
419,0.217972010374069,0.212831780314446,-0.000486578006530181,-0.0167531073093414,-0.034094974398613,-0.0215708278119564
420,0.202712833881378,0.214323371648788,-0.00737489620223641,-0.0258368775248528,-0.0396236479282379,-0.0332814157009125
421,0.190972208976746,0.221014872193336,-0.0150046311318874,-0.0326144322752953,-0.0451699867844582,-0.0417857393622398
422,0.183355078101158,0.231451079249382,-0.0214299932122231,-0.036359827965498,-0.0491025000810623,-0.0474165864288807
423,0.176457747817039,0.242168098688126,-0.0287265870720148,-0.0406617522239685,-0.0535648018121719,-0.0539395809173584
424,0.167483687400818,0.251145333051682,-0.0397534444928169,-0.0482663437724113,-0.0600585453212261,-0.0641602277755737
425,0.155919447541237,0.25753653049469,-0.0554979257285595,-0.0593132264912128,-0.0695207193493843,-0.0777314305305481
426,0.14390404522419,0.26307612657547,-0.0719559043645859,-0.0704294443130493,-0.0806575119495392,-0.0905897319316864
427,0.135626822710037,0.272061318159103,-0.0824262127280235,-0.0766279399394989,-0.088424526154995,-0.097679890692234
428,0.134305581450462,0.287142992019653,-0.0833791121840477,-0.0756686255335808,-0.0877989232540131,-0.0966510400176048
429,0.137950494885445,0.305592209100723,-0.0770075917243958,-0.0698631033301353,-0.0787788555026054,-0.0897754728794098
430,0.140565395355225,0.320999532938004,-0.068195179104805,-0.0638838559389114,-0.06620192527771,-0.0829676911234856
431,0.138658046722412,0.329342246055603,-0.0601627677679062,-0.0608444325625896,-0.0555945448577404,-0.0813348069787025
432,0.1350477039814,0.333172678947449,-0.0536798760294914,-0.0597585178911686,-0.0492301806807518,-0.0843041464686394
433,0.132695585489273,0.335738450288773,-0.0511729940772057,-0.0598752982914448,-0.0484802685678005,-0.089519239962101
434,0.130596309900284,0.336340814828873,-0.0547099709510803,-0.0623445548117161,-0.0547031089663506,-0.0965031608939171
435,0.127805009484291,0.333906441926956,-0.0619304515421391,-0.0666667073965073,-0.0660329461097717,-0.104219935834408
436,0.12380239367485,0.327514469623566,-0.0712816715240479,-0.0728336870670319,-0.078966811299324,-0.111915037035942
437,0.115532897412777,0.31519278883934,-0.0844421833753586,-0.0831829681992531,-0.0908807590603828,-0.119285643100739
438,0.0997949168086052,0.296730488538742,-0.101164802908897,-0.0981040075421333,-0.0979482159018517,-0.125024884939194
439,0.0796131044626236,0.277400612831116,-0.116955883800983,-0.11237607896328,-0.09611676633358,-0.127646699547768
440,0.0621684454381466,0.263434708118439,-0.128323212265968,-0.120332762598991,-0.0893882066011429,-0.127787366509438
441,0.0524806343019009,0.256704062223434,-0.134187325835228,-0.12112957239151,-0.0854982510209084,-0.127190083265305
442,0.0516685210168362,0.257023245096207,-0.13282199203968,-0.116697177290916,-0.0856081247329712,-0.126767620444298
443,0.0556739903986454,0.262206673622131,-0.125828683376312,-0.110521338880062,-0.0893410593271255,-0.127965584397316
444,0.058109350502491,0.26838806271553,-0.118396461009979,-0.10571176558733,-0.0969874039292336,-0.131203338503838
445,0.0557189211249352,0.272699385881424,-0.113575041294098,-0.103190720081329,-0.105754122138023,-0.135503843426704
446,0.0485624186694622,0.273465275764465,-0.11217462271452,-0.103157594799995,-0.112683027982712,-0.140480041503906
447,0.0385417602956295,0.270572483539581,-0.113327749073505,-0.105127394199371,-0.116461656987667,-0.145236924290657
448,0.0288772042840719,0.266368538141251,-0.114035315811634,-0.107966028153896,-0.116641387343407,-0.148934692144394
449,0.0208623763173819,0.264083862304688,-0.113223187625408,-0.111965216696262,-0.114411115646362,-0.153043389320374
450,0.0121880918741226,0.263357520103455,-0.113140173256397,-0.118102960288525,-0.111823424696922,-0.159143447875977
451,0.00235303328372538,0.262119591236115,-0.114066749811172,-0.124013684689999,-0.108719266951084,-0.164626732468605
452,-0.00598969496786594,0.261343061923981,-0.115034326910973,-0.126002550125122,-0.104683488607407,-0.165932595729828
453,-0.011522326618433,0.261910438537598,-0.117691412568092,-0.124274253845215,-0.102644167840481,-0.16335965692997
454,-0.0140827493742108,0.263885855674744,-0.122091077268124,-0.120508179068565,-0.104393102228642,-0.157610073685646
455,-0.0143940784037113,0.267981618642807,-0.12556979060173,-0.114892616868019,-0.10805045068264,-0.149128824472427
456,-0.0132383462041616,0.273977160453796,-0.124945506453514,-0.107411786913872,-0.109793819487095,-0.140335157513618
457,-0.0101669328287244,0.280665785074234,-0.117757715284824,-0.099079430103302,-0.105187192559242,-0.132939204573631
458,-0.00741780083626509,0.285106271505356,-0.107897125184536,-0.0936436280608177,-0.0938666239380836,-0.128325119614601
459,-0.00850680749863386,0.285174608230591,-0.102840676903725,-0.0937753245234489,-0.0793707594275475,-0.127230703830719
460,-0.012131473980844,0.282542198896408,-0.104836836457253,-0.097064420580864,-0.0653084740042686,-0.127320989966393
461,-0.0140189127996564,0.278985977172852,-0.111033700406551,-0.100285358726978,-0.0546549782156944,-0.12650041282177
462,-0.0127488365396857,0.275019705295563,-0.116516709327698,-0.101587161421776,-0.0476951338350773,-0.124892950057983
463,-0.0100830607116222,0.272595882415771,-0.116832852363586,-0.0993516892194748,-0.0418986082077026,-0.12256284058094
464,-0.00913246441632509,0.273055672645569,-0.111863061785698,-0.0937745124101639,-0.0362315103411675,-0.119868323206902
465,-0.0117703014984727,0.275455981492996,-0.103782474994659,-0.0861251354217529,-0.0308102816343308,-0.116148449480534
466,-0.0172521807253361,0.277928739786148,-0.0948740467429161,-0.0777947157621384,-0.0267365388572216,-0.110244572162628
467,-0.0254170224070549,0.277925938367844,-0.0891643539071083,-0.0716137737035751,-0.0282260868698359,-0.105046182870865
468,-0.0349371582269669,0.275967240333557,-0.0864672139286995,-0.0674931108951569,-0.0340369120240211,-0.101594939827919
469,-0.0410563834011555,0.276542782783508,-0.0799436494708061,-0.0601212084293365,-0.0343389622867107,-0.0937556326389313
470,-0.0412845984101295,0.280607849359512,-0.0658584386110306,-0.0472973920404911,-0.023992083966732,-0.0787916779518127
471,-0.0382833480834961,0.283575415611267,-0.0490434765815735,-0.0336925126612186,-0.0087371775880456,-0.0630119442939758
472,-0.0360550507903099,0.281475871801376,-0.0382516756653786,-0.0246834084391594,0.0019162337994203,-0.0531129837036133
473,-0.0366316884756088,0.274251997470856,-0.0379435829818249,-0.0221567526459694,0.00288793817162514,-0.0511724837124348
474,-0.0386784449219704,0.266046583652496,-0.0426089912652969,-0.0229156855493784,-0.00168372225016356,-0.054201927036047
475,-0.0414195358753204,0.259332597255707,-0.0444060452282429,-0.0231148432940245,-0.00449111079797149,-0.0580076053738594
476,-0.0471589006483555,0.249621406197548,-0.0437431149184704,-0.0235305018723011,-0.00479214359074831,-0.0618464238941669
477,-0.0550641417503357,0.23310187458992,-0.0442005097866058,-0.0248701721429825,-0.00440671527758241,-0.0647233128547668
478,-0.0600957646965981,0.211903020739555,-0.0455461554229259,-0.024950634688139,-0.00226648524403572,-0.0643775835633278
479,-0.0598675757646561,0.189095139503479,-0.0463954396545887,-0.0224352329969406,0.00132351648062468,-0.0610479190945625
480,-0.056683886796236,0.165846511721611,-0.0470386408269405,-0.018689688295126,0.00320001482032239,-0.0569540560245514
481,-0.0527100451290607,0.143657639622688,-0.0475490055978298,-0.0156811475753784,0.00237276358529925,-0.0536461807787418
482,-0.0472295321524143,0.125788152217865,-0.0459070131182671,-0.0135067077353597,0.00225162622518837,-0.0511191375553608
483,-0.0398730225861073,0.115331582725048,-0.0398448705673218,-0.0104107707738876,0.00601711822673678,-0.0468680188059807
484,-0.0331032015383244,0.109653905034065,-0.0295531507581472,-0.00485449424013495,0.0133614363148808,-0.0375262647867203
485,-0.028905825689435,0.100032202899456,-0.0173989813774824,0.00232773786410689,0.0244396142661572,-0.0235811900347471
486,-0.0254315789788961,0.0826045721769333,-0.00508257234469056,0.00923220999538898,0.0422776229679585,-0.00929967779666185
487,-0.0210165660828352,0.0600266642868519,0.00483575323596597,0.0138760320842266,0.0654989555478096,-0.000242589827394113
488,-0.0175095517188311,0.0336407572031021,0.00843275990337133,0.0142748486250639,0.0840718969702721,0.000220101414015517
489,-0.0163131356239319,0.00446382584050298,0.00571354059502482,0.0109667154029012,0.0881977155804634,-0.00565440021455288
490,-0.0161110516637564,-0.0243502967059612,-5.06199903611559E-05,0.0067094280384481,0.0770458728075027,-0.0131079377606511
491,-0.0159235540777445,-0.0494563058018684,-0.00591495679691434,0.00443533062934875,0.0577225387096405,-0.0181867089122534
492,-0.0171979740262032,-0.0701610073447227,-0.0108235543593764,0.00532832182943821,0.0371707789599895,-0.0187178663909435
493,-0.0198068656027317,-0.0883136540651321,-0.014982364140451,0.00759695889428258,0.0185526721179485,-0.0157315116375685
494,-0.019731255248189,-0.10521274805069,-0.0167232118546963,0.00928710587322712,0.00505295116454363,-0.0112411538138986
495,-0.0151415793225169,-0.12070520222187,-0.0145327243953943,0.0102529628202319,-0.00130929914303124,-0.00639967247843742
496,-0.00949221197515726,-0.134060427546501,-0.0101698478683829,0.010988543741405,-0.00224936800077558,-0.00277527351863682
497,-0.00651603098958731,-0.144425094127655,-0.00596548430621624,0.0119925457984209,0.000306091678794473,-0.00124407024122775
498,-0.00794465374201536,-0.152782425284386,-0.00329440669156611,0.0127338720485568,0.00480481330305338,-0.00211571273393929
499,-0.0147762726992369,-0.163037344813347,-0.00361771206371486,0.0111841317266226,0.0081475768238306,-0.00677059357985854
500,-0.0262837167829275,-0.177982822060585,-0.00707811350002885,0.0063182944431901,0.00830532796680927,-0.0152572095394135
501,-0.0383357480168343,-0.194793224334717,-0.0109614077955484,0.000982209341600537,0.00679943477734923,-0.0233820918947458
502,-0.0454625263810158,-0.207820743322372,-0.0116570945829153,-0.000524127157405019,0.00621449295431376,-0.0255768373608589
503,-0.0461320541799068,-0.215190127491951,-0.00753858080133796,0.00226207519881427,0.00755780236795545,-0.0209511313587427
504,-0.0434673093259335,-0.219743877649307,-0.000258930318523198,0.00589695479720831,0.0105389812961221,-0.01372548379004
505,-0.0392184928059578,-0.223126694560051,0.00795895606279373,0.00867862347513437,0.0152516439557076,-0.00597194209694862
506,-0.0315259993076324,-0.222636684775352,0.0165220703929663,0.0130527541041374,0.0228537824004889,0.00490601873025298
507,-0.0202035512775183,-0.216767430305481,0.0228700917214155,0.0200052969157696,0.032189629971981,0.0182844363152981
508,-0.00832420028746128,-0.208100363612175,0.0236923452466726,0.0270159412175417,0.0393612235784531,0.0297519247978926
509,0.00105644878931344,-0.199369549751282,0.0199117697775364,0.0322825461626053,0.0423416793346405,0.0383469425141811
510,0.00710711162537336,-0.190952211618423,0.0156971868127584,0.035893589258194,0.0427694693207741,0.0452111214399338
511,0.0109717855229974,-0.181844189763069,0.0141327632591128,0.0382329374551773,0.0439095571637154,0.0490380302071571
512,0.0130898645147681,-0.172268003225327,0.0146623235195875,0.0391407683491707,0.046659130603075,0.0473114401102066
513,0.0131803080439568,-0.164109885692596,0.0157141201198101,0.0378112904727459,0.0481470748782158,0.0387961640954018
514,0.0112642021849751,-0.15887239575386,0.0166328549385071,0.0327181220054626,0.0441142246127129,0.0238856263458729
515,0.00862386170774698,-0.154675349593163,0.0174735300242901,0.0252577532082796,0.0351971685886383,0.00685384776443243
516,0.00991224404424429,-0.146738708019257,0.0197243615984917,0.0216833110898733,0.0299745760858059,-0.004582395311445
517,0.017555233091116,-0.134627372026443,0.0220023151487112,0.0242806803435087,0.0332300588488579,-0.00742460181936622
518,0.0277405828237534,-0.12262225151062,0.0207585226744413,0.028859818354249,0.0394733473658562,-0.00409718509763479
519,0.0359585620462894,-0.112692728638649,0.0172197949141264,0.033099427819252,0.0419676788151264,0.00409370474517345
520,0.0398037992417812,-0.104520566761494,0.0143347773700953,0.0372128896415234,0.0379316657781601,0.0159804504364729
521,0.0395921729505062,-0.0980142503976822,0.0127329919487238,0.0410547889769077,0.02870212495327,0.029016450047493
522,0.0369625389575958,-0.09442488104105,0.0114080170169473,0.0438353978097439,0.0184387285262346,0.0408194251358509
523,0.0327074974775314,-0.0965678319334984,0.0085598211735487,0.0436253882944584,0.011193216778338,0.0484308823943138
524,0.0284230541437864,-0.104366190731525,0.00461998907849193,0.0401127636432648,0.00992716383188963,0.050469096750021
525,0.0257810913026333,-0.115333646535873,0.0017785137752071,0.0354683734476566,0.0139080164954066,0.0487589202821255
526,0.0253187902271748,-0.129732042551041,0.00159686023835093,0.0311200190335512,0.0183998085558414,0.0449535623192787
527,0.0272045079618692,-0.148531258106232,0.00446936814114451,0.0271063987165689,0.0208024382591248,0.0403891988098621
528,0.0300275422632694,-0.169993653893471,0.00954583287239075,0.0235845223069191,0.0222763530910015,0.0376785211265087
529,0.0316592119634151,-0.190140396356583,0.0162572767585516,0.0226914994418621,0.0231756325811148,0.0399584472179413
530,0.0313960239291191,-0.206947669386864,0.0226282011717558,0.0255863852798939,0.0212457720190287,0.046954657882452
531,0.028163930401206,-0.223443642258644,0.0233899857848883,0.0278777256608009,0.0140217123553157,0.0512022860348225
532,0.021858524531126,-0.241805374622345,0.0158737152814865,0.025069821625948,0.00208099815063179,0.045409057289362
533,0.0168643798679113,-0.257833033800125,0.00537443300709128,0.0199572928249836,-0.0101226288825274,0.032589465379715
534,0.0177977234125137,-0.265022248029709,0.000299486593576148,0.0189677607268095,-0.0169721469283104,0.0226475987583399
535,0.0241939462721348,-0.260635673999786,0.00416543101891875,0.0241370741277933,-0.0151492645964026,0.021950488910079
536,0.032053604722023,-0.249563172459602,0.0138374892994761,0.0316648073494434,-0.00566601660102606,0.0291146226227283
537,0.0386039242148399,-0.24082513153553,0.0239428076893091,0.03729048371315,0.00780627178028226,0.0386969670653343
538,0.043840829282999,-0.238828077912331,0.0304617285728455,0.0396825522184372,0.0207666326314211,0.0453258529305458
539,0.0493921004235744,-0.242470666766167,0.031864907592535,0.0394536517560482,0.0294886901974678,0.0465450584888458
540,0.0575745403766632,-0.248519733548164,0.030446095392108,0.038273561745882,0.0343229286372662,0.0445288456976414
541,0.0675647556781769,-0.255112886428833,0.0291666109114885,0.0362597741186619,0.0366023220121861,0.0417284555733204
542,0.0749891698360443,-0.261926174163818,0.0280002411454916,0.0326005704700947,0.0353307016193867,0.0390506200492382
543,0.0773621127009392,-0.267977595329285,0.0249571055173874,0.0278488267213106,0.028552234172821,0.0374528281390667
544,0.0772228837013245,-0.271758198738098,0.0209711063653231,0.0240318328142166,0.0170962996780872,0.0386975333094597
545,0.0779000148177147,-0.272672414779663,0.0197953265160322,0.0229002200067043,0.00532984500750899,0.0439410358667374
546,0.0792031660676003,-0.271642684936523,0.0220231227576733,0.0238500479608774,-0.00347610213793814,0.0495828613638878
547,0.0813407450914383,-0.268557727336884,0.0259773638099432,0.0268309134989977,-0.00711824698373675,0.0517382510006428
548,0.0858210921287537,-0.2636678814888,0.0298415385186672,0.0317556969821453,-0.00480280397459865,0.0505989603698254
549,0.0916827097535133,-0.259763389825821,0.0316646210849285,0.0362358689308167,0.000710588414222002,0.0469479933381081
550,0.0969275459647179,-0.258780866861343,0.0313326679170132,0.0388640463352203,0.00592016242444515,0.041170995682478
551,0.101660639047623,-0.259685188531876,0.0306634064763784,0.0407034233212471,0.0101589970290661,0.034487210214138
552,0.107257410883904,-0.260245829820633,0.0312666930258274,0.0425579659640789,0.0141339609399438,0.0284803453832865
553,0.114142350852489,-0.258832931518555,0.0335953421890736,0.0438626408576965,0.0166166480630636,0.0244576726108789
554,0.121160916984081,-0.255628973245621,0.0370686240494251,0.0443700179457664,0.0165781062096357,0.0234442427754402
555,0.12686987221241,-0.252233743667603,0.0417220182716846,0.0453217327594757,0.0180139988660812,0.0268622115254402
556,0.131384611129761,-0.249759808182716,0.0486947782337666,0.0477775260806084,0.0271832831203938,0.0353280827403069
557,0.135555982589722,-0.249197795987129,0.0565454810857773,0.0502030923962593,0.0438590385019779,0.0455837547779083
558,0.138731986284256,-0.251312673091888,0.0610280372202396,0.0509327910840511,0.0599273219704628,0.053221333771944
559,0.137164101004601,-0.256359398365021,0.0584293231368065,0.0489900559186935,0.0649628564715385,0.0553795732557774
560,0.127829283475876,-0.26372754573822,0.0485525503754616,0.043228380382061,0.0544783025979996,0.0502148196101189
561,0.115211233496666,-0.269880890846252,0.036353200674057,0.0361848771572113,0.0351169928908348,0.0400398746132851
562,0.107306092977524,-0.271082758903503,0.0275398232042789,0.0325339250266552,0.017720514908433,0.0307401046156883
563,0.107523262500763,-0.266523003578186,0.0243468526750803,0.0345513932406902,0.00881555862724781,0.0275275055319071
564,0.114062592387199,-0.258078098297119,0.0263647623360157,0.041514802724123,0.00964151136577129,0.0320891700685024
565,0.122341156005859,-0.250072717666626,0.0313276685774326,0.0493232049047947,0.0177670326083899,0.0403544306755066
566,0.128817528486252,-0.244301319122314,0.0370697751641274,0.0546341687440872,0.0288395285606384,0.04735142365098
567,0.133466705679893,-0.236943259835243,0.0436435490846634,0.0590837933123112,0.0391436070203781,0.054348673671484
568,0.138307869434357,-0.223746493458748,0.0520157031714916,0.0660914853215218,0.0480337962508202,0.0660233423113823
569,0.143454656004906,-0.206042557954788,0.0604551173746586,0.0750036388635635,0.0546148493885994,0.0811415389180183
570,0.145423591136932,-0.189671024680138,0.0648785158991814,0.0812468454241753,0.0551267825067043,0.0931647047400475
571,0.14262381196022,-0.177883684635162,0.0647964254021645,0.0828992649912834,0.0490125492215157,0.0993242263793945
572,0.137883394956589,-0.169619023799896,0.0637875124812126,0.0815980657935143,0.0406062416732311,0.100639417767525
573,0.135445311665535,-0.162002548575401,0.0666504800319672,0.0806616172194481,0.035479474812746,0.0990369319915771
574,0.137527778744698,-0.153632044792175,0.0760174989700317,0.0829031318426132,0.0366031154990196,0.096363328397274
575,0.141181796789169,-0.146248281002045,0.0872026979923248,0.0864971876144409,0.0415926352143288,0.0929490923881531
576,0.141791775822639,-0.140929624438286,0.0926885828375816,0.0881249606609344,0.0477745532989502,0.0895193293690681
577,0.139432966709137,-0.135287120938301,0.0921682715415955,0.0883922725915909,0.0570248775184155,0.0876134857535362
578,0.137153923511505,-0.126496911048889,0.0901854559779167,0.0890768840909004,0.0698280334472656,0.0869912058115005
579,0.136683806777,-0.11494342237711,0.088931143283844,0.0899569988250732,0.0815715566277504,0.0867318585515022
580,0.137756571173668,-0.103432685136795,0.0885759145021439,0.090295247733593,0.0884073451161385,0.0873682498931885
581,0.13841287791729,-0.0947172194719315,0.0886833146214485,0.089385062456131,0.0894054546952248,0.0894103944301605
582,0.138445407152176,-0.0885651558637619,0.0899925082921982,0.0887305960059166,0.0864510759711266,0.0944880843162537
583,0.138807773590088,-0.0835835784673691,0.0927005782723427,0.0900798141956329,0.0824771970510483,0.103019736707211
584,0.138092637062073,-0.0808388143777847,0.0938975438475609,0.09102613478899,0.0779024511575699,0.109937407076359
585,0.136947765946388,-0.0798877850174904,0.0935586616396904,0.0903374627232552,0.0738062486052513,0.111594498157501
586,0.139200404286385,-0.0773345977067947,0.095367468893528,0.0908616632223129,0.0728336125612259,0.110499888658524
587,0.144586950540543,-0.0727149024605751,0.0991436392068863,0.092998594045639,0.0741144642233849,0.10867678374052
588,0.148931369185448,-0.0687330812215805,0.1026216968894,0.0942432880401611,0.0757266953587532,0.105469040572643
589,0.149409905076027,-0.0680000483989716,0.104625038802624,0.0926534160971642,0.0784820169210434,0.0997065976262093
590,0.144857421517372,-0.0729993432760239,0.101720348000526,0.0863562822341919,0.0811116322875023,0.0899923294782639
591,0.138519302010536,-0.0814469531178474,0.0933958292007446,0.0783925503492355,0.0813350304961205,0.0813658908009529
592,0.13714125752449,-0.0857250094413757,0.085706353187561,0.0763239413499832,0.0807382017374039,0.0846992805600166
593,0.140118554234505,-0.0847596600651741,0.0805312320590019,0.079401008784771,0.0784754678606987,0.0989364609122276
594,0.139588668942451,-0.0859465971589088,0.0728367492556572,0.078491747379303,0.0692730918526649,0.108049020171165
595,0.134534031152725,-0.090695708990097,0.0631005316972733,0.0716984793543816,0.0547887459397316,0.102812230587006
596,0.132589176297188,-0.0908126011490822,0.059447918087244,0.0675870776176453,0.0454258061945438,0.0903329476714134
597,0.137472882866859,-0.0822778940200806,0.0655334070324898,0.071340911090374,0.0478692278265953,0.0796799957752228
598,0.144953534007072,-0.0707371681928635,0.0765056386590004,0.0782612711191177,0.0585137940943241,0.0721970573067665
599,0.150713965296745,-0.0620681531727314,0.0865309908986092,0.083122156560421,0.0692513659596443,0.067137598991394
600,0.153561800718308,-0.0572154000401497,0.0928415954113007,0.0859891548752785,0.0744101405143738,0.0651626214385033
601,0.152248829603195,-0.0555478259921074,0.0939413011074066,0.0869374424219131,0.0717163234949112,0.0644602477550507
602,0.14739491045475,-0.0557145290076733,0.0902329161763191,0.0850070044398308,0.0627631098031998,0.0621637515723705
603,0.142521604895592,-0.0558289922773838,0.0841329097747803,0.080955982208252,0.0512770339846611,0.0584542639553547
604,0.13968326151371,-0.0564277991652489,0.077384240925312,0.07537841796875,0.0392261855304241,0.0548247322440147
605,0.139325901865959,-0.0581207536160946,0.0720770210027695,0.0695836246013641,0.0291494801640511,0.0534989722073078
606,0.141495957970619,-0.0584489963948727,0.0712072849273682,0.0669161751866341,0.0246751457452774,0.0572499521076679
607,0.144214749336243,-0.0562821626663208,0.0750188902020454,0.0677427276968956,0.0262868348509073,0.0647914260625839
608,0.145083069801331,-0.0539080835878849,0.0801536440849304,0.06868976354599,0.0316352285444736,0.071627102792263
609,0.144086614251137,-0.0533776544034481,0.0825377404689789,0.0678197741508484,0.0377650782465935,0.0748346820473671
610,0.141755133867264,-0.055589135736227,0.0790044888854027,0.0646452307701111,0.0411043241620064,0.072760634124279
611,0.136359974741936,-0.0620676316320896,0.0670747607946396,0.0565093085169792,0.038063395768404,0.0641852021217346
612,0.128070697188377,-0.0715887099504471,0.0494713559746742,0.0434477180242538,0.0291523393243551,0.0521848760545254
613,0.122326694428921,-0.0774646252393723,0.0361936949193478,0.0333851352334023,0.0201878063380718,0.0450384616851807
614,0.122027926146984,-0.0749659240245819,0.0326252765953541,0.0320018865168095,0.0153217194601893,0.0475320070981979
615,0.12369841337204,-0.0657558739185333,0.0341345258057117,0.0359348207712173,0.0138175534084439,0.0567951761186123
616,0.124525249004364,-0.055510800331831,0.0361290797591209,0.0405282601714134,0.0148447686806321,0.0669640004634857
617,0.125106260180473,-0.0504765957593918,0.0388825535774231,0.0436941459774971,0.0180693864822388,0.0716483667492867
618,0.126405596733093,-0.0514851473271847,0.0432302951812744,0.0445984080433846,0.021327605471015,0.0674032643437386
619,0.128584012389183,-0.0540213584899902,0.0481774918735027,0.0444185882806778,0.0229296013712883,0.0572476759552956
620,0.130539759993553,-0.0548026151955128,0.0515012219548225,0.0444031432271004,0.0226988736540079,0.0464511252939701
621,0.129428088665009,-0.0546542517840862,0.0503330305218697,0.0431456454098225,0.0200472548604012,0.0366861931979656
622,0.124495558440685,-0.0548856221139431,0.0454161465167999,0.0402958355844021,0.0150599693879485,0.0280723217874765
623,0.118601500988007,-0.0545283928513527,0.0414583310484886,0.0390427447855473,0.00848296098411083,0.0229945220053196
624,0.112969309091568,-0.0532720610499382,0.0402052327990532,0.0409531816840172,0.00014799130440224,0.0231977794319391
625,0.105368420481682,-0.053976982831955,0.0386532694101334,0.0422950983047485,-0.00970807205885649,0.025121383368969
626,0.0935524627566338,-0.0604909099638462,0.0333048850297928,0.0375959761440754,-0.0200198292732239,0.0212815664708614
627,0.0797268226742744,-0.0714551359415054,0.0256283413618803,0.0273878388106823,-0.0282760802656412,0.00979014299809933
628,0.070933498442173,-0.0788353756070137,0.0215412452816963,0.0193515755236149,-0.0307429283857346,-0.0012339586392045
629,0.0711994543671608,-0.0773460268974304,0.0234329421073198,0.0193722248077393,-0.0267074070870876,-0.00337315513752401
630,0.0775231122970581,-0.0701598972082138,0.0286813247948885,0.0264964457601309,-0.0186695009469986,0.00442039873450994
631,0.0852352380752563,-0.0631929710507393,0.035147562623024,0.0362579487264156,-0.00867576058954,0.0176470745354891
632,0.0907897427678108,-0.0600649267435074,0.042696088552475,0.0438896603882313,0.00158723315689713,0.029350345954299
633,0.0923586636781693,-0.0613563768565655,0.0504716224968433,0.0471903868019581,0.00944931991398335,0.0355431735515594
634,0.0916803330183029,-0.0637608543038368,0.056478850543499,0.0489917509257793,0.0131869204342365,0.0402300097048283
635,0.0915337949991226,-0.0632953941822052,0.0595580339431763,0.0523078218102455,0.0139912785962224,0.0477691814303398
636,0.0920783132314682,-0.0606257803738117,0.0596225373446941,0.0554673038423061,0.0143804466351867,0.054728027433157
637,0.0917000323534012,-0.0591419488191605,0.0567994639277458,0.0558883845806122,0.015699926763773,0.0561595074832439
638,0.0894702970981598,-0.0609756857156754,0.0506744682788849,0.0526767820119858,0.0177943091839552,0.0505916103720665
639,0.0862957760691643,-0.0649799779057503,0.0424976795911789,0.047408439218998,0.0207598432898521,0.0398386381566525
640,0.0826420336961746,-0.0685114860534668,0.0353123880922794,0.0429498143494129,0.0232820343226194,0.0272444058209658
641,0.0773039907217026,-0.0715303495526314,0.0301647670567036,0.0389181822538376,0.0224344301968813,0.0136844217777252
642,0.0709630325436592,-0.0742678865790367,0.026507617905736,0.034466028213501,0.0193250123411417,-2.8444905183278E-05
643,0.0668314248323441,-0.0750964283943176,0.0245972573757172,0.0322415865957737,0.0187083538621664,-0.0101799201220274
644,0.0663584619760513,-0.0742129608988762,0.0241509079933167,0.0333936959505081,0.021558228880167,-0.01501839235425
645,0.067711628973484,-0.0739513635635376,0.0230522863566875,0.0349591337144375,0.024362325668335,-0.0168731398880482
646,0.0673420205712318,-0.0770492851734161,0.0176719762384892,0.0327311791479588,0.0226314198225737,-0.0195909515023232
647,0.0624916963279247,-0.0859507918357849,0.00508387014269829,0.0239038933068514,0.0139122046530247,-0.0264138262718916
648,0.0547098703682423,-0.0988142117857933,-0.0114108715206385,0.0112484972923994,0.00345321302302182,-0.0353340767323971
649,0.0471539385616779,-0.110993169248104,-0.0251910630613565,0.000536645413376391,-0.00132826517801732,-0.0413611456751823
650,0.0406402722001076,-0.119938120245934,-0.0333290211856365,-0.00590048730373383,0.000171668973052874,-0.0436612628400326
651,0.0357824228703976,-0.124275743961334,-0.0352405682206154,-0.00808595586568117,0.00544731225818396,-0.0433016419410706
652,0.0327251963317394,-0.124251425266266,-0.0318108722567558,-0.00683378474786878,0.0116922091692686,-0.0396000146865845
653,0.0305052381008863,-0.12168999761343,-0.0252835620194674,-0.00355371669866145,0.0167210251092911,-0.0319027379155159
654,0.0290628727525473,-0.118048451840878,-0.0185646936297417,-8.42720764921978E-05,0.0204877108335495,-0.0231940671801567
655,0.0277689602226019,-0.116650111973286,-0.0164917465299368,-0.00026045530103147,0.021397614851594,-0.0208517257124186
656,0.0259570553898811,-0.11997501552105,-0.0203336849808693,-0.00509116053581238,0.0182772930711508,-0.0280631501227617
657,0.0246332846581936,-0.124746195971966,-0.0251596197485924,-0.00959478039294481,0.013805391266942,-0.0389050245285034
658,0.0232269372791052,-0.128024086356163,-0.0291848815977573,-0.0118504911661148,0.00900052767246962,-0.0487701557576656
659,0.020533375442028,-0.130920723080635,-0.0344650857150555,-0.0146659752354026,0.00399953871965408,-0.0581501834094524
660,0.0178715214133263,-0.134359627962112,-0.0398501791059971,-0.0181071367114782,0.00222163950093091,-0.0662898346781731
661,0.0157445501536131,-0.138168096542358,-0.0437386594712734,-0.0207799039781094,0.00475364178419113,-0.0721999034285545
662,0.0118344649672508,-0.14215724170208,-0.0475489757955074,-0.0231600664556026,0.00747695425525308,-0.0759206935763359
663,0.00365595892071724,-0.147795423865318,-0.0537617690861225,-0.0267916601151228,0.00568526331335306,-0.0776550099253654
664,-0.0070876581594348,-0.155538871884346,-0.0617617294192314,-0.0312859490513802,-0.000666356645524502,-0.0767977982759476
665,-0.0141507312655449,-0.161531582474709,-0.0669586658477783,-0.0333408378064632,-0.00612664921209216,-0.0720720514655113
666,-0.0133063197135925,-0.162452384829521,-0.0665730014443398,-0.0312884412705898,-0.00607840763404965,-0.0651177391409874
667,-0.00589687004685402,-0.158768579363823,-0.0608036480844021,-0.026269344612956,-0.000446723483037204,-0.059070035815239
668,0.00338868517428637,-0.152820080518723,-0.0507292114198208,-0.0195672381669283,0.00814700778573751,-0.0554424189031124
669,0.00905352365225554,-0.147871538996696,-0.0405345670878887,-0.0133422203361988,0.0149831725284457,-0.0554875396192074
670,0.0082189692184329,-0.146429181098938,-0.0352180227637291,-0.0106160724535584,0.0169634874910116,-0.0599344111979008
671,0.00341762648895383,-0.146909475326538,-0.0343871712684631,-0.0111709898337722,0.0173992570489645,-0.0660257413983345
672,-0.00142057042103261,-0.146362438797951,-0.0347774140536785,-0.0125785963609815,0.0200914293527603,-0.0705186948180199
673,-0.00492308009415865,-0.144607946276665,-0.0358235165476799,-0.0139715941622853,0.0228962078690529,-0.0733004063367844
674,-0.00751711614429951,-0.143054246902466,-0.038896806538105,-0.0155596639961004,0.0215136166661978,-0.0749922543764114
675,-0.0107621410861611,-0.142963618040085,-0.0434585697948933,-0.0176629163324833,0.0151994610205293,-0.0752074345946312
676,-0.0144068971276283,-0.143575385212898,-0.04576700553298,-0.0187462344765663,0.00830459035933018,-0.0717843174934387
677,-0.0160873830318451,-0.142912328243256,-0.0430630929768085,-0.0164839308708906,0.00599897699430585,-0.0637155100703239
678,-0.0156210102140903,-0.141191720962524,-0.0373201742768288,-0.0121606681495905,0.00893512926995754,-0.0551307797431946
679,-0.0147484187036753,-0.139937117695808,-0.0332053452730179,-0.00921993888914585,0.0134842712432146,-0.0508134961128235
680,-0.0150024732574821,-0.139724433422089,-0.0336625315248966,-0.0093493927270174,0.0155202597379684,-0.0512391813099384
681,-0.0165349598973989,-0.1406409740448,-0.0372199937701225,-0.0122333196923137,0.0139058446511626,-0.0544172339141369
682,-0.0173945911228657,-0.142645224928856,-0.0401867590844631,-0.0167157463729382,0.0112769100815058,-0.0583721734583378
683,-0.0163271743804216,-0.144891947507858,-0.0408897511661053,-0.0213067624717951,0.0116948308423162,-0.0615844056010246
684,-0.0157929118722677,-0.147004395723343,-0.0409770235419273,-0.0257735066115856,0.0158327482640743,-0.0645674392580986
685,-0.019243149086833,-0.149975672364235,-0.04263024777174,-0.0310667734593153,0.0205305777490139,-0.06874730437994
686,-0.0254327449947596,-0.153052225708961,-0.0444850921630859,-0.0356321260333061,0.024512030184269,-0.071704737842083
687,-0.0286162458360195,-0.152244374155998,-0.041961096227169,-0.034690223634243,0.0293945837765932,-0.0676732659339905
688,-0.0272886715829372,-0.146719232201576,-0.0351190529763699,-0.0278597585856915,0.0328177995979786,-0.0569394007325172
689,-0.0270039979368448,-0.141301482915878,-0.0302091334015131,-0.0216859634965658,0.0294935517013073,-0.047554973512888
690,-0.0312706828117371,-0.138150081038475,-0.0291075557470322,-0.0192839819937944,0.0222437903285027,-0.0432315729558468
691,-0.0391160026192665,-0.135521203279495,-0.0292655415832996,-0.018468314781785,0.0175016298890114,-0.0417869612574577
692,-0.0476721972227097,-0.131872519850731,-0.028916958719492,-0.0170496720820665,0.0164864845573902,-0.040842030197382
693,-0.0526421591639519,-0.126604035496712,-0.0258652754127979,-0.0138884950429201,0.0185236949473619,-0.0383610725402832
694,-0.0520904697477818,-0.121461100876331,-0.0192275270819664,-0.0102250184863806,0.0218993816524744,-0.0347033515572548
695,-0.0482164546847343,-0.119171522557735,-0.0115781538188457,-0.00843739602714777,0.0244949534535408,-0.0321198664605618
696,-0.0443750321865082,-0.120511919260025,-0.00692640524357557,-0.00914895348250866,0.0270092599093914,-0.0309562496840954
697,-0.0441624410450459,-0.127064526081085,-0.00921086873859167,-0.0139018716290593,0.028739620000124,-0.0327794849872589
698,-0.0491791069507599,-0.140679731965065,-0.0203027427196503,-0.0249238628894091,0.0252985041588545,-0.0410137958824635
699,-0.0541602373123169,-0.154668137431145,-0.0352687537670136,-0.0372589156031609,0.0173386391252279,-0.0516510866582394
700,-0.0522519685328007,-0.157692655920982,-0.0448222830891609,-0.0410658232867718,0.0110343946143985,-0.0554774552583694
701,-0.0437624081969261,-0.148286774754524,-0.0451809801161289,-0.0339125990867615,0.00772509025409818,-0.0508524551987648
702,-0.0345120280981064,-0.134276166558266,-0.0405788645148277,-0.0228606723248959,0.0030256207101047,-0.0428915359079838
703,-0.0281617864966393,-0.121223643422127,-0.0354322195053101,-0.0138725135475397,-0.00467707728967071,-0.0335462354123592
704,-0.02424156665802,-0.110398702323437,-0.0308189708739519,-0.00727595249190927,-0.0123608838766813,-0.0228835996240377
705,-0.0236360840499401,-0.103997133672237,-0.0292006898671389,-0.00435023987665772,-0.0186253003776073,-0.0157792642712593
706,-0.0277300160378218,-0.103254519402981,-0.0323805287480354,-0.00689624389633536,-0.0239095613360405,-0.0170308407396078
707,-0.0324211530387402,-0.103457383811474,-0.0346668660640717,-0.0104014137759805,-0.0251462403684855,-0.0224642083048821
708,-0.0328256450593472,-0.100101329386234,-0.0297800824046135,-0.00934719014912844,-0.0198739990592003,-0.0245211496949196
709,-0.0305802021175623,-0.0957679376006126,-0.0205017738044262,-0.00597543688490987,-0.0118574230000377,-0.0231583155691624
710,-0.0303859766572714,-0.0950639098882675,-0.0144162373617291,-0.00608426285907626,-0.00647128652781248,-0.0233833622187376
711,-0.0326070338487625,-0.0976604446768761,-0.0140127893537283,-0.0102692637592554,-0.00450790906324983,-0.0258920155465603
712,-0.0332955457270145,-0.0999225527048111,-0.0155690256506205,-0.0148891042917967,-0.00339257763698697,-0.027809701859951
713,-0.0298397000879049,-0.100416086614132,-0.0170488078147173,-0.0178854782134295,-0.00173087941948324,-0.0291183311492205
714,-0.0227123219519854,-0.0993475914001465,-0.0193875227123499,-0.0184491388499737,0.000480360351502895,-0.0307353343814611
715,-0.0139077985659242,-0.096535287797451,-0.0221628844738007,-0.0162341520190239,0.0026278484147042,-0.0312905199825764
716,-0.00580680277198553,-0.09328693151474,-0.0244654566049576,-0.0133752338588238,0.00314000085927546,-0.0300846751779318
717,-0.000568795949220657,-0.0922785773873329,-0.0265467874705791,-0.0128715699538589,0.0014943212736398,-0.028905002400279
718,0.00177734706085175,-0.0930361300706863,-0.0263576582074165,-0.013495828025043,0.00115781277418137,-0.0282753705978394
719,0.00366745796054602,-0.0921013280749321,-0.0208176672458649,-0.011319481767714,0.00600993260741234,-0.0266259852796793
720,0.00666345423087478,-0.0883488282561302,-0.011584896594286,-0.00630391947925091,0.0140038626268506,-0.0240493714809418
721,0.0103312116116285,-0.0839113742113113,-0.0034540721680969,-0.00231434847228229,0.0187176894396544,-0.0226247478276491
722,0.0148372696712613,-0.0800323709845543,0.00150186545215547,-0.000831629789900035,0.0176006834954023,-0.0219153314828873
723,0.0216298345476389,-0.0763923972845078,0.00447218911722302,0.000496359076350927,0.0137281715869904,-0.0183998961001635
724,0.0328947603702545,-0.0740202143788338,0.00640146527439356,0.00298304227180779,0.00896387360990047,-0.010048252530396
725,0.0522148087620735,-0.0738478899002075,0.00770501093938947,0.00560439936816692,0.00300221517682076,0.00145498977508396
726,0.0798253789544106,-0.0762748718261719,0.00724095059558749,0.00534653849899769,-0.0042260573245585,0.0097112599760294
727,0.111358568072319,-0.0801421701908112,0.00470412708818913,0.00112365104723722,-0.0104427076876163,0.0104667730629444
728,0.143264323472977,-0.0813712701201439,0.00407301681116223,-0.00313477939926088,-0.0111400755122304,0.0070581529289484
729,0.173038452863693,-0.0777785629034042,0.00835066754370928,-0.00400526449084282,-0.00580504443496466,0.00329698389396071
730,0.197754204273224,-0.0712659955024719,0.0152178350836039,-0.00184565724339336,0.000266970571829006,0.000369456654880196
731,0.214071005582809,-0.0661682263016701,0.0186281204223633,-0.000305569294141606,0.00072001974331215,-0.00190381612628698
732,0.221464470028877,-0.065216526389122,0.0158757492899895,-0.00216582976281643,-0.00575231853872538,-0.00405664835125208
733,0.225603774189949,-0.0653507336974144,0.0121241975575686,-0.00441892677918077,-0.0131290536373854,-0.00329006463289261
734,0.232087478041649,-0.0631181225180626,0.0121667552739382,-0.00371103058569133,-0.0151093043386936,0.0034328296314925
735,0.2410808801651,-0.0602669939398766,0.0144969020038843,-0.00144965772051364,-0.0104282451793551,0.0137152327224612
736,0.251288086175919,-0.0585678853094578,0.0174735225737095,0.00171486078761518,0.000911960436496884,0.0239750519394875
737,0.260866552591324,-0.0570513270795345,0.0218081660568714,0.00726591562852263,0.0174551643431187,0.0326172038912773
738,0.268070846796036,-0.0543413870036602,0.0286632962524891,0.014723040163517,0.034286979585886,0.0380123108625412
739,0.274894893169403,-0.0490605272352695,0.0380146168172359,0.0223702471703291,0.045840460807085,0.0400136671960354
740,0.284860819578171,-0.041050873696804,0.0464703664183617,0.0287856739014387,0.0485734902322292,0.041107289493084
741,0.297323167324066,-0.0320752263069153,0.0508449748158455,0.0326993204653263,0.043256837874651,0.0436756052076817
742,0.306274384260178,-0.0247453320771456,0.0508680008351803,0.0327142775058746,0.0334376618266106,0.0463509485125542
743,0.308007568120956,-0.0204133279621601,0.0480435378849506,0.0293295495212078,0.022337269037962,0.0453902631998062
744,0.307437002658844,-0.0169567596167326,0.0457664914429188,0.0269198752939701,0.0143542708829045,0.0409723743796349
745,0.311222732067108,-0.010950343683362,0.0466494187712669,0.0295590478926897,0.013376522809267,0.0377613380551338
746,0.319486737251282,-0.00241478672251105,0.049322709441185,0.0361559242010117,0.0171981491148472,0.0388634577393532
747,0.32985845208168,0.00662200711667538,0.052137229591608,0.0433698073029518,0.0210382919758558,0.0443195179104805
748,0.342311173677444,0.0161818694323301,0.0567810088396072,0.0508982129395008,0.0244517140090466,0.0540074892342091
749,0.354888826608658,0.0264501422643662,0.0636402666568756,0.0596711300313473,0.0286909602582455,0.0681110545992851
750,0.363905072212219,0.036255806684494,0.0705095231533051,0.0691549405455589,0.0337492600083351,0.0853322520852089
751,0.367722243070602,0.043559905141592,0.0756865590810776,0.0771624073386192,0.0383261181414127,0.0998211354017258
752,0.365531474351883,0.0458361245691776,0.0780108124017715,0.0801325961947441,0.0394415184855461,0.104062788188457
753,0.358505845069885,0.0435561127960682,0.0782949402928352,0.0773898884654045,0.0373139344155788,0.0976478308439255
754,0.349244326353073,0.0397022552788258,0.0775808766484261,0.0719509869813919,0.0362641513347626,0.0866302326321602
755,0.337902456521988,0.035055510699749,0.0738457292318344,0.0658354535698891,0.0376674979925156,0.0758982226252556
756,0.324382424354553,0.0290097203105688,0.0659295693039894,0.0599084421992302,0.0389028117060661,0.0685020983219147
757,0.311553359031677,0.0231837294995785,0.057680506259203,0.0561195015907288,0.0391439460217953,0.0670698955655098
758,0.301968991756439,0.0197636634111404,0.0537030473351479,0.0553588680922985,0.0394325964152813,0.0702028423547745
759,0.295124679803848,0.0179536137729883,0.054171297699213,0.0559064298868179,0.03898960724473,0.0720287188887596
760,0.290405452251434,0.0166680533438921,0.0578925907611847,0.0569907575845718,0.0389456264674664,0.0692696943879128
761,0.287626266479492,0.016194261610508,0.0633750259876251,0.0591784380376339,0.0421802401542664,0.0637878775596619
762,0.285254240036011,0.0163557566702366,0.0680443197488785,0.0624265447258949,0.0477256514132023,0.0591203533113003
763,0.282811135053635,0.0183748453855515,0.0725929215550423,0.0676490738987923,0.0545450821518898,0.0586472786962986
764,0.280562847852707,0.0226191021502018,0.0777031183242798,0.0740919634699821,0.0623070895671844,0.0618026554584503
765,0.276669859886169,0.0247811209410429,0.0785359367728233,0.0768060311675072,0.0656845793128014,0.0631690695881844
766,0.269815057516098,0.0218326412141323,0.0715255588293076,0.0729707255959511,0.0597221702337265,0.0596023462712765
767,0.261462509632111,0.0164159741252661,0.0601964332163334,0.0653121992945671,0.0470097661018372,0.0533214397728443
768,0.254916608333588,0.011729153804481,0.0508071705698967,0.0574028939008713,0.034430630505085,0.0469978712499142
769,0.254768341779709,0.00987370777875185,0.0490001142024994,0.0526208765804768,0.0307483039796352,0.0434897318482399
770,0.261265069246292,0.0122283445671201,0.0557365603744984,0.0532580725848675,0.0392403788864613,0.0471183247864246
771,0.268287807703018,0.0182670950889587,0.0661711916327477,0.0580559819936752,0.0510593913495541,0.0592240169644356
772,0.271799951791763,0.0275397635996342,0.0761119350790977,0.0643072873353958,0.0572124049067497,0.0747513324022293
773,0.273135155439377,0.0395308658480644,0.0841591209173203,0.0702841654419899,0.0583446100354195,0.0864169076085091
774,0.27465158700943,0.0530104525387287,0.0906191617250443,0.0763315930962563,0.0595691837370396,0.0925201252102852
775,0.276333838701248,0.065689817070961,0.0951753631234169,0.0821988731622696,0.0621175356209278,0.0957119911909103
776,0.27630814909935,0.0735509321093559,0.0956649258732796,0.0846685767173767,0.0613645799458027,0.0956819131970406
777,0.273996144533157,0.0752184242010117,0.0918334051966667,0.0828901752829552,0.0542048662900925,0.0907181799411774
778,0.270169168710709,0.0735611170530319,0.0851814746856689,0.0799150541424751,0.0428125560283661,0.0824273899197578
779,0.264612138271332,0.0705549269914627,0.0759877935051918,0.0762627124786377,0.0301630515605211,0.0725629031658173
780,0.258502155542374,0.0677596628665924,0.0673444122076035,0.0722316354513168,0.0210567787289619,0.0640137642621994
781,0.253271192312241,0.0670196861028671,0.0635324567556381,0.0695428401231766,0.0200359113514423,0.0606573224067688
782,0.24657678604126,0.0670624375343323,0.062779389321804,0.0663986802101135,0.0246781930327415,0.0614333413541317
783,0.237284272909164,0.0660365149378777,0.0611868724226952,0.0613131150603294,0.0300455782562494,0.0625800788402557
784,0.227662369608879,0.0635509863495827,0.0573840104043484,0.0553847327828407,0.033763375133276,0.0607764646410942
785,0.218723714351654,0.0602400042116642,0.0524453669786453,0.0502385459840298,0.0358236841857433,0.0555853694677353
786,0.209136947989464,0.0564956367015839,0.047983530908823,0.0464586690068245,0.0367545373737812,0.0493991747498512
787,0.198837906122208,0.0523619838058949,0.0450342856347561,0.0433225557208061,0.0366815663874149,0.044972125440836
788,0.190992847084999,0.0505974926054478,0.046661589294672,0.0427019074559212,0.039550855755806,0.0463608503341675
789,0.186462506651878,0.0520228371024132,0.0533542223274708,0.0454047136008739,0.048130314797163,0.0537502206861973
790,0.18123921751976,0.0525990948081017,0.0598634518682957,0.0476046949625015,0.0551906377077103,0.0614825859665871
791,0.173999264836311,0.0503552779555321,0.0630414336919785,0.0471336580812931,0.05306800827384,0.0655157268047333
792,0.168196052312851,0.0465211793780327,0.0628868043422699,0.0442642346024513,0.0429246127605438,0.0647480115294456
793,0.166891515254974,0.0436255782842636,0.0604798085987568,0.0406849272549152,0.0311310458928347,0.0614810809493065
794,0.167603522539139,0.0459260568022728,0.060214776545763,0.0414264798164368,0.0243429876863956,0.0622435361146927
795,0.162157192826271,0.0546932928264141,0.0653253719210625,0.0486253686249256,0.0254855360835791,0.0695939585566521
796,0.146869197487831,0.0659356340765953,0.0745419412851334,0.057860653847456,0.0332487411797047,0.0787608027458191
797,0.125819772481918,0.0755171328783035,0.0848119780421257,0.0647615641355515,0.0440009720623493,0.0844749733805656
798,0.103494450449944,0.0826333835721016,0.0929291844367981,0.0690594911575317,0.054214708507061,0.0861824229359627
799,0.0822242498397827,0.0885611996054649,0.0969013571739197,0.0724597945809364,0.0630086660385132,0.0869840979576111
800,0.0623078644275665,0.0926742926239967,0.0962112322449684,0.0746827572584152,0.0700798705220222,0.0882211029529572
801,0.0418212972581387,0.0920909568667412,0.0904944539070129,0.0727640390396118,0.072418101131916,0.0872952044010162
802,0.0211763437837362,0.0879628285765648,0.0816916823387146,0.0665750056505203,0.0684407353401184,0.0832665041089058
803,0.00305963377468288,0.0840247869491577,0.0726888030767441,0.0586429759860039,0.0598681345582008,0.0772581249475479
804,-0.0122848693281412,0.0804006233811378,0.063461534678936,0.0495025292038918,0.0477504208683968,0.0684840381145477
805,-0.0235219821333885,0.0779268071055412,0.0563568398356438,0.0419490151107311,0.035450417548418,0.0599151775240898
806,-0.0270234495401382,0.0802018642425537,0.0569855459034443,0.0412831269204617,0.0301655679941177,0.0590645261108875
807,-0.0231929011642933,0.0875023230910301,0.0656954050064087,0.047444473952055,0.0352636277675629,0.0681767538189888
808,-0.0180033408105373,0.0964725911617279,0.0767752602696419,0.0553974620997906,0.0471000224351883,0.0826699957251549
809,-0.0178801901638508,0.104292951524258,0.084851861000061,0.0609490945935249,0.0602230802178383,0.096608117222786
810,-0.0236306842416525,0.109704941511154,0.0882201045751572,0.0629952922463417,0.0710375308990479,0.10589075088501
811,-0.0308245196938515,0.112202487885952,0.0870894640684128,0.0625030770897865,0.0752652958035469,0.109555035829544
812,-0.0350603796541691,0.113029770553112,0.0827849358320236,0.0618595369160175,0.0699028521776199,0.110721297562122
813,-0.0352093130350113,0.114466153085232,0.0778309851884842,0.0629474669694901,0.058413278311491,0.112571209669113
814,-0.0338913686573505,0.116104260087013,0.0729565471410751,0.0640858188271523,0.0466687716543674,0.112907975912094
815,-0.0324020683765411,0.118052378296852,0.069597527384758,0.0648093521595001,0.0401156321167946,0.110514014959335
816,-0.0294718258082867,0.122560627758503,0.0704894885420799,0.066722996532917,0.0412813611328602,0.107439689338207
817,-0.0265529062598944,0.128220796585083,0.0730869770050049,0.0669995844364166,0.0446396023035049,0.101542577147484
818,-0.0247601196169853,0.132660388946533,0.0733948796987534,0.0630778968334198,0.0440095737576485,0.0908000767230988
819,-0.0227759089320898,0.136367574334145,0.0715997815132141,0.0569644123315811,0.039155799895525,0.0788693204522133
820,-0.0195514727383852,0.140889689326286,0.0695517286658287,0.051549356430769,0.0330989323556423,0.0708051398396492
821,-0.0130522986873984,0.147741615772247,0.0697099193930626,0.0491017699241638,0.0301569793373346,0.0690142214298248
822,-0.00271107605658472,0.155371278524399,0.073655754327774,0.0498017594218254,0.0327159054577351,0.0719930306077003
823,0.00694135995581746,0.158204793930054,0.0781983211636543,0.0503917783498764,0.0385749340057373,0.0747965127229691
824,0.0110332006588578,0.15267276763916,0.0782894790172577,0.0474393591284752,0.0439976379275322,0.0728684291243553
825,0.0111394682899117,0.143062099814415,0.0748135671019554,0.0430719405412674,0.0486289151012897,0.0674387067556381
826,0.0126446010544896,0.136902183294296,0.0719709396362305,0.0424057245254517,0.0536371059715748,0.0634584352374077
827,0.0173008143901825,0.136125475168228,0.0701435282826424,0.0462855771183968,0.0576536692678928,0.0632944405078888
828,0.0225392188876867,0.136785671114922,0.0674264803528786,0.051280178129673,0.0582770816981792,0.0652473792433739
829,0.0253800190985203,0.134998291730881,0.0635661780834198,0.0535781718790531,0.0549506396055222,0.0660010725259781
830,0.0242145750671625,0.130300685763359,0.0593176782131195,0.0517299473285675,0.048690564930439,0.0642351359128952
831,0.0193071980029345,0.125415712594986,0.0559357516467571,0.0481763333082199,0.0420225523412228,0.0622332617640495
832,0.01079754345119,0.121638968586922,0.0537850260734558,0.0451745465397835,0.0371918529272079,0.0618331246078014
833,-0.000487969140522182,0.117931887507439,0.0531315766274929,0.0427545271813869,0.0357309877872467,0.0632563531398773
834,-0.0111100962385535,0.114806279540062,0.0555025413632393,0.0417236499488354,0.0398121103644371,0.0664719417691231
835,-0.0193807948380709,0.112642593681812,0.0594956539571285,0.0421346053481102,0.0481126345694065,0.0695552751421928
836,-0.0271086469292641,0.109650023281574,0.0606423169374466,0.0414057411253452,0.0544105693697929,0.0696686133742332
837,-0.0353968292474747,0.104233428835869,0.0559272691607475,0.0369342863559723,0.0533072389662266,0.0646611377596855
838,-0.0412228107452393,0.0982624441385269,0.0477115549147129,0.0304424352943897,0.0461623482406139,0.0556560233235359
839,-0.0419992096722126,0.0947274044156075,0.0410151667892933,0.0260205250233412,0.0379654504358768,0.046319168061018
840,-0.0402559638023376,0.0941889807581902,0.0376973375678062,0.0249050259590149,0.0308272298425436,0.0388492271304131
841,-0.0400722809135914,0.0950397253036499,0.0368976332247257,0.0252448972314596,0.0245689544826746,0.0327860489487648
842,-0.042690634727478,0.0940889939665794,0.0367252603173256,0.0244023986160755,0.019740978255868,0.0255228001624346
843,-0.0474296323955059,0.0882371515035629,0.0335954092442989,0.0202366951853037,0.0160378515720367,0.0150296092033386
844,-0.0547853484749794,0.0768364667892456,0.0243496019393206,0.011839990504086,0.00972559489309788,0.00236507994122803
845,-0.064411886036396,0.0634993463754654,0.0114026200026274,0.0019953390583396,-0.00116481923032552,-0.00854714401066303
846,-0.0741039291024208,0.0525496900081635,-0.000336116732796654,-0.00539472559466958,-0.014283693395555,-0.0154699711129069
847,-0.0823280289769173,0.0442360602319241,-0.00994326639920473,-0.0100276758894324,-0.0270985681563616,-0.0199386458843946
848,-0.0882831588387489,0.0371913127601147,-0.0179946236312389,-0.0129645131528378,-0.0369244478642941,-0.0233143046498299
849,-0.0928921103477478,0.0307820364832878,-0.0237914901226759,-0.0148841915652156,-0.0412920117378235,-0.0268525406718254
850,-0.0994811728596687,0.0240468885749578,-0.0272852312773466,-0.017216581851244,-0.0415459237992764,-0.0331056788563728
851,-0.107993140816689,0.018779881298542,-0.0270820558071136,-0.0189876351505518,-0.0393004901707172,-0.0397260598838329
852,-0.113363049924374,0.019267875701189,-0.0214852932840586,-0.0167750548571348,-0.0332804992794991,-0.039743434637785
853,-0.112708903849125,0.025017062202096,-0.0137618472799659,-0.0106259109452367,-0.0240374747663736,-0.0319599248468876
854,-0.108380898833275,0.0296999532729387,-0.00971841532737017,-0.00541939958930016,-0.0155862243846059,-0.0215591862797737
855,-0.103947870433331,0.0286849979311228,-0.0118114277720451,-0.0052400934509933,-0.0118889221921563,-0.0123029397800565
856,-0.100170865654945,0.0244552418589592,-0.0168667770922184,-0.00829267501831055,-0.0130083477124572,-0.00515116844326258
857,-0.0960351452231407,0.0220289789140224,-0.020471915602684,-0.0105313677340746,-0.0164609178900719,-0.00108024210203439
858,-0.0902222245931625,0.0238857585936785,-0.0204882733523846,-0.00983285810798407,-0.0200590584427118,-0.000351846712874249
859,-0.0828222259879112,0.0283518973737955,-0.0179559532552958,-0.00740990368649364,-0.0233244989067316,-0.00461813015863299
860,-0.0751023963093758,0.03072221390903,-0.0170638989657164,-0.00709511479362845,-0.0269537530839443,-0.0169674344360828
861,-0.0646937191486359,0.030371930450201,-0.0191996395587921,-0.00909284129738808,-0.0298688262701035,-0.0338241644203663
862,-0.0481956899166107,0.0294224414974451,-0.0231648199260235,-0.0115504935383797,-0.0317638963460922,-0.0484881363809109
863,-0.025376932695508,0.0267212148755789,-0.0285100862383842,-0.0152933206409216,-0.0338571332395077,-0.0598948746919632
864,0.00295269419439137,0.0221791975200176,-0.0323656722903252,-0.0194878112524748,-0.0346768163144588,-0.0687400102615356
865,0.0337277241051197,0.0182469878345728,-0.0326310768723488,-0.0220035333186388,-0.0336357429623604,-0.0745982974767685
866,0.0624136812984943,0.0176113843917847,-0.0301517732441425,-0.0218322984874249,-0.0324536822736263,-0.0752847120165825
867,0.0859262645244598,0.0217120889574289,-0.0261424165219069,-0.0189850274473429,-0.0308619253337383,-0.0687076821923256
868,0.101285994052887,0.0272766426205635,-0.0235974732786417,-0.0164683796465397,-0.0289772842079401,-0.0584233514964581
869,0.108058713376522,0.0298471041023731,-0.0241387542337179,-0.016788873821497,-0.0284918677061796,-0.0491822808980942
870,0.110345251858234,0.0288610234856606,-0.0250360369682312,-0.0187980737537146,-0.0303269252181053,-0.0410034172236919
871,0.111655995249748,0.0260200295597315,-0.0238711647689343,-0.0204630717635155,-0.0337834283709526,-0.0330614782869816
872,0.111342459917068,0.0234870817512274,-0.0214635506272316,-0.02061677724123,-0.0355610065162182,-0.0263183787465096
873,0.105779774487019,0.02197833545506,-0.0201330687850714,-0.0196615401655436,-0.0330602303147316,-0.0215477235615253
874,0.0919384434819222,0.0197583567351103,-0.0212412420660257,-0.0194472149014473,-0.0280295349657536,-0.0195317398756742
875,0.0706344172358513,0.0163343474268913,-0.0228147190064192,-0.020101185888052,-0.02323735691607,-0.0199098736047745
876,0.0438777804374695,0.0116697931662202,-0.0233640391379595,-0.0216531846672297,-0.0220109354704618,-0.0221556555479765
877,0.0138403717428446,0.0048437025398016,-0.0252582095563412,-0.026322390884161,-0.0282371211796999,-0.0270055755972862
878,-0.0137506285682321,-0.000708786596078426,-0.028294650837779,-0.0323967933654785,-0.039706539362669,-0.0317028686404228
879,-0.0334075465798378,0.000335873541189358,-0.0287418328225613,-0.0344838425517082,-0.0496609956026077,-0.0321585759520531
880,-0.0459290184080601,0.00691917538642883,-0.0266673192381859,-0.0317876860499382,-0.0554689317941666,-0.0295224990695715
881,-0.0562663972377777,0.0131185417994857,-0.0256725456565619,-0.0282559730112553,-0.0590064227581024,-0.0266825202852488
882,-0.0671638697385788,0.0158977285027504,-0.0263821389526129,-0.0260223839432001,-0.0611615516245365,-0.0234881229698658
883,-0.0778561010956764,0.0166604537516832,-0.0262575633823872,-0.0241886600852013,-0.0601543374359608,-0.0201115142554045
884,-0.0887182354927063,0.0167249534279108,-0.0247656852006912,-0.0227931253612041,-0.055495660752058,-0.0186598189175129
885,-0.102810382843018,0.0153973698616028,-0.024580841884017,-0.023519292473793,-0.0510882996022701,-0.0205391887575388
886,-0.121793836355209,0.0116969030350447,-0.0280094780027866,-0.0270500425249338,-0.0514549650251865,-0.0261536315083504
887,-0.143156960606575,0.00618216907605529,-0.0339207984507084,-0.0316327325999737,-0.055678591132164,-0.0334813930094242
888,-0.16231931746006,0.00113846210297197,-0.0391928441822529,-0.0348945111036301,-0.0588862597942352,-0.0382902845740318
889,-0.177145510911942,-0.00168145354837179,-0.0431387387216091,-0.0365856327116489,-0.0595813877880573,-0.0390347056090832
890,-0.188772886991501,-0.00207079341635108,-0.0466291457414627,-0.0373563878238201,-0.0591220296919346,-0.0370791219174862
891,-0.19949708878994,-0.00151814927812666,-0.0501535944640636,-0.0380283109843731,-0.0581398233771324,-0.0344753451645374
892,-0.21083015203476,-0.00254565640352666,-0.0546349920332432,-0.0399614982306957,-0.0581538900732994,-0.0334509983658791
893,-0.220845431089401,-0.00381492008455098,-0.0581685341894627,-0.0411474816501141,-0.0588131956756115,-0.0326602980494499
894,-0.226709991693497,-0.00128018390387297,-0.0572164952754974,-0.0380321815609932,-0.0574563145637512,-0.0284757725894451
895,-0.229263097047806,0.00448265904560685,-0.0522567927837372,-0.0320396982133389,-0.0545693375170231,-0.0223944373428822
896,-0.231256037950516,0.00918312650173903,-0.0462151728570461,-0.0272111594676971,-0.0527907870709896,-0.0195564571768045
897,-0.233851343393326,0.0102532850578427,-0.0405033566057682,-0.0251495372503996,-0.0515069253742695,-0.0221177265048027
898,-0.237002521753311,0.00707616470754147,-0.0359671078622341,-0.0266191512346268,-0.0485219061374664,-0.0293151810765266
899,-0.240871027112007,-0.000209582591196522,-0.0343638770282269,-0.0329933762550354,-0.0464400425553322,-0.0394892804324627
900,-0.243810132145882,-0.00862316787242889,-0.0355741418898106,-0.0412237606942654,-0.0487737841904163,-0.0469810403883457
901,-0.242615044116974,-0.0133660230785608,-0.0372164323925972,-0.0443377122282982,-0.0533325336873531,-0.0445318259298801
902,-0.238418459892273,-0.0142689794301987,-0.0393168143928051,-0.0412847958505154,-0.0570470690727234,-0.0336430482566357
903,-0.236447304487228,-0.0161744151264429,-0.0436412058770657,-0.0377067178487778,-0.0599827207624912,-0.0231094174087048
904,-0.23858243227005,-0.0213939808309078,-0.048518430441618,-0.0375995710492134,-0.0623100772500038,-0.0194496270269156
905,-0.243008881807327,-0.0278209783136845,-0.0518166646361351,-0.0415320433676243,-0.0646789446473122,-0.0251494757831097
906,-0.24869304895401,-0.033381499350071,-0.0556032322347164,-0.0487146750092506,-0.0695850253105164,-0.0391534343361855
907,-0.256066977977753,-0.0379471145570278,-0.0617789626121521,-0.0573518574237823,-0.0781662836670876,-0.057373896241188
908,-0.263206660747528,-0.0400861129164696,-0.0659639611840248,-0.0629650577902794,-0.0856423676013947,-0.0724421516060829
909,-0.266767561435699,-0.0374768637120724,-0.0625686421990395,-0.0613449439406395,-0.0856131985783577,-0.0773217752575874
910,-0.267186343669891,-0.0312642492353916,-0.0525895431637764,-0.0544638112187386,-0.0780724436044693,-0.0718643590807915
911,-0.26677393913269,-0.0246790461242199,-0.0419141352176666,-0.0475131757557392,-0.0673810020089149,-0.0600845068693161
912,-0.267858147621155,-0.020934846252203,-0.0368969328701496,-0.0441453233361244,-0.0584716461598873,-0.0457328259944916
913,-0.271233141422272,-0.0205765534192324,-0.0385297648608685,-0.0438464060425758,-0.0537427887320518,-0.0299934167414904
914,-0.276265144348145,-0.0223451424390078,-0.0442546121776104,-0.0451214946806431,-0.0543079562485218,-0.0159581117331982
915,-0.282783359289169,-0.0265108365565538,-0.052227471023798,-0.0489379018545151,-0.0615858808159828,-0.0110580669716001
916,-0.287835419178009,-0.0308702755719423,-0.0574519261717796,-0.0524133518338203,-0.0708542689681053,-0.0155705558136106
917,-0.288166373968124,-0.0303398389369249,-0.0551270805299282,-0.0499113276600838,-0.0733722299337387,-0.0216487552970648
918,-0.286134302616119,-0.0236211568117142,-0.0472636893391609,-0.0418911539018154,-0.066676490008831,-0.024814261123538
919,-0.286810249090195,-0.0142001342028379,-0.0392263047397137,-0.0337958335876465,-0.0552422069013119,-0.026274349540472
920,-0.293459177017212,-0.00593933137133718,-0.0345884673297405,-0.0296833273023367,-0.0447212383151054,-0.0285173878073692
921,-0.305565357208252,0.000721976743079722,-0.0331034436821938,-0.0291307289153337,-0.037165205925703,-0.032061692327261
922,-0.320867717266083,0.00725854886695743,-0.0320450626313686,-0.029799522832036,-0.030993415042758,-0.0362780429422855
923,-0.339554280042648,0.0128517253324389,-0.0308849792927504,-0.0318422764539719,-0.0262542180716991,-0.0415651053190231
924,-0.361263424158096,0.0161744374781847,-0.0319013521075249,-0.0363563857972622,-0.0252098441123962,-0.0470004491508007
925,-0.381737500429153,0.0175244826823473,-0.0364636480808258,-0.0419470928609371,-0.0275120213627815,-0.0498339608311653
926,-0.396230161190033,0.017389515414834,-0.0427959859371185,-0.045618511736393,-0.0289454739540815,-0.048872709274292
927,-0.404558569192886,0.0158101059496403,-0.0480466447770596,-0.0467066317796707,-0.0269118957221508,-0.0456181392073631
928,-0.411136627197266,0.0129177179187536,-0.0518851056694984,-0.0476448833942413,-0.0253614764660597,-0.0419536679983139
929,-0.419049769639969,0.0101803187280893,-0.0551360845565796,-0.0493650808930397,-0.029789200052619,-0.037913978099823
930,-0.426801174879074,0.00968913361430168,-0.0568364709615707,-0.0499320775270462,-0.0393511317670345,-0.0331091918051243
931,-0.431747525930405,0.0118673415854573,-0.0558893717825413,-0.0482837073504925,-0.0487955585122108,-0.0276019088923931
932,-0.433726638555527,0.0161956399679184,-0.0529904514551163,-0.0452734269201756,-0.055358562618494,-0.0211219545453787
933,-0.435269236564636,0.0205351673066616,-0.0512059926986694,-0.0437420979142189,-0.0607368797063828,-0.0158504396677017
934,-0.438281208276749,0.0222957991063595,-0.0524188168346882,-0.0457344129681587,-0.0655879601836205,-0.0153881348669529
935,-0.441212981939316,0.0228346791118383,-0.0543858967721462,-0.0493432693183422,-0.0672169104218483,-0.0195921454578638
936,-0.441720545291901,0.0243511572480202,-0.0551963225007057,-0.0522776208817959,-0.0652527958154678,-0.0258371122181416
937,-0.439955502748489,0.0265733916312456,-0.054865051060915,-0.0532909408211708,-0.0626334249973297,-0.0311461016535759
938,-0.437556713819504,0.0292136464267969,-0.0526984594762325,-0.0511304438114166,-0.060794185847044,-0.0329649336636066
939,-0.436033189296722,0.031521525233984,-0.0488353073596954,-0.0474110096693039,-0.059539932757616,-0.0326468348503113
940,-0.435973435640335,0.0321434512734413,-0.0457236059010029,-0.0458040311932564,-0.0595125257968903,-0.0336112417280674
941,-0.437170743942261,0.0313589833676815,-0.0455522537231445,-0.047724574804306,-0.0607408508658409,-0.0368101447820663
942,-0.438651889562607,0.0302197150886059,-0.0482507236301899,-0.0518816709518433,-0.0611049197614193,-0.0411142222583294
943,-0.437323987483978,0.0297661982476711,-0.0513609200716019,-0.0554662421345711,-0.0583450384438038,-0.0442870669066906
944,-0.432445853948593,0.0292906984686852,-0.0530253536999226,-0.0582038052380085,-0.0542119592428207,-0.046078734099865
945,-0.427290409803391,0.0270691644400358,-0.051713015884161,-0.061542883515358,-0.0514736250042915,-0.0482388325035572
946,-0.421653687953949,0.0260393694043159,-0.0438658446073532,-0.0619453601539135,-0.0468361787497997,-0.0490194335579872
947,-0.411159008741379,0.0320164151489735,-0.0292186215519905,-0.0544584989547729,-0.0356990210711956,-0.0445512793958187
948,-0.395764052867889,0.0436906591057777,-0.0155893648043275,-0.0420257970690727,-0.0227667652070522,-0.0358846671879292
949,-0.381521761417389,0.0521719381213188,-0.0131630254909396,-0.0335840173065662,-0.0186412446200848,-0.0281150806695223
950,-0.370883077383041,0.0538411661982536,-0.0224802624434233,-0.0319266058504581,-0.025196623057127,-0.0223183333873749
951,-0.361045241355896,0.0529120750725269,-0.0351538322865963,-0.0326576940715313,-0.0353709235787392,-0.0165399350225925
952,-0.349308162927628,0.0535064041614532,-0.0441877469420433,-0.032461903989315,-0.0425248518586159,-0.0110553149133921
953,-0.333867102861404,0.0566526725888252,-0.047850139439106,-0.0309385806322098,-0.0437458679080009,-0.00797756295651197
954,-0.316392004489899,0.059486236423254,-0.0498085282742977,-0.03062629327178,-0.0428639389574528,-0.0106870923191309
955,-0.299628168344498,0.059823464602232,-0.0521249212324619,-0.0324092470109463,-0.0448159128427505,-0.0182820186018944
956,-0.283697247505188,0.0595622397959232,-0.0515115298330784,-0.0325380116701126,-0.0482320748269558,-0.0232036132365465
957,-0.269030958414078,0.0599622279405594,-0.0469099953770638,-0.0296829789876938,-0.0494669750332832,-0.0213475674390793
958,-0.256001323461533,0.0603164359927177,-0.040739182382822,-0.0268418490886688,-0.0464664027094841,-0.0160563476383686
959,-0.244115769863129,0.0604782439768314,-0.0345916673541069,-0.0261663850396872,-0.0404734797775745,-0.0121731068938971
960,-0.233532190322876,0.0612648203969002,-0.0295023117214441,-0.0269588455557823,-0.0357201844453812,-0.0120750544592738
961,-0.224440634250641,0.0626418814063072,-0.0269948374480009,-0.0282101184129715,-0.0349649600684643,-0.0154488272964954
962,-0.216234594583511,0.062842883169651,-0.0278663951903582,-0.0307493638247252,-0.0366467125713825,-0.020772697404027
963,-0.208257704973221,0.0610938146710396,-0.0312082674354315,-0.0353320427238941,-0.0369050763547421,-0.026158332824707
964,-0.200304985046387,0.0604498758912086,-0.034635778516531,-0.0397532097995281,-0.0339178182184696,-0.0291864201426506
965,-0.192476019263268,0.064006544649601,-0.0366569794714451,-0.0414918661117554,-0.0306579191237688,-0.0290137827396393
966,-0.185406550765038,0.0696063712239265,-0.0385800823569298,-0.0419074818491936,-0.0322008691728115,-0.0282829850912094
967,-0.180027067661285,0.0721093192696571,-0.0433980040252209,-0.0448781028389931,-0.0413261242210865,-0.0316107273101807
968,-0.174818590283394,0.071177713572979,-0.0498880967497826,-0.050144087523222,-0.0543901212513447,-0.0389256812632084
969,-0.166884884238243,0.0720878317952156,-0.0518570616841316,-0.0522375963628292,-0.0630253478884697,-0.0433912500739098
970,-0.157374545931816,0.0774003565311432,-0.0472398176789284,-0.048737958073616,-0.0636335015296936,-0.0401682555675507
971,-0.149994194507599,0.0847605690360069,-0.0395073629915714,-0.0425595454871655,-0.0585138686001301,-0.0311114080250263
972,-0.14718060195446,0.0911853238940239,-0.033178549259901,-0.0377794876694679,-0.0510432757437229,-0.02245101518929
973,-0.1475620418787,0.0964885503053665,-0.0297109521925449,-0.0346795618534088,-0.0420440807938576,-0.018216498196125
974,-0.146536514163017,0.101675808429718,-0.0273581091314554,-0.0307697933167219,-0.0308885499835014,-0.0172200202941895
975,-0.141321256756783,0.106390379369259,-0.0246939081698656,-0.026392187923193,-0.019296994432807,-0.0173703115433455
976,-0.133400455117226,0.109243117272854,-0.021472942084074,-0.0245361998677254,-0.0108150169253349,-0.0187276117503643
977,-0.126327589154243,0.108635410666466,-0.0192568693310022,-0.0273936986923218,-0.00765936030074954,-0.0220457259565592
978,-0.121225327253342,0.106100216507912,-0.0186287593096495,-0.033085472881794,-0.00619976408779621,-0.0251293294131756
979,-0.118163153529167,0.103121474385262,-0.0199090428650379,-0.0397868007421494,-0.00320382067002356,-0.0271441414952278
980,-0.117980100214481,0.0976507663726807,-0.0254258271306753,-0.0486761704087257,-0.00286139012314379,-0.0311643220484257
981,-0.117087118327618,0.0913025140762329,-0.0319839641451836,-0.0567213669419289,-0.00687027489766479,-0.0357827842235565
982,-0.110449098050594,0.0880503803491592,-0.032498262822628,-0.0591367930173874,-0.0114402752369642,-0.036954540759325
983,-0.0995471403002739,0.0869264602661133,-0.026934901252389,-0.0571314953267574,-0.0157923996448517,-0.0347727760672569
984,-0.0893984362483025,0.0841259062290192,-0.0217104870826006,-0.0562145076692104,-0.0222269222140312,-0.0315960124135017
985,-0.0820479840040207,0.0782317146658897,-0.0210438333451748,-0.0596293285489082,-0.0302181728184223,-0.0296758394688368
986,-0.0759978070855141,0.0721927359700203,-0.0231074243783951,-0.0637886896729469,-0.0358641259372234,-0.0291132964193821
987,-0.0691607519984245,0.0689693316817284,-0.025269465520978,-0.0642227530479431,-0.0379600264132023,-0.0293385405093431
988,-0.0608613640069962,0.067063219845295,-0.0275869090110064,-0.0624177828431129,-0.0388569794595242,-0.0323435291647911
989,-0.0518683902919292,0.0636944025754929,-0.0310065597295761,-0.0626754760742188,-0.0409570783376694,-0.0404924042522907
990,-0.0416143722832203,0.0603102408349514,-0.0345436558127403,-0.0650919377803802,-0.0447797700762749,-0.0507023632526398
991,-0.0282023623585701,0.059802558273077,-0.0352828986942768,-0.0659166276454926,-0.0480786636471748,-0.055966928601265
992,-0.0143323093652725,0.0595958866178989,-0.0349738001823425,-0.0658084899187088,-0.0500229448080063,-0.0559188686311245
993,-0.00519130751490593,0.0562807880342007,-0.038428045809269,-0.0679767429828644,-0.0515052787959576,-0.0564022995531559
994,-0.000683500024024397,0.0531900189816952,-0.0444650389254093,-0.0703205838799477,-0.0506512299180031,-0.0583622567355633
995,0.00250497879460454,0.0553668178617954,-0.048678707331419,-0.0694721266627312,-0.0460190065205097,-0.057537604123354
996,0.00682565988972783,0.0632324665784836,-0.049102921038866,-0.0660250782966614,-0.03913913667202,-0.05193030834198
