,AF3,AF4,Fp1,Fp2,AF7,AF8
0,0.0187302548438311,0.0378706939518452,0.0106430174782872,-0.0309689901769161,0.00366351613774896,0.0128502668812871
1,0.0158197283744812,0.0393520072102547,0.00919049698859453,-0.0334797464311123,0.00391436042264104,0.00766990799456835
2,0.0117812259122729,0.039367850869894,0.00750196864828467,-0.0376520976424217,-0.00266963453032076,0.00082380702951923
3,0.00306375348009169,0.0377444662153721,0.0046351938508451,-0.0430620312690735,-0.0150459110736847,-0.00576050626114011
4,-0.00834356434643269,0.0364313274621964,0.00304298615083098,-0.0459759868681431,-0.0280762631446123,-0.00951121561229229
5,-0.0163727756589651,0.038715735077858,0.00518210744485259,-0.0433992370963097,-0.0353367403149605,-0.00781506299972534
6,-0.0189526118338108,0.044218298047781,0.00915071833878756,-0.036919180303812,-0.0364488586783409,-0.00104190711863339
7,-0.0188662055879831,0.0487578250467777,0.011724547483027,-0.0304006617516279,-0.0349168293178082,0.00781154306605458
8,-0.0177288912236691,0.0523934885859489,0.0144970016553998,-0.0242507327347994,-0.0297327749431133,0.017721263691783
9,-0.0159122906625271,0.0583604648709297,0.0200932119041681,-0.0175764970481396,-0.0187792871147394,0.0272629894316196
10,-0.0149472234770656,0.0655267685651779,0.0262748301029205,-0.0125703271478415,-0.00595535058528185,0.0315198972821236
11,-0.0150908073410392,0.0710771232843399,0.0295507535338402,-0.010759025812149,0.00225390726700425,0.0291297342628241
12,-0.015857657417655,0.0744976028800011,0.0301385782659054,-0.0106860641390085,0.00293235015124083,0.0247911680489779
13,-0.018709959462285,0.0762260407209396,0.0307191107422113,-0.0105542466044426,-0.00256415060721338,0.0231265630573034
14,-0.0252243839204311,0.0767605975270271,0.0326902754604816,-0.00930282659828663,-0.0108254319056869,0.0254162065684795
15,-0.035428810864687,0.0759733393788338,0.0352189876139164,-0.00683518731966615,-0.0182930584996939,0.0298530906438828
16,-0.0478123873472214,0.0737020894885063,0.0368782319128513,-0.00425707129761577,-0.0220908187329769,0.033307358622551
17,-0.05951327085495,0.070523276925087,0.0363228395581245,-0.00323854340240359,-0.0216345526278019,0.0338655598461628
18,-0.0682574659585953,0.0670805796980858,0.0327058993279934,-0.00517986109480262,-0.0186997838318348,0.032773844897747
19,-0.072111114859581,0.0649946928024292,0.0279998276382685,-0.00915614236146212,-0.0145769948139787,0.0336920730769634
20,-0.0707938373088837,0.0652868896722794,0.0240941867232323,-0.0130458241328597,-0.0116069987416267,0.0372264608740807
21,-0.0678756162524223,0.0655745640397072,0.0193697027862072,-0.0173636954277754,-0.0129961594939232,0.0394645966589451
22,-0.0667130276560783,0.0637335106730461,0.0128868063911796,-0.0237683337181807,-0.0168864987790585,0.0369404032826424
23,-0.0671999230980873,0.0621951296925545,0.00668173190206289,-0.0309431981295347,-0.0181628689169884,0.030046571046114
24,-0.0678483918309212,0.062527984380722,0.00300612486898899,-0.0365570485591888,-0.0158341806381941,0.020684752613306
25,-0.0674776956439018,0.0632535293698311,0.00367651786655188,-0.0391502641141415,-0.0118763409554958,0.0112229688093066
26,-0.065361924469471,0.0653312206268311,0.0101682245731354,-0.036873321980238,-0.00662047788500786,0.00581100024282932
27,-0.0632322430610657,0.0692282691597939,0.0209913924336433,-0.0303742401301861,-0.00015609290858265,0.00555144855752587
28,-0.0637942776083946,0.0727783963084221,0.0326200909912586,-0.0220527239143848,0.00676981173455715,0.00800847727805376
29,-0.0671872496604919,0.0744949132204056,0.0416436605155468,-0.0132141588255763,0.0141523908823729,0.0115318829193711
30,-0.0732075050473213,0.0727695152163506,0.0440108217298985,-0.00684380577877164,0.0207210201770067,0.0138897625729442
31,-0.0829372406005859,0.0651716962456703,0.0367698110640049,-0.00752754788845778,0.0212278086692095,0.0113025438040495
32,-0.094339594244957,0.0547847338020802,0.0246696416288614,-0.0130456080660224,0.0135569088160992,0.00581119628623128
33,-0.103482112288475,0.0492490716278553,0.0168733131140471,-0.0155628556385636,0.00273778615519404,0.00481458799913526
34,-0.109617374837399,0.0509096309542656,0.01636628434062,-0.0122837098315358,-0.00590920215472579,0.0107512064278126
35,-0.113259360194206,0.0575789697468281,0.021534439176321,-0.00498524308204651,-0.0087620485574007,0.0210334025323391
36,-0.115388832986355,0.0660531744360924,0.0294123031198978,0.00284047983586788,-0.00551152089610696,0.0309987403452396
37,-0.117173336446285,0.0733822286128998,0.0372435636818409,0.00825872644782066,0.00146966357715428,0.0364900194108486
38,-0.118515096604824,0.0791140198707581,0.0450106225907803,0.0120118223130703,0.0110008325427771,0.0375187359750271
39,-0.119980350136757,0.0835268944501877,0.0524113997817039,0.0152968103066087,0.0215435810387135,0.0362390391528606
40,-0.122182883322239,0.0861002504825592,0.0573226325213909,0.0178446043282747,0.0305852219462395,0.0355681069195271
41,-0.124401554465294,0.0862221643328667,0.0575035214424133,0.0188226923346519,0.0353946834802628,0.0388591662049294
42,-0.126826003193855,0.0834869742393494,0.052714005112648,0.016979580745101,0.0341187529265881,0.0456524267792702
43,-0.131070479750633,0.0781981498003006,0.0454778522253037,0.0123090166598558,0.028123214840889,0.0504605509340763
44,-0.137960851192474,0.0708194747567177,0.0368211269378662,0.00555795663967729,0.0200658813118935,0.0472614169120789
45,-0.145291820168495,0.0622492097318172,0.0268462523818016,-0.00218882272019982,0.0121950479224324,0.0354155823588371
46,-0.149598062038422,0.0545994602143765,0.0184497479349375,-0.00877626519650221,0.00714679062366486,0.0207285303622484
47,-0.151628717780113,0.048108521848917,0.0123830633237958,-0.0145549839362502,0.00458363257348537,0.00771684711799026
48,-0.153931319713593,0.0426659323275089,0.00760157918557525,-0.0201261788606644,0.00302095571532846,-0.00231290073134005
49,-0.156072780489922,0.0404615066945553,0.00532811461016536,-0.0230531953275204,0.00365746789611876,-0.00774199422448874
50,-0.156342476606369,0.0426794812083244,0.00613011652603745,-0.0222408138215542,0.00725955935195088,-0.00824646465480328
51,-0.153531149029732,0.0484929755330086,0.00900822132825851,-0.0187802817672491,0.0131410285830498,-0.00471490295603871
52,-0.148929670453072,0.0551353916525841,0.0113123254850507,-0.0150093790143728,0.0185510497540236,0.000999483978375793
53,-0.145929530262947,0.0586088746786118,0.00989600364118814,-0.0139415143057704,0.0197523273527622,0.00482557434588671
54,-0.146272942423821,0.0573835223913193,0.005345962010324,-0.0159567706286907,0.017354192212224,0.0036707678809762
55,-0.149515196681023,0.0538299269974232,0.00148062908556312,-0.0185319501906633,0.0153695717453957,-0.000866226037032902
56,-0.154238969087601,0.0502353645861149,-0.000208590994589031,-0.0203661601990461,0.0149753820151091,-0.005880874581635
57,-0.157186895608902,0.0472145527601242,-0.000989262945950031,-0.0215662121772766,0.0156402345746756,-0.00991495233029127
58,-0.156116619706154,0.0453604832291603,-0.00162755290511996,-0.0221138130873442,0.0181413348764181,-0.0121942488476634
59,-0.154505133628845,0.0434003360569477,-0.00341884791851044,-0.0244386158883572,0.0210893917828798,-0.0147751746699214
60,-0.158025622367859,0.0377119109034538,-0.00925437454134226,-0.0327768810093403,0.0196537766605616,-0.022142119705677
61,-0.166645288467407,0.0286130849272013,-0.0194158293306828,-0.0457266084849834,0.0118459248915315,-0.0333070196211338
62,-0.174419030547142,0.0221761651337147,-0.0295669194310904,-0.0556841976940632,0.001374751329422,-0.0407431833446026
63,-0.175333961844444,0.022815166041255,-0.0357494615018368,-0.0577885583043098,-0.0070912754163146,-0.040302250534296
64,-0.167481645941734,0.0296858642250299,-0.0371024645864964,-0.0531311184167862,-0.0107163274660707,-0.0345925986766815
65,-0.154535010457039,0.0399418249726295,-0.0338033139705658,-0.0451299883425236,-0.00889457017183304,-0.0282657407224178
66,-0.143105193972588,0.0507723540067673,-0.0273792091757059,-0.0377786196768284,-0.00333861773833632,-0.0252949167042971
67,-0.136857733130455,0.0600628815591335,-0.0203473661094904,-0.0337492749094963,0.00643419614061713,-0.0266871359199286
68,-0.134747847914696,0.0674625113606453,-0.0136966863647103,-0.0322168953716755,0.0232757497578859,-0.0289498027414083
69,-0.135476216673851,0.0715958923101425,-0.00926520861685276,-0.0322579517960548,0.041880764067173,-0.0298658441752195
70,-0.13783386349678,0.0703908577561378,-0.00927270669490099,-0.0339177772402763,0.0510349087417126,-0.0307394415140152
71,-0.139939531683922,0.0645390525460243,-0.0132278753444552,-0.0367544107139111,0.046623956412077,-0.0324712954461575
72,-0.140599772334099,0.0577697940170765,-0.0175944250077009,-0.0390280447900295,0.0337424650788307,-0.0335068963468075
73,-0.139503702521324,0.0541225224733353,-0.0187649112194777,-0.038322389125824,0.0197355952113867,-0.0318344086408615
74,-0.137697994709015,0.0544081702828407,-0.0170667618513107,-0.0350604653358459,0.00865038391202688,-0.0285721439868212
75,-0.135426864027977,0.0575868412852287,-0.01442642044276,-0.0313726738095284,0.00255934451706707,-0.0255102049559355
76,-0.131455048918724,0.0627260133624077,-0.0117862988263369,-0.0282052401453257,0.00252326391637325,-0.022954324260354
77,-0.125028759241104,0.0686096698045731,-0.00884375721216202,-0.0251219440251589,0.00806705933064222,-0.0208020806312561
78,-0.116177529096603,0.0737385898828506,-0.005127077922225,-0.0220485851168633,0.0167844183743,-0.0187856648117304
79,-0.105219081044197,0.0778561010956764,-0.0012684763642028,-0.0191018972545862,0.0253939796239138,-0.0161956287920475
80,-0.0947246626019478,0.081031896173954,0.000461280782474205,-0.0165603365749121,0.0316844470798969,-0.0136963911354542
81,-0.0894772559404373,0.0813747420907021,-0.00300405221059918,-0.0171534474939108,0.0333050191402435,-0.0146347172558308
82,-0.0912153795361519,0.0781490132212639,-0.0116561334580183,-0.0229014400392771,0.0288851093500853,-0.0202544257044792
83,-0.0961693450808525,0.0746383368968964,-0.021120697259903,-0.0304791107773781,0.0214875992387533,-0.0269088614732027
84,-0.0992907881736755,0.0744538307189941,-0.0267381332814693,-0.0348129384219646,0.0167540721595287,-0.0309750251471996
85,-0.0999541133642197,0.0762146040797234,-0.0281979478895664,-0.0363365635275841,0.0160370394587517,-0.0333468988537788
86,-0.0988600254058838,0.0774599313735962,-0.0263434145599604,-0.0374917946755886,0.0170505046844482,-0.0356305092573166
87,-0.094263032078743,0.0785847455263138,-0.0215162727981806,-0.0377178378403187,0.0181147586554289,-0.0374789237976074
88,-0.0859281048178673,0.0797134637832642,-0.0167317241430283,-0.0365239977836609,0.0172365717589855,-0.0384600311517715
89,-0.0758694261312485,0.0814349204301834,-0.0145121375098825,-0.0338671021163464,0.0140267470851541,-0.037866834551096
90,-0.0659575760364532,0.0844878628849983,-0.0154164042323828,-0.0307733658701181,0.00981034711003304,-0.0362076163291931
91,-0.0567102357745171,0.0877561643719673,-0.0196078177541494,-0.0296726394444704,0.00486614834517241,-0.0360409952700138
92,-0.0467971824109554,0.0900231897830963,-0.0256790705025196,-0.0308242030441761,0.000364056671969593,-0.0394322201609612
93,-0.0348146520555019,0.0917068719863892,-0.0310609135776758,-0.0320924110710621,-0.0010045898379758,-0.0460310354828835
94,-0.0213774107396603,0.0947227254509926,-0.0341433137655258,-0.0318568982183933,0.00153091934043914,-0.0537885539233685
95,-0.0100839044898748,0.0975667983293533,-0.0371481366455555,-0.0324668139219284,0.00411722389981151,-0.0627183616161346
96,-0.00416383985430002,0.0960509032011032,-0.0433494001626968,-0.0376221425831318,0.00258710677735507,-0.0736313462257385
97,-0.000775554799474776,0.0932691916823387,-0.0487597733736038,-0.0437181405723095,0.000637931807432324,-0.0812883824110031
98,0.00545048899948597,0.0959740281105042,-0.0463604740798473,-0.0438766181468964,0.00447199726477265,-0.0795982554554939
99,0.0155252674594522,0.104004077613354,-0.0372174493968487,-0.0382929071784019,0.0115897301584482,-0.0705819875001907
100,0.0263175275176764,0.112829647958279,-0.028161684051156,-0.0315873697400093,0.0149969849735498,-0.059621162712574
101,0.0346985571086407,0.119518354535103,-0.0229405984282494,-0.0263097453862429,0.0126498341560364,-0.0496380813419819
102,0.0408014357089996,0.123421169817448,-0.0211541205644608,-0.0228664763271809,0.00707931676879525,-0.0417337901890278
103,0.0468343459069729,0.125333324074745,-0.0211975406855345,-0.0207346845418215,0.00104325520806015,-0.0350267626345158
104,0.0537540875375271,0.126527354121208,-0.0217086244374514,-0.0192040279507637,-0.0038704052567482,-0.0270283054560423
105,0.060992706567049,0.127235099673271,-0.0223269015550613,-0.0183349996805191,-0.00672256015241146,-0.0160575173795223
106,0.0673343315720558,0.125674575567245,-0.0233976114541292,-0.0188734699040651,-0.00750528322532773,-0.00362670910544693
107,0.070201501250267,0.119031861424446,-0.0262294318526983,-0.022546311840415,-0.00766446581110358,0.00504558021202683
108,0.0684953704476357,0.106780424714088,-0.0318453796207905,-0.0305638499557972,-0.00755826430395246,0.00491743767634034
109,0.0667755603790283,0.0940655991435051,-0.036227073520422,-0.0391650348901749,-0.00364724756218493,-0.00360973994247615
110,0.0702834352850914,0.0884954854846001,-0.0329214073717594,-0.0414663329720497,0.00634670490399003,-0.0149212367832661
111,0.0788879692554474,0.0928852334618568,-0.0212698709219694,-0.0347201004624367,0.0182755030691624,-0.0231670942157507
112,0.0884820818901062,0.102897085249424,-0.00728579517453909,-0.0229395292699337,0.0251309964805841,-0.0260137096047401
113,0.0953432619571686,0.111626803874969,0.00207830034196377,-0.0128337871283293,0.0234323553740978,-0.0244365409016609
114,0.0997649282217026,0.117196567356586,0.00545169925317168,-0.00642128894105554,0.0179924573749304,-0.0191300138831139
115,0.102680154144764,0.12105917185545,0.00453012203797698,-0.00261435774154961,0.0158636663109064,-0.0119546456262469
116,0.102457717061043,0.122556835412979,-0.00141743069980294,-0.00301494356244802,0.0164201371371746,-0.00812460016459227
117,0.097716212272644,0.121370084583759,-0.0135762002319098,-0.00955819897353649,0.0129107814282179,-0.0116242505609989
118,0.0898463428020477,0.118118606507778,-0.0297103226184845,-0.019769424572587,0.0021215311717242,-0.0203957017511129
119,0.0836979448795319,0.112757317721844,-0.0428596474230289,-0.0269067473709583,-0.00903545692563057,-0.0267852935940027
120,0.0827876850962639,0.105816908180714,-0.0476297028362751,-0.0279185716062784,-0.0120540484786034,-0.0264819636940956
121,0.0843407213687897,0.0973608121275902,-0.0459951870143414,-0.0271445047110319,-0.00866981782019138,-0.0237564090639353
122,0.0844121500849724,0.0881996378302574,-0.0418273955583572,-0.0276187174022198,-0.00467634620144963,-0.0230098906904459
123,0.0837721452116966,0.0819242224097252,-0.0361975431442261,-0.0272156856954098,-0.000727754610124975,-0.0231916774064302
124,0.0854585394263268,0.0806460902094841,-0.0296783968806267,-0.0242775529623032,0.00417216261848807,-0.0219209268689156
125,0.0909550786018372,0.0837277099490166,-0.0225553456693888,-0.0186894480139017,0.00960733368992805,-0.0171267483383417
126,0.0980164632201195,0.0898139327764511,-0.0152179477736354,-0.0112177636474371,0.0142510449513793,-0.00852762069553137
127,0.101712942123413,0.0967074334621429,-0.0097740339115262,-0.00424457900226116,0.0165001209825277,0.00117707590106875
128,0.0996718779206276,0.102433435618877,-0.00734906224533916,0.00115052738692611,0.0160634964704514,0.0112699568271637
129,0.0937546938657761,0.106396198272705,-0.00706907082349062,0.00598206417635083,0.0133210262283683,0.0219156034290791
130,0.0878052040934563,0.109468661248684,-0.00666952831670642,0.0113911991938949,0.0102071855217218,0.0304621122777462
131,0.0843788012862206,0.112192198634148,-0.00328395725227892,0.0166771505028009,0.00968999788165092,0.0342487692832947
132,0.0823745802044868,0.113596804440022,0.00208891276270151,0.0187208782881498,0.0116591826081276,0.0313812680542469
133,0.0797569155693054,0.112729974091053,0.00500126229599118,0.015782842412591,0.0140520920976996,0.0212922617793083
134,0.0776858478784561,0.110070735216141,0.00398571928963065,0.0103644384071231,0.0168024729937315,0.00757872546091676
135,0.0793365985155106,0.107255034148693,0.00164789380505681,0.00672613270580769,0.0216263420879841,-0.00316203804686666
136,0.0853011459112167,0.104682944715023,-3.28498244925868E-05,0.00629308214411139,0.0280416551977396,-0.00709340861067176
137,0.0934360697865486,0.101880326867104,-0.000824228394776583,0.00791675224900246,0.0336641296744347,-0.00539672933518887
138,0.100807756185532,0.0991189926862717,-0.000187976620509289,0.0106892827898264,0.0378095880150795,-0.00110148859675974
139,0.10369848459959,0.0956316366791725,0.00133910961449146,0.0127355959266424,0.0387614406645298,0.00213375058956444
140,0.10102491080761,0.0910150185227394,0.00272890808992088,0.0129224760457873,0.0337237678468227,0.00213799276389182
141,0.0955073982477188,0.0875896587967873,0.00490408483892679,0.0131613984704018,0.0243017673492432,0.000692423200234771
142,0.0893391743302345,0.0865064710378647,0.00771292624995112,0.0141910836100578,0.015115381218493,-6.91527093295008E-05
143,0.0841551050543785,0.0860033258795738,0.00801093596965075,0.0142945600673556,0.00905391108244658,-0.000137859227834269
144,0.082290917634964,0.08531703799963,0.00402561482042074,0.0127724893391132,0.0072486805729568,-5.05254793097265E-05
145,0.0841768085956573,0.0853090882301331,-0.0017275185091421,0.0107241189107299,0.00966084189713001,-2.63796955550788E-05
146,0.0857945829629898,0.0844176709651947,-0.00707719242200255,0.0080297477543354,0.0129403546452522,-0.000706517603248358
147,0.0816628932952881,0.0786190703511238,-0.0130782602354884,0.00204282277263701,0.0118493372574449,-0.00347900064662099
148,0.0725465938448906,0.0676952823996544,-0.0187083296477795,-0.00731815164908767,0.00546224415302277,-0.00755341537296772
149,0.0657948404550552,0.0575795359909534,-0.0192184243351221,-0.0140741728246212,-0.000875386234838516,-0.00863987486809492
150,0.0669557750225067,0.0533378645777702,-0.0124623058363795,-0.0126633942127228,-0.00135148433037102,-0.00330064841546118
151,0.0753307938575745,0.0542903058230877,-0.000688242900650948,-0.00380507414229214,0.00572372227907181,0.0089799277484417
152,0.0862493440508842,0.0571097545325756,0.0123590212315321,0.00808717589825392,0.0183306597173214,0.025840112939477
153,0.0947312414646149,0.0584171339869499,0.0216143783181906,0.0178657677024603,0.0315532386302948,0.0404230356216431
154,0.0978075787425041,0.0558032244443893,0.0223522372543812,0.0212388392537832,0.039764903485775,0.0445999652147293
155,0.096417561173439,0.0507923886179924,0.0161782242357731,0.0191191714257002,0.0423079915344715,0.0380351766943932
156,0.0933617651462555,0.0472659803926945,0.0102763744071126,0.0169021207839251,0.0431674793362617,0.0294874217361212
157,0.0887763425707817,0.0460057482123375,0.00722524477168918,0.0168094001710415,0.0424380414187908,0.0246900003403425
158,0.081544816493988,0.0452231727540493,0.00404358003288507,0.0171440131962299,0.0360905602574348,0.0208451207727194
159,0.0718331336975098,0.0429290160536766,-0.000952574191614985,0.0158381573855877,0.0228185690939426,0.0132262585684657
160,0.0621608458459377,0.0392968989908695,-0.00553154107183218,0.0124306147918105,0.00710626691579819,0.00190165778622031
161,0.0558875910937786,0.0364316627383232,-0.00694162398576736,0.00819807406514883,-0.00501809734851122,-0.00863804761320353
162,0.0531141571700573,0.0339817032217979,-0.00631903111934662,0.00345408963039517,-0.012306815944612,-0.0156474523246288
163,0.0529517643153667,0.0322449691593647,-0.00425377441570163,-0.000146802252857015,-0.0148258898407221,-0.0171729475259781
164,0.0549849756062031,0.0322531312704086,-7.88132892921567E-05,-0.000895936449524015,-0.0127013707533479,-0.0126151107251644
165,0.0567537285387516,0.0305247455835342,0.00319060916081071,-0.00172031996771693,-0.0104158148169518,-0.00675310846418142
166,0.0560512319207191,0.0252640265971422,0.00353732821531594,-0.0036205961368978,-0.0116438250988722,-0.0017451245803386
167,0.0526006743311882,0.0202423874288797,0.00376016716472805,-0.00280482205562294,-0.0145741747692227,0.00606905948370695
168,0.0471445620059967,0.0184049364179373,0.00660946266725659,0.00216765329241753,-0.0155536141246557,0.0174133367836475
169,0.0400217697024345,0.0185478515923023,0.0101352520287037,0.00756561569869518,-0.0147191723808646,0.026711817830801
170,0.0315091386437416,0.0185341462492943,0.0115065956488252,0.00958877522498369,-0.0149251911789179,0.028669536113739
171,0.0252734292298555,0.0194047000259161,0.0136533509939909,0.0103774992749095,-0.0144112585112453,0.0256225820630789
172,0.0240631252527237,0.0216291211545467,0.0191214140504599,0.0124735198915005,-0.0107909291982651,0.0220189038664103
173,0.0249925814568996,0.0220518987625837,0.0239609200507402,0.0131994299590588,-0.00756209250539541,0.0176926422864199
174,0.0254223067313433,0.0189993064850569,0.0242959000170231,0.0110537838190794,-0.00842439103871584,0.0122089777141809
175,0.0267767999321222,0.0141792064532638,0.0211164187639952,0.00780197558924556,-0.0122641110792756,0.00710970349609852
176,0.0317234545946121,0.0101041728630662,0.0184020232409239,0.0050495807081461,-0.0150931710377336,0.00451013818383217
177,0.0396930240094662,0.0067792315967381,0.0182482916861773,0.00260066147893667,-0.0158443748950958,0.00483871717005968
178,0.0469105578958988,0.00245494209229946,0.0195565987378359,-0.00103962153661996,-0.0172281973063946,0.00641448888927698
179,0.0513661280274391,-0.00152045639697462,0.0222424063831568,-0.00498483330011368,-0.0192323196679354,0.0094818277284503
180,0.0536010041832924,-0.00310094794258475,0.025886369869113,-0.00718707172200084,-0.0197528339922428,0.0137323476374149
181,0.0548487566411495,-0.00411350233480334,0.0266746412962675,-0.00887600798159838,-0.0197198111563921,0.0149923330172896
182,0.0556908324360847,-0.00663973297923803,0.0227463338524103,-0.0114543447270989,-0.0212301146239042,0.0113875307142735
183,0.0548601038753986,-0.00915213488042355,0.0180540140718222,-0.0124908806756139,-0.0248915795236826,0.00749985780566931
184,0.0517299771308899,-0.00884126964956522,0.0169554054737091,-0.00937010440975428,-0.0297196060419083,0.00931431725621223
185,0.0488237366080284,-0.00391810946166515,0.0198719967156649,-0.00197562156245112,-0.0320188514888287,0.018258361145854
186,0.0478222705423832,0.00443547172471881,0.0233908202499151,0.0071765067987144,-0.0298366751521826,0.0297347009181976
187,0.0469075962901115,0.011589152738452,0.0222403351217508,0.0129862874746323,-0.027694309130311,0.0365919731557369
188,0.0458648912608624,0.0169297438114882,0.0162811744958162,0.0140554131940007,-0.0292128194123507,0.0371820479631424
189,0.0468646250665188,0.0237231627106667,0.0117280893027782,0.014378403313458,-0.0324673429131508,0.0362548194825649
190,0.0500064827501774,0.0295043028891087,0.0127430744469166,0.0162411965429783,-0.0338453240692616,0.0373618490993977
191,0.0522580780088902,0.0276834517717361,0.0170047357678413,0.0168973449617624,-0.0318816527724266,0.0379770137369633
192,0.0495600812137127,0.0161028634756804,0.0197005700320005,0.0133479479700327,-0.0292934905737638,0.0340545475482941
193,0.0413071848452091,-0.000164863333338872,0.0193722993135452,0.00806922093033791,-0.0286271385848522,0.027858167886734
194,0.0327599421143532,-0.0135337049141526,0.0178180634975433,0.00521605275571346,-0.0292815454304218,0.0245181694626808
195,0.0291004907339811,-0.0207128450274467,0.0164126753807068,0.00538125913590193,-0.0308616366237402,0.024912727996707
196,0.027824442833662,-0.0237690862268209,0.0158611554652452,0.0076535427942872,-0.0344545692205429,0.0263506434857845
197,0.0231899973005056,-0.0250288993120193,0.0172543302178383,0.0119338575750589,-0.0404439903795719,0.0271340534090996
198,0.0158568043261766,-0.0236461609601974,0.0212613958865404,0.0182937160134315,-0.0457607880234718,0.0284660961478949
199,0.0104553997516632,-0.0192522704601288,0.02687032148242,0.0250836331397295,-0.0462984032928944,0.0312617234885693
200,0.00709713669493794,-0.0153218656778336,0.0306195802986622,0.0286183897405863,-0.0429555326700211,0.0336352288722992
201,0.00110882532317191,-0.0166893880814314,0.0279571376740932,0.0253826398402452,-0.04108901694417,0.0326183661818504
202,-0.0096611650660634,-0.0247525367885828,0.0181303136050701,0.0153874717652798,-0.0440706163644791,0.0269402489066124
203,-0.020757170394063,-0.0351825766265392,0.00695757940411568,0.0041035576723516,-0.0490156672894955,0.019032496958971
204,-0.0267041809856892,-0.0421275310218334,0.00188708130735904,-0.00195918069221079,-0.0503675863146782,0.013512471690774
205,-0.0264264196157455,-0.0437634475529194,0.00511886551976204,-0.00166537787299603,-0.0465272963047028,0.0120834019035101
206,-0.0220764074474573,-0.0422153547406197,0.0127321910113096,0.00169469811953604,-0.0398227386176586,0.0134830409660935
207,-0.01889543607831,-0.0423000231385231,0.0174276661127806,0.00358578935265541,-0.0348028242588043,0.0158260837197304
208,-0.0221406910568476,-0.0475897714495659,0.0149729512631893,0.00125014840159565,-0.0347146205604076,0.0172413419932127
209,-0.0297971051186323,-0.0543405786156654,0.0100060300901532,-0.00216453149914742,-0.0360157079994679,0.0183620303869247
210,-0.0354541167616844,-0.0559988133609295,0.00911024119704962,-0.00152154138777405,-0.0328955166041851,0.0206072144210339
211,-0.0365519598126411,-0.0506184883415699,0.0139719024300575,0.0046400735154748,-0.023885840550065,0.0238465201109648
212,-0.0352380573749542,-0.0412026271224022,0.0226571317762136,0.0139881176874042,-0.0117057869210839,0.0276155527681112
213,-0.0341390855610371,-0.0325240902602673,0.0306125488132238,0.0225810073316097,-0.00023098876408767,0.0317176282405853
214,-0.0346419960260391,-0.0276756435632706,0.033601600676775,0.0276699420064688,0.00738643435761333,0.0359428860247135
215,-0.0372466742992401,-0.0276942420750856,0.0310858711600304,0.0284069217741489,0.00889409240335226,0.0391615852713585
216,-0.0396835841238499,-0.0306502021849155,0.0265216995030642,0.0270961225032806,0.00558152375742793,0.0413844212889671
217,-0.0387210622429848,-0.0325053930282593,0.0244920141994953,0.0279653333127499,0.00179852638393641,0.0442000329494476
218,-0.0354897864162922,-0.0322309546172619,0.0257308036088943,0.0315541997551918,-0.00125236087478697,0.0466832481324673
219,-0.0339656621217728,-0.0321610383689404,0.026371393352747,0.0342856273055077,-0.00706049054861069,0.0458878614008427
220,-0.0347229726612568,-0.0336332023143768,0.0235792696475983,0.0342372357845306,-0.017444372177124,0.0415140725672245
221,-0.0340441539883614,-0.0345954336225986,0.0200033858418465,0.0343697220087051,-0.0276432186365128,0.038067277520895
222,-0.0305692497640848,-0.0343975462019444,0.0179109498858452,0.0361941978335381,-0.0333060547709465,0.0381911508738995
223,-0.0274007357656956,-0.0362074114382267,0.0152945574373007,0.0367989875376225,-0.0357742942869663,0.0387024730443954
224,-0.0265167523175478,-0.0412134937942028,0.0115593951195478,0.0349423252046108,-0.0362790003418922,0.0371926687657833
225,-0.0262742135673761,-0.0468500182032585,0.00900105759501457,0.0322185568511486,-0.0341283269226551,0.0347325317561626
226,-0.0238707028329372,-0.0499349571764469,0.0101905297487974,0.0310212299227715,-0.0280018523335457,0.0347935408353806
227,-0.0193271618336439,-0.0502543114125729,0.0150926932692528,0.032419741153717,-0.0169265363365412,0.039609968662262
228,-0.0146842254325747,-0.0495610348880291,0.0215938109904528,0.036139752715826,-0.00203324877656996,0.0473156161606312
229,-0.0123497862368822,-0.0496139675378799,0.0268240533769131,0.0406580567359924,0.0123625164851546,0.0536558553576469
230,-0.0141125246882439,-0.051754143089056,0.0282166488468647,0.0430594831705093,0.0209357123821974,0.0553718023002148
231,-0.0188254453241825,-0.0560974590480328,0.0261867344379425,0.0412250272929668,0.021466476842761,0.0515734143555164
232,-0.0234508737921715,-0.0616967752575874,0.0226053409278393,0.0349243842065334,0.0148618649691343,0.0428523346781731
233,-0.0254189725965261,-0.0654514655470848,0.0193168204277754,0.0277890469878912,0.00460364064201713,0.0334996171295643
234,-0.0274955593049526,-0.0675382614135742,0.0151151912286878,0.0220833234488964,-0.00744911376386881,0.0258679166436195
235,-0.0356071963906288,-0.0730131343007088,0.00652004778385162,0.0147163942456245,-0.0219835713505745,0.0166766364127398
236,-0.0473324283957481,-0.0806168839335442,-0.00323302880860865,0.00680385436862707,-0.0338992886245251,0.00768801430240273
237,-0.0542132593691349,-0.0834043398499489,-0.00799387227743864,0.00371788162738085,-0.0364490933716297,0.00562751106917858
238,-0.0524171851575375,-0.0794288665056229,-0.00842870678752661,0.00670008407905698,-0.0308820530772209,0.0123432157561183
239,-0.0438745506107807,-0.0728753358125687,-0.00900734961032867,0.0128489090129733,-0.0235078260302544,0.0230018459260464
240,-0.0331258065998554,-0.0684759169816971,-0.0120227904990315,0.0177814941853285,-0.0192977804690599,0.0305596757680178
241,-0.0225932188332081,-0.0658563897013664,-0.0142625849694014,0.0208363123238087,-0.0169502552598715,0.0332448557019234
242,-0.0125240478664637,-0.0619766004383564,-0.0105276666581631,0.0244146212935448,-0.0122351488098502,0.0337469168007374
243,-0.00527646811679006,-0.0572172589600086,-0.00137148250360042,0.027450293302536,-0.00523829786106944,0.0324927531182766
244,-0.00206017075106502,-0.0527344830334187,0.00821886491030455,0.0291137155145407,0.00221756799146533,0.0308421347290277
245,-0.000358170102117583,-0.0480277016758919,0.0150438630953431,0.0318420119583607,0.0102107841521502,0.0327687039971352
246,0.00155985169112682,-0.0436553582549095,0.0186398327350616,0.0358593501150608,0.0187545847147703,0.0381576679646969
247,0.0020975605584681,-0.042188972234726,0.0183228347450495,0.0375684350728989,0.0261274501681328,0.0420286543667316
248,-0.00104428420308977,-0.046374537050724,0.0132975578308105,0.0336483716964722,0.030677417293191,0.0399428494274616
249,-0.00671536987647414,-0.0549333803355694,0.00577852502465248,0.0255971401929855,0.0323218144476414,0.0333887934684753
250,-0.0114740813151002,-0.0630645006895065,-0.000964603619650006,0.0182411316782236,0.0301284790039063,0.0298698581755161
251,-0.0129540786147118,-0.067355215549469,-0.00547752715647221,0.0151997031643987,0.0238224063068628,0.0351904146373272
252,-0.0105653172358871,-0.0681925937533379,-0.00809822045266628,0.0164538882672787,0.0150541197508574,0.0458324253559113
253,-0.00741375237703323,-0.069729283452034,-0.0114969164133072,0.0173226408660412,0.00384982209652662,0.0513886511325836
254,-0.00782071053981781,-0.0740280598402023,-0.0159595534205437,0.01479397341609,-0.00713073881343007,0.0473164208233356
255,-0.0125873126089573,-0.0784023404121399,-0.0182241965085268,0.0108703477308154,-0.0114280832931399,0.0378771312534809
256,-0.019236721098423,-0.0799532160162926,-0.0167224891483784,0.00797727517783642,-0.00629889918491244,0.0275744721293449
257,-0.0241900030523539,-0.0774505585432053,-0.0122689409181476,0.00774280773475766,0.00522574875503778,0.0191788878291845
258,-0.0269036255776882,-0.0731122419238091,-0.00749650085344911,0.009343596175313,0.0160795450210571,0.0133099230006337
259,-0.0310767497867346,-0.0725831165909767,-0.00593310408294201,0.00857395771890879,0.0188729427754879,0.00777853420004249
260,-0.0381115712225437,-0.0779058411717415,-0.00862821098417044,0.00386858568526804,0.0124652218073606,0.00261752470396459
261,-0.0452289544045925,-0.0857595875859261,-0.0150716183707118,-0.00239628320559859,0.0011794026941061,-0.000436509784776717
262,-0.0522899404168129,-0.0944367647171021,-0.0263230390846729,-0.0100036878138781,-0.0126847727224231,-0.00372348073869944
263,-0.0602782741189003,-0.1022919267416,-0.0399156771600246,-0.0180207081139088,-0.0265258997678757,-0.00882082805037498
264,-0.0661061257123947,-0.104098543524742,-0.0486670956015587,-0.0214763768017292,-0.0342569574713707,-0.0119952708482742
265,-0.0663231387734413,-0.0961934998631477,-0.0483867079019547,-0.0177621003240347,-0.0320134162902832,-0.0102286925539374
266,-0.0616645850241184,-0.0816942900419235,-0.0406452491879463,-0.00969508849084377,-0.0206018108874559,-0.00524667743593454
267,-0.0566990785300732,-0.0702797695994377,-0.0310727935284376,-0.00293419207446277,-0.00547685474157333,-0.00191594695206732
268,-0.0544714331626892,-0.0674725919961929,-0.0245431642979383,-7.21602627891116E-05,0.00637719314545393,-0.00193110422696918
269,-0.054646447300911,-0.0696232095360756,-0.0217487663030624,0.000734495930373669,0.0119376266375184,-0.00310626346617937
270,-0.0579140447080135,-0.0738030448555946,-0.021967576816678,-0.000404469494242221,0.0118078449741006,-0.00616127485409379
271,-0.0650490373373032,-0.0801876857876778,-0.0241368412971497,-0.00451456010341644,0.0086416332051158,-0.0122631788253784
272,-0.0732526928186417,-0.0862276032567024,-0.0254444591701031,-0.00859006959944963,0.0063300309702754,-0.0175206027925015
273,-0.079954206943512,-0.0887283831834793,-0.0248178746551275,-0.00934685207903385,0.00532987248152494,-0.0184692442417145
274,-0.0852408409118652,-0.0882096067070961,-0.0251924358308315,-0.00780634908005595,0.00204867054708302,-0.016291681677103
275,-0.0875925272703171,-0.0856327638030052,-0.0277046859264374,-0.00552488351240754,-0.00325391022488475,-0.0121021959930658
276,-0.0848624706268311,-0.0806757137179375,-0.0297737065702677,-0.00299943401478231,-0.00572529435157776,-0.00674397125840187
277,-0.0780543759465218,-0.0739917978644371,-0.029498964548111,-0.000872774864546955,-0.00352222518995404,-0.00278469664044678
278,-0.0708928778767586,-0.0679245293140411,-0.027903500944376,0.000170376471942291,-0.000470011931611225,-0.00219879928044975
279,-0.0677950456738472,-0.0658469945192337,-0.0273523088544607,-0.00114935904275626,-0.00123437505681068,-0.00503409653902054
280,-0.0704555884003639,-0.0689780116081238,-0.0289702843874693,-0.00530236680060625,-0.00586888613179326,-0.0087119322270155
281,-0.0760116130113602,-0.0748156830668449,-0.0323961116373539,-0.0100439731031656,-0.0103269834071398,-0.00976705737411976
282,-0.079904668033123,-0.0792867839336395,-0.0352904908359051,-0.0114852422848344,-0.00979194417595863,-0.00754350796341896
283,-0.0812028497457504,-0.0805386900901794,-0.0357248857617378,-0.00912092812359333,-0.00379866641014814,-0.00529821449890733
284,-0.083200640976429,-0.0809682756662369,-0.0362516976892948,-0.00784122385084629,0.00201962352730334,-0.00825955625623465
285,-0.0874135419726372,-0.0829671025276184,-0.0400396063923836,-0.0117492573335767,0.00322787882760167,-0.0182805564254522
286,-0.0910869687795639,-0.0846188068389893,-0.0455783307552338,-0.0184671077877283,0.00134360778611153,-0.0294640380889177
287,-0.091478630900383,-0.0824970602989197,-0.0484205409884453,-0.0215088613331318,0.000448256148956716,-0.032415796071291
288,-0.0906914249062538,-0.0783315673470497,-0.0479203909635544,-0.0196242444217205,0.00048448404413648,-0.0259928479790688
289,-0.0930395349860191,-0.077275887131691,-0.0479067340493202,-0.0176968090236187,-0.00206198031082749,-0.017832001671195
290,-0.0990073531866074,-0.0806920751929283,-0.0507112592458725,-0.0186410397291183,-0.0076711205765605,-0.0137574039399624
291,-0.106747083365917,-0.0872064977884293,-0.0565643645823002,-0.0228567887097597,-0.0144420769065619,-0.0161812882870436
292,-0.115677691996098,-0.0956317186355591,-0.0646538585424423,-0.0303750894963741,-0.0204677414149046,-0.0265633966773748
293,-0.124101541936398,-0.102361641824245,-0.0704324766993523,-0.0378754250705242,-0.0226166602224112,-0.0416207984089851
294,-0.127416148781776,-0.102449327707291,-0.068048007786274,-0.0399507284164429,-0.0182186122983694,-0.0534762963652611
295,-0.122615396976471,-0.0954916849732399,-0.0577442944049835,-0.0353911630809307,-0.00853826571255922,-0.0571211650967598
296,-0.112609006464481,-0.0852367207407951,-0.0455889105796814,-0.0271052680909634,0.00209618103690445,-0.0530733689665794
297,-0.103791579604149,-0.0754842907190323,-0.0371103920042515,-0.0182986594736576,0.00922711193561554,-0.0447143726050854
298,-0.0998642295598984,-0.0685790479183197,-0.0333114080131054,-0.0110487574711442,0.0110704218968749,-0.0356079898774624
299,-0.0995529443025589,-0.06410913169384,-0.0318620316684246,-0.005576157476753,0.0100817363709211,-0.0272323284298182
300,-0.100750133395195,-0.0602761507034302,-0.0315935835242271,-0.00165311142336577,0.00937225949019194,-0.0207472424954176
301,-0.105274178087711,-0.0580012686550617,-0.0343425162136555,-0.0013978750212118,0.00823450461030006,-0.0198310315608978
302,-0.114369735121727,-0.0581422746181488,-0.0403492674231529,-0.0053747920319438,0.00636109756305814,-0.0250749960541725
303,-0.124311782419682,-0.0583861246705055,-0.0452545396983624,-0.00965381041169167,0.00602611154317856,-0.0309067741036415
304,-0.131846860051155,-0.0577913820743561,-0.0461375452578068,-0.0115534951910377,0.00626742048189044,-0.0328530855476856
305,-0.136460065841675,-0.0572478771209717,-0.0451130643486977,-0.0113851558417082,0.00438319286331534,-0.0304827876389027
306,-0.138603076338768,-0.0577599853277206,-0.045798197388649,-0.0108964610844851,-0.000419705087551847,-0.0266700368374586
307,-0.139643460512161,-0.0602549314498901,-0.0501612797379494,-0.012214383110404,-0.00811702944338322,-0.0253373421728611
308,-0.140013337135315,-0.0630331486463547,-0.0565051846206188,-0.0143029978498816,-0.0165186412632465,-0.0258574448525906
309,-0.139478743076324,-0.0646366849541664,-0.0615562833845615,-0.0153582477942109,-0.0221910960972309,-0.0267985835671425
310,-0.138591021299362,-0.0662581920623779,-0.0642206892371178,-0.0163290742784739,-0.0238755811005831,-0.0303536430001259
311,-0.137329876422882,-0.0680781602859497,-0.0640544816851616,-0.0176976248621941,-0.0223220773041248,-0.0368425920605659
312,-0.136834934353828,-0.0707577466964722,-0.0621828883886337,-0.0199971422553062,-0.0205786377191544,-0.04508101567626
313,-0.13875325024128,-0.0760352537035942,-0.0619612634181976,-0.0245330967009068,-0.0208902154117823,-0.0545981116592884
314,-0.140547722578049,-0.0814190804958344,-0.0628313943743706,-0.028655992820859,-0.0192678514868021,-0.0620716996490955
315,-0.137910738587379,-0.0818374380469322,-0.0599504448473454,-0.0275714434683323,-0.0103800306096673,-0.0635233893990517
316,-0.130292400717735,-0.0767334252595901,-0.0513422600924969,-0.0214484464377165,0.00539318099617958,-0.0593748688697815
317,-0.121416814625263,-0.0703975036740303,-0.0413855724036694,-0.0150840049609542,0.021746851503849,-0.0534891188144684
318,-0.1141507178545,-0.0655806139111519,-0.0360842421650887,-0.0113123953342438,0.030414741486311,-0.048382505774498
319,-0.107740692794323,-0.0621940679848194,-0.0375188291072845,-0.00995538849383593,0.0270290430635214,-0.0445391200482845
320,-0.100716397166252,-0.060305267572403,-0.0431997142732143,-0.0100945606827736,0.0144533645361662,-0.0420398525893688
321,-0.0930058285593987,-0.0598242655396461,-0.0487619638442993,-0.0105842258781195,-8.96048368304037E-05,-0.0404284447431564
322,-0.0859106555581093,-0.0607433281838894,-0.0516879521310329,-0.011798401363194,-0.0112210223451257,-0.0403368473052979
323,-0.0797698646783829,-0.0626015588641167,-0.0507561415433884,-0.013897892087698,-0.0157863069325686,-0.0421703644096851
324,-0.0737659260630608,-0.063650980591774,-0.045877680182457,-0.0152562847360969,-0.0124382395297289,-0.0436993762850761
325,-0.0681898668408394,-0.0630349665880203,-0.0404269881546497,-0.0161340925842524,-0.00518145598471165,-0.0432276427745819
326,-0.0645566061139107,-0.0618299320340157,-0.0381165444850922,-0.0185622777789831,-0.000848034163936973,-0.0406868942081928
327,-0.0638573318719864,-0.0613059289753437,-0.0391929857432842,-0.022085340693593,-0.0022466357331723,-0.0354425832629204
328,-0.063684768974781,-0.0609963499009609,-0.0418315008282661,-0.0238503273576498,-0.00675854785367846,-0.0283118821680546
329,-0.0593963041901588,-0.0603230111300945,-0.0444141551852226,-0.0223016478121281,-0.00998344831168652,-0.0231632199138403
330,-0.0513625927269459,-0.0615039393305779,-0.0473058372735977,-0.019756143912673,-0.010017029941082,-0.0239876061677933
331,-0.045618649572134,-0.0665971115231514,-0.0518833696842194,-0.0200301259756088,-0.0083551499992609,-0.0309102181345224
332,-0.0442277900874615,-0.072502613067627,-0.0560451745986938,-0.0220125503838062,-0.00608599465340376,-0.0387685857713223
333,-0.0436677820980549,-0.0734899193048477,-0.0553334355354309,-0.0201506614685059,-0.0026698608417064,-0.0419700779020786
334,-0.0429141372442245,-0.0692237317562103,-0.0495196245610714,-0.0133399907499552,0.000388517713872716,-0.0412319079041481
335,-0.0445811562240124,-0.0657911896705627,-0.0429550968110561,-0.00723398476839066,-0.000108489111880772,-0.042308147996664
336,-0.0489485450088978,-0.0667173117399216,-0.0380614325404167,-0.00595022505149245,-0.0036950190551579,-0.0473441891372204
337,-0.0536338537931442,-0.0706901103258133,-0.0352552011609077,-0.00919616874307394,-0.00770672084763646,-0.0541127771139145
338,-0.058535922318697,-0.0774821639060974,-0.0377854816615582,-0.0169154573231936,-0.0133999912068248,-0.0620282404124737
339,-0.0641900077462196,-0.0864329934120178,-0.0474405884742737,-0.0277506336569786,-0.0229282304644585,-0.0699762403964996
340,-0.0676463767886162,-0.0930762737989426,-0.0597818680107594,-0.0362880043685436,-0.033535324037075,-0.0737788751721382
341,-0.0658155083656311,-0.0925159901380539,-0.0691868215799332,-0.0381289944052696,-0.0404878221452236,-0.0712269172072411
342,-0.0586314797401428,-0.0837432742118835,-0.0723719969391823,-0.0324352383613586,-0.0408605001866817,-0.0633268132805824
343,-0.0483416095376015,-0.0718139484524727,-0.0685420334339142,-0.0210289936512709,-0.0340063236653805,-0.0525166019797325
344,-0.0397086776793003,-0.0641371607780457,-0.0615651793777943,-0.0100485198199749,-0.0233099423348904,-0.0436478033661842
345,-0.0367233976721764,-0.0629217848181725,-0.0562384873628616,-0.0048345890827477,-0.0127783603966236,-0.0397142432630062
346,-0.0378859005868435,-0.0645310208201408,-0.0517109110951424,-0.00328892003744841,-0.00203326041810215,-0.0370339192450047
347,-0.0403363518416882,-0.0656781792640686,-0.0456684902310371,-0.00123100983910263,0.008049625903368,-0.0319371186196804
348,-0.0445782393217087,-0.0665579661726952,-0.0395302288234234,0.00125133991241455,0.0128976758569479,-0.0269233994185925
349,-0.0499441660940647,-0.0680640935897827,-0.0350912138819695,0.0027045332826674,0.0116477012634277,-0.0253871642053127
350,-0.0514196939766407,-0.0688097029924393,-0.0320497937500477,0.00442708749324083,0.00818051770329475,-0.0263821724802256
351,-0.0460549741983414,-0.0675813406705856,-0.0307521186769009,0.00772977992892265,0.0050443815998733,-0.0271039865911007
352,-0.0378557220101357,-0.0660886839032173,-0.0340419448912144,0.0100068422034383,0.00112067197915167,-0.0275870263576508
353,-0.0325373001396656,-0.0653275176882744,-0.0427037551999092,0.00783166568726301,-0.0053515681065619,-0.0303481426090002
354,-0.0313310362398624,-0.0636412352323532,-0.0516555123031139,0.00214914861135185,-0.0127893583849072,-0.0355062745511532
355,-0.0312182642519474,-0.0600592121481895,-0.054327879101038,-0.00251082144677639,-0.0154465055093169,-0.0393809713423252
356,-0.0297421738505363,-0.0571643523871899,-0.0503897368907928,-0.00407766038551927,-0.0092837605625391,-0.0397312007844448
357,-0.0271143764257431,-0.057793103158474,-0.0446281507611275,-0.00396131817251444,0.00320980185642838,-0.0380749702453613
358,-0.0246353913098574,-0.0601216740906239,-0.0392911955714226,-0.00271308398805559,0.0152115765959024,-0.0356966406106949
359,-0.0249667596071959,-0.0620896220207214,-0.0343673303723335,-0.00133875920437276,0.0191770661622286,-0.0340940393507481
360,-0.0299397874623537,-0.0643252730369568,-0.0305135380476713,-0.00146846857387573,0.0123412813991308,-0.0349858142435551
361,-0.037111159414053,-0.0656111165881157,-0.0282934140414,-0.00131531979423016,0.000324588734656572,-0.0361157208681107
362,-0.043575644493103,-0.0646010115742683,-0.0289862062782049,0.000289361487375572,-0.00978392269462347,-0.0355232432484627
363,-0.0502199232578278,-0.0639309361577034,-0.03457385674119,0.00025020822067745,-0.017761517316103,-0.0361547581851482
364,-0.0592776164412498,-0.0675702393054962,-0.0460856631398201,-0.00531174801290035,-0.028697419911623,-0.0417273156344891
365,-0.0689801275730133,-0.0742512717843056,-0.0606999322772026,-0.0155851375311613,-0.0429030954837799,-0.0501592755317688
366,-0.0745242387056351,-0.0774578675627708,-0.0707830861210823,-0.0234391447156668,-0.0523208193480968,-0.0533965304493904
367,-0.0744167864322662,-0.0735170394182205,-0.06972336769104,-0.0226275883615017,-0.0505253970623016,-0.0462434217333794
368,-0.0721962377429008,-0.0656958147883415,-0.0590837150812149,-0.0145817920565605,-0.0403016470372677,-0.0329767838120461
369,-0.0725440382957459,-0.0603404566645622,-0.0469686537981033,-0.00561405438929796,-0.0291907843202353,-0.022635305300355
370,-0.0765794962644577,-0.0608603395521641,-0.0395035669207573,-0.000195151747902855,-0.0208873972296715,-0.0198293086141348
371,-0.0821004882454872,-0.066223219037056,-0.0376505441963673,0.000645879306830466,-0.0136490100994706,-0.0229297000914812
372,-0.0878824219107628,-0.0739428550004959,-0.0404236316680908,-0.00324224727228284,-0.00725842174142599,-0.0284825172275305
373,-0.0956915989518166,-0.0836387351155281,-0.0478583090007305,-0.0126227866858244,-0.00628194632008672,-0.0368019305169582
374,-0.105240941047668,-0.0940713956952095,-0.0572447814047337,-0.0242201946675777,-0.0104439435526729,-0.0489587411284447
375,-0.112035676836967,-0.100452058017254,-0.0628052353858948,-0.0312397330999374,-0.0125172883272171,-0.0608879588544369
376,-0.114132843911648,-0.101003408432007,-0.0639201104640961,-0.0326529480516911,-0.0105003602802753,-0.0685370787978172
377,-0.114499777555466,-0.0990825816988945,-0.0641403570771217,-0.0326114147901535,-0.0095607815310359,-0.0721272751688957
378,-0.115181259810925,-0.0966625660657883,-0.0640817582607269,-0.0323898904025555,-0.0126120503991842,-0.0725856795907021
379,-0.114551357924938,-0.0924913585186005,-0.0628471747040749,-0.0302003584802151,-0.0178413558751345,-0.069991908967495
380,-0.111574769020081,-0.0869404524564743,-0.0608846247196198,-0.0265920870006084,-0.0235225781798363,-0.0662478730082512
381,-0.106650464236736,-0.0819848477840424,-0.057373434305191,-0.0232448242604733,-0.0274872612208128,-0.0625717490911484
382,-0.102078750729561,-0.0800283998250961,-0.053205206990242,-0.021676754578948,-0.028640927746892,-0.0587986521422863
383,-0.101981788873672,-0.0832294300198555,-0.0521498285233974,-0.0234044119715691,-0.029816061258316,-0.0562197268009186
384,-0.10540883988142,-0.0884663388133049,-0.0530678741633892,-0.0251825358718634,-0.0315593369305134,-0.0522191375494003
385,-0.108341164886951,-0.0915327966213226,-0.0530892089009285,-0.0233977008610964,-0.0322384387254715,-0.0430049523711205
386,-0.111161172389984,-0.0936606973409653,-0.0529700666666031,-0.0203081835061312,-0.0327273160219193,-0.0322058983147144
387,-0.115863636136055,-0.095364436507225,-0.0513402000069618,-0.0179844349622726,-0.0333896018564701,-0.0256073530763388
388,-0.122334569692612,-0.0927828848361969,-0.0460498370230198,-0.0152891483157873,-0.0342582128942013,-0.0249471422284842
389,-0.129747837781906,-0.0850987657904625,-0.0402445681393147,-0.0117453234270215,-0.0375993810594082,-0.0292065739631653
390,-0.137897253036499,-0.0784362331032753,-0.0395564772188663,-0.00961120799183846,-0.0457627661526203,-0.0374914333224297
391,-0.146311834454536,-0.077910341322422,-0.0456912666559219,-0.011592254973948,-0.0579204000532627,-0.0487171411514282
392,-0.15340493619442,-0.0813803821802139,-0.0545360222458839,-0.0164704322814941,-0.0689146816730499,-0.0592379197478294
393,-0.158024877309799,-0.0837619453668594,-0.0603417381644249,-0.0201893653720617,-0.0726949721574783,-0.0648520067334175
394,-0.160595744848251,-0.0831868872046471,-0.0604418180882931,-0.0204077567905188,-0.0671372339129448,-0.064376063644886
395,-0.162750408053398,-0.0815373435616493,-0.056273877620697,-0.017750458791852,-0.0558333471417427,-0.0596068575978279
396,-0.164426609873772,-0.0795768797397614,-0.0494727827608585,-0.0126259122043848,-0.0439079478383064,-0.0507116913795471
397,-0.163723006844521,-0.0766328126192093,-0.0407553873956203,-0.00514609320089221,-0.034234419465065,-0.0374514907598495
398,-0.161558017134666,-0.0749811455607414,-0.0336940959095955,0.000998086761683226,-0.0293998382985592,-0.0257266126573086
399,-0.160371273756027,-0.0763540416955948,-0.0308527648448944,0.00259359739720821,-0.0302572809159756,-0.0217792633920908
400,-0.160339772701263,-0.0783501192927361,-0.0298844873905182,0.00153463694732636,-0.0336306542158127,-0.024582153186202
401,-0.161271840333939,-0.0794089809060097,-0.0296155102550983,0.000458012102171779,-0.036592748016119,-0.0297996867448092
402,-0.164346784353256,-0.0812847316265106,-0.0328727997839451,-0.000815394101664424,-0.0392354615032673,-0.0344137102365494
403,-0.169330909848213,-0.0850871130824089,-0.0404123105108738,-0.00323841930367053,-0.0408744923770428,-0.0373209938406944
404,-0.173982173204422,-0.0896152630448341,-0.048586405813694,-0.00643573282286525,-0.0396104715764523,-0.0393402092158794
405,-0.175920858979225,-0.0930328443646431,-0.0527973100543022,-0.00880878977477551,-0.0345762297511101,-0.0409887582063675
406,-0.17317034304142,-0.093833826482296,-0.050544336438179,-0.00893435347825289,-0.0251671150326729,-0.0401446856558323
407,-0.167062327265739,-0.0916370451450348,-0.0422705002129078,-0.00628435425460339,-0.0131451841443777,-0.0347268842160702
408,-0.162016794085503,-0.0867322757840157,-0.0294477194547653,-0.000176431072759442,-0.00344793754629791,-0.0249331444501877
409,-0.160462483763695,-0.080687552690506,-0.0163531638681889,0.00791548751294613,-0.000147912549437024,-0.0134388040751219
410,-0.161588042974472,-0.0766590759158134,-0.00969105213880539,0.0131913386285305,-0.00370635674335063,-0.00472060823813081
411,-0.162508934736252,-0.0752514377236366,-0.0104760378599167,0.0137124517932534,-0.0110890241339803,-0.000846944516524673
412,-0.160267531871796,-0.0740558505058289,-0.0138438446447253,0.0119174877181649,-0.0183665808290243,-0.0011706663062796
413,-0.154220044612885,-0.0710801929235458,-0.015029227361083,0.0106012998148799,-0.0217821318656206,-0.004531045909971
414,-0.146056592464447,-0.065612368285656,-0.011799936182797,0.0114588709548116,-0.0189291965216398,-0.00903572514653206
415,-0.139646112918854,-0.0595232546329498,-0.00699251890182495,0.0128676248714328,-0.0133067099377513,-0.0146191334351897
416,-0.137322962284088,-0.0562030635774136,-0.00505574233829975,0.0118073355406523,-0.0106580117717385,-0.0220014341175556
417,-0.139354482293129,-0.0584367141127586,-0.00786622427403927,0.0067911297082901,-0.0130657916888595,-0.030442763119936
418,-0.146822914481163,-0.066840760409832,-0.0163292679935694,-0.00245633791200817,-0.020156804472208,-0.0386566892266274
419,-0.154649421572685,-0.0755287930369377,-0.0265796910971403,-0.010732926428318,-0.0266124363988638,-0.0416851118206978
420,-0.154299169778824,-0.0770990550518036,-0.0312734022736549,-0.0109477192163467,-0.0256266929209232,-0.0350213013589382
421,-0.146206721663475,-0.0719757974147797,-0.028766730800271,-0.00417750002816319,-0.0174249727278948,-0.0225145537406206
422,-0.136295363306999,-0.0648608356714249,-0.022942652925849,0.00372171378694475,-0.0067712445743382,-0.0106675447896123
423,-0.128145575523376,-0.0584589838981628,-0.0185329187661409,0.0094368401914835,0.000384023995138705,-0.00131882459390908
424,-0.123077683150768,-0.0533928573131561,-0.0179344192147255,0.0124184088781476,-6.77169009577483E-05,0.00596390711143613
425,-0.123417094349861,-0.0507435128092766,-0.0214505344629288,0.011229227297008,-0.0081732664257288,0.00847471784800291
426,-0.130911633372307,-0.0509311966598034,-0.0281352959573269,0.00473821954801679,-0.0207837577909231,0.00415303464978933
427,-0.141402170062065,-0.0523399077355862,-0.0338014662265778,-0.00309203844517469,-0.0315400138497353,-0.00155541836284101
428,-0.147492319345474,-0.0546074546873569,-0.0341780483722687,-0.00751138711348176,-0.0354958809912205,-0.00188873789738864
429,-0.146527081727982,-0.0585574135184288,-0.0300204642117023,-0.00905321072787046,-0.0336682721972466,0.00182700122240931
430,-0.143656462430954,-0.0644730851054192,-0.0265683196485043,-0.0114719606935978,-0.0319654941558838,0.00332400389015675
431,-0.14461462199688,-0.0716668590903282,-0.0283608604222536,-0.0161795411258936,-0.0349568836390972,-5.25018404005095E-05
432,-0.147448316216469,-0.0768617615103722,-0.0343571491539478,-0.0199794732034206,-0.0393517576158047,-0.0055314926430583
433,-0.147481858730316,-0.0761481523513794,-0.0391221456229687,-0.0189931225031614,-0.0383311733603477,-0.00823135487735271
434,-0.145261093974113,-0.0711295753717422,-0.0394737794995308,-0.0144850201904774,-0.0308834761381149,-0.00690675945952535
435,-0.144239470362663,-0.0673784241080284,-0.0373434498906136,-0.0115741947665811,-0.0214037206023932,-0.00552427209913731
436,-0.146444618701935,-0.0678802505135536,-0.0364823006093502,-0.0131809515878558,-0.0147508131340146,-0.00819889269769192
437,-0.150027394294739,-0.071011871099472,-0.0371660366654396,-0.0169049892574549,-0.0129514457657933,-0.0135860424488783
438,-0.151655897498131,-0.0728672295808792,-0.0372515358030796,-0.0184627827256918,-0.0158517248928547,-0.0167945828288794
439,-0.150377303361893,-0.0711594000458717,-0.0357672870159149,-0.0162722263485193,-0.0228058937937021,-0.0161466412246227
440,-0.146137848496437,-0.066276453435421,-0.031984455883503,-0.0111912274733186,-0.0312511324882507,-0.0130450902506709
441,-0.140110313892365,-0.0604936741292477,-0.0275942832231522,-0.00615536328405142,-0.0386246703565121,-0.00965463649481535
442,-0.134217083454132,-0.0553924515843391,-0.0252285953611135,-0.0029818641487509,-0.0425961799919605,-0.00731741171330214
443,-0.130271196365356,-0.0518810041248798,-0.0255030561238527,-0.0011347436811775,-0.0418802686035633,-0.00652057817205787
444,-0.130641430616379,-0.0521129816770554,-0.0288008898496628,-0.0013153258478269,-0.0397731140255928,-0.00877494178712368
445,-0.135850325226784,-0.0564557425677776,-0.0339074321091175,-0.0042764195241034,-0.0402361042797565,-0.014347855001688
446,-0.143501833081245,-0.0614370815455914,-0.0378150902688503,-0.00865018833428621,-0.0427192524075508,-0.0197903383523226
447,-0.150108888745308,-0.0624735727906227,-0.0374446138739586,-0.0113156652078032,-0.0418284833431244,-0.0194531176239252
448,-0.153185307979584,-0.0575659349560738,-0.0313640981912613,-0.00916135869920254,-0.0328561365604401,-0.00989825557917356
449,-0.152917966246605,-0.0493934750556946,-0.0226259436458349,-0.00273824250325561,-0.0189141649752855,0.00638689752668142
450,-0.151109173893929,-0.0432556979358196,-0.0154607435688376,0.00390683440491557,-0.00693501951172948,0.0228750426322222
451,-0.14872282743454,-0.0423554964363575,-0.0112788565456867,0.00734053505584598,0.000163773118401878,0.0331278890371323
452,-0.146354988217354,-0.0463898777961731,-0.011338728480041,0.00597581407055259,0.00273492047563195,0.033058725297451
453,-0.144044250249863,-0.0522702522575855,-0.0152907371520996,0.000591768708545715,0.0023062143009156,0.024027032777667
454,-0.140509217977524,-0.0559054873883724,-0.0188414715230465,-0.00555835338309407,0.00121019082143903,0.0117716137319803
455,-0.137033015489578,-0.0566801875829697,-0.0204011406749487,-0.010843844152987,0.000197296249098144,-0.000953871174715459
456,-0.136537358164787,-0.0562361925840378,-0.0217981692403555,-0.0151518154889345,-0.00087317923316732,-0.0128756705671549
457,-0.138462394475937,-0.0548924095928669,-0.0225787498056889,-0.0172890946269035,-0.0015398187097162,-0.0196757167577744
458,-0.141599699854851,-0.0544482581317425,-0.0235050488263369,-0.0184327308088541,-0.00378183415159583,-0.0210130549967289
459,-0.146462723612785,-0.0572978109121323,-0.0282909031957388,-0.0215967744588852,-0.0108462469652295,-0.0217866823077202
460,-0.151718735694885,-0.0618508905172348,-0.0370168052613735,-0.0260763000696898,-0.0211960133165121,-0.0233118552714586
461,-0.153038516640663,-0.0639509707689285,-0.0442282594740391,-0.027865894138813,-0.0286290291696787,-0.0223414655774832
462,-0.149265274405479,-0.0632623955607414,-0.0473224185407162,-0.0267634149640799,-0.0315734706819057,-0.018823342397809
463,-0.145275622606277,-0.0635424554347992,-0.0494090281426907,-0.0264003481715918,-0.0351724810898304,-0.0161382220685482
464,-0.143737494945526,-0.0650321319699287,-0.0500427633523941,-0.0258441250771284,-0.0401091054081917,-0.0136556420475245
465,-0.142146080732346,-0.0656308755278587,-0.0468285083770752,-0.0225379094481468,-0.042641494423151,-0.0100818248465657
466,-0.13850274682045,-0.0659478828310966,-0.0423542857170105,-0.0182581264525652,-0.0429198406636715,-0.00772168720141053
467,-0.1334627866745,-0.0664905309677124,-0.0390599258244038,-0.0148547478020191,-0.0427477657794952,-0.00740490993484855
468,-0.128387570381165,-0.065850518643856,-0.0353447273373604,-0.0120013495907187,-0.0410770960152149,-0.00830142106860876
469,-0.124235145747662,-0.0630124062299728,-0.0293277464807034,-0.00924556981772184,-0.0361285172402859,-0.0101551627740264
470,-0.122072085738182,-0.0590651445090771,-0.0217788182199001,-0.00713133718818426,-0.0296619087457657,-0.0118679832667112
471,-0.121629111468792,-0.0546348579227924,-0.0142359277233481,-0.00533128390088677,-0.0243195313960314,-0.0111818937584758
472,-0.121742606163025,-0.0483212247490883,-0.00871987733989954,-0.00320308050140738,-0.021157355979085,-0.00772334821522236
473,-0.122532576322556,-0.0394902266561985,-0.00755302049219608,-0.00238704937510192,-0.0206422731280327,-0.00348880118690431
474,-0.123043276369572,-0.0308816656470299,-0.00946818292140961,-0.00339563121087849,-0.0199709925800562,0.00051538267871365
475,-0.12193650752306,-0.0275003276765347,-0.0116886040195823,-0.0051361070945859,-0.0163632426410913,0.00315483473241329
476,-0.120887577533722,-0.0304905250668526,-0.0132156712934375,-0.00747071532532573,-0.0117501150816679,0.00265989010222256
477,-0.121828354895115,-0.0358272157609463,-0.0133073404431343,-0.0100989462807775,-0.00932730082422495,-0.00132369541097432
478,-0.124222099781036,-0.0388914048671722,-0.0119915474206209,-0.0123081747442484,-0.00970335584133863,-0.00744115654379129
479,-0.12807634472847,-0.0385994203388691,-0.012516881339252,-0.0145638566464186,-0.0115974564105272,-0.0138522638007998
480,-0.133846670389175,-0.0371104702353477,-0.01758630014956,-0.0171122625470161,-0.013817791827023,-0.0187005903571844
481,-0.138839170336723,-0.0356417186558247,-0.0248888861387968,-0.0183842964470387,-0.0160204321146011,-0.0201111864298582
482,-0.140149176120758,-0.0354608930647373,-0.032219547778368,-0.018449179828167,-0.020649965852499,-0.019335899502039
483,-0.138128057122231,-0.0381757207214832,-0.0396920368075371,-0.0190304629504681,-0.0297247879207134,-0.0190769210457802
484,-0.134224519133568,-0.0416389219462872,-0.0459057241678238,-0.0201540850102901,-0.0394994840025902,-0.0189357809722424
485,-0.129200726747513,-0.0415857769548893,-0.0484856329858303,-0.0208040960133076,-0.0443482846021652,-0.0177305489778519
486,-0.124005682766438,-0.0374734476208687,-0.047287330031395,-0.0206383634358644,-0.0434071719646454,-0.0164243280887604
487,-0.12141203135252,-0.0336267538368702,-0.0458092018961906,-0.0211291685700417,-0.0412388816475868,-0.0171995740383863
488,-0.122615732252598,-0.0327501520514488,-0.0462390072643757,-0.0232742819935083,-0.0416849628090858,-0.0202795099467039
489,-0.123995088040829,-0.0320075899362564,-0.0459067933261395,-0.0245901700109243,-0.0440447367727757,-0.0227798279374838
490,-0.122373782098293,-0.0284548494964838,-0.0428124777972698,-0.0229174755513668,-0.0467075183987617,-0.0228031612932682
491,-0.118084691464901,-0.0224183108657599,-0.0375271812081337,-0.01927400380373,-0.048942107707262,-0.021193103864789
492,-0.111947298049927,-0.0147082479670644,-0.030488109216094,-0.0149848815053701,-0.0495141558349133,-0.0191381126642227
493,-0.104266785085201,-0.00585004966706038,-0.0233560316264629,-0.0109362537041307,-0.0479064956307411,-0.0174021944403648
494,-0.0965103507041931,0.0028105010278523,-0.0195393357425928,-0.00861394219100475,-0.0460808984935284,-0.0148025415837765
495,-0.0903278589248657,0.0106026576831937,-0.0196954924613237,-0.00835313275456429,-0.0453524254262447,-0.00838512182235718
496,-0.0837383717298508,0.0184299051761627,-0.0192391034215689,-0.00761448359116912,-0.0428013540804386,0.00208950904197991
497,-0.0740086510777473,0.026007829234004,-0.0145699474960566,-0.00435644295066595,-0.0356554724276066,0.0123885273933411
498,-0.0641440153121948,0.0303717628121376,-0.00874932203441858,-0.00118699343875051,-0.0266174804419279,0.01605617813766
499,-0.0588816851377487,0.0302300695329905,-0.00514458306133747,-0.000726249360013753,-0.01921496540308,0.0109223043546081
500,-0.0588083155453205,0.0284080095589161,-0.00320175569504499,-0.00165052490774542,-0.0134965311735868,0.00143966276664287
501,-0.0619142837822437,0.027183199301362,-0.00317412125878036,-0.00288474629633129,-0.00847430713474751,-0.00780413113534451
502,-0.0670410245656967,0.0246101357042789,-0.00781387183815241,-0.00644045835360885,-0.00547091290354729,-0.016443932428956
503,-0.0728175714612007,0.0198350921273232,-0.017093813046813,-0.0129121337085962,-0.00667533092200756,-0.0247623901814222
504,-0.0752491876482964,0.0165008213371038,-0.0253786277025938,-0.0184113383293152,-0.0100836204364896,-0.0310663525015116
505,-0.0708510652184486,0.0178984608501196,-0.0274718813598156,-0.0192613396793604,-0.0108153680339456,-0.0339720584452152
506,-0.0614632479846478,0.0234157592058182,-0.0235522594302893,-0.0159925613552332,-0.00764751527458429,-0.0332011096179485
507,-0.0526495389640331,0.0295407678931952,-0.0172281563282013,-0.0117906630039215,-0.00336336367763579,-0.0296810492873192
508,-0.0465404316782951,0.0344243869185448,-0.0110040502622724,-0.00816064886748791,0.000654857140034437,-0.0248536746948957
509,-0.0419482886791229,0.038468636572361,-0.00591317052021623,-0.00457968842238188,0.00389025802724063,-0.0201710127294064
510,-0.0387599021196365,0.0411645397543907,-0.00288594886660576,-0.00138687121216208,0.00536432070657611,-0.0171683486551046
511,-0.0366940647363663,0.0420124083757401,-0.00114679394755512,0.000364843377610669,0.00581320561468601,-0.0161794666200876
512,-0.0348711311817169,0.0419154092669487,0.000547205214388669,0.000717347487807274,0.00551699241623282,-0.0160903707146645
513,-0.0332493148744106,0.0420012623071671,0.00215023453347385,0.000912093499209732,0.00433062389492989,-0.0150641947984695
514,-0.0317452847957611,0.0425852313637733,0.00398708321154118,0.00144647539127618,0.00420923344790936,-0.0116214621812105
515,-0.0305064544081688,0.0434143804013729,0.00617288099601865,0.000993831316009164,0.00520377280190587,-0.00656106229871511
516,-0.0290609281510115,0.046003844588995,0.00912211276590824,0.000500934023875743,0.00554676586762071,-0.000608810572884977
517,-0.0262315422296524,0.0515265055000782,0.012829284183681,0.00310962949879467,0.00537684466689825,0.00690431846305728
518,-0.0221191551536322,0.0583522468805313,0.0153142102062702,0.00903370603919029,0.00733464537188411,0.0158596634864807
519,-0.0199201386421919,0.0624503940343857,0.0127447275444865,0.0135451750829816,0.0114750228822231,0.0217724610120058
520,-0.0241658538579941,0.059325709939003,0.00202298490330577,0.0113359829410911,0.0114235589280725,0.0174195319414139
521,-0.0319757238030434,0.0520375408232212,-0.0109388465061784,0.00558573007583618,0.00599742121994495,0.00533650582656264
522,-0.0358386561274529,0.0479580648243427,-0.0163953565061092,0.00322260078974068,0.00160203955601901,-0.0037993264850229
523,-0.0329086035490036,0.0494971834123135,-0.0117652053013444,0.00622302480041981,0.00191920495126396,-0.00317526049911976
524,-0.0245359931141138,0.0557269379496574,-0.000523414229974151,0.013753698207438,0.006201540119946,0.00800411589443684
525,-0.0160727463662624,0.062418308109045,0.00950213056057692,0.021311292424798,0.010047223418951,0.023304196074605
526,-0.0119093600660563,0.0654105842113495,0.0127402804791927,0.0239568427205086,0.0110017377883196,0.0334704220294952
527,-0.00966606382280588,0.0681871920824051,0.0129395071417093,0.0237197820097208,0.01380714494735,0.0359739512205124
528,-0.00848150253295898,0.07419753074646,0.0139452144503593,0.0227490216493607,0.0194140374660492,0.0313506871461868
529,-0.0123088546097279,0.0780420005321503,0.012949931435287,0.018308425322175,0.0202877782285213,0.0182508733123541
530,-0.0201324094086885,0.0756209194660187,0.00911875162273645,0.012131342664361,0.0160429030656815,0.000760211434680969
531,-0.0257506389170885,0.07045728713274,0.00534139201045036,0.00963212642818689,0.0145756090059876,-0.0133519545197487
532,-0.0259922537952662,0.0655769407749176,0.00208862824365497,0.0102591756731272,0.0168099198490381,-0.0223203394562006
533,-0.022402323782444,0.061127956956625,-0.00180055655073375,0.0101370243355632,0.0171854496002197,-0.028064725920558
534,-0.0175000578165054,0.0574936196208,-0.00643596425652504,0.0082096615806222,0.0135792996734381,-0.0310530476272106
535,-0.011574356816709,0.0555950105190277,-0.010406319051981,0.00598379457369447,0.00830998830497265,-0.0311647038906813
536,-0.00377430720254779,0.0562389604747295,-0.0113189527764916,0.00601502740755677,0.00419322680681944,-0.0279148519039154
537,0.00427987100556493,0.0593058802187443,-0.0078527620062232,0.00992998946458101,0.00185984000563622,-0.0207720156759024
538,0.00857821572571993,0.0630325675010681,-0.00152247899677604,0.0160588659346104,-9.05365086509846E-05,-0.0117507940158248
539,0.00691314274445176,0.064882829785347,0.00381163670681417,0.0200038403272629,-0.00325256306678057,-0.00506083108484745
540,0.00181809416972101,0.0649136453866959,0.00594465900212526,0.0198247395455837,-0.00753423990681767,-0.00176961650140584
541,-0.000732948945369571,0.066790446639061,0.00739398784935474,0.0195600222796202,-0.00907740648835897,0.00203205365687609
542,0.0026063984259963,0.0718148648738861,0.0104809748008847,0.0227267034351826,-0.00431646080687642,0.00772329792380333
543,0.00853676442056894,0.076225183904171,0.013476587831974,0.0273806229233742,0.00399612169712782,0.0119380941614509
544,0.0124281477183104,0.0776930600404739,0.0161021109670401,0.0316666476428509,0.0110054416581988,0.0153508223593235
545,0.012493371963501,0.0767202377319336,0.0197484754025936,0.0352437347173691,0.0147225605323911,0.022373728454113
546,0.00969505961984396,0.0748040303587914,0.0241214856505394,0.0381083190441132,0.0169582236558199,0.0342600382864475
547,0.0064643956720829,0.0739241987466812,0.0284964330494404,0.0409185849130154,0.0210998822003603,0.0473869033157825
548,0.00149151508230716,0.0721617341041565,0.0297116599977016,0.0409668795764446,0.0246883127838373,0.0535587146878242
549,-0.00696180900558829,0.0670235902070999,0.0247357152402401,0.0354628823697567,0.0234867502003908,0.0478099137544632
550,-0.0156037574633956,0.0603203251957893,0.0154980923980474,0.026842188090086,0.0189872737973928,0.0339636355638504
551,-0.0196477733552456,0.0554083995521069,0.00749176507815719,0.0200642086565495,0.0145026715472341,0.0197325740009546
552,-0.0166384354233742,0.0545094646513462,0.00549907376989722,0.0181056708097458,0.0116277895867825,0.0100653199478984
553,-0.00752671109512448,0.058391697704792,0.0104689327999949,0.0209764409810305,0.0117153264582157,0.00547497626394033
554,0.00337474560365081,0.065109945833683,0.0189510304480791,0.0265415832400322,0.0146591328084469,0.00352452928200364
555,0.0116018243134022,0.070110596716404,0.0255970805883408,0.0307248719036579,0.01786476559937,0.000636257813312113
556,0.0172314532101154,0.0717102885246277,0.0281688962131739,0.0313715450465679,0.0203839987516403,-0.00341141829267144
557,0.021710654720664,0.0715208947658539,0.0265765767544508,0.0288477502763271,0.0223079714924097,-0.00708360271528363
558,0.0230239368975163,0.0695691332221031,0.0196373239159584,0.0223216768354177,0.0212773401290178,-0.0113103520125151
559,0.0197312366217375,0.0647992566227913,0.00787193421274424,0.011969500221312,0.0152157284319401,-0.0152929686009884
560,0.0145471654832363,0.0580462999641895,-0.00379889202304184,0.00218670908361673,0.0068457811139524,-0.0155440689995885
561,0.010120970197022,0.0497948788106442,-0.011430149897933,-0.00379938026890159,0.000646817788947374,-0.0128686567768455
562,0.00730581907555461,0.0401196479797363,-0.0151564301922917,-0.00661977520212531,-0.000987317762337625,-0.0105785997584462
563,0.00649307668209076,0.0323734693229198,-0.0156770367175341,-0.00676702754572034,0.00206858525052667,-0.00851792190223932
564,0.00771053321659565,0.028970206156373,-0.0133004561066628,-0.00410335510969162,0.00776643631979823,-0.00499275559559464
565,0.011247307062149,0.0279852040112019,-0.00768158538267016,0.00117026874795556,0.0145867746323347,0.000375535542843863
566,0.016026059165597,0.0279943887144327,0.000398342148400843,0.0077894851565361,0.0204263124614954,0.00603500707075
567,0.0198206882923841,0.0286362133920193,0.00656152796000242,0.0127158332616091,0.020654484629631,0.00887369271367788
568,0.0227647218853235,0.0288128443062305,0.00753174535930157,0.0135575197637081,0.0135282082483172,0.00664479658007622
569,0.0263980552554131,0.0286632515490055,0.00549398269504309,0.0121926674619317,0.00328379822894931,0.00165377277880907
570,0.0302204750478268,0.0297849364578724,0.00492445565760136,0.0132076302543283,-0.00416396465152502,-0.000675918243359774
571,0.0322341397404671,0.0319021120667458,0.00753494398668408,0.0171982478350401,-0.00515206810086966,0.000610370712820441
572,0.0317401587963104,0.0321207195520401,0.0108340904116631,0.0196595825254917,0.00060936703812331,0.000692903704475611
573,0.0295145716518164,0.0287998858839273,0.0108329923823476,0.0174644347280264,0.00941975507885218,-0.0041975281201303
574,0.0271818991750479,0.0240510422736406,0.00726951286196709,0.012962949462235,0.016997966915369,-0.011977662332356
575,0.0253377091139555,0.0198627114295959,0.00223742960952222,0.009251126088202,0.0196571797132492,-0.0192284155637026
576,0.0224593672901392,0.0150548731908202,-0.00475204223766923,0.00535780331119895,0.0132350847125053,-0.0267014298588037
577,0.0202389750629663,0.0109451953321695,-0.011842736043036,0.00162639899645001,0.000326961890095845,-0.0335627272725105
578,0.0223597530275583,0.0105712218210101,-0.0147455912083387,0.000493614526931196,-0.0111249443143606,-0.0366123914718628
579,0.0270114503800869,0.0117473779246211,-0.0143264923244715,0.000615387281868607,-0.0191812217235565,-0.0367470495402813
580,0.0288915894925594,0.00914704985916615,-0.0149027807638049,-0.00194945570547134,-0.0269806962460279,-0.0373551286756992
581,0.0275388844311237,0.00232268963009119,-0.0171732194721699,-0.00718151684850454,-0.0336900241672993,-0.0375033430755138
582,0.0279592201113701,-0.00289448769763112,-0.0184888523072004,-0.0104287592694163,-0.0352779105305672,-0.0318976119160652
583,0.0332289449870586,-0.00261553027667105,-0.017897006124258,-0.0095018707215786,-0.0318133533000946,-0.0204944182187319
584,0.0424418412148952,0.00149967323523015,-0.0158932898193598,-0.00640764040872455,-0.026612775400281,-0.0103812692686915
585,0.0549361705780029,0.00719221448525786,-0.0113580394536257,-0.00247783306986094,-0.0204655881971121,-0.00592195894569159
586,0.070595882833004,0.0144389746710658,-0.0021436729002744,0.00374202406965196,-0.0113296573981643,-0.00423153676092625
587,0.0863408595323563,0.0227784365415573,0.0102587072178721,0.0126027092337608,0.000985709950327873,-0.00139302818570286
588,0.0975413993000984,0.0295734796673059,0.0211746376007795,0.0206226166337729,0.0135047370567918,0.00217071338556707
589,0.100628979504108,0.0310739316046238,0.026426812633872,0.0223456081002951,0.0211940705776215,0.00221218075603247
590,0.0950100123882294,0.0260871350765228,0.0234923027455807,0.0157538112252951,0.0197911132127047,-0.00384012120775878
591,0.0859545543789864,0.0190257523208857,0.0152322426438332,0.00593801448121667,0.0113773671910167,-0.0121000241488218
592,0.0806191563606262,0.0156740304082632,0.00905440747737885,-0.000395298004150391,0.00274267909117043,-0.0164648704230785
593,0.0812578797340393,0.0170352272689343,0.0085930498316884,-0.00131012487690896,-0.00209053163416684,-0.015179161913693
594,0.0847118347883224,0.0195300932973623,0.0104474043473601,0.000174151617102325,-0.00377792422659695,-0.0119588486850262
595,0.0868344902992249,0.0201418660581112,0.0104711065068841,0.000793564540799707,-0.00380565132945776,-0.0105533841997385
596,0.0876848995685577,0.0205850377678871,0.00939738284796476,0.00244471989572048,-0.00132178200874478,-0.00915095396339893
597,0.0892937257885933,0.0227676220238209,0.00831006467342377,0.00686909956857562,0.00286507746204734,-0.00643641781061888
598,0.0908091962337494,0.0236088838428259,0.00500880414620042,0.00947158504277468,0.00355307105928659,-0.00735741062089801
599,0.0921933650970459,0.0212924387305975,-0.000256441329838708,0.00762894889339805,-0.00106285302899778,-0.0137756206095219
600,0.0945243388414383,0.0174688659608364,-0.00445835432037711,0.00420142896473408,-0.00709827756509185,-0.0204948130995035
601,0.096220038831234,0.0138672813773155,-0.0059521128423512,0.0014116526581347,-0.0105875758454204,-0.0220697224140167
602,0.0974466875195503,0.0145318014547229,-0.00256296596489847,0.00109287165105343,-0.00909185875207186,-0.0145578077062964
603,0.101071402430534,0.0208329875022173,0.00668144272640347,0.00448318850249052,-0.0026369490660727,0.000648011744488031
604,0.106311030685902,0.0259601678699255,0.0164246894419193,0.00839057844132185,0.00494216242805123,0.0142820859327912
605,0.110389955341816,0.0249045956879854,0.0202745329588652,0.00885407906025648,0.00944606866687536,0.0199721306562424
606,0.113798581063747,0.0211753472685814,0.0192116852849722,0.00726222293451428,0.0118927182629704,0.0205909665673971
607,0.117547616362572,0.0192952193319798,0.0179859083145857,0.00750321382656693,0.0155576728284359,0.0201404727995396
608,0.120418883860111,0.0190812908113003,0.0179431736469269,0.0102382162585855,0.0189227387309074,0.0180206373333931
609,0.120773732662201,0.0178064722567797,0.0173826608806849,0.012554676271975,0.0173801518976688,0.0120589528232813
610,0.115882083773613,0.0124132996425033,0.0140125853940845,0.00985558237880468,0.00796796567738056,0.000932028458919376
611,0.106416195631027,0.00398710323497653,0.00954379141330719,0.00232089497148991,-0.00529930694028735,-0.0127901835367084
612,0.100912310183048,-0.00067391328047961,0.00965537317097187,-0.00235071685165167,-0.0124646304175258,-0.0215476788580418
613,0.104055322706699,0.00158977555111051,0.0137998377904296,-0.000276322127319872,-0.0112078739330173,-0.0215912312269211
614,0.110790334641933,0.00771027151495218,0.0172345843166113,0.00486707594245672,-0.00770715018734336,-0.0155902896076441
615,0.116129763424397,0.0145872542634606,0.0207255426794291,0.0100516546517611,-0.00467199878767133,-0.00637263851240277
616,0.118902891874313,0.0195602122694254,0.0261364243924618,0.013995198532939,-0.000782237388193607,0.00326908240094781
617,0.120820611715317,0.0219620279967785,0.0330080315470696,0.0170249007642269,0.00611832924187183,0.0116536850109696
618,0.12385768443346,0.0230538416653872,0.038624681532383,0.0202984027564526,0.0159581527113914,0.0184467732906342
619,0.126753568649292,0.0224044807255268,0.0379969105124474,0.0219731517136097,0.0239865090698004,0.0223409738391638
620,0.129019901156425,0.0205286983400583,0.0311662927269936,0.020749356597662,0.0262549705803394,0.0244211778044701
621,0.131248027086258,0.0185954589396715,0.0229637045413256,0.0180291663855314,0.0214925054460764,0.0263578444719315
622,0.132052034139633,0.0160261746495962,0.0163033530116081,0.0150697072967887,0.009925770573318,0.0270428042858839
623,0.131077453494072,0.0128400549292564,0.0123432166874409,0.0131028015166521,-0.00397544866427779,0.0268069356679916
624,0.129441380500793,0.0100775230675936,0.011982006020844,0.0131927356123924,-0.0127512440085411,0.027472659945488
625,0.127617299556732,0.00793808791786432,0.0151091953739524,0.0145510463044047,-0.0120381079614162,0.0285821482539177
626,0.125432804226875,0.005333939101547,0.0193862859159708,0.014129794202745,-0.00448405556380749,0.0277107506990433
627,0.121988654136658,0.00266064424067736,0.0223336033523083,0.0102450111880898,0.0036352293100208,0.0235575456172228
628,0.117369674146175,0.0024797678925097,0.0252922046929598,0.00538104958832264,0.00889214593917131,0.0186086297035217
629,0.11396399140358,0.00563169363886118,0.0309599004685879,0.00329667469486594,0.0122737726196647,0.0173996519297361
630,0.113136850297451,0.00967573467642069,0.0375680550932884,0.00518174888566136,0.0156302899122238,0.0204187389463186
631,0.114164151251316,0.0128701040521264,0.0409814566373825,0.00950081180781126,0.0193718522787094,0.024039700627327
632,0.116281516849995,0.0154306199401617,0.0395865552127361,0.0135260531678796,0.0223890896886587,0.0257506780326366
633,0.118389412760735,0.0155838774517179,0.033874548971653,0.0147937722504139,0.0224623568356037,0.0241041351109743
634,0.120193935930729,0.0130803333595395,0.0274668950587511,0.0152225373312831,0.0214383900165558,0.0201322585344315
635,0.121844843029976,0.0109469313174486,0.0242806803435087,0.0176314376294613,0.0235096029937267,0.0165673475712538
636,0.121658094227314,0.00846377667039633,0.0230307374149561,0.0180986579507589,0.0263537019491196,0.0114051755517721
637,0.118741288781166,0.00297027383930981,0.0205467361956835,0.0122984349727631,0.0243161879479885,0.00141495850402862
638,0.116156511008739,-0.00255550141446292,0.0169171374291182,0.00425900472328067,0.0182594042271376,-0.0097487885504961
639,0.117944493889809,-0.00340617261826992,0.0142640229314566,0.000406482897233218,0.0145783126354218,-0.0158505216240883
640,0.124668642878532,0.000185469063580967,0.0134671879932284,0.0019056525779888,0.0156561508774757,-0.0147891221567988
641,0.13363391160965,0.00522014312446117,0.0142397526651621,0.00662404438480735,0.0183035209774971,-0.00674908049404621
642,0.14155325293541,0.00882571563124657,0.0167437642812729,0.0125238904729486,0.0208993908017874,0.00629092892631888
643,0.146443068981171,0.00948256533592939,0.0215453859418631,0.0184222273528576,0.0250806454569101,0.0197987854480743
644,0.147990822792053,0.00723832147195935,0.0272615533322096,0.022766001522541,0.0300271082669497,0.0296074841171503
645,0.147693112492561,0.0035843055229634,0.0310927368700504,0.0241841338574886,0.0321152098476887,0.0343077555298805
646,0.147851869463921,0.00260485452599823,0.0322665236890316,0.0234850030392408,0.0309164375066757,0.0355413444340229
647,0.14779444038868,0.00578479981049895,0.0300297662615776,0.0202323719859123,0.02727678604424,0.0349474810063839
648,0.146148800849915,0.00862296111881733,0.0243447218090296,0.0138606019318104,0.0210949126631022,0.0329413823783398
649,0.144859805703163,0.00792420469224453,0.0190437007695436,0.00788226444274187,0.0138424513861537,0.0299963410943747
650,0.144588172435761,0.00417374353855848,0.0162798371165991,0.0041219424456358,0.00554716028273106,0.0250815413892269
651,0.144372135400772,-2.25168259930797E-05,0.0154197514057159,0.00244296435266733,-0.00306797446683049,0.0193594824522734
652,0.14503975212574,-0.000121672033856157,0.0169103927910328,0.00460974918678403,-0.00768745038658381,0.0179630108177662
653,0.147158145904541,0.00501481676474214,0.0204109996557236,0.0094705643132329,-0.00690369447693229,0.0211342386901379
654,0.15034519135952,0.0119631420820951,0.0242447778582573,0.0131763825193048,-0.00304785347543657,0.0235203113406897
655,0.152801379561424,0.0175524465739727,0.0265506617724895,0.0140248704701662,0.00254155206494033,0.0221439655870199
656,0.152444079518318,0.0217081159353256,0.0265484899282455,0.0134826917201281,0.0105399442836642,0.0189412608742714
657,0.150295421481133,0.0256831180304289,0.0250134970992804,0.0136037291958928,0.0203865356743336,0.0168084986507893
658,0.148747861385345,0.0290847066789865,0.0226785317063332,0.0136927403509617,0.0288267526775599,0.0153727605938911
659,0.149310901761055,0.0326097086071968,0.0216169450432062,0.0132872788235545,0.0351108387112617,0.0142537308856845
660,0.151167765259743,0.0377473048865795,0.0233956668525934,0.0136942025274038,0.0408310145139694,0.0148029336705804
661,0.152298361063004,0.0442738384008408,0.0267096422612667,0.0162264332175255,0.0457089282572269,0.0181022305041552
662,0.150931000709534,0.050106767565012,0.0292641837149858,0.020069221034646,0.0467977449297905,0.0227212142199278
663,0.14493864774704,0.0511713325977325,0.0283969603478909,0.0212179459631443,0.0404150038957596,0.0239842515438795
664,0.135856762528419,0.0466160550713539,0.0241897366940975,0.0184490773826838,0.0294120647013187,0.0204650089144707
665,0.127699956297874,0.0395590029656887,0.0195422004908323,0.0141774080693722,0.0211307387799025,0.0150711592286825
666,0.121146805584431,0.0328774079680443,0.0168185923248529,0.0106250150129199,0.0176963862031698,0.0116867469623685
667,0.115562699735165,0.0291637945920229,0.017846317961812,0.0102236568927765,0.0175473485141993,0.0137296002358198
668,0.110129155218601,0.0274296682327986,0.0210042800754309,0.0116876242682338,0.0174574572592974,0.0174969099462032
669,0.103547111153603,0.0233923606574535,0.0219624247401953,0.0102189173921943,0.0139012113213539,0.0146356234326959
670,0.0970673710107803,0.0166059415787458,0.0200848449021578,0.00548179913312197,0.00787096843123436,0.00389159936457872
671,0.0935771092772484,0.0111299762502313,0.0185348019003868,0.0018040161812678,0.00227344804443419,-0.00848449673503637
672,0.0945608019828796,0.0110219717025757,0.0199475288391113,0.0025321776047349,-0.0018521238816902,-0.0159031897783279
673,0.0993595123291016,0.0171699076890945,0.0243191216140985,0.0076692420989275,-0.00426433514803648,-0.0146534340456128
674,0.104533895850182,0.0260943025350571,0.0295990817248821,0.014399528503418,-0.00513368798419833,-0.00618384126573801
675,0.105840049684048,0.0328516699373722,0.0345129109919071,0.0193728934973478,-0.00466015096753836,0.00317287584766746
676,0.101349912583828,0.0338229201734066,0.0376810431480408,0.0197326373308897,-0.00343833235092461,0.00670055765658617
677,0.0915053859353065,0.0274503715336323,0.0346620008349419,0.0136956470087171,-0.00415530428290367,0.00138019339647144
678,0.0800820961594582,0.0177156757563353,0.0239594336599112,0.00442201131954789,-0.00783784035593271,-0.00755545357242227
679,0.0722190886735916,0.0118654035031796,0.011069399304688,-0.00149056501686573,-0.0112326918169856,-0.0101900640875101
680,0.0708204060792923,0.0132807157933712,0.00374897080473602,0.000357675977284089,-0.0103512443602085,-0.00227702083066106
681,0.0754526183009148,0.0202321298420429,0.0060833259485662,0.00976950023323298,-0.00372738018631935,0.0121282245963812
682,0.0816797018051147,0.0278058610856533,0.0145200192928314,0.0211828276515007,0.00567275378853083,0.025318680331111
683,0.084765650331974,0.0310489907860756,0.0216377954930067,0.0274705477058887,0.0125560276210308,0.0312874875962734
684,0.0846040472388268,0.0297671426087618,0.0245300401002169,0.0271489024162292,0.0153656210750341,0.0295967403799295
685,0.0840049460530281,0.0272374115884304,0.0247089434415102,0.0235089678317308,0.0155482180416584,0.023788807913661
686,0.0842675715684891,0.024332083761692,0.0228313133120537,0.0185903199017048,0.0128611521795392,0.0168544054031372
687,0.085217759013176,0.0207476038485765,0.0195399560034275,0.0140430387109518,0.00758876325562596,0.0114906197413802
688,0.0862646922469139,0.0176989305764437,0.0166009515523911,0.0120884953066707,0.00200816732831299,0.00989192817360163
689,0.086750827729702,0.0161808747798204,0.0155697939917445,0.0134431049227715,-0.00168670353014022,0.0120966490358114
690,0.0858394727110863,0.0150476330891252,0.0162771102041006,0.016048651188612,-0.00383530533872545,0.0157522074878216
691,0.082889698445797,0.0122260199859738,0.0170185640454292,0.016645910218358,-0.00649217329919338,0.017035624012351
692,0.0786613300442696,0.00765514560043812,0.016154458746314,0.0140901114791632,-0.00996881909668446,0.0141030214726925
693,0.0743621587753296,0.00270778359845281,0.0135942343622446,0.00971376337110996,-0.0124547192826867,0.00992833450436592
694,0.0713800713419914,-0.00123777135740966,0.0127097796648741,0.00655660079792142,-0.00983387231826782,0.00972416810691357
695,0.0702018961310387,-0.00403344957157969,0.0152952158823609,0.00599128706380725,-0.000195522952708416,0.0134146101772785
696,0.0691682919859886,-0.00675592664629221,0.0182067807763815,0.00637818314135075,0.0119723603129387,0.0163719821721315
697,0.0657613575458527,-0.0102149127051234,0.018846919760108,0.00571008585393429,0.0203260704874992,0.0163282100111246
698,0.0596410669386387,-0.0137829799205065,0.0183431282639503,0.00371268042363226,0.0227938983589411,0.0145455682650208
699,0.0532830394804478,-0.0156285986304283,0.0189646258950233,0.00243871100246906,0.0211540497839451,0.0135176004841924
700,0.0494225397706032,-0.014312444254756,0.0217644888907671,0.00452333968132734,0.0176374800503254,0.0155742773786187
701,0.050138283520937,-0.00910374708473682,0.0268681086599827,0.0111355073750019,0.014561197720468,0.0220264308154583
702,0.0543049722909927,-0.00205190875567496,0.0315656252205372,0.0195969827473164,0.0123411091044545,0.0299477893859148
703,0.0552400052547455,0.000822651898488402,0.0297500807791948,0.0234366785734892,0.00713563151657581,0.0317588746547699
704,0.0461466312408447,-0.00485557364299893,0.0178120564669371,0.0179466772824526,-0.00504847103729844,0.0222478248178959
705,0.0305015537887812,-0.0147467302158475,0.00162625161465257,0.00737500470131636,-0.0196672305464745,0.00710990419611335
706,0.0197360534220934,-0.0194314289838076,-0.00792635418474674,0.00128630164545029,-0.0266380477696657,-0.00122421886771917
707,0.0201340150088072,-0.0141889434307814,-0.00557769788429141,0.00401343312114477,-0.0216245055198669,0.00331672560423613
708,0.0290297269821167,-0.00163377716671675,0.00669353455305099,0.0131024373695254,-0.00795893836766481,0.0169845912605524
709,0.0397622250020504,0.0122920600697398,0.0226656440645456,0.0239570066332817,0.00746343517675996,0.0324865914881229
710,0.0475561618804932,0.0232650451362133,0.0355881527066231,0.0335063003003597,0.0188397001475096,0.0453168377280235
711,0.053194560110569,0.0308563522994518,0.0441761575639248,0.0417818501591682,0.0261392202228308,0.055918212980032
712,0.0592068210244179,0.0358340963721275,0.0508235134184361,0.0486684553325176,0.0320394113659859,0.0653379410505295
713,0.0644512251019478,0.0375604219734669,0.0543571449816227,0.0515439473092556,0.0361524410545826,0.0716282576322556
714,0.0673284307122231,0.0366995744407177,0.0536481961607933,0.0503497458994389,0.0384436994791031,0.07445128262043
715,0.0668765008449554,0.033887293189764,0.0495830029249191,0.0465490818023682,0.0390116646885872,0.0747450441122055
716,0.0631678774952888,0.0289462860673666,0.0431540757417679,0.0408022105693817,0.037449948489666,0.072373278439045
717,0.0602224506437778,0.024290157482028,0.0376060493290424,0.0361098349094391,0.0362574532628059,0.0693130046129227
718,0.0600306577980518,0.0216087065637112,0.0346228182315826,0.0340372025966644,0.0359987542033196,0.0680562406778336
719,0.0614587441086769,0.0206561051309109,0.0336864031851292,0.0335500985383987,0.034967727959156,0.0696734413504601
720,0.0649323835968971,0.0215202495455742,0.0345024913549423,0.0338860787451267,0.0329980105161667,0.0732639655470848
721,0.0700627937912941,0.0246178545057774,0.0368843488395214,0.0350380353629589,0.0311988480389118,0.0760202705860138
722,0.0742332264780998,0.0303021874278784,0.0405960753560066,0.0372195690870285,0.030844435095787,0.0751486048102379
723,0.0743977501988411,0.0378683172166348,0.043383102864027,0.0383437424898148,0.0305753499269485,0.0678683817386627
724,0.0693485364317894,0.0448119081556797,0.0439817905426025,0.0366137884557247,0.0293501559644938,0.0545206405222416
725,0.0606605485081673,0.0468945652246475,0.0436086319386959,0.0325652882456779,0.0291814096271992,0.0386972948908806
726,0.0509879924356937,0.0424862653017044,0.0425832718610764,0.0268429350107908,0.0304599460214376,0.0235776361078024
727,0.0433904454112053,0.0354366861283779,0.0420472733676434,0.021919172257185,0.0318718105554581,0.0143522443249822
728,0.0394932590425015,0.0293493792414665,0.0440203957259655,0.0204564910382032,0.0330371931195259,0.0152405546978116
729,0.0380419753491879,0.0234146565198898,0.0479241907596588,0.0212045796215534,0.0330801270902157,0.0235264468938112
730,0.0372685268521309,0.0165267921984196,0.0506556071341038,0.0215567816048861,0.030765837058425,0.0333605408668518
731,0.0355076715350151,0.00917372945696115,0.0483985058963299,0.0197588782757521,0.0265623237937689,0.0395149998366833
732,0.0302841905504465,0.000782178132794797,0.0392232537269592,0.0135856745764613,0.021960623562336,0.0382326953113079
733,0.0183636881411076,-0.0106724835932255,0.0227161031216383,-7.27843871572986E-05,0.015623452141881,0.0278689283877611
734,0.000299235049169511,-0.0236645303666592,0.00207539252005517,-0.0192442368716002,0.00632267352193594,0.0121017806231976
735,-0.0161641482263803,-0.0300037991255522,-0.0126199712976813,-0.0331913270056248,-0.00115735491272062,0.00229983497411013
736,-0.022424004971981,-0.0225130189210176,-0.0124113392084837,-0.0319087579846382,0.000164932745974511,0.00980303343385458
737,-0.0176837705075741,-0.00404084706678987,0.000663278508000076,-0.0166730284690857,0.0106972912326455,0.0354079641401768
738,-0.00990468263626099,0.0145879061892629,0.0157911535352468,0.00101523089688271,0.0226428024470806,0.0665799155831337
739,-0.00693927006796002,0.0247101038694382,0.0245080385357141,0.0110075110569596,0.0293005965650082,0.0871114805340767
740,-0.00974554289132357,0.025561710819602,0.026656337082386,0.0127868372946978,0.0300097316503525,0.0915796831250191
741,-0.0143130449578166,0.0219493601471186,0.0276561174541712,0.0122516443952918,0.0276920925825834,0.0878115892410278
742,-0.0176002625375986,0.0176479257643223,0.0296676103025675,0.0128687461838126,0.0251917596906424,0.0837912634015083
743,-0.0211724992841482,0.0123486202210188,0.0281494539231062,0.0126409372314811,0.0221327021718025,0.0782892480492592
744,-0.0279806572943926,0.00460034003481269,0.0204320307821035,0.00907605793327093,0.0182574559003115,0.0669214352965355
745,-0.0385564528405666,-0.00615973630920053,0.00888957921415567,0.00203476683236659,0.0155563270673156,0.0495813451707363
746,-0.0505654066801071,-0.017860284075141,-0.00204051123000681,-0.00591690884903073,0.0159168019890785,0.0313823111355305
747,-0.0618354193866253,-0.0276177320629358,-0.00914477184414864,-0.012189525179565,0.0182154029607773,0.0173482708632946
748,-0.071035124361515,-0.0338362194597721,-0.0110463472083211,-0.0157036054879427,0.0197693426162004,0.00984801724553108
749,-0.07612494379282,-0.0357731766998768,-0.00695475097745657,-0.0156739614903927,0.0204815473407507,0.009836470708251
750,-0.0779692083597183,-0.0355554297566414,-0.000318940845318139,-0.0136660616844893,0.0206147581338882,0.0148935606703162
751,-0.0797165632247925,-0.0357193388044834,0.00377056887373328,-0.0115415491163731,0.0199983902275562,0.021878756582737
752,-0.0843813642859459,-0.0380502603948116,0.00361824058927596,-0.0108028752729297,0.0184007901698351,0.0277966968715191
753,-0.0939375534653664,-0.043608732521534,-0.00029879211797379,-0.0132932681590319,0.0146612646058202,0.0299550499767065
754,-0.105358794331551,-0.0506125800311565,-0.00730646215379238,-0.0180749800056219,0.00829714443534613,0.0289357081055641
755,-0.113354399800301,-0.0567387640476227,-0.0173065345734358,-0.0228156317025423,-0.000232209538808092,0.0268461350351572
756,-0.116230897605419,-0.0606147274374962,-0.0286249928176403,-0.0256557390093803,-0.00969882495701313,0.0265805665403605
757,-0.116479478776455,-0.0619344040751457,-0.0379780866205692,-0.0259014293551445,-0.018843162804842,0.0305758602917194
758,-0.118398569524288,-0.0615076832473278,-0.0431557968258858,-0.0249396711587906,-0.0269778296351433,0.0378735363483429
759,-0.122922286391258,-0.0600091144442558,-0.0434016920626163,-0.0241518262773752,-0.03194659948349,0.0448045134544373
760,-0.126755058765411,-0.0579015426337719,-0.0404075793921947,-0.0236813947558403,-0.031769435852766,0.0470204576849937
761,-0.127570018172264,-0.0555220581591129,-0.037883136421442,-0.0236221868544817,-0.0281624104827642,0.0424619019031525
762,-0.125336825847626,-0.0532800406217575,-0.0378960892558098,-0.024889076128602,-0.0243811178952456,0.033844843506813
763,-0.121091596782207,-0.0529246777296066,-0.0402270257472992,-0.0289317220449448,-0.0230157226324081,0.0240118820220232
764,-0.117679595947266,-0.0560773499310017,-0.0440796241164207,-0.0360391438007355,-0.0256411507725716,0.0116560785099864
765,-0.118120066821575,-0.0607971847057343,-0.0474244654178619,-0.043945986777544,-0.0306064896285534,-0.00338220992125571
766,-0.122021161019802,-0.0624153800308704,-0.0463199391961098,-0.0483695827424526,-0.0324764922261238,-0.0162033084779978
767,-0.127213135361671,-0.0589698366820812,-0.0394838377833366,-0.0465581342577934,-0.0273681618273258,-0.0216971132904291
768,-0.132702842354774,-0.0527764149010181,-0.0307671390473843,-0.0399076044559479,-0.0170369651168585,-0.0194272808730602
769,-0.13717183470726,-0.0474036894738674,-0.0243419986218214,-0.0324961319565773,-0.00675579207018018,-0.0131918080151081
770,-0.138932883739471,-0.045387014746666,-0.0208253730088472,-0.0279923789203167,-0.000898616854101419,-0.00692210672423244
771,-0.138314217329025,-0.0459397286176682,-0.0173150729387999,-0.0261443667113781,0.00119779002852738,-0.000346478627761826
772,-0.136773690581322,-0.0450133457779884,-0.0105578526854515,-0.0236522872000933,0.00393297849223018,0.00901031401008368
773,-0.135616272687912,-0.0408199317753315,-0.000922612380236387,-0.0199479982256889,0.00843398086726666,0.0195083934813738
774,-0.135066166520119,-0.0355518832802773,0.00896292459219694,-0.0161490775644779,0.0120585998520255,0.0273796264082193
775,-0.135023549199104,-0.0313528925180435,0.0164596773684025,-0.011987566947937,0.0126840202137828,0.0314664244651794
776,-0.137561947107315,-0.02899862639606,0.0191886369138956,-0.0082789333537221,0.00944665633141994,0.032412450760603
777,-0.143118411302567,-0.0266608595848084,0.0185494758188725,-0.00462354486808181,0.00553779304027557,0.0337379947304726
778,-0.150993272662163,-0.0240093860775232,0.0165558997541666,-0.00107864500023425,0.00407107453793287,0.036969218403101
779,-0.161984071135521,-0.025226503610611,0.0118532609194517,-0.00147518573794514,0.00294003263115883,0.037033423781395
780,-0.173954546451569,-0.032443605363369,0.00376133318059146,-0.00757757993414998,0.000673162925522774,0.0295394193381071
781,-0.184323683381081,-0.0438648574054241,-0.0071862731128931,-0.0173089783638716,-0.00146735541056842,0.0157543160021305
782,-0.193033531308174,-0.0556483715772629,-0.0186294261366129,-0.0268482379615307,-0.001525585539639,0.00142070138826966
783,-0.199590995907784,-0.0642631649971008,-0.0266782138496637,-0.0329988785088062,0.000569688680116087,-0.00864149630069733
784,-0.204502552747726,-0.0698404088616371,-0.0305857863277197,-0.0361498706042767,0.00132316630333662,-0.0147721609100699
785,-0.209956333041191,-0.074551060795784,-0.0326277315616608,-0.0387171171605587,-0.001410998753272,-0.0191579684615135
786,-0.216136634349823,-0.0785423964262009,-0.0341817177832127,-0.041328888386488,-0.00511248083785176,-0.0225549060851336
787,-0.22222138941288,-0.0813321247696877,-0.035747617483139,-0.0435933396220207,-0.00894307252019644,-0.0262650325894356
788,-0.229600012302399,-0.0835591703653336,-0.0377943962812424,-0.0457851029932499,-0.0162058956921101,-0.0314455404877663
789,-0.23920638859272,-0.0841372534632683,-0.0388102270662785,-0.0468447990715504,-0.0260869972407818,-0.0356500595808029
790,-0.250029027462006,-0.0835670605301857,-0.0382255539298058,-0.0472578890621662,-0.0350224040448666,-0.0376281812787056
791,-0.260770797729492,-0.0852177515625954,-0.037922564893961,-0.049766793847084,-0.0432449765503407,-0.0395557545125484
792,-0.269446432590485,-0.0879865139722824,-0.0376748479902744,-0.0530569665133953,-0.0499262772500515,-0.0402833707630634
793,-0.273742020130157,-0.0865899324417114,-0.0352331139147282,-0.0526319034397602,-0.0509293898940086,-0.0356235355138779
794,-0.273395776748657,-0.0792070403695107,-0.0305268689990044,-0.0475123375654221,-0.0456524789333344,-0.0255557708442211
795,-0.270174711942673,-0.0680132284760475,-0.0255091823637486,-0.0401197969913483,-0.0376323573291302,-0.013612287119031
796,-0.264909893274307,-0.0534679293632507,-0.0201640464365482,-0.0315086841583252,-0.0284430980682373,-0.00106387946289033
797,-0.256915777921677,-0.0363798253238201,-0.012837702408433,-0.0217575784772635,-0.0174600910395384,0.0117149911820889
798,-0.247863098978996,-0.0238071512430906,-0.00483084237203002,-0.0133885648101568,-0.00675429683178663,0.0207518134266138
799,-0.242457240819931,-0.0228555593639612,-0.000131926892208867,-0.0100760599598289,-0.000697907002177089,0.0213794317096472
800,-0.242191091179848,-0.0316402390599251,3.12511037918739E-05,-0.0122720524668694,-0.000298797735013068,0.0149503704160452
801,-0.244116321206093,-0.0426735244691372,-0.00181896542198956,-0.0175489857792854,-0.00235988362692297,0.00719907646998763
802,-0.246526628732681,-0.0516949333250523,-0.00268173683434725,-0.0239258129149675,-0.00403527775779366,0.0012404554290697
803,-0.249084860086441,-0.0591078028082848,-0.00193213566672057,-0.0300436448305845,-0.00564258592203259,-0.00375039968639612
804,-0.250026434659958,-0.0642639473080635,-0.00181341951247305,-0.0340096279978752,-0.00891449023038149,-0.00861389935016632
805,-0.249516785144806,-0.0654975548386574,-0.00546909775584936,-0.0355522930622101,-0.0148422922939062,-0.0134290643036366
806,-0.250416398048401,-0.0643513798713684,-0.0141182402148843,-0.0369126163423061,-0.0216669123619795,-0.0186185222119093
807,-0.253657519817352,-0.0635202452540398,-0.0250773634761572,-0.0393774658441544,-0.0248142573982477,-0.0237997770309448
808,-0.256614565849304,-0.062203761190176,-0.0328796394169331,-0.041071679443121,-0.0210891291499138,-0.0271017048507929
809,-0.256367981433868,-0.0575718097388744,-0.0336048975586891,-0.0394414775073528,-0.011475102044642,-0.0269295256584883
810,-0.25306162238121,-0.04943972453475,-0.0280402097851038,-0.0345788113772869,-0.00015088745567482,-0.0237911809235811
811,-0.2479517608881,-0.0399051271378994,-0.0193699765950441,-0.0281666368246078,0.00842233840376139,-0.018043166026473
812,-0.24297870695591,-0.031682513654232,-0.0106967696920037,-0.0219984743744135,0.0109786270186305,-0.010287475772202
813,-0.240907818078995,-0.0267138723284006,-0.00386044755578041,-0.0172248873859644,0.00699529144912958,-0.00346977729350328
814,-0.243403792381287,-0.0262626279145479,-0.000370707362890244,-0.0153781408444047,-0.00178397493436933,-0.0015416347887367
815,-0.249721959233284,-0.0310516394674778,-0.00162721192464232,-0.0186007358133793,-0.0137749081477523,-0.00623759254813194
816,-0.254103153944016,-0.0377336330711842,-0.00504169426858425,-0.0248935036361218,-0.0254488382488489,-0.0133940884843469
817,-0.250457286834717,-0.0407025888562202,-0.00623717391863465,-0.0290246792137623,-0.0315090715885162,-0.0160538423806429
818,-0.240572184324265,-0.0385007858276367,-0.00515398569405079,-0.0295466482639313,-0.0304377470165491,-0.0126183545216918
819,-0.23126494884491,-0.034354642033577,-0.00520548317581415,-0.0289184246212244,-0.0258566252887249,-0.00709918886423111
820,-0.226750895380974,-0.0317361317574978,-0.0080683371052146,-0.0288353711366653,-0.0218501556664705,-0.00281113595701754
821,-0.226863905787468,-0.0317838080227375,-0.011982211843133,-0.0294802077114582,-0.0197751969099045,-0.00119620910845697
822,-0.229815393686295,-0.0345003046095371,-0.0143379336223006,-0.0311751719564199,-0.0197222232818604,-0.00374458753503859
823,-0.233784586191177,-0.0392041318118572,-0.0140358423814178,-0.0346459075808525,-0.0216201581060886,-0.0106086768209934
824,-0.234668910503387,-0.041763860732317,-0.00984862633049488,-0.0373487062752247,-0.0221093557775021,-0.0168782789260149
825,-0.229691654443741,-0.0394307821989059,-0.00265495758503675,-0.0361562520265579,-0.0181125327944756,-0.0179932694882154
826,-0.221526622772217,-0.0356861688196659,0.0028024585917592,-0.0325304828584194,-0.0118887713178992,-0.0162881519645453
827,-0.212139368057251,-0.033287487924099,0.00487210601568222,-0.0279359128326178,-0.00523186149075627,-0.0141064058989286
828,-0.199997842311859,-0.0314964093267918,0.00700877886265516,-0.0222802497446537,0.00373409129679203,-0.00958777777850628
829,-0.185543611645699,-0.0299567505717278,0.0124788042157888,-0.0169842373579741,0.015821011736989,-0.00254700193181634
830,-0.173039779067039,-0.0290162786841393,0.0209091901779175,-0.0130232302471995,0.0285309925675392,0.00354769942350686
831,-0.165553793311119,-0.0282311290502548,0.028776878491044,-0.00911810714751482,0.0385177247226238,0.00642028916627169
832,-0.161906838417053,-0.0265446603298187,0.0332157984375954,-0.00424067536368966,0.0432271994650364,0.00796585064381361
833,-0.159558489918709,-0.0236212480813265,0.0344534814357758,0.00112566363532096,0.0416339971125126,0.0117420302703977
834,-0.158200547099113,-0.0210878308862448,0.0319062024354935,0.00468999752774835,0.0332941599190235,0.0170147754251957
835,-0.157696753740311,-0.0198039300739765,0.0245511345565319,0.00477526802569628,0.0192460399121046,0.0201193485409021
836,-0.156803980469704,-0.0177791565656662,0.0156121803447604,0.00324530061334372,0.00435911910608411,0.0204369314014912
837,-0.156429097056389,-0.0144234616309404,0.00876325089484453,0.00179364730138332,-0.00624989252537489,0.0189558397978544
838,-0.157997623085976,-0.0122556937858462,0.00369758065789938,-0.00081233715172857,-0.011902054771781,0.0156555809080601
839,-0.160341635346413,-0.0125890905037522,-0.000590273062698543,-0.00486921984702349,-0.0157189667224884,0.011857844889164
840,-0.160073176026344,-0.0123480968177319,-0.00196490320377052,-0.00678424583747983,-0.0189455188810825,0.0112597988918424
841,-0.154129862785339,-0.00779805891215801,0.00215916591696441,-0.00343378633260727,-0.0187584683299065,0.0148048317059875
842,-0.144301638007164,2.46318504650844E-05,0.00996548868715763,0.00282711512409151,-0.0144149009138346,0.018267847597599
843,-0.135833099484444,0.00763667933642864,0.0174527820199728,0.00759367970749736,-0.00992099288851023,0.0179794803261757
844,-0.131085440516472,0.0134092010557652,0.0226314440369606,0.00931285321712494,-0.00878660846501589,0.0144254015758634
845,-0.12850259244442,0.0174201242625713,0.0255824942141771,0.00897216238081455,-0.00995964650064707,0.0099666640162468
846,-0.125156953930855,0.0212927255779505,0.0287769846618176,0.00946343317627907,-0.00932540651410818,0.00770673109218478
847,-0.119319424033165,0.0263053923845291,0.0335100330412388,0.0122378617525101,-0.00481690326705575,0.0090978741645813
848,-0.112001545727253,0.0305888094007969,0.0370400547981262,0.0146680884063244,0.00180765963159502,0.0111786369234324
849,-0.105318412184715,0.0321815200150013,0.0374311953783035,0.0149537175893784,0.00851207133382559,0.0116041880100966
850,-0.100567787885666,0.0315386541187763,0.0341857001185417,0.0137045811861753,0.0147840632125735,0.0117948893457651
851,-0.0971766486763954,0.0298086423426867,0.0273102223873138,0.0115683730691671,0.0209451373666525,0.0137117141857743
852,-0.0942841768264771,0.0266888942569494,0.0192625913769007,0.00889918208122253,0.0256797671318054,0.0176721345633268
853,-0.0927405431866646,0.0208765156567097,0.013817529194057,0.00635142298415303,0.0259390790015459,0.0229281447827816
854,-0.0921638607978821,0.013236572034657,0.013782199472189,0.00571006955578923,0.0227494388818741,0.0287359301000834
855,-0.0889620929956436,0.00700659304857254,0.0184405315667391,0.00838521309196949,0.021137110888958,0.0335103683173656
856,-0.0802157521247864,0.00469118403270841,0.0235297679901123,0.0138106234371662,0.0227340776473284,0.0355330668389797
857,-0.0677687153220177,0.00518704485148191,0.0253170058131218,0.0197512749582529,0.0236941501498222,0.0344309248030186
858,-0.0556702688336372,0.00567519245669246,0.0239432901144028,0.0244846139103174,0.0209297221153975,0.0314999334514141
859,-0.0464325100183487,0.00468503870069981,0.0214334409683943,0.0273892618715763,0.0152260391041636,0.0279526561498642
860,-0.0401440784335136,0.00164618052076548,0.0187402479350567,0.0283720307052135,0.00810252502560616,0.0240732617676258
861,-0.0343181975185871,-0.00307954964227974,0.016584724187851,0.0290381815284491,0.000504491617903113,0.0216727443039417
862,-0.0257216654717922,-0.00581901101395488,0.0174443256109953,0.0318531095981598,-0.00518282456323504,0.0231370609253645
863,-0.0136098805814981,-0.00178701139520854,0.0249662436544895,0.0380974486470222,-0.00442032003775239,0.028346735984087
864,-0.00162337557412684,0.00662606162950397,0.0379292592406273,0.0458724088966846,0.00455052684992552,0.0340325944125652
865,0.00632008677348495,0.0124423215165734,0.049211248755455,0.0512618385255337,0.0179646294564009,0.03674640879035
866,0.0113914906978607,0.0137773808091879,0.0544263981282711,0.0531947873532772,0.030766723677516,0.0368069671094418
867,0.0167733952403069,0.0129314279183745,0.055114820599556,0.0533424280583858,0.0398101471364498,0.0370182767510414
868,0.0223359428346157,0.0122562758624554,0.0545419156551361,0.0530290901660919,0.0442060716450214,0.0386701449751854
869,0.0259739365428686,0.0128575069829822,0.0538505129516125,0.0526718571782112,0.0446579679846764,0.0401206277310848
870,0.0272589419037104,0.013940554112196,0.0522625669836998,0.0520385466516018,0.042244378477335,0.0396018028259277
871,0.0279779825359583,0.0143755320459604,0.0500545725226402,0.0512617863714695,0.038794033229351,0.0378362946212292
872,0.0303570199757814,0.0143842035904527,0.0488040782511234,0.0513827614486218,0.0386328510940075,0.0364268608391285
873,0.0349622592329979,0.014933293685317,0.0496416874229908,0.0527144148945808,0.0453655384480953,0.0362415499985218
874,0.0413192063570023,0.0171032883226871,0.0526570789515972,0.0548749417066574,0.0567606911063194,0.0380594544112682
875,0.0497765094041824,0.0213676132261753,0.0571453683078289,0.0580301247537136,0.0682082399725914,0.0425084009766579
876,0.0605321489274502,0.026145726442337,0.0614784695208073,0.0612828619778156,0.0773758068680763,0.0485777854919434
877,0.0724989473819733,0.0295868795365095,0.0645551830530167,0.0630470588803291,0.0836721733212471,0.0547155700623989
878,0.0848989859223366,0.0319481715559959,0.0670275986194611,0.0635597556829453,0.0866534560918808,0.060776062309742
879,0.0986252054572105,0.0350418463349342,0.069893978536129,0.064479760825634,0.085555799305439,0.0672574937343597
880,0.114620089530945,0.0409027002751827,0.0739125683903694,0.0677133873105049,0.081827700138092,0.0740717276930809
881,0.131632089614868,0.0494643896818161,0.0791095495223999,0.0740419998764992,0.0782008692622185,0.0793981924653053
882,0.145878821611404,0.0581241622567177,0.0841600522398949,0.0814874321222305,0.0748164355754852,0.0806140527129173
883,0.153860956430435,0.0643828734755516,0.0879751294851303,0.0864860042929649,0.0708870142698288,0.0768454894423485
884,0.154839918017387,0.0667315125465393,0.0889186710119247,0.0861036628484726,0.0657679885625839,0.0683307126164436
885,0.152026101946831,0.0665334910154343,0.0861288011074066,0.0810457244515419,0.0598885081708431,0.0577708706259727
886,0.150475293397903,0.067409873008728,0.0818460360169411,0.0750400796532631,0.055216446518898,0.049516923725605
887,0.152593731880188,0.0703591778874397,0.0787008330225945,0.0704447850584984,0.0525741465389729,0.0445259585976601
888,0.1584452688694,0.073602594435215,0.0777306258678436,0.0675410926342011,0.0520562753081322,0.0417021475732327
889,0.166712880134583,0.0744817107915878,0.0771974697709084,0.064746230840683,0.0537414103746414,0.0397255979478359
890,0.174796402454376,0.0718003064393997,0.0748419910669327,0.0606551580131054,0.0565005540847778,0.036930900067091
891,0.180925965309143,0.0682157948613167,0.0711086019873619,0.0565105676651001,0.0574815571308136,0.0331028662621975
892,0.185376465320587,0.0670760422945023,0.06644307076931,0.0538850836455822,0.0537901632487774,0.0298176649957895
893,0.188864424824715,0.0681558325886726,0.0593681260943413,0.0524433441460133,0.0448787696659565,0.0285167936235666
894,0.191403225064278,0.0693035572767258,0.0495264045894146,0.0509869083762169,0.0329214595258236,0.0283455811440945
895,0.193199336528778,0.0697071552276611,0.0387559980154037,0.0487697906792164,0.0223337020725012,0.0269447583705187
896,0.193979024887085,0.0679801777005196,0.0275827739387751,0.044343177229166,0.0156098157167435,0.0222322903573513
897,0.193080723285675,0.0619456768035889,0.0160770379006863,0.0368865542113781,0.0103785200044513,0.0144341001287103
898,0.193046137690544,0.0542053580284119,0.00865969806909561,0.0300802290439606,0.00669399322941899,0.00812132190912962
899,0.197430118918419,0.049994669854641,0.00941202975809574,0.0277565307915211,0.00757427932694554,0.00694562681019306
900,0.205224484205246,0.0500558465719223,0.0159094054251909,0.0291147083044052,0.0115461079403758,0.00956081598997116
901,0.213214427232742,0.051649983972311,0.0227597672492266,0.0320451520383358,0.0143517069518566,0.0136490436270833
902,0.219589367508888,0.052214115858078,0.0264126285910606,0.0346088409423828,0.0133132487535477,0.0166613906621933
903,0.223705142736435,0.0503502562642097,0.0273815356194973,0.0349087901413441,0.0091029005125165,0.0150983333587646
904,0.22536826133728,0.0457261279225349,0.0276021789759398,0.0326046496629715,0.00485038524493575,0.00748456967994571
905,0.224892094731331,0.0383941680192947,0.0263378862291574,0.028299517929554,0.0026728983502835,-0.00418402208015323
906,0.222657054662704,0.0286666080355644,0.0215559750795364,0.0216370616108179,0.00110044016037136,-0.0164316426962614
907,0.219395235180855,0.0192413814365864,0.013203396461904,0.0125238411128521,-0.00356201757676899,-0.0263670366257429
908,0.218181595206261,0.0165058355778456,0.00512933544814587,0.00457106018438935,-0.011139152571559,-0.0314115844666958
909,0.220421478152275,0.0216348022222519,0.000722820055671036,0.00087542791152373,-0.0180673208087683,-0.0322155803442001
910,0.223949790000916,0.0265682283788919,-0.000102126577985473,0.000426141719799489,-0.021455617621541,-0.0316553451120853
911,0.228473827242851,0.0263711903244257,0.00316368881613016,0.00304696359671652,-0.0188523549586535,-0.0288131106644869
912,0.235011175274849,0.0228054951876402,0.0100186411291361,0.00933613441884518,-0.00997823663055897,-0.0219818111509085
913,0.24221758544445,0.0173437241464853,0.0159775838255882,0.0171393696218729,0.000956452451646328,-0.0130169903859496
914,0.248452380299568,0.0115943970158696,0.0184051003307104,0.0241488516330719,0.00863924715667963,-0.00398828322067857
915,0.253220349550247,0.00829534791409969,0.0194316636770964,0.0303782504051924,0.0124190608039498,0.0053808456286788
916,0.254467278718948,0.00702253077179194,0.0199612993746996,0.0348174422979355,0.0145323351025581,0.0132157858461142
917,0.251062870025635,0.00616965815424919,0.0198736283928156,0.0364063531160355,0.0171631462872028,0.0161005482077599
918,0.244983404874802,0.00604918925091624,0.0208241175860167,0.0366249196231365,0.0212688632309437,0.0143264178186655
919,0.237319648265839,0.00523104518651962,0.0219104904681444,0.035481758415699,0.0237249005585909,0.00925667397677898
920,0.228572398424149,0.00190026802010834,0.0209808871150017,0.0317975766956806,0.0205003935843706,0.00222344766370952
921,0.220216944813728,-0.00228066253475845,0.0198945701122284,0.0271422993391752,0.0120904911309481,-0.00326974736526608
922,0.212690502405167,-0.00533622689545155,0.0208808872848749,0.0237396024167538,0.00218066503293812,-0.00436936318874359
923,0.205822989344597,-0.00779572455212474,0.0223512295633554,0.0214988142251968,-0.00711835781112313,-0.00165172480046749
924,0.200139209628105,-0.0107658607885242,0.0217284485697746,0.0191334206610918,-0.0155677972361445,0.00159425346646458
925,0.195359751582146,-0.0150139387696981,0.017427533864975,0.0151068698614836,-0.0222925301641226,0.000689795182552189
926,0.189971908926964,-0.0208007730543613,0.00965004879981279,0.00857693888247013,-0.0264042727649212,-0.00697830133140087
927,0.18341475725174,-0.0267287492752075,0.000890990835614502,0.0012804011348635,-0.0276273358613253,-0.0184627715498209
928,0.177194267511368,-0.0309593100100756,-0.00691298022866249,-0.00455182930454612,-0.0260796509683132,-0.0289944000542164
929,0.173277422785759,-0.0328002870082855,-0.0124385021626949,-0.00876203272491694,-0.022478686645627,-0.0367676168680191
930,0.171278610825539,-0.0320911519229412,-0.0132663827389479,-0.0113335680216551,-0.0167436078190804,-0.0407766960561275
931,0.167641714215279,-0.0300117023289204,-0.0101273339241743,-0.0124358907341957,-0.0101694948971272,-0.0403798706829548
932,0.158885836601257,-0.0296391230076551,-0.00910922605544329,-0.0144930956885219,-0.00844925921410322,-0.038238599896431
933,0.14515545964241,-0.0337339490652084,-0.0148105155676603,-0.0197723731398582,-0.0162706654518843,-0.0387997850775719
934,0.129791542887688,-0.0423637963831425,-0.0258701425045729,-0.0272741671651602,-0.0306838937103748,-0.043923731893301
935,0.116991840302944,-0.0513840019702911,-0.0372451171278954,-0.0335287041962147,-0.043097548186779,-0.0502152778208256
936,0.110533982515335,-0.0550317317247391,-0.043306078761816,-0.0352962054312229,-0.0476342141628265,-0.0515666864812374
937,0.110865108668804,-0.0523593202233315,-0.0426333285868168,-0.0329557023942471,-0.0469179376959801,-0.0470250733196735
938,0.113497987389565,-0.0482197813689709,-0.0399745516479015,-0.0309930816292763,-0.0480794943869114,-0.0431303158402443
939,0.114656075835228,-0.0463572964072227,-0.0394574664533138,-0.0321036987006664,-0.0532766096293926,-0.044268012046814
940,0.114514492452145,-0.0461374260485172,-0.0401176437735558,-0.0342332310974598,-0.0589937642216682,-0.0480762124061584
941,0.1142947524786,-0.0459931753575802,-0.0389933548867702,-0.0344421751797199,-0.062126737087965,-0.0514831654727459
942,0.114189483225346,-0.0459280572831631,-0.0344764553010464,-0.0325991921126843,-0.0620277151465416,-0.0543218180537224
943,0.112996645271778,-0.0470204167068005,-0.0280543882399797,-0.0310884322971106,-0.0598219148814678,-0.0585051439702511
944,0.108740866184235,-0.0504347793757916,-0.0235342737287283,-0.0320286527276039,-0.0574759468436241,-0.0658245831727982
945,0.101184092462063,-0.0557355359196663,-0.0228244662284851,-0.0350748375058174,-0.054874274879694,-0.074697457253933
946,0.0936202108860016,-0.0603236146271229,-0.024483498185873,-0.037543997168541,-0.048573225736618,-0.0802607387304306
947,0.0894844681024551,-0.0629115775227547,-0.0274212099611759,-0.0378307364881039,-0.0379343293607235,-0.0791570767760277
948,0.0883201584219933,-0.0653594881296158,-0.0325791016221046,-0.0374825708568096,-0.0289635621011257,-0.0727923512458801
949,0.0866989269852638,-0.0692557767033577,-0.0404336154460907,-0.0386784039437771,-0.0280077923089266,-0.0658267661929131
950,0.0836743041872978,-0.0729631781578064,-0.0483211874961853,-0.0406635850667953,-0.0341667234897614,-0.0607540942728519
951,0.0820492953062058,-0.0742116644978523,-0.0527379512786865,-0.0413492955267429,-0.0410949029028416,-0.0568682439625263
952,0.082404762506485,-0.0736409872770309,-0.053800355643034,-0.0413424111902714,-0.045011542737484,-0.0546271055936813
953,0.0822398811578751,-0.0732149332761765,-0.053220771253109,-0.0420027896761894,-0.045959360897541,-0.0555200017988682
954,0.0782018154859543,-0.0736083090305328,-0.0514477305114269,-0.0432291887700558,-0.0451529882848263,-0.0593261495232582
955,0.0671452432870865,-0.0747618228197098,-0.0488158985972404,-0.0449219718575478,-0.0440697632730007,-0.0642303824424744
956,0.0500094406306744,-0.0768484771251678,-0.0466295629739761,-0.0473567321896553,-0.0433594733476639,-0.0685939714312553
957,0.0323200896382332,-0.0793853104114532,-0.047038622200489,-0.0505181811749935,-0.0429545938968658,-0.0719379484653473
958,0.019444402307272,-0.0817671790719032,-0.0514524690806866,-0.05391875654459,-0.0427571311593056,-0.0741109848022461
959,0.0134678389877081,-0.0840515047311783,-0.0585853755474091,-0.0562391504645348,-0.0431529879570007,-0.0736582577228546
960,0.0126789975911379,-0.0860520228743553,-0.0655301585793495,-0.0561054982244968,-0.0453884080052376,-0.0700023919343948
961,0.0122511638328433,-0.0889673307538033,-0.0715170130133629,-0.05543402582407,-0.0515012182295322,-0.0676773563027382
962,0.0089885238558054,-0.0944552421569824,-0.076919361948967,-0.0574283003807068,-0.06135343760252,-0.0715117454528809
963,0.00445092841982841,-0.100631542503834,-0.0796019360423088,-0.0607993677258492,-0.0706401243805885,-0.0790628120303154
964,0.00117947964463383,-0.103478513658047,-0.076877199113369,-0.0619179271161556,-0.0758414939045906,-0.0838260278105736
965,1.73141270352062E-05,-0.101142726838589,-0.0695977658033371,-0.0598011799156666,-0.0770499035716057,-0.0825502797961235
966,0.00146171927917749,-0.0942705497145653,-0.0611167699098587,-0.0548992194235325,-0.0747235715389252,-0.0763682126998901
967,0.00474454276263714,-0.0857812464237213,-0.0547828711569309,-0.0487643517553806,-0.0702890828251839,-0.0697232112288475
968,0.00645086914300919,-0.0814612731337547,-0.053933322429657,-0.046519435942173,-0.0675374493002892,-0.0688397809863091
969,0.00601022271439433,-0.0823383033275604,-0.0571226812899113,-0.0490702502429485,-0.0649364292621613,-0.0726562067866325
970,0.00659220758825541,-0.0828581154346466,-0.0583378523588181,-0.0499762557446957,-0.056933868676424,-0.0734928250312805
971,0.00775665929540992,-0.0816303789615631,-0.0559999719262123,-0.0473956950008869,-0.046974141150713,-0.0701225474476814
972,0.00670036859810352,-0.0810365900397301,-0.052802100777626,-0.0451281853020191,-0.0428895056247711,-0.0662977620959282
973,0.00329653662629426,-0.0817041471600533,-0.051319282501936,-0.0454356484115124,-0.0457108467817307,-0.0641223266720772
974,0.000849483127240092,-0.083637461066246,-0.0514319539070129,-0.0475629195570946,-0.0503408536314964,-0.063811793923378
975,0.00219805748201907,-0.0889658778905869,-0.0523903071880341,-0.0515053309500217,-0.0544210262596607,-0.0667286142706871
976,0.00619860691949725,-0.0995223075151443,-0.0551928915083408,-0.0583237111568451,-0.0610115267336369,-0.075151115655899
977,0.00894226040691137,-0.112467482686043,-0.0600088685750961,-0.0663334652781487,-0.0699923187494278,-0.0873529314994812
978,0.00728775793686509,-0.123496010899544,-0.0660389363765717,-0.0726397335529327,-0.0768743827939034,-0.0978387519717216
979,0.00197192979976535,-0.131180807948112,-0.072499968111515,-0.075867272913456,-0.0799112096428871,-0.10232575237751
980,-0.00447126431390643,-0.137025892734528,-0.0795957893133163,-0.0772765651345253,-0.0825566947460175,-0.101374574005604
981,-0.00951048173010349,-0.141723781824112,-0.0862105339765549,-0.0780356004834175,-0.0873676612973213,-0.0961453914642334
982,-0.0109551222994924,-0.14422994852066,-0.0883870199322701,-0.0771968960762024,-0.0921293348073959,-0.0865220353007317
983,-0.00893846526741982,-0.144526317715645,-0.0831815823912621,-0.0737648606300354,-0.0931342095136642,-0.0749269723892212
984,-0.00861854013055563,-0.146045431494713,-0.0748280063271523,-0.0704388990998268,-0.0914464741945267,-0.0677110254764557
985,-0.0149673242121935,-0.152212649583817,-0.0713284537196159,-0.0714787542819977,-0.0912478715181351,-0.0706242695450783
986,-0.0235300473868847,-0.158583536744118,-0.0715742260217667,-0.0741065144538879,-0.0896186307072639,-0.0803352147340775
987,-0.0264383032917976,-0.157591372728348,-0.0678586214780808,-0.0721185728907585,-0.0802710726857185,-0.0876053422689438
