,AF3,AF4,Fp1,Fp2,AF7,AF8
0,-0.038652952760458,0.00258459523320198,-0.0518326573073864,-0.0445155687630177,-0.0477634593844414,-0.0646358132362366
1,-0.0391400903463364,0.00408123061060905,-0.0502108931541443,-0.042854368686676,-0.0470798313617706,-0.0642557293176651
2,-0.0402425937354565,0.00556000182405114,-0.0507093816995621,-0.041646920144558,-0.049335066229105,-0.063330315053463
3,-0.0401783846318722,0.00829602591693401,-0.0515542253851891,-0.0402367748320103,-0.0517558194696903,-0.0611290298402309
4,-0.0391393676400185,0.0112621169537306,-0.0522452928125858,-0.0392367169260979,-0.0527003183960915,-0.0585496835410595
5,-0.0385139212012291,0.0128619326278567,-0.0534224733710289,-0.0396712906658649,-0.0528556145727634,-0.0570843666791916
6,-0.0377961657941341,0.0143055403605103,-0.054195873439312,-0.040447011590004,-0.0524711608886719,-0.0559036880731583
7,-0.0360043942928314,0.0174688100814819,-0.0532156229019165,-0.0394457317888737,-0.0511231869459152,-0.0528854355216026
8,-0.0346950180828571,0.0212570149451494,-0.0516049303114414,-0.0369431152939796,-0.0499586313962936,-0.0483710467815399
9,-0.0359484255313873,0.0235623382031918,-0.0514561608433723,-0.0349063463509083,-0.0508375763893127,-0.0438741147518158
10,-0.0389098711311817,0.0241734087467194,-0.0521111562848091,-0.0339507088065147,-0.0528607703745365,-0.0402481034398079
11,-0.0419344566762447,0.023211233317852,-0.0523164160549641,-0.0343874767422676,-0.0544842220842838,-0.0391875654459
12,-0.0447882786393166,0.0212712381035089,-0.0524513572454453,-0.0360921993851662,-0.0564295910298824,-0.0405886806547642
13,-0.0466257110238075,0.0207517463713884,-0.0516749173402786,-0.0362027399241924,-0.0585909560322762,-0.0405229330062866
14,-0.0473700873553753,0.0218622125685215,-0.0496533624827862,-0.0337068624794483,-0.0605594962835312,-0.0377530567348003
15,-0.0495908074080944,0.0215053167194128,-0.0487994700670242,-0.0323670096695423,-0.0638894811272621,-0.036430399864912
16,-0.0537172295153141,0.0189111717045307,-0.0493897274136543,-0.0340729840099812,-0.0676386132836342,-0.0387725122272968
17,-0.0562563538551331,0.0164038017392159,-0.0487790741026402,-0.0364576131105423,-0.0680859684944153,-0.0427944511175156
18,-0.0546362847089767,0.0157587192952633,-0.0458934903144836,-0.0369685664772987,-0.0642329901456833,-0.045372299849987
19,-0.0501835718750954,0.0168921239674091,-0.0419096015393734,-0.0352708734571934,-0.0583158805966377,-0.0447059534490108
20,-0.0458168461918831,0.0183319766074419,-0.0381241664290428,-0.0330131873488426,-0.0526572056114674,-0.0423063449561596
21,-0.0435964353382587,0.018165897578001,-0.0361507572233677,-0.0324106812477112,-0.0495324917137623,-0.0405338667333126
22,-0.0429792143404484,0.0168099291622639,-0.0363484844565392,-0.0331258065998554,-0.0493269972503185,-0.038266833871603
23,-0.041464988142252,0.0166013892740011,-0.03672044724226,-0.0328339822590351,-0.0497485920786858,-0.0334641747176647
24,-0.0384820774197578,0.0174044892191887,-0.0359410904347897,-0.0316242910921574,-0.049237210303545,-0.0283115040510893
25,-0.035103052854538,0.0176996253430843,-0.0338632054626942,-0.0310245864093304,-0.0470788180828094,-0.0263271797448397
26,-0.0322768017649651,0.0171279814094305,-0.0316437594592571,-0.0320622883737087,-0.0439900942146778,-0.0283540245145559
27,-0.0301409643143415,0.0160144679248333,-0.030614361166954,-0.0345592647790909,-0.0418923199176788,-0.0326014906167984
28,-0.0281574949622154,0.0144607163965702,-0.0307363327592611,-0.0376422703266144,-0.0420247688889503,-0.0373005829751492
29,-0.0255835615098476,0.0130475889891386,-0.031045239418745,-0.0401576608419418,-0.0441704988479614,-0.0415901839733124
30,-0.0215660687536001,0.0135465366765857,-0.0299712084233761,-0.0400928407907486,-0.046562273055315,-0.0440492071211338
31,-0.016254710033536,0.0168445371091366,-0.0269713364541531,-0.0368814244866371,-0.0477632991969585,-0.0438242182135582
32,-0.010851064696908,0.0217382125556469,-0.0235346630215645,-0.0324075780808926,-0.0480631031095982,-0.0413414463400841
33,-0.00670816609635949,0.0260559655725956,-0.0217670761048794,-0.0291926674544811,-0.0484001524746418,-0.0378947556018829
34,-0.00407842267304659,0.0290291961282492,-0.0217494778335094,-0.0275239497423172,-0.0481384098529816,-0.034254364669323
35,-0.00264701852574945,0.0308940913528204,-0.0222048740833998,-0.0261785704642534,-0.0465585961937904,-0.0308711528778076
36,-0.00175149994902313,0.031377699226141,-0.0219405479729176,-0.0246971435844898,-0.0441339612007141,-0.0287039522081614
37,-0.000255114515312016,0.0302858650684357,-0.020556204020977,-0.0233625639230013,-0.0418529696762562,-0.0281767789274454
38,0.000851341406814754,0.0272669121623039,-0.0202189646661282,-0.0234858319163322,-0.0420678034424782,-0.0293483547866344
39,-0.000286802242044359,0.0226997584104538,-0.0232513286173344,-0.0256053395569324,-0.0463244020938873,-0.0313183218240738
40,-0.00312576116994023,0.0180220603942871,-0.0295189414173365,-0.0286036524921656,-0.0534685216844082,-0.0324851907789707
41,-0.00594860082492232,0.0140834525227547,-0.0371440537273884,-0.031432680785656,-0.0609000436961651,-0.0326990373432636
42,-0.0076177092269063,0.0109909465536475,-0.0431645177304745,-0.0335651524364948,-0.0652756616473198,-0.0329390428960323
43,-0.00715453643351793,0.00941279251128435,-0.0447437837719917,-0.0341106727719307,-0.0638115331530571,-0.0329418405890465
44,-0.00421825936064124,0.0104186870157719,-0.0412810370326042,-0.0317692719399929,-0.0568991042673588,-0.0314459651708603
45,-0.000300425803288817,0.0132874334231019,-0.0355652868747711,-0.0273430868983269,-0.0491541512310505,-0.0293356943875551
46,0.0029398815240711,0.0163137502968311,-0.0309132728725672,-0.0231944657862186,-0.0449923798441887,-0.0282530933618546
47,0.00466776872053742,0.018234871327877,-0.0287045687437058,-0.0204404983669519,-0.0451656803488731,-0.0277733560651541
48,0.00457686558365822,0.0182229187339544,-0.0290297493338585,-0.0192612800747156,-0.0486751198768616,-0.0273213423788548
49,0.0036170647945255,0.0166453570127487,-0.0310823936015368,-0.0196102261543274,-0.0542035512626171,-0.0274886917322874
50,0.00283867050893605,0.014374241232872,-0.0339444018900394,-0.0214426033198833,-0.060759786516428,-0.0288862343877554
51,0.0027403780259192,0.0123274251818657,-0.03669523447752,-0.0241000931710005,-0.06717399507761,-0.0312576033174992
52,0.00345654063858092,0.0113129206001759,-0.0381818488240242,-0.0260580945760012,-0.0714630782604218,-0.0335925258696079
53,0.00384617387317121,0.0109876962378621,-0.0381709672510624,-0.0271299239248037,-0.0726574659347534,-0.0355889834463596
54,0.00309074926190078,0.0105202728882432,-0.0372813194990158,-0.028526782989502,-0.071252778172493,-0.0379868224263191
55,0.00232301698997617,0.0100351041182876,-0.0356315188109875,-0.0303026083856821,-0.067815788090229,-0.0403844118118286
56,0.00290064699947834,0.00999290123581886,-0.0334084704518318,-0.0319674275815487,-0.063316598534584,-0.0415047891438007
57,0.00468529155477881,0.00954235810786486,-0.0320516861975193,-0.034333411604166,-0.0601839870214462,-0.0418818444013596
58,0.00629372429102659,0.00766122527420521,-0.0325931794941425,-0.037624504417181,-0.060403510928154,-0.0425135940313339
59,0.00731602124869823,0.00572579819709063,-0.0333590656518936,-0.0395847782492638,-0.0622474811971188,-0.0420157983899117
60,0.00925593916326761,0.00641000643372536,-0.0316764414310455,-0.0377750620245934,-0.0618529096245766,-0.0383726060390472
61,0.0124533763155341,0.00978707149624825,-0.0276613011956215,-0.0327794067561626,-0.058363925665617,-0.0325898341834545
62,0.0151147563010454,0.0129764126613736,-0.0240338891744614,-0.0277781598269939,-0.0545816197991371,-0.0280216857790947
63,0.016707219183445,0.0148734878748655,-0.02210808172822,-0.0242834240198135,-0.0524088069796562,-0.0250242743641138
64,0.0176553931087255,0.0162826087325811,-0.0217495784163475,-0.021567091345787,-0.0522025972604752,-0.0216963104903698
65,0.0171793252229691,0.016022615134716,-0.0239121485501528,-0.0200184360146523,-0.0550721734762192,-0.0190944988280535
66,0.015364739112556,0.0130499778315425,-0.0285855252295733,-0.0202236007899046,-0.0604401789605618,-0.0190992839634418
67,0.0141826197504997,0.00934280175715685,-0.032978106290102,-0.0207338631153107,-0.0644168108701706,-0.0208124574273825
68,0.0143933817744255,0.00675610126927495,-0.0350232645869255,-0.0205010548233986,-0.0645255371928215,-0.0233078990131617
69,0.0145465712994337,0.00472578639164567,-0.0356022715568542,-0.0208075102418661,-0.0625768080353737,-0.0274307280778885
70,0.0139889568090439,0.00318088405765593,-0.0355173759162426,-0.0218038968741894,-0.060874380171299,-0.0317573621869087
71,0.0132319210097194,0.0027333814650774,-0.034852247685194,-0.0226179696619511,-0.0601440779864788,-0.0337658897042274
72,0.0126089211553335,0.00273720687255263,-0.0343258269131184,-0.0242498628795147,-0.0602895021438599,-0.0342416875064373
73,0.0134954629465938,0.00355644011870027,-0.0332473106682301,-0.0260743517428637,-0.0596051253378391,-0.0338145680725574
74,0.0165496133267879,0.00588537473231554,-0.030553949996829,-0.026077451184392,-0.0568391419947147,-0.0319004543125629
75,0.0195415820926428,0.00816250219941139,-0.0274666920304298,-0.0250019077211618,-0.0534387975931168,-0.0295279268175364
76,0.0209983810782433,0.00978140532970428,-0.0245703607797623,-0.0232316814363003,-0.050251018255949,-0.0263875499367714
77,0.020868556573987,0.0111689688637853,-0.0216604042798281,-0.0203586965799332,-0.0472278110682964,-0.0216972529888153
78,0.0192595515400171,0.0120584964752197,-0.0190469697117805,-0.0171428304165602,-0.0441305786371231,-0.0167786851525307
79,0.0170680861920118,0.0125170964747667,-0.0163434464484453,-0.0139758167788386,-0.0395838096737862,-0.0127279823645949
80,0.0140880988910794,0.0116615016013384,-0.0146950883790851,-0.0124518992379308,-0.0345190986990929,-0.0107423048466444
81,0.0106508610770106,0.00999790709465742,-0.0150024518370628,-0.0132049433887005,-0.0303955487906933,-0.010347992181778
82,0.00831430498510599,0.00949270185083151,-0.0161285270005465,-0.0142377130687237,-0.0270891077816486,-0.00984538067132235
83,0.00664932234212756,0.00929571129381657,-0.0178011991083622,-0.0147892655804753,-0.025787765160203,-0.00980834290385246
84,0.00528851756826043,0.0078363623470068,-0.0194438546895981,-0.014946611598134,-0.0267393849790096,-0.010315764695406
85,0.00525258202105761,0.00511593278497458,-0.0202337130904198,-0.0148321948945522,-0.0281746294349432,-0.0107050407677889
86,0.0067094792611897,0.00192463537678123,-0.0206289049237967,-0.0146625321358442,-0.0290401950478554,-0.0110409138724208
87,0.00849018525332212,-0.00115385942626745,-0.0210827812552452,-0.0143450377508998,-0.029416661709547,-0.0115578919649124
88,0.00941624026745558,-0.0041822325438261,-0.0212596319615841,-0.0141382263973355,-0.0292623080313206,-0.0129309352487326
89,0.00967855751514435,-0.00654687872156501,-0.020381223410368,-0.0139713678508997,-0.0279663931578398,-0.0150472959503531
90,0.00990045163780451,-0.00709931133314967,-0.0183306578546762,-0.013312921859324,-0.0254109594970942,-0.0167468134313822
91,0.00997841078788042,-0.00603813678026199,-0.0158036332577467,-0.0125461257994175,-0.0222538411617279,-0.017663611099124
92,0.00921843014657497,-0.00481271138414741,-0.0136690912768245,-0.0125045459717512,-0.0193386431783438,-0.017583454027772
93,0.0070485114119947,-0.00488608237355947,-0.0125123467296362,-0.0131969684734941,-0.0173629354685545,-0.0157184861600399
94,0.00470441253855824,-0.00584811065346003,-0.0107686603441834,-0.0131722074002028,-0.0152032682672143,-0.0116972839459777
95,0.00375309539958835,-0.0055173309519887,-0.00630514323711395,-0.0108630945906043,-0.0110433613881469,-0.0061356364749372
96,0.00310747162438929,-0.00359432003460824,-0.000713727960828692,-0.00740730157122016,-0.00608170265331864,-0.00163659756071866
97,0.000983573612757027,-0.00174052186775953,0.00259955902583897,-0.00539265153929591,-0.00292173959314823,-0.000831687415484339
98,-0.00281563284806907,-0.00120087573304772,0.0023594459053129,-0.00604432262480259,-0.00256102625280619,-0.00403375318273902
99,-0.00730386935174465,-0.00187281984835863,-0.00021730265871156,-0.008402937091887,-0.00450346386060119,-0.00906027667224407
100,-0.0112600764259696,-0.00266874535009265,-0.00312629947438836,-0.0104872332885861,-0.00777112552896142,-0.0124774007126689
101,-0.0138316499069333,-0.00274093588814139,-0.00521363876760006,-0.011106769554317,-0.0113031715154648,-0.0124116269871593
102,-0.0148396575823426,-0.00228639901615679,-0.00681681605055928,-0.010700955055654,-0.0145955961197615,-0.010114973410964
103,-0.0152660673484206,-0.00176050886511803,-0.00864936504513025,-0.0102285798639059,-0.0177582707256079,-0.00777189061045647
104,-0.0163671933114529,-0.000585359870456159,-0.0100409733131528,-0.00951172225177288,-0.0203068852424622,-0.00534808542579412
105,-0.0182108450680971,0.00185967970173806,-0.00991632789373398,-0.00805245991796255,-0.0214903969317675,-0.0021770263556391
106,-0.0197902116924524,0.00563309527933598,-0.00786788668483496,-0.00538757117465138,-0.0207785908132792,0.00149480195250362
107,-0.0204587206244469,0.0101214274764061,-0.00444535771384835,-0.00167627225164324,-0.0186604764312506,0.00508300215005875
108,-0.0204085800796747,0.0138967987149954,-0.00133740203455091,0.00147098826710135,-0.0168237909674644,0.0077776899561286
109,-0.0200761687010527,0.0163368936628103,0.00021540085435845,0.00304839760065079,-0.0163791179656982,0.00942348875105381
110,-0.0202625226229429,0.0173127017915249,-0.000220526097109541,0.00291049689985812,-0.0180377494543791,0.00932483002543449
111,-0.0213211365044117,0.0167995523661375,-0.00213957647792995,0.00149588205385953,-0.0215543117374182,0.00728075532242656
112,-0.0225091055035591,0.0161033235490322,-0.00388294574804604,0.000628499430604279,-0.0250089447945356,0.00580063182860613
113,-0.0233478602021933,0.0162395071238279,-0.00453085824847221,0.00142039160709828,-0.027197040617466,0.00648142676800489
114,-0.0239958763122559,0.0160798896104097,-0.00414853217080235,0.00296511384658515,-0.0273363720625639,0.00799055211246014
115,-0.0238936245441437,0.0146179301664233,-0.00196484406478703,0.00450713001191616,-0.0231693219393492,0.00917287636548281
116,-0.0229858551174402,0.0120670031756163,0.00185503659304231,0.00589601043611765,-0.0150990458205342,0.0103856325149536
117,-0.0231577306985855,0.00820148456841707,0.00404980080202222,0.00574177503585815,-0.00887833256274462,0.0115948272868991
118,-0.0250139553099871,0.00359475938603282,0.00284697557799518,0.00336109916679561,-0.00838859658688307,0.0123306876048446
119,-0.0272972043603659,-0.000577526341658086,-0.000195517524844036,-0.000293779739877209,-0.0121256271377206,0.0117926402017474
120,-0.0294178016483784,-0.00475707463920116,-0.00360993226058781,-0.00465221935883164,-0.01744195073843,0.00865685194730759
121,-0.0305095165967941,-0.00877915322780609,-0.00435001635923982,-0.00692428601905704,-0.0207813903689384,0.00539313163608313
122,-0.0298089105635881,-0.0109764356166124,0.0011889492161572,-0.00372792943380773,-0.0190970674157143,0.0063943900167942
123,-0.028797684237361,-0.0122718177735806,0.00963637512177229,0.0011666304199025,-0.0149092087522149,0.00879260897636414
124,-0.028729846701026,-0.0154617186635733,0.0135093349963427,0.000909127411432564,-0.0130444159731269,0.00654269522055984
125,-0.027871560305357,-0.0200160890817642,0.0121216159313917,-0.00366664002649486,-0.0131809012964368,0.00128885579761118
126,-0.0250434074550867,-0.023802500218153,0.00920532364398241,-0.00785946100950241,-0.0131155150011182,-0.00265789800323546
127,-0.0220934674143791,-0.0266965199261904,0.00561856804415584,-0.0108904307708144,-0.0135547537356615,-0.00584076344966888
128,-0.0200407318770885,-0.0283249411731958,0.0026406841352582,-0.0123541597276926,-0.013621499761939,-0.00855084508657455
129,-0.0186622980982065,-0.0283750779926777,0.00135519355535507,-0.0117645720019937,-0.0121775744482875,-0.00973904971033335
130,-0.0182738844305277,-0.0280871633440256,-0.00078823120566085,-0.0115780625492334,-0.011786007322371,-0.0108286896720529
131,-0.0185184348374605,-0.0280391871929169,-0.0054528103210032,-0.0141702126711607,-0.0141020407900214,-0.0141032868996263
132,-0.0188097637146711,-0.0275370739400387,-0.0110535258427262,-0.0188192296773195,-0.0179547816514969,-0.0191268157213926
133,-0.0184966083616018,-0.0252836793661118,-0.0148823373019695,-0.022296030074358,-0.0214397627860308,-0.0222876034677029
134,-0.0163397435098886,-0.0203776136040688,-0.0147428093478084,-0.0221556629985571,-0.0220630988478661,-0.0214044656604528
135,-0.0132139697670937,-0.0150782708078623,-0.0122571457177401,-0.0202586110681295,-0.0198440197855234,-0.0191263500601053
136,-0.0117130456492305,-0.0129177588969469,-0.0116733955219388,-0.020309479907155,-0.0172453429549932,-0.0193354990333319
137,-0.0113758221268654,-0.0131232291460037,-0.0132945505902171,-0.022340627387166,-0.0139603409916162,-0.0219161231070757
138,-0.00974198244512081,-0.0127535425126553,-0.01500279083848,-0.0242871139198542,-0.00947583187371492,-0.0241490826010704
139,-0.00631466880440712,-0.0114549491554499,-0.0170031692832708,-0.0260447524487972,-0.00665570190176368,-0.0248632598668337
140,-0.00215820805169642,-0.0101640289649367,-0.0196245834231377,-0.0283890217542648,-0.00748765654861927,-0.0243862941861153
141,0.00177907652687281,-0.00856308452785015,-0.0211165454238653,-0.0305841416120529,-0.0102385068312287,-0.0226502809673548
142,0.00515498826280236,-0.0062421471811831,-0.0205024108290672,-0.0318409018218517,-0.013081431388855,-0.0194954387843609
143,0.00871679652482271,-0.00381977949291468,-0.0188145264983177,-0.0325393453240395,-0.0159028768539429,-0.0158234015107155
144,0.0133816655725241,-0.00135899672750384,-0.0167227704077959,-0.0322180651128292,-0.0180205013602972,-0.0125942109152675
145,0.0178007706999779,0.000835080863907933,-0.0150115191936493,-0.0306288283318281,-0.0193544793874025,-0.0105037232860923
146,0.0204357095062733,0.00196847389452159,-0.0147731425240636,-0.0288916081190109,-0.0203738808631897,-0.0101861469447613
147,0.023113003000617,0.00302074756473303,-0.0150688476860523,-0.0268392823636532,-0.0192484632134438,-0.0102411927655339
148,0.026812044903636,0.00458690943196416,-0.014899960719049,-0.0241431649774313,-0.0154997725039721,-0.00911637023091316
149,0.0282057859003544,0.0053941747173667,-0.0147314472123981,-0.022046098485589,-0.0114683294668794,-0.00789511110633612
150,0.025022029876709,0.00541381537914276,-0.013530901633203,-0.0205674767494202,-0.00741481687873602,-0.0072350986301899
151,0.0187532044947147,0.00530412420630455,-0.0103430571034551,-0.0193226020783186,-0.00335904769599438,-0.00731844175606966
152,0.0113190533593297,0.00428355624899268,-0.00744675751775503,-0.0197786968201399,-0.00231870845891535,-0.00963078439235687
153,0.00425276765599847,0.00211643171496689,-0.00679572531953454,-0.0223395898938179,-0.00549048651009798,-0.0138798337429762
154,-0.000844571681227535,0.000402459932956845,-0.00706873135641217,-0.024687172845006,-0.00961619149893522,-0.0176950618624687
155,-0.00371652655303478,0.000194199121324345,-0.00660524424165487,-0.0249410886317492,-0.0114565500989556,-0.0200608186423779
156,-0.00554452696815133,0.000697273120749742,-0.00559939676895738,-0.0236645359545946,-0.0102625600993633,-0.0213881582021713
157,-0.00769285904243588,0.000791299273259938,-0.0046085980720818,-0.0220452826470137,-0.00642811087891459,-0.0217622928321362
158,-0.0115861045196652,-0.000719172821845859,-0.00443228520452976,-0.0213707443326712,-0.00198328099213541,-0.0224484838545322
159,-0.0175547730177641,-0.00381844840012491,-0.00577981444075704,-0.0222638882696629,0.000285696209175512,-0.0244019385427237
160,-0.0241309758275747,-0.00603153184056282,-0.00773349916562438,-0.0231667347252369,-0.000138374249218032,-0.0251081418246031
161,-0.0299012642353773,-0.00558106973767281,-0.00846729706972837,-0.0227142069488764,-0.00139484216924757,-0.0231842678040266
162,-0.0341879166662693,-0.00281952018849552,-0.00626574037596583,-0.0211735479533672,-0.000911762239411473,-0.020532539114356
163,-0.0379704236984253,0.000167200982104987,-0.00225784745998681,-0.0202630702406168,0.00102857092861086,-0.0193480644375086
164,-0.0427497178316116,0.00115797901526093,0.000536851934157312,-0.0213783755898476,0.00171697477344424,-0.0201328285038471
165,-0.0481602549552917,8.52331213536672E-05,0.001535281422548,-0.0232850126922131,0.00034830448566936,-0.0207116510719061
166,-0.0532039031386375,-0.00180520955473185,0.00156629714183509,-0.0239985324442387,-0.00215464434586465,-0.0189144797623158
167,-0.0573069490492344,-0.00313431560061872,0.0012559233000502,-0.0230439901351929,-0.00473228935152292,-0.0151820816099644
168,-0.06069415807724,-0.0034527787938714,0.000909261114429682,-0.0212680380791426,-0.00679764244705439,-0.0117851151153445
169,-0.0640194565057755,-0.00310333492234349,0.000508231460116804,-0.019345585256815,-0.00773489847779274,-0.0102591663599014
170,-0.0676913037896156,-0.00193874537944794,0.000519659195560962,-0.017336543649435,-0.00658457586541772,-0.0101027218624949
171,-0.0722997412085533,-0.000124482859973796,0.00176373939029872,-0.0159000791609287,-0.00322178308852017,-0.0109198624268174
172,-0.0777727514505386,0.00225977599620819,0.00496472651138902,-0.0150639349594712,0.00208749971352518,-0.0120102670043707
173,-0.0837059915065765,0.00522220367565751,0.00925351958721876,-0.0141845643520355,0.00792755745351315,-0.0120855579152703
174,-0.089792937040329,0.00776397483423352,0.0126403737813234,-0.013497531414032,0.012163482606411,-0.0117011098191142
175,-0.095172218978405,0.00899546500295401,0.0141171747818589,-0.0131969330832362,0.0142236649990082,-0.011809803545475
176,-0.0998247042298317,0.00874861143529415,0.0127858892083168,-0.0136013887822628,0.0136613352224231,-0.0122167207300663
177,-0.104767054319382,0.0076299887150526,0.00869111437350512,-0.015157631598413,0.0105537213385105,-0.0127985347062349
178,-0.110365934669971,0.00594203174114227,0.00360964261926711,-0.0178686082363129,0.0065352232195437,-0.0145519943907857
179,-0.115476690232754,0.00395833281800151,-1.75837194547057E-05,-0.0201451629400253,0.00359964137896895,-0.01732237637043
180,-0.118532404303551,0.0034852409735322,-5.17899970873259E-05,-0.0192072242498398,0.00331567600369453,-0.0183984581381083
181,-0.119716458022594,0.00553505821153522,0.0029781733173877,-0.0149379773065448,0.00489443121477962,-0.0163297802209854
182,-0.121477179229259,0.00808659847825766,0.00576536310836673,-0.0104383798316121,0.00531212007626891,-0.0134473443031311
183,-0.12530954182148,0.00929153338074684,0.00645667081698775,-0.00763787236064672,0.00340175442397594,-0.0118785863742232
184,-0.130322098731995,0.0095533924177289,0.00584503542631865,-0.00620453804731369,0.000865691807121038,-0.0111640375107527
185,-0.135316759347916,0.00945836212486029,0.00439721718430519,-0.00580969406291842,-0.000802667927928269,-0.0109475636854768
186,-0.138877496123314,0.00940761063247919,0.00229623983614147,-0.00568823702633381,-0.00142068637069315,-0.0107323927804828
187,-0.141035482287407,0.00861464533954859,-0.000713329820428044,-0.00633397372439504,-0.00251747155562043,-0.0111842202022672
188,-0.143749982118607,0.0057872710749507,-0.00497436616569757,-0.0094314431771636,-0.00580391474068165,-0.0144300907850266
189,-0.147546663880348,0.00228793430142105,-0.00823261588811874,-0.0132283065468073,-0.00980302598327398,-0.0186594966799021
190,-0.152012497186661,-0.000322511506965384,-0.00825178250670433,-0.0147510450333357,-0.0118194725364447,-0.0205960609018803
191,-0.157142758369446,-0.00251297699287534,-0.00604869145900011,-0.0142010329291224,-0.011123962700367,-0.020953968167305
192,-0.162171974778175,-0.00427344767376781,-0.00397531222552061,-0.013117752969265,-0.00846077688038349,-0.0212753489613533
193,-0.166029244661331,-0.00499728741124272,-0.00365077401511371,-0.0123940827324986,-0.0055040642619133,-0.0216892920434475
194,-0.168541088700294,-0.00562321813777089,-0.00563453789800406,-0.012991439551115,-0.00444463174790144,-0.0225856937468052
195,-0.169556215405464,-0.00695119518786669,-0.0087955491617322,-0.0145545220002532,-0.00579603761434555,-0.023035915568471
196,-0.168482229113579,-0.00777380960062146,-0.011175436899066,-0.0153091354295611,-0.00829523429274559,-0.0208991765975952
197,-0.165580451488495,-0.00725532369688153,-0.0125298406928778,-0.0152743924409151,-0.0112600764259696,-0.0169435944408178
198,-0.161851540207863,-0.00551874144002795,-0.0134697668254375,-0.0150186736136675,-0.0140429027378559,-0.013205673545599
199,-0.157876029610634,-0.00255272467620671,-0.0134703358635306,-0.013704365119338,-0.0146319279447198,-0.00981966126710176
200,-0.153953060507774,0.000907107547391206,-0.011862825602293,-0.0110985096544027,-0.011640477925539,-0.00677922181785107
201,-0.150916114449501,0.00322575378231704,-0.00946871191263199,-0.00875834375619888,-0.00677455868571997,-0.00482917157933116
202,-0.149768695235252,0.00371789676137269,-0.00792969390749931,-0.008604746311903,-0.00331395282410085,-0.00416206009685993
203,-0.150535762310028,0.00308729964308441,-0.00767158763483167,-0.0111028105020523,-0.00274538272060454,-0.00442810216918588
204,-0.152660042047501,0.00195009610615671,-0.00859295018017292,-0.0155270313844085,-0.00466694729402661,-0.00587675487622619
205,-0.155348151922226,0.00105119741056114,-0.0100255673751235,-0.0199623499065638,-0.0072950036264956,-0.00800397247076035
206,-0.157529711723328,0.000605579873081297,-0.0108416983857751,-0.0226132199168205,-0.0090746870264411,-0.00976751744747162
207,-0.158280283212662,0.000102543737739325,-0.0112129170447588,-0.0236081853508949,-0.0106259994208813,-0.0115972748026252
208,-0.1564661860466,0.00011162424198119,-0.0108171068131924,-0.0231412667781115,-0.0117020858451724,-0.0136567866429687
209,-0.151901304721832,0.00124121201224625,-0.00838559120893478,-0.0208868663758039,-0.0106054786592722,-0.0144795877858996
210,-0.14572586119175,0.00330486870370805,-0.00347409024834633,-0.0167241431772709,-0.00649280613288283,-0.0125101497396827
211,-0.139590293169022,0.00447562010958791,0.00165258056949824,-0.0124378297477961,-0.000625977816525847,-0.0089538861066103
212,-0.135018721222878,0.00195937184616923,0.00318893161602318,-0.0112940389662981,0.00451645953580737,-0.00667990883812308
213,-0.131447732448578,-0.0035386704839766,0.000890721275936812,-0.0130339600145817,0.0088731637224555,-0.00546175194904208
214,-0.127287805080414,-0.00860954634845257,-0.00221041752956808,-0.0145904188975692,0.0138147454708815,-0.00350966700352728
215,-0.12174966186285,-0.0107058519497514,-0.00316300475969911,-0.0141871375963092,0.0193197652697563,-0.000376173265976831
216,-0.114896312355995,-0.00932041276246309,-0.00101925141643733,-0.0119875865057111,0.0240003559738398,0.00375022552907467
217,-0.10820160806179,-0.00663049099966884,0.00184755388181657,-0.00955147761851549,0.0253193508833647,0.00780221587046981
218,-0.103124871850014,-0.00495480699464679,0.00211866712197661,-0.00798459630459547,0.0210901703685522,0.0113133611157537
219,-0.0994910597801209,-0.00501844612881541,-0.000646570581011474,-0.00725725479424,0.0121673075482249,0.0142257958650589
220,-0.0959792360663414,-0.00654143653810024,-0.00386673421598971,-0.00689778570085764,0.00273472187109292,0.0156241366639733
221,-0.0914961770176888,-0.00816050637513399,-0.00528288912028074,-0.006303945556283,-0.00345852901227772,0.0157852564007044
222,-0.0860823392868042,-0.00849831383675337,-0.0048223277553916,-0.00509448908269405,-0.00567906210198998,0.0158539358526468
223,-0.0804661437869072,-0.00743034528568387,-0.00379610620439053,-0.00329599250108004,-0.00515572773292661,0.0157768335193396
224,-0.0755222290754318,-0.00602081511169672,-0.00360662676393986,-0.00148154934868217,-0.00371557637117803,0.0147821241989732
225,-0.0713593140244484,-0.00529477978125215,-0.00425816792994738,-0.00027608367963694,-0.0023071002215147,0.0127391275018454
226,-0.0676143541932106,-0.00580863514915109,-0.00530141731724143,-0.000650842615868896,-0.00150668434798718,0.00952918734401464
227,-0.0641525834798813,-0.00700320769101381,-0.00613958202302456,-0.00263275927864015,-0.00141117139719427,0.00597285619005561
228,-0.0600408092141151,-0.00638376083225012,-0.00461529521271586,-0.00316143734380603,0.000236596431932412,0.0055590383708477
229,-0.0554363168776035,-0.00337215047329664,-0.000390620552934706,-0.000464272656245157,0.00477715162560344,0.00960230361670256
230,-0.0518565848469734,-0.000627747504040599,0.00425663776695728,0.0033446669112891,0.010842346586287,0.0148848900571465
231,-0.0491025112569332,0.000402659934479743,0.00811255350708961,0.00634427135810256,0.0171704702079296,0.0188097897917032
232,-0.0460907518863678,0.000311786687234417,0.0107311271131039,0.00810857210308313,0.0229597836732864,0.0212224554270506
233,-0.0418414436280727,0.000516180589329451,0.0121416579931974,0.00931480806320906,0.0278056487441063,0.0234327893704176
234,-0.0351921059191227,0.00251844734884799,0.0136308437213302,0.0115051083266735,0.0321602448821068,0.0270541552454233
235,-0.0275472570210695,0.00473385583609343,0.0143873794004321,0.0133177656680346,0.0344782173633575,0.0303856637328863
236,-0.0217222478240728,0.0043449099175632,0.0123293707147241,0.0118591878563166,0.0323938243091106,0.0305727683007717
237,-0.0177652407437563,0.00211414159275591,0.0090485829859972,0.00837047770619392,0.0276507716625929,0.0291280839592218
238,-0.0151001391932368,-0.000716466922312975,0.00628692423924804,0.00498658372089267,0.0225650984793901,0.0288800224661827
239,-0.0130260093137622,-0.00447223288938403,0.00321597349829972,0.00164591451175511,0.0170169323682785,0.0301416181027889
240,-0.00936362519860268,-0.00858196616172791,-0.000301484949886799,-0.00148218823596835,0.0114557649940252,0.0313736721873283
241,-0.00355014484375715,-0.011559784412384,-0.00330862565897405,-0.00377581384964287,0.00707440637052059,0.0309535134583712
242,0.002476557623595,-0.0126416767016053,-0.00545092392712832,-0.00557932537049055,0.00406675785779953,0.0282194223254919
243,0.00822113268077374,-0.0119277937337756,-0.00582520617172122,-0.00645304098725319,0.00320071261376143,0.0244144946336746
244,0.0154338711872697,-0.00968525465577841,-0.00256341462954879,-0.00435486063361168,0.00654399255290627,0.0221903882920742
245,0.0232814326882362,-0.0074157640337944,0.00257912720553577,-0.000254365935688838,0.0126078194007277,0.0218829736113548
246,0.0281153488904238,-0.00789733603596687,0.00415091309696436,0.00124252855312079,0.0156074305996299,0.0204972662031651
247,0.0293129328638315,-0.011458121240139,0.000867864931933582,-0.00152330216951668,0.0131851090118289,0.0160426553338766
248,0.0299938712269068,-0.0149073544889688,-0.00297617330215871,-0.00508350180462003,0.00904923863708973,0.0108718294650316
249,0.0324763841927052,-0.0154171027243137,-0.00421848334372044,-0.00603224989026785,0.00699564861133695,0.00859508942812681
250,0.0363480411469936,-0.0131241325289011,-0.00336656882427633,-0.00454627815634012,0.0072606336325407,0.00961457379162312
251,0.0395892113447189,-0.0110354656353593,-0.00275950995273888,-0.00364670506678522,0.00822947081178427,0.0103879068046808
252,0.0410501584410667,-0.0109790666028857,-0.00369177898392081,-0.00491645513102412,0.00935525819659233,0.00894517917186022
253,0.0411895215511322,-0.0115600870922208,-0.00530843436717987,-0.00686620967462659,0.0110823297873139,0.00756745738908648
254,0.0413596518337727,-0.0113740097731352,-0.00628073886036873,-0.00799392536282539,0.0133960293605924,0.00776221696287394
255,0.0438873767852783,-0.00983390863984823,-0.00543679017573595,-0.00766415242105722,0.0164804216474295,0.00903161149471998
256,0.0510159097611904,-0.00599140441045165,-0.00155090738553554,-0.00475418940186501,0.0212572924792767,0.0114669995382428
257,0.0613986402750015,-0.000886283232830465,0.00346659403294325,0.000271457742201164,0.0255353897809982,0.0146534228697419
258,0.0705951899290085,0.00260345754213631,0.00555380340665579,0.00483528897166252,0.0248043108731508,0.0175742190331221
259,0.0761871933937073,0.00421847309917212,0.00445901090279222,0.00791446678340435,0.0188383553177118,0.0205412860959768
260,0.078670397400856,0.00510026561096311,0.0024333531036973,0.0094368252903223,0.0108201755210757,0.0229410044848919
261,0.0796568021178246,0.00486443471163511,0.000666701351292431,0.00918748043477535,0.00372215011157095,0.0232546534389257
262,0.0810170471668243,0.00341094168834388,-0.000412039982620627,0.00795777142047882,-0.000469864811748266,0.0220898911356926
263,0.0832260176539421,0.0016466750530526,-0.000738736009225249,0.00679042702540755,-0.0013354531256482,0.0209132693707943
264,0.0847396180033684,-0.000466747966129333,-0.000565539638046175,0.00591149786487222,0.000199092857656069,0.0196455717086792
265,0.0843994542956352,-0.00327590783126652,0.000334236829075962,0.00513776438310742,0.00297776539810002,0.0171531140804291
266,0.0823104009032249,-0.00647966796532273,0.00206968723796308,0.00421532243490219,0.00596014643087983,0.0125341722741723
267,0.0790464952588081,-0.00978850200772285,0.00404243124648929,0.00354325561784208,0.00814090110361576,0.00675622699782252
268,0.075716108083725,-0.0124909915030003,0.00556334620341659,0.00432504527270794,0.00881730113178492,0.00263718422502279
269,0.072705365717411,-0.0142644234001637,0.00450498750433326,0.00526775326579809,0.00648006657138467,0.000681045348756015
270,0.0702590122818947,-0.0147059094160795,-0.00075762695632875,0.00380128039978445,0.000605188775807619,-0.000350421294569969
271,0.0695035606622696,-0.0126598505303264,-0.00788662489503622,0.000521007284987718,-0.00555912079289556,3.15995748678688E-06
272,0.0701083391904831,-0.00929104816168547,-0.0135201439261436,-0.00327981426380575,-0.00838909111917019,0.000697214796673507
273,0.0708490088582039,-0.00719420379027724,-0.0158855933696032,-0.00696912314742804,-0.00732462806627154,-0.000258926971582696
274,0.0720499455928802,-0.0065759508870542,-0.0143891694024205,-0.00872241705656052,-0.00431195180863142,-0.00113675859756768
275,0.0748403817415237,-0.00563832884654403,-0.00964979454874992,-0.00717122107744217,-0.00115177524276078,0.0010082625085488
276,0.0783539786934853,-0.00421232217922807,-0.00468743173405528,-0.00444339355453849,0.000730773492250592,0.00462479796260595
277,0.0806098207831383,-0.00371326878666878,-0.00258937641046941,-0.00368973659351468,0.000455300905741751,0.0054125334136188
278,0.0817404165863991,-0.00421252055093646,-0.00240270188078284,-0.00483916234225035,-0.000221095615415834,0.00173774210270494
279,0.0823807567358017,-0.00500197475776076,-0.00232016295194626,-0.00612379098311067,-0.000254640559433028,-0.00420378753915429
280,0.0818725749850273,-0.00615308713167906,-0.00312613323330879,-0.00679304823279381,-0.00160758872516453,-0.00911696162074804
281,0.0801697596907616,-0.0081200897693634,-0.00582184642553329,-0.00716879079118371,-0.00556311290711164,-0.0117239933460951
282,0.0783422589302063,-0.0107805263251066,-0.00988466292619705,-0.00788898300379515,-0.011228078044951,-0.0123223904520273
283,0.0774405151605606,-0.0135145829990506,-0.0133584113791585,-0.00957984104752541,-0.0163552854210138,-0.01182961743325
284,0.0780712068080902,-0.0156637094914913,-0.014318716712296,-0.0119873424991965,-0.018782826140523,-0.0113090435042977
285,0.0794567912817001,-0.0169707648456097,-0.0129991238936782,-0.0142102492973208,-0.0183493364602327,-0.0114820702001452
286,0.0793172940611839,-0.0179523564875126,-0.0116432579234242,-0.0163109730929136,-0.01748451218009,-0.0127238603308797
287,0.0777027234435081,-0.0181173756718636,-0.010836842469871,-0.0178093630820513,-0.0176854729652405,-0.013727318495512
288,0.0781026557087898,-0.0154352691024542,-0.00802826322615147,-0.0165819097310305,-0.016575301066041,-0.0120314219966531
289,0.0808564499020576,-0.010851239785552,-0.00332325324416161,-0.0131688984110951,-0.0132924281060696,-0.00814215280115604
290,0.0829250663518906,-0.0074194660410285,0.000610147195402533,-0.00993128959089518,-0.00928003434091806,-0.00408934568986297
291,0.083592526614666,-0.00541253201663494,0.00347761646844447,-0.00657014548778534,-0.00470304815098643,0.000637278484646231
292,0.0834829062223434,-0.00428212154656649,0.00518116541206837,-0.00287233712151647,-0.00114787125494331,0.00624444941058755
293,0.0827029868960381,-0.00464528473094106,0.00489482935518026,-0.000766191398724914,-0.000787887955084443,0.0109680593013763
294,0.0820658057928085,-0.00610226159915328,0.00378156010992825,-0.000927052402403206,-0.00228442600928247,0.0141843454912305
295,0.081765428185463,-0.00769428117200732,0.00293157622218132,-0.00249736942350864,-0.00396371958777308,0.0161101706326008
296,0.0801396891474724,-0.00989578478038311,0.000552452227566391,-0.0057084234431386,-0.00730981584638357,0.0160934198647738
297,0.0769709870219231,-0.0126599660143256,-0.00411909632384777,-0.010125626809895,-0.0127420853823423,0.0147152785211802
298,0.0739205703139305,-0.0154934944584966,-0.00925055891275406,-0.0146261500194669,-0.0180645976215601,0.0123824514448643
299,0.0719249099493027,-0.018669605255127,-0.0134567804634571,-0.0187645144760609,-0.0211326684802771,0.00858192890882492
300,0.0720051229000092,-0.0208811387419701,-0.0154760796576738,-0.0207841973751783,-0.0205075424164534,0.00542787183076143
301,0.0751278176903725,-0.0206987019628286,-0.0147093115374446,-0.019379984587431,-0.0168153867125511,0.00505883758887649
302,0.0804041028022766,-0.0184617433696985,-0.0116440383717418,-0.0152057260274887,-0.0118109602481127,0.00685018394142389
303,0.0851433277130127,-0.0152144217863679,-0.00713089667260647,-0.00978434830904007,-0.00696973456069827,0.00872645527124405
304,0.0864864811301231,-0.012687579728663,-0.00343159050680697,-0.00574140716344118,-0.00464316830039024,0.00862571038305759
305,0.0837868079543114,-0.0121000111103058,-0.0026277166325599,-0.00500146159902215,-0.00678756274282932,0.00656804302707314
306,0.0793073102831841,-0.0128452898934484,-0.00423902925103903,-0.00686398055404425,-0.0123159484937787,0.00394488219171762
307,0.0759478807449341,-0.0133190862834454,-0.00608285376802087,-0.00901904888451099,-0.0176725070923567,0.0021799448877573
308,0.0743065029382706,-0.0133117539808154,-0.00763925584033132,-0.0107214720919728,-0.0213730186223984,0.00161543185822666
309,0.0736123248934746,-0.0135583505034447,-0.00977709982544184,-0.0126910917460918,-0.0242826957255602,0.00122848921455443
310,0.074491523206234,-0.0129654156044126,-0.0112214060500264,-0.0136481039226055,-0.0258092768490314,0.00135253963526338
311,0.0781112983822823,-0.0104533405974507,-0.0100876642391086,-0.0122827710583806,-0.0246384777128696,0.002482172800228
312,0.0839516595005989,-0.00680102966725826,-0.00647674454376101,-0.00969533529132605,-0.0208574030548334,0.00345102231949568
313,0.0896808132529259,-0.0028975426685065,-0.00193732476327568,-0.0071448958478868,-0.0159107502549887,0.00361950229853392
314,0.0928155332803726,0.000475269480375573,0.00155688170343637,-0.005262840539217,-0.011845076456666,0.00329961231909692
315,0.0924078747630119,0.00227895844727755,0.00284211710095406,-0.00464645400643349,-0.0102205546572804,0.00251176184974611
316,0.0891731679439545,0.00234705954790115,0.00191857083700597,-0.00532109383493662,-0.0116915991529822,0.0010181866819039
317,0.0853220298886299,0.00215802388265729,0.000423852703534067,-0.00581839913502336,-0.0148546081036329,-0.000271914672339335
318,0.0837869346141815,0.00354587519541383,0.00171681214123964,-0.00359469535760581,-0.0153786819428205,0.00100757833570242
319,0.0848068818449974,0.00577127048745751,0.0067501263692975,0.00149307050742209,-0.0105677675455809,0.00548009714111686
320,0.08565853536129,0.00652185967192054,0.0122958309948444,0.00639736978337169,-0.0031484835781157,0.0107528381049633
321,0.0847989544272423,0.00568348867818713,0.015224733389914,0.0089363157749176,0.00236338307149708,0.0143405050039291
322,0.0831363126635551,0.0046718935482204,0.0150333009660244,0.00924212578684092,0.0039355056360364,0.0150585072115064
323,0.082673504948616,0.00453051505610347,0.0136534087359905,0.0086835753172636,0.00309738726355135,0.0135291507467628
324,0.0836424604058266,0.0045996867120266,0.0123526295647025,0.0074572991579771,0.00144971173722297,0.0106719471514225
325,0.0844156369566917,0.00342608685605228,0.0101895024999976,0.00488693220540881,-0.00153445324394852,0.00691918190568686
326,0.085119292140007,0.00198360742069781,0.00796970818191767,0.00264868605881929,-0.00461030704900622,0.00441438192501664
327,0.0860099494457245,0.00155682594049722,0.0076004103757441,0.00232427497394383,-0.0059132375754416,0.00467558577656746
328,0.0861624553799629,0.00172465690411627,0.00912178307771683,0.00384138803929091,-0.00568451592698693,0.00729313353076577
329,0.086125984787941,0.00220341910608113,0.0115982722491026,0.00701860664412379,-0.00443810364231467,0.0120849888771772
330,0.0873230844736099,0.00342948781326413,0.0145498979836702,0.0113021060824394,-0.0021635452285409,0.0183674897998571
331,0.09029521048069,0.00625323783606291,0.0183495357632637,0.0161392502486706,0.00139855279121548,0.0242409873753786
332,0.0937356278300285,0.0101994704455137,0.0220667254179716,0.0201534926891327,0.00492757232859731,0.0272294450551271
333,0.095044270157814,0.013107162900269,0.0229777358472347,0.0210996083915234,0.00532969459891319,0.0258359387516975
334,0.0934350788593292,0.0138498265296221,0.0200484190136194,0.0183715131133795,0.00157596811186522,0.0206912755966187
335,0.0909197479486465,0.0137941502034664,0.0159889329224825,0.0143706761300564,-0.00318575371056795,0.0141254272311926
336,0.0899505540728569,0.0152545096352696,0.0143439061939716,0.012716818600893,-0.00514890998601913,0.00961450207978487
337,0.0906067490577698,0.0181268751621246,0.014931021258235,0.0138287032023072,-0.00469304854050279,0.00835748296231031
338,0.0906327962875366,0.0200999286025763,0.0151141788810492,0.0150772435590625,-0.00455455668270588,0.00820866879075766
339,0.0887205302715302,0.0204439535737038,0.014278344810009,0.0154654132202268,-0.00493564130738378,0.00821184832602739
340,0.085343211889267,0.019385002553463,0.0127087607979774,0.0145938219502568,-0.00489097321406007,0.00779912900179625
341,0.0815776959061623,0.0166757013648748,0.00969909224659204,0.0110201574862003,-0.00494781229645014,0.00517041049897671
342,0.0789092406630516,0.0139151774346828,0.0066467490978539,0.0062048863619566,-0.00447385059669614,0.00115065521094948
343,0.0776484236121178,0.0130059970542789,0.0054128672927618,0.0032522133551538,-0.00285231368616223,-0.00185934058390558
344,0.0764277130365372,0.0125845624133945,0.00383436004631221,0.00180806452408433,-0.0033865631558001,-0.00416636373847723
345,0.0746941938996315,0.0110398475080729,-0.000106103230791632,0.00014627278142143,-0.00827279128134251,-0.00686629163101316
346,0.0738622844219208,0.0100604742765427,-0.00335122202523053,-0.000483399082440883,-0.0136975394561887,-0.00810146145522594
347,0.0746103897690773,0.0110204610973597,-0.00246559805236757,0.0012821004493162,-0.0154545903205872,-0.00642339373007417
348,0.0746742933988571,0.011995043605566,0.000467625271994621,0.0029372675344348,-0.0146188139915466,-0.00457970751449466
349,0.0716599151492119,0.0109416330233216,0.00118765782099217,0.00140293722506613,-0.0145942848175764,-0.0052092457190156
350,0.0671591684222221,0.00921353045850992,-0.000110256958578248,-0.00179858249612153,-0.0151264658197761,-0.00645055109634995
351,0.0647473409771919,0.00959763862192631,-0.000220393456402235,-0.00268347118981183,-0.0135928019881248,-0.00480113876983523
352,0.0652984380722046,0.0122232558205724,0.00193011143710464,-0.000342645857017487,-0.00998368673026562,7.05565616954118E-05
353,0.0668688118457794,0.0147369112819433,0.00464373454451561,0.00301139010116458,-0.00700911367312074,0.00503157312050462
354,0.0673363506793976,0.015115731395781,0.00519320415332913,0.00487253023311496,-0.00792851112782955,0.00653295312076807
355,0.0666545033454895,0.013486628420651,0.00304981716908515,0.00451517151668668,-0.0128813832998276,0.00347067322582006
356,0.0659453198313713,0.0108381556347013,0.000245739764068276,0.00290823029354215,-0.0185796096920967,-0.0020695507992059
357,0.0658946335315704,0.00779252639040351,-0.00141184113454074,0.00171636324375868,-0.0217475723475218,-0.0065452242270112
358,0.0669284462928772,0.00574002275243402,-0.00062170421006158,0.00262991525232792,-0.0204252582043409,-0.00744467321783304
359,0.0683645009994507,0.00560404779389501,0.00246632006019354,0.0052167447283864,-0.0153938131406903,-0.00499007338657975
360,0.068487673997879,0.00587830878794193,0.00556826777756214,0.00662782276049256,-0.00960677396506071,-0.00238000438548625
361,0.0669662356376648,0.00530086550861597,0.00751099223271012,0.00554374791681767,-0.00496646901592612,-0.00179901951923966
362,0.0646181628108025,0.0048254425637424,0.00903488975018263,0.00360745890066028,-0.00172518193721771,-0.00198896904475987
363,0.0608372315764427,0.00451391749083996,0.00958860479295254,0.00144870975054801,-0.000338383455527946,-0.0026391411665827
364,0.0558791719377041,0.00399030838161707,0.00829001422971487,-0.00113368034362793,-0.00114838208537549,-0.00400490313768387
365,0.0525884516537189,0.00491126533597708,0.0065666283480823,-0.00260496768169105,-0.00295780343003571,-0.00404538912698627
366,0.0522000007331371,0.00780452135950327,0.00570305623114109,-0.00230757077224553,-0.00454365229234099,-0.00217509339563549
367,0.0529526807367802,0.0103925596922636,0.00484659615904093,-0.00194763450417668,-0.00589250354096293,-0.000721441232599318
368,0.0533904992043972,0.0115874288603663,0.00372233241796494,-0.00242316024377942,-0.00649256352335215,-0.000789098558016121
369,0.0536250583827496,0.0122421905398369,0.00318220141343772,-0.00290962867438793,-0.00560319051146507,-0.00157498277258128
370,0.054362703114748,0.0128863845020533,0.00363347749225795,-0.00257882871665061,-0.00319576542824507,-0.00224971096031368
371,0.056100957095623,0.0136214066296816,0.00525063509121537,-0.00119938852731138,0.00053100724471733,-0.00212649698369205
372,0.0584066472947598,0.0142981549724936,0.00740840006619692,0.000677492585964501,0.00396195519715548,-0.000601756328251213
373,0.0597795285284519,0.0142632322385907,0.00841526780277491,0.00168677442707121,0.00429155025631189,0.00174539815634489
374,0.0591793991625309,0.0129265021532774,0.00733795762062073,0.000650007801596075,0.00099151290487498,0.00285833445377648
375,0.0574641823768616,0.0115791102871299,0.00564534356817603,-0.00134348531719297,-0.00305021903477609,0.00327167869545519
376,0.0550699457526207,0.0106794657185674,0.00424788892269135,-0.00359327788464725,-0.00629928056150675,0.00404655886813998
377,0.0516642108559608,0.00849845539778471,0.00220051198266447,-0.0072811171412468,-0.00944909639656544,0.00308179366402328
378,0.0480072945356369,0.00498078763484955,-0.000851443328429013,-0.0121079161763191,-0.0121465008705854,-0.00121264450717717
379,0.0455497391521931,0.00194520130753517,-0.00424301065504551,-0.0162125695496798,-0.0132058188319206,-0.00799344014376402
380,0.0459874384105206,0.00145549105945975,-0.00601432519033551,-0.0173264108598232,-0.0112981190904975,-0.0140764340758324
381,0.0486018769443035,0.00365310022607446,-0.005466319154948,-0.0148007981479168,-0.00740724988281727,-0.0166654158383608
382,0.0500796847045422,0.0062419562600553,-0.00420728558674455,-0.0105915870517492,-0.00432794634252787,-0.01605567894876
383,0.0495472885668278,0.00786132365465164,-0.00237406208179891,-0.00624989112839103,-0.00205669738352299,-0.0132138086482883
384,0.0495559833943844,0.00884023029357195,0.00114090403076261,-0.00167639774736017,0.00149959593545645,-0.0081896660849452
385,0.0523835830390453,0.00983560085296631,0.00634085712954402,0.0036494426894933,0.00777692114934325,-0.00126532302238047
386,0.0570666417479515,0.0110632972791791,0.0114334216341376,0.0092493798583746,0.0155652239918709,0.00584505731239915
387,0.060165673494339,0.0111479228362441,0.0129482243210077,0.0125633468851447,0.0202970821410418,0.00964600499719381
388,0.0589447282254696,0.00831734389066696,0.00865530129522085,0.0111187780275941,0.0178890284150839,0.0075741782784462
389,0.0549101866781712,0.00383037934079766,0.00190629053395242,0.0069316178560257,0.011194484308362,0.00169288413599133
390,0.0525406301021576,0.000654275412671268,-0.00174273562151939,0.00410517118871212,0.00719324173405766,-0.00388937653042376
391,0.052917554974556,-0.000522955495398492,-0.00190520484466106,0.00291765783913434,0.00670798448845744,-0.00765050249174237
392,0.0530908890068531,-0.00129646644927561,-0.00201523117721081,0.000837809930089861,0.00541274761781096,-0.0106435297057033
393,0.0508964359760284,-0.00300742662511766,-0.00418593594804406,-0.00336061930283904,0.00110214692540467,-0.0138807166367769
394,0.0481877736747265,-0.00408756406977773,-0.00670634675770998,-0.00705800391733646,-0.00416310271248221,-0.0153390308842063
395,0.0476408377289772,-0.00271156220696867,-0.00692037213593721,-0.00702514918521047,-0.00780939124524593,-0.012571849860251
396,0.0482725463807583,-0.000846492359414697,-0.00564609002321959,-0.00450126454234123,-0.0106118749827147,-0.00759861152619123
397,0.0486332476139069,-0.000716375128831714,-0.0048970221541822,-0.0025312143843621,-0.0137449419125915,-0.00453665107488632
398,0.0493946634232998,-0.00103234313428402,-0.00467087375000119,-0.00170068629086018,-0.0164174791425467,-0.00383738172240555
399,0.0507488660514355,-2.92695967800682E-05,-0.0042606657370925,-0.00136242958251387,-0.0175375174731016,-0.00341634382493794
400,0.052122563123703,0.00203652889467776,-0.00338802835904062,-0.00136522820685059,-0.0160013698041439,-0.00270135002210736
401,0.0537902601063252,0.00433671986684203,-0.00172349542845041,-0.00121462368406355,-0.0111704533919692,-0.00125451467465609
402,0.0559377558529377,0.0063129598274827,0.000333698961185291,-0.00071021553594619,-0.00491587491706014,0.00132852850947529
403,0.0576457343995571,0.00753109436482191,0.00203300477005541,-0.000979167525656521,-0.00031230240711011,0.00328626693226397
404,0.0586311668157578,0.00789100024849176,0.00435741664841771,-0.0023679465521127,0.0022999111097306,0.00229487335309386
405,0.059900626540184,0.00827442295849323,0.00875301007181406,-0.00321056717075408,0.00481109414249659,-0.00127090653404593
406,0.0612915605306625,0.00900888163596392,0.0135352425277233,-0.00294363545253873,0.00714990682899952,-0.0057999100536108
407,0.060853898525238,0.00866321753710508,0.0145936729386449,-0.00351094035431743,0.00646242219954729,-0.0115105705335736
408,0.0585241615772247,0.00732456799596548,0.0112740276381373,-0.00530567346140742,0.00201121042482555,-0.017745453864336
409,0.056485578417778,0.00674117309972644,0.00688006542623043,-0.00667393254116178,-0.00325866718776524,-0.0224326513707638
410,0.055862657725811,0.00794948171824217,0.00421330286189914,-0.00647295452654362,-0.00632949080318213,-0.0239858273416758
411,0.0554470904171467,0.0104400934651494,0.00364099955186248,-0.00477821053937078,-0.00655420124530792,-0.0218964740633965
412,0.0530610047280788,0.0116558354347944,0.0030644244980067,-0.00349007081240416,-0.00585340056568384,-0.0187171883881092
413,0.0493329428136349,0.0107852192595601,0.00185947259888053,-0.00316682481206954,-0.00502709997817874,-0.0164680667221546
414,0.0466102436184883,0.0102391159161925,0.00212510023266077,-0.00154517218470573,-0.00304867862723768,-0.0131716346368194
415,0.0445921532809734,0.011217194609344,0.00418525980785489,0.00205762009136379,-0.000505595526192337,-0.00752421002835035
416,0.0407764613628387,0.0115206260234118,0.00522541627287865,0.0044557093642652,0.000197505738469772,-0.00285356678068638
417,0.0340617187321186,0.00906717963516712,0.00349479191936553,0.00311508239246905,-0.00200202711857855,-0.00248152227140963
418,0.0257854610681534,0.00476988824084401,0.000389628083212301,-0.000682855839841068,-0.00543917808681726,-0.00500856339931488
419,0.0177171770483255,0.000492782390210778,-0.0023998967371881,-0.00501803448423743,-0.00771725177764893,-0.00752408988773823
420,0.011435485444963,-0.00212214002385736,-0.00401335256174207,-0.00847540888935328,-0.00702413590624928,-0.0081230103969574
421,0.00699867308139801,-0.00298807141371071,-0.00537270912900567,-0.0109948553144932,-0.00402611261233687,-0.00697228638455272
422,0.00325599312782288,-0.00310614123009145,-0.00803952477872372,-0.0136210480704904,-0.000987905659712851,-0.00552895292639732
423,0.000780229165684432,-0.00183673854917288,-0.010442222468555,-0.0153307383880019,0.00185179989784956,-0.00391639489680529
424,0.000478542177006602,0.000767633144278079,-0.0105002857744694,-0.0152532691136003,0.00460331933572888,-0.00247644376941025
425,0.0020389873534441,0.00343400775454938,-0.00842405203729868,-0.0144717181101441,0.0062985522672534,-0.00187950301915407
426,0.00400171522051096,0.00516906660050154,-0.00578192342072725,-0.014780986122787,0.00557528482750058,-0.00269835744984448
427,0.00472354702651501,0.0050734942778945,-0.00393328629434109,-0.0172171518206596,0.00187562848441303,-0.0056403623893857
428,0.00485070282593369,0.00408990122377872,-0.00230338494293392,-0.01984584890306,-0.00286779692396522,-0.0091960784047842
429,0.0055321310646832,0.00367228290997446,-0.000598350481595844,-0.0207766238600016,-0.00653852289542556,-0.0114632118493319
430,0.00624769786372781,0.00369297061115503,-2.54387960012537E-05,-0.0208069738000631,-0.00853849109262228,-0.0126196769997478
431,0.00615075090900064,0.00337479007430375,-0.001596326706931,-0.0213477667421103,-0.00967236422002316,-0.0136200105771422
432,0.00645394250750542,0.00321037275716662,-0.00385201605968177,-0.0216368455439806,-0.00999034754931927,-0.0143398763611913
433,0.00906695984303951,0.00500272680073977,-0.0032497844658792,-0.0187837705016136,-0.00778120756149292,-0.0126317115500569
434,0.0125879617407918,0.00877970457077026,0.000465007324237376,-0.0127311861142516,-0.00394141720607877,-0.00754109816625714
435,0.0144722610712051,0.0125678172335029,0.00398489367216825,-0.00688306242227554,-0.00152395199984312,-0.00147824652958661
436,0.0139131499454379,0.0138508640229702,0.00460548233240843,-0.00407934375107288,-0.00210368633270264,0.00236989767290652
437,0.0112673211842775,0.0113472621887922,0.00190004799515009,-0.0047245635651052,-0.0051882122643292,0.00403464073315263
438,0.00861524231731892,0.00761265587061644,-0.00130448222626001,-0.00626426842063665,-0.0074900365434587,0.00710784737020731
439,0.00757634919136763,0.00588592374697328,-0.00176596967503428,-0.00608217157423496,-0.00636565545573831,0.0124950474128127
440,0.00654571410268545,0.00533434841781855,3.21721890941262E-05,-0.0048551163636148,-0.00429698918014765,0.0167357381433249
441,0.00454856781288981,0.00413952395319939,0.00235203187912703,-0.00395829975605011,-0.00411052908748388,0.0179629735648632
442,0.00333807338029146,0.00308456411585212,0.00491573708131909,-0.00330927735194564,-0.00475822295993567,0.0168524906039238
443,0.00362639524973929,0.00347454892471433,0.00750577496364713,-0.00271295919083059,-0.00503571284934878,0.0139146093279123
444,0.00462096463888884,0.00554151786491275,0.0101965321227908,-0.00152187352068722,-0.0047865929082036,0.0102404914796352
445,0.00511770835146308,0.00756947323679924,0.0122870560735464,-0.000373158720321953,-0.00477583846077323,0.00615409063175321
446,0.00454468512907624,0.00759199075400829,0.0126421451568604,-0.000762520066928118,-0.00567728513851762,0.00122250418644398
447,0.00405839597806335,0.00641762837767601,0.0127227008342743,-0.00154810026288033,-0.00587805500254035,-0.00301340175792575
448,0.00487327063456178,0.00575276603922248,0.0147013748064637,-0.000659682613331825,-0.00394544051960111,-0.00459460681304336
449,0.00633199280127883,0.00532885128632188,0.0179683808237314,0.00159395113587379,-0.00107854895759374,-0.00400477321818471
450,0.00593217415735126,0.00337298843078315,0.0190833974629641,0.00260061933659017,5.31760051671881E-05,-0.00418016873300076
451,0.00329119246453047,-0.000229659650358371,0.0162925999611616,0.00123925122898072,-0.00124450109433383,-0.00651487847790122
452,0.00126728997565806,-0.0032060812227428,0.0115550328046083,-0.000455949717434123,-0.003087367862463,-0.00874493829905987
453,0.00144832162186503,-0.00422244099900126,0.00664115510880947,-0.000854686659295112,-0.00445552449673414,-0.00862372666597366
454,0.00359747908078134,-0.00328441732563078,0.00264784484170377,-0.000118601943540853,-0.00525481952354312,-0.00594337796792388
455,0.00715719303116202,-0.0006664113025181,0.000989898340776563,0.0010862669441849,-0.00489421794191003,-0.00204514875076711
456,0.0101985801011324,0.00153914920520037,0.00102831202093512,0.00141176371835172,-0.00404143845662475,0.000636019627563655
457,0.0109439231455326,0.00157261884305626,0.000798570865299553,0.000254338519880548,-0.00420273374766111,0.00179100048262626
458,0.00968692544847727,0.00035881795338355,-0.0005032749613747,-0.00161575735546649,-0.00511805433779955,0.00357739883475006
459,0.00783950556069613,-0.000900856801308692,-0.00196445779874921,-0.00335293775424361,-0.00442218314856291,0.00650852499529719
460,0.00636963825672865,-0.00222011143341661,-0.00219743652269244,-0.00483099417760968,-0.00109516677912325,0.0082694124430418
461,0.00519484607502818,-0.00373510248027742,-0.00129773945081979,-0.00666963355615735,0.00218339753337204,0.00682084262371063
462,0.00442108046263456,-0.0044322544708848,9.17278812266886E-05,-0.00853629689663649,0.00317421718500555,0.00311737693846226
463,0.00463087763637304,-0.00292089628055692,0.00193753954954445,-0.00909608416259289,0.00276732235215604,-0.000134734145831317
464,0.00588198704645038,0.000261855660937727,0.00383037701249123,-0.00826685503125191,0.00192086992319673,-0.00205244519747794
465,0.00782089680433273,0.00323575246147811,0.00543887075036764,-0.00657232478260994,0.00113028765190393,-0.00372960977256298
466,0.00890589877963066,0.00409652898088098,0.00582339428365231,-0.00505257537588477,0.000147426486364566,-0.0065801446326077
467,0.00852713454514742,0.00234573078341782,0.00421618949621916,-0.00493542617186904,-0.00143103126902133,-0.0108198756352067
468,0.00902374647557735,0.000188683712622151,0.00221775216050446,-0.00498931622132659,-0.00201351614668965,-0.014537644572556
469,0.0113243199884892,-0.000751256826333702,0.000940576253924519,-0.00373928155750036,-0.00110029696952552,-0.0162835475057364
470,0.014458185993135,-0.000747263722587377,0.000151415049913339,-0.00181352789513767,0.000209141595405526,-0.0165336672216654
471,0.01805723272264,-0.000553887453861535,-0.000812233134638518,-0.00105546705890447,0.0010314448736608,-0.0170471295714378
472,0.022342462092638,-0.000648231070954353,-0.00207708729431033,-0.00219781999476254,0.00152668566443026,-0.0187064278870821
473,0.0266709048300982,-0.00105617684312165,-0.00275385589338839,-0.00381802441552281,0.00259226025082171,-0.0205466486513615
474,0.0290064178407192,-0.00204627751372755,-0.0025911086704582,-0.00471865851432085,0.00396431609988213,-0.0214650556445122
475,0.0291557181626558,-0.00324821239337325,-0.00135401275474578,-0.00459196232259274,0.0055958810262382,-0.0202798433601856
476,0.0290194731205702,-0.00423276098445058,0.00132403254974633,-0.00329395453445613,0.00867878273129463,-0.0162742547690868
477,0.0298429764807224,-0.00584399979561567,0.00532600237056613,-0.000906613597180694,0.0142299281433225,-0.0107275936752558
478,0.0317085236310959,-0.0082491347566247,0.010288517922163,0.00242340611293912,0.0214746538549662,-0.0055819870904088
479,0.0331625677645206,-0.0105189858004451,0.0142791457474232,0.0059478604234755,0.026202829554677,-0.00207123276777565
480,0.0323189124464989,-0.0121606886386871,0.0141118634492159,0.00843499135226011,0.0233303140848875,-0.000513868406414986
481,0.0295231714844704,-0.0130207045003772,0.00883645564317703,0.00904361344873905,0.0128493895754218,-0.000461722956970334
482,0.027067331597209,-0.0127583974972367,0.00126446620561183,0.00803869403898716,0.000310860690660775,-0.00139174284413457
483,0.0266706049442291,-0.0111327497288585,-0.00463400827720761,0.00685615884140134,-0.00882422458380461,-0.00270635168999434
484,0.0283811539411545,-0.00916329398751259,-0.00675887940451503,0.00637143524363637,-0.0124573651701212,-0.00461640162393451
485,0.0310794953256845,-0.00837987754493952,-0.00559955462813377,0.00669134594500065,-0.0111580397933722,-0.00713375955820084
486,0.0335196740925312,-0.00866376329213381,-0.00324172410182655,0.00831948406994343,-0.00754973711445928,-0.00830843113362789
487,0.0349995531141758,-0.00900320708751678,-0.00163326098117977,0.0111282123252749,-0.00485346373170614,-0.00687680533155799
488,0.0353847593069077,-0.00875212252140045,-0.0010610253084451,0.0138232782483101,-0.00418288307264447,-0.00374374026432633
489,0.0360293313860893,-0.00678503140807152,0.000826587318442762,0.0164120532572269,-0.00293236644938588,0.00111135735642165
490,0.0381981208920479,-0.00303862150758505,0.00604713521897793,0.0197670217603445,0.00196533417329192,0.00789266265928745
491,0.0400373637676239,-0.000164837765623815,0.0119188036769629,0.0225890595465899,0.00892446935176849,0.013579667545855
492,0.0400747209787369,0.000853353529237211,0.0151850301772356,0.024250341579318,0.014799484051764,0.0161807257682085
493,0.0402749702334404,0.0023776285815984,0.017411008477211,0.0269137993454933,0.0200076922774315,0.0180387627333403
494,0.0411951430141926,0.0045472988858819,0.020075986161828,0.0302335042506456,0.0245151314884424,0.0199783761054277
495,0.0405900217592716,0.0045028836466372,0.0211820770055056,0.030581196770072,0.0258218962699175,0.0191734898835421
496,0.0378786884248257,0.00148430420085788,0.0199229307472706,0.0269572027027607,0.0237857084721327,0.0145513173192739
497,0.0352658629417419,-0.00150157534517348,0.0184706877917051,0.0228857435286045,0.0210475139319897,0.00987566355615854
498,0.0349607430398464,-0.00125171348918229,0.0189242530614138,0.0225000306963921,0.0197462644428015,0.0101877506822348
499,0.0360720418393612,0.00137022417038679,0.0200604926794767,0.0253145080059767,0.0191449131816626,0.015205567702651
500,0.036252997815609,0.00322056841105223,0.0193899217993021,0.0275888778269291,0.0172598585486412,0.0204029101878405
501,0.0358204506337643,0.00371356424875557,0.0181067492812872,0.0286651458591223,0.0150389168411493,0.0239586979150772
502,0.0357978045940399,0.00322804064489901,0.0183306727558374,0.0295532066375017,0.0141345495358109,0.0256815738976002
503,0.0346237681806087,0.000160257870447822,0.018303707242012,0.0283919535577297,0.0129727255553007,0.023864908143878
504,0.0319452658295631,-0.00519361719489098,0.0168508812785149,0.024524575099349,0.0115064913406968,0.0195453371852636
505,0.0306257307529449,-0.009286904707551,0.0162687636911869,0.0207508560270071,0.0128939421847463,0.0166316889226437
506,0.0317699834704399,-0.010583215393126,0.0176661107689142,0.0183322187513113,0.0172234922647476,0.0158445052802563
507,0.0337102189660072,-0.0102408090606332,0.0204009413719177,0.0166987963020802,0.0218681767582893,0.015413491986692
508,0.0353109836578369,-0.00882697477936745,0.0241011884063482,0.0158796440809965,0.0255254674702883,0.0151855554431677
509,0.0364795364439487,-0.00613125273957849,0.028204532340169,0.0155630586668849,0.0283104032278061,0.0156485456973314
510,0.036292340606451,-0.00353604415431619,0.0307373460382223,0.0138977784663439,0.0298222377896309,0.0151140764355659
511,0.0337662063539028,-0.0030917574185878,0.0298756808042526,0.00998067762702703,0.029275381937623,0.0122778424993157
512,0.0305150095373392,-0.00383742270059884,0.0273150596767664,0.00666828872635961,0.0280819516628981,0.0103794038295746
513,0.0281821079552174,-0.00412921234965324,0.0256078634411097,0.00611782073974609,0.0278547368943691,0.0120944138616323
514,0.0264695156365633,-0.00398469297215343,0.0254250783473253,0.00719051901251078,0.0285094305872917,0.0158427841961384
515,0.0254912953823805,-0.00289096334017813,0.0270950011909008,0.00943641923367977,0.0302541665732861,0.0204774532467127
516,0.0250146854668856,-0.000881150248460472,0.0297080874443054,0.0127044720575213,0.0324252769351006,0.0258394163101912
517,0.0233040768653154,-0.000276581995422021,0.0303963664919138,0.0144859403371811,0.0323568768799305,0.029468335211277
518,0.01841776445508,-0.00370409479364753,0.0262655913829803,0.0117587177082896,0.027649462223053,0.0278982128947973
519,0.0111819542944431,-0.00988125894218683,0.0185267087072134,0.00598297547549009,0.0202020574361086,0.0228772144764662
520,0.00558211142197251,-0.0137982489541173,0.0129998037591577,0.00257209432311356,0.0157462265342474,0.0205922406166792
521,0.00328367878682911,-0.0132559966295958,0.0132180927321315,0.00366635201498866,0.0164935365319252,0.022829232737422
522,0.00274509377777576,-0.00984938070178032,0.0178277548402548,0.00718717649579048,0.0200057569891214,0.0271894466131926
523,0.00296518602408469,-0.00483100349083543,0.0239120684564114,0.0110363159328699,0.0241545401513577,0.0322826132178307
524,0.0032698530703783,-0.000189779661013745,0.0282573606818914,0.0128520494326949,0.0272762756794691,0.0354738458991051
525,0.00327068194746971,0.00113261619117111,0.0286648571491241,0.010602805763483,0.0277196913957596,0.0339992120862007
526,0.00402934476733208,-0.00049305718857795,0.0264295674860477,0.00609877239912748,0.0265116263180971,0.0301732290536165
527,0.00606957217678428,-0.00219655828550458,0.0244008880108595,0.00275678024627268,0.0266273804008961,0.0278593897819519
528,0.00796967092901468,-0.00264022825285792,0.0232467353343964,0.00136206997558475,0.0288431495428085,0.0277443137019873
529,0.00872717890888453,-0.00208485964685678,0.0230353642255068,0.00116864719893783,0.0322526432573795,0.0293816067278385
530,0.00911343097686768,-0.00138824561145157,0.0246647819876671,0.0016099662752822,0.0367902591824532,0.0322295427322388
531,0.00921495445072651,-0.00229362258687615,0.0269524492323399,0.00108946743421257,0.040832094848156,0.0331826619803905
532,0.00787060894072056,-0.00554088735952973,0.0273357294499874,-0.00209964066743851,0.0416560731828213,0.0289456285536289
533,0.00541219906881452,-0.00934619642794132,0.0252028964459896,-0.00701461359858513,0.0388428755104542,0.0207655280828476
534,0.00365339801646769,-0.0120806638151407,0.0211657322943211,-0.0114136878401041,0.032989889383316,0.0122251724824309
535,0.00323942978866398,-0.0134230339899659,0.0161351524293423,-0.0137602733448148,0.0249448716640472,0.00577821023762226
536,0.00326451007276773,-0.0133202001452446,0.0119858151301742,-0.0134019255638123,0.0168311912566423,0.00220513017848134
537,0.00288822688162327,-0.0123727675527334,0.0104454383254051,-0.0110884476453066,0.0106428563594818,0.000636301992926747
538,0.00175812770612538,-0.0115032466128469,0.0112906200811267,-0.00849946588277817,0.00675107212737203,-7.98102919361554E-05
539,5.35457184014376E-05,-0.0106774205341935,0.0126888891682029,-0.0067138122394681,0.00463543506339192,-0.000444059463916346
540,-0.00168870238121599,-0.00926730036735535,0.0130403153598309,-0.00558591308072209,0.00353289698250592,-0.00049882975872606
541,-0.00354141835123301,-0.00720449304208159,0.0119458697736263,-0.00482413917779922,0.00244363071396947,3.01444488286506E-05
542,-0.00518937641754746,-0.00484963739290833,0.0110251298174262,-0.00393772637471557,0.00173158547841012,0.00114097830373794
543,-0.00579205574467778,-0.00281826057471335,0.0122724119573832,-0.00196448876522481,0.00248993607237935,0.00265375315211713
544,-0.00540834525600076,-0.00149364746175706,0.0150754088535905,0.00117152440361679,0.00424568122252822,0.00471585663035512
545,-0.00436681974679232,-0.00112802744843066,0.0172105189412832,0.00401417817920446,0.00576979387551546,0.00616784114390612
546,-0.00328734493814409,-0.00350154470652342,0.0164655316621065,0.00380654842592776,0.00581332622095943,0.00415688985958695
547,-0.00274364091455936,-0.0095487991347909,0.0125557500869036,-0.000529391167219728,0.00434931693598628,-0.0017076414078474
548,-0.00278516067191958,-0.0165800657123327,0.00794782396405935,-0.00635170470923185,0.00313334399834275,-0.00784929469227791
549,-0.00333552900701761,-0.0210297349840403,0.00545355258509517,-0.0101633481681347,0.00372988148592412,-0.0109176049008965
550,-0.003919483628124,-0.0216811969876289,0.00582596473395824,-0.0106264678761363,0.00591209623962641,-0.0105926506221294
551,-0.00383733352646232,-0.0196321811527014,0.00750200776383281,-0.00893728621304035,0.00829205848276615,-0.00882087554782629
552,-0.00273659289814532,-0.0164396464824677,0.00898803770542145,-0.00664409622550011,0.0103467870503664,-0.00765599589794874
553,-0.00179562962148339,-0.0137624070048332,0.00955016352236271,-0.00480051664635539,0.0118912300094962,-0.0084924828261137
554,-0.00199320260435343,-0.0127341141924262,0.00880132243037224,-0.00430634571239352,0.012934748083353,-0.0117832757532597
555,-0.00162021536380053,-0.01240901555866,0.0081578828394413,-0.00417320197448134,0.015010398812592,-0.0151709234341979
556,-0.000182825766387396,-0.0124240349978209,0.00837020203471184,-0.00374849932268262,0.0179789215326309,-0.0164767894893885
557,0.000189937476534396,-0.0138380024582148,0.00782704167068005,-0.0044196080416441,0.0194133035838604,-0.016391146928072
558,-0.00196554814465344,-0.0169723387807608,0.0053896470926702,-0.00718816136941314,0.0179722756147385,-0.0166905932128429
559,-0.00528632523491979,-0.0201017763465643,0.00251496280543506,-0.0106982449069619,0.0152505394071341,-0.017513046041131
560,-0.00611512316390872,-0.0196574870496988,0.00246699084527791,-0.0116035649552941,0.0151773141697049,-0.0162607282400131
561,-0.00375331402756274,-0.0154155502095819,0.00513378065079451,-0.0098454998806119,0.0184200499206781,-0.0126146702095866
562,-0.000716774549800903,-0.0103572867810726,0.00764843402430415,-0.0080144926905632,0.0222540441900492,-0.00821154378354549
563,0.00275904638692737,-0.00497626652941108,0.0104515729472041,-0.00536483991891146,0.0266513470560312,-0.00220989109948277
564,0.00765635306015611,0.0010664276778698,0.0149712599813938,-0.000446130725322291,0.0326769910752773,0.00525412475690246
565,0.012359669432044,0.0055620432831347,0.019152220338583,0.00463610934093595,0.0380599647760391,0.0106828454881907
566,0.0148138776421547,0.00645449757575989,0.0210311207920313,0.00747393351048231,0.0405632443726063,0.0113198915496469
567,0.0142808146774769,0.00412790849804878,0.0210483130067587,0.00797536969184875,0.0402598716318607,0.00768103916198015
568,0.0106406761333346,0.000141711221658625,0.0195625703781843,0.00671032769605517,0.0368108302354813,0.00194948085118085
569,0.00533372210338712,-0.00359972449950874,0.0168382003903389,0.00436900230124593,0.0300144944339991,-0.00350874103605747
570,0.00174680724740028,-0.00484005687758327,0.0144656477496028,0.00268986891023815,0.022553289309144,-0.00630437536165118
571,0.00241131917573512,-0.00299794739112258,0.0137346023693681,0.00296107004396617,0.0177219808101654,-0.00557776773348451
572,0.00627327337861061,-0.000798085005953908,0.0133979460224509,0.00394026422873139,0.015105253085494,-0.00359449372626841
573,0.0107853002846241,-0.0011584113817662,0.0117335710674524,0.00393746793270111,0.0124112935736775,-0.003238475183025
574,0.0153349293395877,-0.00322181102819741,0.00974966306239367,0.00377229787409306,0.0100002689287066,-0.00419161655008793
575,0.0204307567328215,-0.00435021100565791,0.00935132522135973,0.0045910170301795,0.010091707110405,-0.00473591545596719
576,0.0260206032544374,-0.00374611280858517,0.0105767315253615,0.00584415718913078,0.0131958136335015,-0.0046360781416297
577,0.0315994173288345,-0.00194021954666823,0.0123879602178931,0.00724207377061248,0.0175159573554993,-0.0039236219599843
578,0.0354126170277596,-0.000693519250489771,0.0128562450408936,0.00814240332692862,0.0196137893944979,-0.00306563428603113
579,0.0353181175887585,-0.00280837202444673,0.00974930170923471,0.00654527917504311,0.016153059899807,-0.00337367947213352
580,0.0324660092592239,-0.00791132263839245,0.00422729831188917,0.00271383998915553,0.00813530664891005,-0.00418671220541
581,0.0312713235616684,-0.0115643357858062,0.00144555827137083,0.000546785886399448,0.00206293002702296,-0.00289601273834705
582,0.0338975340127945,-0.0112286359071732,0.00444745644927025,0.00213849451392889,0.00314411101862788,0.000686922227032483
583,0.038178738206625,-0.0083479480817914,0.010432630777359,0.00498553272336721,0.00940017867833376,0.0034870330709964
584,0.0415915288031101,-0.00489128055050969,0.0150860566645861,0.00636800797656178,0.0154935820028186,0.00293075456283987
585,0.044073399156332,-0.00133219338022172,0.0172619428485632,0.00665863417088985,0.0186707694083452,-0.000321060797432438
586,0.0472644902765751,0.00272076786495745,0.0181079618632793,0.00728198792785406,0.0194689873605967,-0.00388503214344382
587,0.0524674728512764,0.00713741779327393,0.0187759771943092,0.00819326471537352,0.0200922191143036,-0.00668446440249681
588,0.0583238862454891,0.0108101740479469,0.0191252790391445,0.00839118380099535,0.0211845114827156,-0.00929289031773806
589,0.0617675743997097,0.0123639004305005,0.0178668722510338,0.00713502755388618,0.0208517480641603,-0.012678112834692
590,0.0624854974448681,0.0117234839126468,0.0153812877833843,0.00508250668644905,0.0189732685685158,-0.0164716057479382
591,0.0622508674860001,0.00973673444241285,0.0134284608066082,0.00388499186374247,0.0168800037354231,-0.0191379319876432
592,0.0614685602486134,0.00704282009974122,0.012472883798182,0.00413889018818736,0.013982311822474,-0.0200398005545139
593,0.0598227493464947,0.00410599866881967,0.0122745987027884,0.00491066370159388,0.00974413566291332,-0.0202419236302376
594,0.0573192238807678,0.00127539690583944,0.0127541087567806,0.005066794808954,0.00513525120913982,-0.0209561884403229
595,0.0551118180155754,-7.011756679276E-05,0.0144763709977269,0.00536179728806019,0.00197366531938314,-0.0203974097967148
596,0.0544381849467754,0.000705314450897276,0.0171982552856207,0.00668782601132989,0.000933405186515301,-0.0167911965399981
597,0.0550410784780979,0.00209826859645545,0.0188882984220982,0.00839406624436378,0.000404341088142246,-0.0120456730946898
598,0.0571961142122746,0.00370826618745923,0.0194175988435745,0.011083047837019,0.000493901025038213,-0.00774670904502273
599,0.0606351867318153,0.00567505555227399,0.0195327270776033,0.0148212620988488,0.00229316065087914,-0.0044786874204874
600,0.0640201270580292,0.00757066672667861,0.0190416071563959,0.0179501678794622,0.0053593716584146,-0.00294954259879887
601,0.0680840536952019,0.0103596532717347,0.0200554672628641,0.0210953000932932,0.0110230259597301,-0.00215292908251286
602,0.0733925998210907,0.0143987676128745,0.0243091583251953,0.0253534205257893,0.0203076153993607,-0.00134922645520419
603,0.0781003460288048,0.0179506856948137,0.0296615175902843,0.0288949832320213,0.03014962002635,-0.00165562343318015
604,0.0808086469769478,0.0197076369076967,0.0334762670099735,0.0298466384410858,0.0368908531963825,-0.00358038721606135
605,0.081189751625061,0.0191276501864195,0.0344262830913067,0.0279765259474516,0.039117120206356,-0.00664752256125212
606,0.0794138014316559,0.0160896778106689,0.0322871655225754,0.023682564496994,0.0374446213245392,-0.0107154054567218
607,0.0773570835590363,0.0123362084850669,0.0290699154138565,0.0189882274717093,0.0346944071352482,-0.0144559238106012
608,0.0772509574890137,0.0102514056488872,0.027191586792469,0.0164615828543901,0.0332490652799606,-0.0154530573636293
609,0.079425111413002,0.0105460779741406,0.0269939806312323,0.0166249852627516,0.0324279889464378,-0.0130569776520133
610,0.0826867297291756,0.0128664113581181,0.0280280690640211,0.0188557840883732,0.0308890733867884,-0.00804719049483538
611,0.0859110504388809,0.0166803970932961,0.0303598139435053,0.0226356759667397,0.0292819608002901,-0.00166559859644622
612,0.0887235403060913,0.0206027198582888,0.03361551836133,0.0269740503281355,0.0292771309614182,0.00382884941063821
613,0.0911419317126274,0.0230366233736277,0.0364170558750629,0.0308209098875523,0.0313000194728374,0.00740345753729343
614,0.0933700203895569,0.0238577835261822,0.0372011289000511,0.0335545428097248,0.0341688804328442,0.0103124929592013
615,0.0953207314014435,0.0234783794730902,0.0352580025792122,0.0344149991869926,0.0363031513988972,0.0132812680676579
616,0.0966580361127853,0.0213677138090134,0.030695702880621,0.0323248691856861,0.0365089103579521,0.0147409262135625
617,0.0982564315199852,0.018105635419488,0.024618623778224,0.0273168347775936,0.0351027771830559,0.0129874460399151
618,0.101476989686489,0.0163550265133381,0.019206615164876,0.0219612848013639,0.0340643748641014,0.00946155469864607
619,0.105324000120163,0.0175796188414097,0.0157599896192551,0.0188892148435116,0.0342513360083103,0.00646723015233874
620,0.107882350683212,0.0207225419580936,0.0143572809174657,0.0184230729937553,0.0347591228783131,0.00427810894325376
621,0.10933106392622,0.024175712838769,0.0150831956416368,0.0197910238057375,0.0358292870223522,0.00284331059083343
622,0.109716951847076,0.0255804099142551,0.0159783344715834,0.0204539280384779,0.0369581319391727,0.00127541134133935
623,0.108252517879009,0.0227523073554039,0.0139081245288253,0.0176394041627645,0.0354573391377926,-0.0014456904027611
624,0.106128215789795,0.0171308889985085,0.00970057770609856,0.0130856493487954,0.0312213692814112,-0.00317845027893782
625,0.105128392577171,0.0120972851291299,0.00640825368463993,0.0104787321761251,0.0264130923897028,-0.00120693433564156
626,0.105562932789326,0.0093509154394269,0.00494077242910862,0.010626845061779,0.0220918320119381,0.00439585978165269
627,0.107214771211147,0.0084373950958252,0.004796810913831,0.0119212567806244,0.0189197342842817,0.0114907175302505
628,0.109762281179428,0.00831944774836302,0.00580274499952793,0.0131711224094033,0.01790508069098,0.0179632119834423
629,0.111790642142296,0.00847919471561909,0.00759398750960827,0.0143647147342563,0.0186798740178347,0.0224664490669966
630,0.111904874444008,0.00821460504084826,0.00942687876522541,0.0152960540726781,0.0194298140704632,0.0240105893462896
631,0.110823072493076,0.00756747368723154,0.0112347258254886,0.0159002747386694,0.0197381190955639,0.0234877746552229
632,0.110079780220985,0.00773601559922099,0.0131170749664307,0.0164787657558918,0.0204800926148891,0.0232910979539156
633,0.109926000237465,0.00849846936762333,0.0144203919917345,0.0165386907756329,0.0216108094900846,0.0237287543714046
634,0.109901949763298,0.00889167562127113,0.0145829478278756,0.0157330930233002,0.0227997843176126,0.0236685536801815
635,0.109512619674206,0.0088357562199235,0.0134578067809343,0.0142519380897284,0.0237532556056976,0.0222724545747042
636,0.107869654893875,0.00780657771974802,0.0105341020971537,0.0115966619923711,0.0233682114630938,0.0183654092252254
637,0.105598136782646,0.00654339045286179,0.00695240404456854,0.00904921069741249,0.0223818868398666,0.0132527956739068
638,0.104955598711967,0.00777330156415701,0.00537244230508804,0.00958509091287851,0.0231624431908131,0.0105429394170642
639,0.106103017926216,0.0117971347644925,0.00579910632222891,0.0125192143023014,0.0247005503624678,0.0105092525482178
640,0.107939876616001,0.0157699063420296,0.00682607013732195,0.0145316002890468,0.0252009332180023,0.0102303856983781
641,0.110353909432888,0.0172866676002741,0.00799644086509943,0.0140996109694242,0.0259569194167852,0.00831417459994555
642,0.112411431968212,0.0156609602272511,0.00804238207638264,0.0106761092320085,0.0272316578775644,0.00510204769670963
643,0.113715268671513,0.0124858897179365,0.00689582712948322,0.00538745941594243,0.0284756440669298,0.00185293320100755
644,0.115274645388126,0.0105085074901581,0.00659191561862826,0.00138375675305724,0.030295317992568,0.000133562134578824
645,0.11605565994978,0.00967348087579012,0.00691767688840628,-0.000695590453688055,0.031150296330452,-0.00103760603815317
646,0.11484145373106,0.00821695569902658,0.0061797765083611,-0.0023544067516923,0.0291428864002228,-0.00350239267572761
647,0.112793371081352,0.0064685340039432,0.00452055875211954,-0.00352011527866125,0.0251555871218443,-0.00595599785447121
648,0.110784932971001,0.00576015049591661,0.00335529935546219,-0.00325959757901728,0.0209109261631966,-0.00622080452740192
649,0.108645729720593,0.00634874682873487,0.00373978144489229,-0.00151346577331424,0.0179173052310944,-0.00458294386044145
650,0.106917202472687,0.00854094699025154,0.00640816194936633,0.00218719989061356,0.0178655348718166,-0.000912230927497149
651,0.106154158711433,0.0122996345162392,0.0111062228679657,0.0082210386171937,0.0206051748245955,0.00567079335451126
652,0.104782521724701,0.0150291975587606,0.0147227328270674,0.0137372575700283,0.0225424375385046,0.0125113325193524
653,0.101843848824501,0.015097695402801,0.0154902907088399,0.0160116478800774,0.0215983856469393,0.0164043717086315
654,0.0985695496201515,0.0139782428741455,0.0153007116168737,0.0154459420591593,0.019376527518034,0.0174361411482096
655,0.0948775038123131,0.0126166930422187,0.0147555852308869,0.0122628686949611,0.0167241934686899,0.0154993012547493
656,0.09047981351614,0.0123718455433846,0.0137562192976475,0.00774890137836337,0.0145535562187433,0.0107417460530996
657,0.0866693258285522,0.0155642256140709,0.0132071431726217,0.00517374370247126,0.0147130051627755,0.00580195197835565
658,0.0836842283606529,0.0209882091730833,0.0121695045381784,0.00542420847341418,0.0161629598587751,0.00220295507460833
659,0.0816077813506126,0.0255511179566383,0.0101115629076958,0.00735566066578031,0.0176139622926712,-0.000202830749913119
660,0.0809827372431755,0.0278520435094833,0.0077549135312438,0.00903287436813116,0.0194953493773937,-0.00243205041624606
661,0.0813483744859695,0.0277199763804674,0.00530412141233683,0.0086245583370328,0.0213363021612167,-0.00571476994082332
662,0.0819846913218498,0.0261865630745888,0.00354792596772313,0.00686880247667432,0.022074107080698,-0.00920061208307743
663,0.081880234181881,0.0241758190095425,0.00216990313492715,0.00483524706214666,0.020148416981101,-0.011814528144896
664,0.0813336744904518,0.0226840227842331,0.00080002163304016,0.00334743433631957,0.0161562170833349,-0.0128039410337806
665,0.0812783241271973,0.0228903293609619,0.000511595571879297,0.00393041782081127,0.0133704440668225,-0.0112155638635159
666,0.0806150212883949,0.0242406725883484,0.00145781692117453,0.00683970097452402,0.0131905879825354,-0.00775385554879904
667,0.0779262334108353,0.0252170599997044,0.00235880422405899,0.0103769386187196,0.0142040839418769,-0.00451497873291373
668,0.0733115673065186,0.0248829238116741,0.00179018033668399,0.0123338112607598,0.0145839201286435,-0.00314338505268097
669,0.0676397904753685,0.0228655282407999,-0.0003708116710186,0.011974616907537,0.013922955840826,-0.00381576572544873
670,0.0619211494922638,0.0202637352049351,-0.00226374762132764,0.0110336178913713,0.0134482262656093,-0.00484475074335933
671,0.057537667453289,0.0195538308471441,-0.00151711469516158,0.0120195290073752,0.0147093562409282,-0.00360906356945634
672,0.0549344830214977,0.0206454209983349,0.00186792528256774,0.0145962638780475,0.0177543554455042,-0.000141034834086895
673,0.0525330044329166,0.0203457120805979,0.00513245025649667,0.0155889699235559,0.0205987617373466,0.00198403256945312
674,0.0493976809084415,0.0179448425769806,0.00667490251362324,0.0140982465818524,0.0220715310424566,0.00140502513386309
675,0.0460591949522495,0.0155402133241296,0.00708300014957786,0.0120281120762229,0.0226538814604282,-0.000187579920748249
676,0.0427215732634068,0.0137079386040568,0.00643287319689989,0.0098319984972477,0.0222682803869247,-0.00288543151691556
677,0.0401162654161453,0.0129003887996078,0.00527754100039601,0.00775351002812386,0.0215217359364033,-0.00618525315076113
678,0.038704015314579,0.0140153728425503,0.00462560541927814,0.00677192723378539,0.0215538255870342,-0.00775521853938699
679,0.0379385463893414,0.0161700565367937,0.00434260163456202,0.00641186675056815,0.0224960763007402,-0.00755940284579992
680,0.0373401790857315,0.0177989155054092,0.00349300145171583,0.00553404213860631,0.0232514273375273,-0.00770613830536604
681,0.0364400073885918,0.0184543766081333,0.0013197788503021,0.00393075915053487,0.0223045349121094,-0.00937943812459707
682,0.0352894738316536,0.0185614582151175,-0.00147850066423416,0.00244638323783875,0.0196503065526485,-0.011339258402586
683,0.0342950373888016,0.0183707848191261,-0.00353683461435139,0.00173560995608568,0.0155839398503304,-0.0115178795531392
684,0.0335909388959408,0.0182787496596575,-0.00429506646469235,0.0014714899007231,0.00994205661118031,-0.00916314125061035
685,0.0330088771879673,0.0182032492011786,-0.00465341284871101,0.000552251003682613,0.00302506564185023,-0.00545072229579091
686,0.0320791117846966,0.0168285947293043,-0.00637280801311135,-0.00220045866444707,-0.00462168361991644,-0.00285830814391375
687,0.0312835797667503,0.0146070346236229,-0.00869577005505562,-0.00575433345511556,-0.0106317363679409,-0.00179474439937621
688,0.0322710387408733,0.014571126550436,-0.00864586140960455,-0.00700522074475884,-0.0116673782467842,0.000369558663805947
689,0.0346889160573483,0.0174958258867264,-0.00651716627180576,-0.00575390318408608,-0.00892496760934591,0.00377295026555657
690,0.0364960841834545,0.0208967961370945,-0.00512034259736538,-0.00539254536852241,-0.00658050645142794,0.0047032181173563
691,0.0371288172900677,0.0225531999021769,-0.00550660211592913,-0.00845427252352238,-0.0061993757262826,0.00062746147159487
692,0.0380289554595947,0.0230450481176376,-0.0059503479860723,-0.0133693404495716,-0.00605290196835995,-0.00594773981720209
693,0.0406813845038414,0.0244620535522699,-0.00403448147699237,-0.0157122444361448,-0.00396502716466784,-0.00940045993775129
694,0.0439545847475529,0.0261731389909983,-0.00088493071962148,-0.0144281936809421,-0.00123198772780597,-0.00844092667102814
695,0.0462962165474892,0.0266725439578295,0.000870910240337253,-0.012017778120935,3.01458076137351E-05,-0.00649059657007456
696,0.0473788343369961,0.0258259642869234,0.000500044785439968,-0.0104735419154167,-0.000409082451369613,-0.00665989192202687
697,0.0478164628148079,0.0246096644550562,-0.000623255909886211,-0.00917651131749153,-0.00108480616472662,-0.00859351083636284
698,0.0482998043298721,0.0239543169736862,-0.00121810752898455,-0.00686593726277351,-0.000247419899096712,-0.0102055780589581
699,0.0480072647333145,0.0229305028915405,-0.00238755298778415,-0.00466681364923716,0.000924697844311595,-0.010797506198287
700,0.0475177094340324,0.0222224444150925,-0.00357231195084751,-0.00216298922896385,0.0020760647021234,-0.00801355764269829
701,0.0486111827194691,0.0228667426854372,-0.00299116130918264,0.00168533914256841,0.00489340675994754,-0.00127147976309061
702,0.0505761243402958,0.0223227851092815,-0.00208067847415805,0.00402557849884033,0.00850124191492796,0.00361653650179505
703,0.0521136187016964,0.019470889121294,-0.00169646984431893,0.00331262685358524,0.0114298965781927,0.00336428754962981
704,0.0535583570599556,0.0169807076454163,0.000118093186756596,0.00287778628990054,0.0135844890028238,0.00209105340763927
705,0.0543332733213902,0.0160750336945057,0.00303059304133058,0.00472212629392743,0.0132579300552607,0.00308390450663865
706,0.0533109419047832,0.0155677776783705,0.00466386135667562,0.00695932004600763,0.00887023285031319,0.00499624479562044
707,0.0517344661056995,0.015175930224359,0.00497926911339164,0.00808967929333448,0.00247210264205933,0.00593982776626945
708,0.0509400106966496,0.015548512339592,0.00482241064310074,0.00823574047535658,-0.00332757295109332,0.00568985426798463
709,0.0490891523659229,0.0156496055424213,0.00278740050271153,0.00650446256622672,-0.00915153045207262,0.00403738953173161
710,0.0449506603181362,0.0146880298852921,-0.00155211356468499,0.00263667874969542,-0.0153838600963354,0.00151389872189611
711,0.040580864995718,0.0141858290880919,-0.00525201112031937,-0.000888080918230116,-0.0193446483463049,0.00035045892582275
712,0.0374950207769871,0.0141503857448697,-0.00644592568278313,-0.0026194010861218,-0.0193793959915638,0.000792124541476369
713,0.0366647690534592,0.013913607224822,-0.00476554874330759,-0.0021355333738029,-0.0152177000418305,0.00195786729454994
714,0.0387262143194675,0.0139448596164584,-0.000211337464861572,0.000711979810148478,-0.00699146930128336,0.00368984183296561
715,0.0420146360993385,0.0136693296954036,0.00488938391208649,0.00428434927016497,0.00233734329231083,0.00566476583480835
716,0.0444420203566551,0.0123125240206718,0.00772206531837583,0.00715568754822016,0.00889252871274948,0.00826579891145229
717,0.0455662719905376,0.0105328960344195,0.00802595727145672,0.00917589291930199,0.0115952640771866,0.0115090338513255
718,0.0455929487943649,0.00904572196304798,0.00651348242536187,0.00982521940022707,0.0112594719976187,0.0135503057390451
719,0.0439249686896801,0.00693458691239357,0.00299833132885396,0.00792649202048779,0.00839734636247158,0.0121390130370855
720,0.0409840419888496,0.00399779248982668,-0.000943002465646714,0.00431504147127271,0.00461401278153062,0.00755455950275064
721,0.0387261062860489,0.0016614185879007,-0.00260711438022554,0.00119194411672652,0.00247434666380286,0.00195898441597819
722,0.0381708666682243,0.000229923462029547,-0.00216392311267555,-0.00111235643271357,0.00240796734578907,-0.00354615412652493
723,0.0390625633299351,-0.000700584962032735,-0.00153549865353853,-0.00289194914512336,0.00286702648736537,-0.00816239509731531
724,0.0406025052070618,-0.000622833613306284,-0.00177377113141119,-0.00358886527828872,0.00212492793798447,-0.0106441546231508
725,0.0423410311341286,0.000844115798827261,-0.00232901982963085,-0.00306713697500527,0.000395006325561553,-0.010787496343255
726,0.0445871241390705,0.00297060958109796,-0.00173898041248322,-0.00187957263551652,-6.47954293526709E-05,-0.00869470927864313
727,0.0464863479137421,0.00391731970012188,-0.000461123156128451,-0.00135279120877385,0.0011116029927507,-0.00517550809308887
728,0.0463038794696331,0.00181746890302747,-0.000778161978814751,-0.0031660960521549,0.00212455005384982,-0.00319632794708014
729,0.0447075143456459,-0.00230559171177447,-0.00305126328021288,-0.00624226871877909,0.00179114495404065,-0.00358021212741733
730,0.0434996299445629,-0.0057526333257556,-0.00562865287065506,-0.00802971422672272,5.14199200551957E-06,-0.00461159041151404
731,0.0426283329725266,-0.00755698094144464,-0.00681303581222892,-0.0078253448009491,-0.00192537961993366,-0.00536458985880017
732,0.0411116518080235,-0.00855977274477482,-0.00592766935005784,-0.00628792308270931,-0.00274254637770355,-0.00569502962753177
733,0.0383620485663414,-0.0105376793071628,-0.00430588657036424,-0.00529007473960519,-0.00320577737875283,-0.00723766023293138
734,0.0357846990227699,-0.0128672961145639,-0.00271448818966746,-0.00522362906485796,-0.00294666760601103,-0.00995075143873692
735,0.0348940528929234,-0.0137895895168185,-0.00126789882779121,-0.00512141548097134,-0.00121243577450514,-0.0115408347919583
736,0.0340343602001667,-0.0143449287861586,-0.00199286616407335,-0.0059751714579761,-0.000942044891417027,-0.0118693551048636
737,0.0318222902715206,-0.0154745485633612,-0.00567316915839911,-0.00835475139319897,-0.00462055252864957,-0.0115617392584682
738,0.0304612051695585,-0.0159335937350988,-0.0092057166621089,-0.010330525226891,-0.00969873648136854,-0.00990781653672457
739,0.0318808853626251,-0.0157972127199173,-0.0107367662712932,-0.0112464064732194,-0.0134824868291616,-0.0076250359416008
740,0.0355065874755383,-0.0161712486296892,-0.0109129464253783,-0.0116822766140103,-0.0158167630434036,-0.00638322159647942
741,0.0406841486692429,-0.0159176737070084,-0.00851843319833279,-0.0104286763817072,-0.0157652162015438,-0.00549904303625226
742,0.0460444465279579,-0.0148418918251991,-0.00369989592581987,-0.00832149386405945,-0.0141487801447511,-0.0048998985439539
743,0.0497436448931694,-0.014484703540802,0.000882424181327224,-0.00796391349285841,-0.0133513705804944,-0.00527126621454954
744,0.0520482957363129,-0.0144717143848538,0.00460305623710155,-0.00904194358736277,-0.0119927963241935,-0.0057300878688693
745,0.0535636693239212,-0.0142247276380658,0.0070346063002944,-0.0111034819856286,-0.00854822620749474,-0.00731711974367499
746,0.0539404228329659,-0.0138246575370431,0.00694882776588202,-0.0141833573579788,-0.00504541909322143,-0.0110226571559906
747,0.0538518875837326,-0.0119706941768527,0.00550474505871534,-0.0162254702299833,-0.00285977101884782,-0.0140191819518805
748,0.0541853792965412,-0.0084248585626483,0.00443716626614332,-0.0164574179798365,-0.00200285902246833,-0.0150872766971588
749,0.0550954788923264,-0.00462244171649218,0.00399405881762505,-0.0155371818691492,-0.00271587888710201,-0.0151034630835056
750,0.0569367557764053,-0.000914433621801436,0.00441941758617759,-0.0127952005714178,-0.00438462710008025,-0.0135706439614296
751,0.0594511590898037,0.00233943504281342,0.0059820394963026,-0.00848011299967766,-0.0059618866071105,-0.0113010322675109
752,0.0618459135293961,0.00411406997591257,0.00866560451686382,-0.0040034856647253,-0.00656705489382148,-0.0093808826059103
753,0.0640122517943382,0.00463099544867873,0.0122552588582039,7.42934935260564E-06,-0.00568041438236833,-0.00703281722962856
754,0.064761109650135,0.00388340558856726,0.0146785583347082,0.00146209890954196,-0.00472279731184244,-0.0057664830237627
755,0.0633928924798965,0.00201303302310407,0.0149091146886349,-0.000744419638067484,-0.00420384062454104,-0.00707410229369998
756,0.0620477274060249,0.00134115130640566,0.0153062716126442,-0.00311235385015607,-0.00199965992942452,-0.00827859528362751
757,0.0626037567853928,0.00338240596465766,0.0173861514776945,-0.00275236461311579,0.0026435477193445,-0.00791471917182207
758,0.0651831477880478,0.00783232413232327,0.0211801920086145,0.000622321909759194,0.00879981182515621,-0.00663994811475277
759,0.0683323070406914,0.0135015025734901,0.0257030166685581,0.0058591952547431,0.0144958691671491,-0.00478863110765815
760,0.0704447254538536,0.0188943445682526,0.0293324589729309,0.0106873326003551,0.0177365746349096,-0.00329729588702321
761,0.0711738765239716,0.0234146881848574,0.0308353006839752,0.0134345376864076,0.0178465154021978,-0.00322626787237823
762,0.0703723207116127,0.0265656225383282,0.0288969315588474,0.0131693975999951,0.0143402554094791,-0.00544858118519187
763,0.0681411474943161,0.0270960964262486,0.0238671023398638,0.00974258594214916,0.00819684658199549,-0.0102639282122254
764,0.0656527727842331,0.0245478246361017,0.0183274801820517,0.00420100055634975,0.0028903263155371,-0.0167184919118881
765,0.0644306764006615,0.0208037570118904,0.0150760840624571,-0.00108515692409128,0.00137809757143259,-0.0224651675671339
766,0.0643517300486565,0.0171339623630047,0.0145705556496978,-0.00462520029395819,0.00261636869981885,-0.0261599682271481
767,0.0643346756696701,0.0132084675133228,0.0154261579737067,-0.00678314734250307,0.00353625859133899,-0.0285433959215879
768,0.0638865306973457,0.00977352354675531,0.0164089538156986,-0.0079458337277174,0.00237115821801126,-0.0301078930497169
769,0.0628102496266365,0.00760635314509273,0.0166652165353298,-0.0084740687161684,-0.000498994311783463,-0.0308986306190491
770,0.0611511245369911,0.00548747461289167,0.0156191727146506,-0.00961747020483017,-0.00375366793014109,-0.0318939089775085
771,0.0594884157180786,0.00249455822631717,0.0133850257843733,-0.0118740117177367,-0.00688477605581284,-0.0335239432752132
772,0.0590758621692657,0.000265609414782375,0.0116404332220554,-0.01321339327842,-0.00881637074053288,-0.0336195528507233
773,0.0603225640952587,-0.000422276731114835,0.0110322823747993,-0.0126496255397797,-0.00904434826225042,-0.0309184119105339
774,0.0627343207597733,-0.000242148526012897,0.0107483817264438,-0.0111934468150139,-0.00863346084952354,-0.0267811100929976
775,0.0650485828518867,0.000311298528686166,0.0104252202436328,-0.0100616607815027,-0.00871595088392496,-0.0230004265904427
776,0.0647835209965706,-0.00027890014462173,0.00909797754138708,-0.0112102404236794,-0.0106585696339607,-0.0209733620285988
777,0.0615262575447559,-0.00212076236493886,0.00707199517637491,-0.0142806088551879,-0.0142813958227634,-0.019877128303051
778,0.0573420487344265,-0.00350128044374287,0.00615263357758522,-0.0164200942963362,-0.0175936780869961,-0.0182786229997873
779,0.0533444695174694,-0.00423274282366037,0.00651935115456581,-0.0168495755642653,-0.0195755753666162,-0.0170068796724081
780,0.0499795824289322,-0.00457196589559317,0.00824947375804186,-0.0159186515957117,-0.0196512341499329,-0.0161840226501226
781,0.0481592491269112,-0.00363116944208741,0.0118535868823528,-0.0132969943806529,-0.0172544158995152,-0.0141962207853794
782,0.0474835559725761,-0.00160706392489374,0.0152356158941984,-0.0105788595974445,-0.0141433421522379,-0.0119238467887044
783,0.046654999256134,-0.000259563559666276,0.0160409361124039,-0.0103043550625443,-0.0125415176153183,-0.0127908084541559
784,0.0460243560373783,-7.61140545364469E-05,0.0152131048962474,-0.0123287923634052,-0.0120310932397842,-0.017742021009326
785,0.0469375848770142,0.000333530537318438,0.0149275008589029,-0.0144842863082886,-0.0106555121019483,-0.023912038654089
786,0.0492551326751709,0.00201388355344534,0.016310466453433,-0.0147223230451345,-0.00712419301271439,-0.0271301977336407
787,0.0504382215440273,0.00387031282298267,0.0186241045594215,-0.0128430370241404,-0.00305516598746181,-0.0257555041462183
788,0.049503181129694,0.00517677841708064,0.0210203286260366,-0.00959939416497946,-0.000677512667607516,-0.0211102236062288
789,0.0481549613177776,0.00634533306583762,0.0229048058390617,-0.00620678113773465,-0.000933366129174829,-0.0153629938140512
790,0.0466489642858505,0.00629109283909202,0.0223164204508066,-0.00555412005633116,-0.00470088794827461,-0.0117162289097905
791,0.0449074506759644,0.00550510641187429,0.019843677058816,-0.00777698727324605,-0.0100357001647353,-0.0103299869224429
792,0.0432055816054344,0.00548632815480232,0.0180928986519575,-0.0103633478283882,-0.014415723271668,-0.00874742679297924
793,0.0414905175566673,0.00605330849066377,0.0178047157824039,-0.0121829435229301,-0.0176180023699999,-0.0064385449513793
794,0.0400302447378635,0.00687427679076791,0.0183745492249727,-0.0126720368862152,-0.0195533987134695,-0.00350096472539008
795,0.0385891199111938,0.00730513501912355,0.018535116687417,-0.0117983305826783,-0.0206634812057018,8.17020772956312E-05
796,0.0371379218995571,0.00763988820835948,0.0182242151349783,-0.00978509243577719,-0.0214520432054996,0.0044938768260181
797,0.0358124747872353,0.00882649328559637,0.0184912458062172,-0.0070790252648294,-0.0213815737515688,0.00966868456453085
798,0.0337239764630795,0.0102489264681935,0.0190591849386692,-0.00553637417033315,-0.0201905071735382,0.0138869425281882
799,0.0302762053906918,0.0108494330197573,0.0190423969179392,-0.00660253781825304,-0.0185357127338648,0.014924137853086
800,0.0262309461832047,0.0102346055209637,0.0186115093529224,-0.00938852783292532,-0.0171970147639513,0.01224400755018
801,0.0222988929599524,0.00870652962476015,0.0178843140602112,-0.0126261347904801,-0.0169045608490705,0.00731671508401632
802,0.0192126408219337,0.00759678846225142,0.0165653731673956,-0.0155108971521258,-0.017656559124589,0.00284338789060712
803,0.0190688706934452,0.00838667154312134,0.0157169662415981,-0.016831424087286,-0.0176319852471352,0.0011054469505325
804,0.0231892038136721,0.0113420290872455,0.017092376947403,-0.0161439459770918,-0.0142989875748754,0.00192367006093264
805,0.0293039046227932,0.0152082229033113,0.0203458201140165,-0.014566894620657,-0.00776962144300342,0.00283690495416522
806,0.0343957096338272,0.0192529428750277,0.0241192057728767,-0.0123934363946319,-0.000879076367709786,0.00280528329312801
807,0.0369281247258186,0.0232640728354454,0.0276910066604614,-0.00945629924535751,0.0035445939283818,0.00224816659465432
808,0.0354676805436611,0.025095222517848,0.0294433031231165,-0.00775511004030705,0.00326546654105186,2.11656697501894E-05
809,0.0304833389818668,0.0236030295491219,0.0285446587949991,-0.00813519582152367,-0.00152771279681474,-0.00394015200436115
810,0.0253370590507984,0.0213543642312288,0.0276196412742138,-0.00829663965851069,-0.00660659372806549,-0.00736078806221485
811,0.0224630758166313,0.0204861517995596,0.0291261654347181,-0.00705105066299438,-0.00809981487691402,-0.00940186064690351
812,0.0205935202538967,0.020152635872364,0.031071238219738,-0.0055540231987834,-0.00744258379563689,-0.0106254555284977
813,0.0179509520530701,0.0195284467190504,0.0308871474117041,-0.00406731385737658,-0.00759276049211621,-0.00992160383611918
814,0.0151803139597178,0.0189747158437967,0.0296052973717451,-0.00209465716034174,-0.00799995195120573,-0.00562696065753698
815,0.0126879047602415,0.0177945457398891,0.0288108754903078,-0.000834564270917326,-0.00768435886129737,0.000628035166300833
816,0.00987494736909866,0.0149210346862674,0.0286402050405741,-0.00133383483625948,-0.00730174966156483,0.00484165176749229
817,0.00722665479406714,0.0115182427689433,0.0293605867773294,-0.00209804624319077,-0.0066888271830976,0.00595368491485715
818,0.00558501482009888,0.00974538084119558,0.0310244839638472,-0.00184083357453346,-0.00512401387095451,0.00575641496106982
819,0.00492151686921716,0.00986049044877291,0.0325884111225605,-0.00169753422960639,-0.00255679129622877,0.00451950589194894
820,0.0055049117654562,0.0110741201788187,0.0341919586062431,-0.00224123848602176,0.00207093614153564,0.00202459935098886
821,0.00787148158997297,0.0131416274234653,0.0373655147850513,-0.00258513540029526,0.00996436271816492,-0.000532052188646048
822,0.0113899521529675,0.0160351619124413,0.0422786436975002,-0.00204923562705517,0.0191048309206963,-0.00175286550074816
823,0.0135959610342979,0.0185347311198711,0.0462904497981071,-0.00142347707878798,0.0246348734945059,-0.0019703465513885
824,0.0123564386740327,0.0186744872480631,0.0462132394313812,-0.00264153047464788,0.0237321853637695,-0.00310619827359915
825,0.00869571417570114,0.0166074205189943,0.0422684960067272,-0.0059795118868351,0.0181568935513496,-0.0052254325710237
826,0.00538234552368522,0.0143837407231331,0.0375706925988197,-0.00964299216866493,0.0116909788921475,-0.0061303386464715
827,0.00338816875591874,0.0124437026679516,0.0339626409113407,-0.0125453853979707,0.00661769649013877,-0.00568846520036459
828,0.00147277442738414,0.00964746624231339,0.0311090853065252,-0.014629895798862,0.00261678220704198,-0.00571156339719892
829,-0.000194809079403058,0.00706075038760901,0.0297992620617151,-0.0145431803539395,0.000187588055268861,-0.00574663281440735
830,-0.000880413281265646,0.00596666522324085,0.0302435047924519,-0.0124968700110912,0.000191009370610118,-0.00581999402493238
831,-0.00204952131025493,0.00532530900090933,0.0308155678212643,-0.0111459447070956,0.00166518671903759,-0.00749460374936461
832,-0.00496369600296021,0.00487583875656128,0.0313929878175259,-0.0111831743270159,0.00403316924348474,-0.00986455846577883
833,-0.00887561775743961,0.0058246087282896,0.032573152333498,-0.0115610780194402,0.00741990003734827,-0.0112208090722561
834,-0.0117472596466541,0.00895021297037601,0.0347209088504314,-0.010949395596981,0.0121578881517053,-0.0110599882900715
835,-0.0115736434236169,0.0141695272177458,0.0385842546820641,-0.00756228668615222,0.0183511655777693,-0.00814231112599373
836,-0.00862699095159769,0.0199876856058836,0.0434749498963356,-0.00159743998665363,0.0243045222014189,-0.0019813075195998
837,-0.00532564148306847,0.0242898818105459,0.0474867783486843,0.00401174649596214,0.0276913437992334,0.0049703735858202
838,-0.00373234110884368,0.0261147581040859,0.0495591722428799,0.00645224377512932,0.0276983976364136,0.00910799577832222
839,-0.00511757098138332,0.0248906835913658,0.0492867529392242,0.0041281022131443,0.0249277632683516,0.00751704396679997
840,-0.00991445314139128,0.0206410996615887,0.0468493662774563,-0.0021042968146503,0.0210412684828043,0.000933934992644936
841,-0.0162506476044655,0.0159669443964958,0.0439375303685665,-0.00822085421532393,0.0190482959151268,-0.00580043019726872
842,-0.0213208813220263,0.013872629031539,0.0421631932258606,-0.0111101772636175,0.0209480337798595,-0.00899834185838699
843,-0.0238808747380972,0.0152163179591298,0.0419306643307209,-0.0101358089596033,0.0254114605486393,-0.00738782063126564
844,-0.023527791723609,0.0199409872293472,0.0440521761775017,-0.00490286434069276,0.0302484594285488,-0.000524564820807427
845,-0.0224020089954138,0.0250759404152632,0.0467000752687454,0.0014623956521973,0.0318067148327827,0.00760455569252372
846,-0.0243363250046968,0.0256553068757057,0.0459748134016991,0.00334066990762949,0.0268115513026714,0.0105330413207412
847,-0.0285251848399639,0.0219771210104227,0.0431955270469189,0.0015368073945865,0.0190728381276131,0.00842861086130142
848,-0.0312200020998716,0.0187721885740757,0.0421490222215652,0.00109835457988083,0.0144141335040331,0.00676066614687443
849,-0.0322678834199905,0.0175667684525251,0.041379053145647,0.00203681970015168,0.011899383738637,0.0069538033567369
850,-0.0332939811050892,0.0166779085993767,0.0379622802138329,0.00188913173042238,0.0085101006552577,0.00683031184598804
851,-0.0340337082743645,0.0152961639687419,0.0330207273364067,0.000666519859805703,0.00491672335192561,0.00531327212229371
852,-0.0340552404522896,0.0138204861432314,0.0284701697528362,-0.00120958650950342,0.00214137858711183,0.00227582245133817
853,-0.0336000807583332,0.0136112570762634,0.0250665042549372,-0.00322475680150092,8.34707043395611E-06,-0.00121930544264615
854,-0.0330945923924446,0.0157519169151783,0.0235456395894289,-0.00454583903774619,-0.00120994879398495,-0.00400576554238796
855,-0.0336447507143021,0.0189305748790503,0.0234201326966286,-0.00549313053488731,-0.00186038517858833,-0.00670740799978375
856,-0.035616047680378,0.0212430730462074,0.0237799137830734,-0.00627993559464812,-0.00239757960662246,-0.00902981031686068
857,-0.0372192151844502,0.0228992979973555,0.025702690705657,-0.00561161898076534,-0.000672458263579756,-0.0085039297118783
858,-0.0375848188996315,0.0237506367266178,0.0292156860232353,-0.00359834916889668,0.00499132974073291,-0.00524087157100439
859,-0.0383949093520641,0.0222598202526569,0.0313592031598091,-0.00259388354606926,0.0119390776380897,-0.00255260849371552
860,-0.0404766499996185,0.0184930842369795,0.0303249843418598,-0.00389799592085183,0.0170162804424763,-0.002591572701931
861,-0.0428888276219368,0.0139495497569442,0.0268285609781742,-0.00714031467214227,0.0195088218897581,-0.00533496867865324
862,-0.0451205149292946,0.00997616816312075,0.0221331361681223,-0.0110601112246513,0.0193578656762838,-0.00914114806801081
863,-0.0473419465124607,0.00698546366766095,0.0169589817523956,-0.0146709522232413,0.0164050813764334,-0.0128538645803928
864,-0.0496185831725597,0.00448034005239606,0.0113409711048007,-0.0181980449706316,0.0105017898604274,-0.0167478304356337
865,-0.0508204437792301,0.00418679602444172,0.0076693338342011,-0.0195356737822294,0.00442770775407553,-0.0182035397738218
866,-0.0510308481752872,0.00714001106098294,0.00800439529120922,-0.0167591813951731,0.00153330492321402,-0.015720684081316
867,-0.0535289570689201,0.00921598263084888,0.00890906061977148,-0.0134007558226585,-0.000405474624130875,-0.0136151975020766
868,-0.0590209178626537,0.00811695773154497,0.00798113644123077,-0.0122763039544225,-0.00341622205451131,-0.014008748345077
869,-0.0641966536641121,0.00682684266939759,0.00728734862059355,-0.0114200934767723,-0.00539600849151611,-0.0142892692238092
870,-0.067189134657383,0.00759372161701322,0.00773870153352618,-0.00917493272572756,-0.00565009051933885,-0.0129352593794465
871,-0.068294920027256,0.0102388393133879,0.00874405819922686,-0.0061513870023191,-0.00493784341961145,-0.0104562137275934
872,-0.0680951252579689,0.0136973802000284,0.00998947396874428,-0.00329008302651346,-0.0037202094681561,-0.00743687013164163
873,-0.0677591189742088,0.0159370955079794,0.0105675170198083,-0.00152926158625633,-0.00346763734705746,-0.00472370674833655
874,-0.0680741146206856,0.0161433573812246,0.0102590369060636,-0.00110384484287351,-0.00470497133210301,-0.00262340833432972
875,-0.0681974366307259,0.0157923493534327,0.0100071923807263,-0.00123590009752661,-0.00605102488771081,-0.000780638598371297
876,-0.0671581625938416,0.0164144765585661,0.0104427440091968,-0.000752125517465174,-0.00670894887298346,0.00114552839659154
877,-0.0647835358977318,0.0189929362386465,0.0120123047381639,0.00177802937105298,-0.00636117998510599,0.00461804587393999
878,-0.0624087825417519,0.0221874173730612,0.0137253431603312,0.00512019824236631,-0.00544220115989447,0.00930479820817709
879,-0.061599787324667,0.0232334174215794,0.014485071413219,0.00659856572747231,-0.00440543564036489,0.0121258478611708
880,-0.061685249209404,0.022228954359889,0.0151918092742562,0.0062372381798923,-0.00236765574663877,0.0116450050845742
881,-0.0615317896008492,0.0206763837486506,0.0157967619597912,0.00478089647367597,-8.65603506099433E-05,0.00860307645052671
882,-0.0603232644498348,0.0200337786227465,0.0162507090717554,0.0032990425825119,0.00168451096396893,0.00545564852654934
883,-0.0573965758085251,0.0215321853756905,0.017473665997386,0.00308744283393025,0.00420563109219074,0.00497283972799778
884,-0.0536013022065163,0.0238294880837202,0.0183559134602547,0.00293939490802586,0.00684700161218643,0.0063574742525816
885,-0.0507695078849792,0.0247739739716053,0.0170929729938507,0.0010738642886281,0.0071854586713016,0.00678028166294098
886,-0.0491912588477135,0.0255392715334892,0.0148155707865953,-0.00103837798815221,0.00518768420442939,0.00648927828297019
887,-0.0477025620639324,0.0283510889858007,0.0137687316164374,-0.00102117646019906,0.00290368567220867,0.00726088415831327
888,-0.0455224327743053,0.0334560796618462,0.0150854149833322,0.00144864269532263,0.00230893329717219,0.00959322974085808
889,-0.0430323742330074,0.0394730046391487,0.0186960324645042,0.00536644505336881,0.0037427544593811,0.0132644725963473
890,-0.0421162024140358,0.0435185506939888,0.0218923501670361,0.00880469381809235,0.00455453852191567,0.0167670827358961
891,-0.0441492982208729,0.0438984334468842,0.0219234749674797,0.0103837242349982,0.00226706312969327,0.0183889977633953
892,-0.0484775267541409,0.0416997671127319,0.0192121267318726,0.0102384174242616,-0.00247997208498418,0.0179544910788536
893,-0.0536635555326939,0.0385040789842606,0.0156662296503782,0.00862544681876898,-0.00753979431465268,0.0159754939377308
894,-0.0584234967827797,0.0349751599133015,0.0124949477612972,0.00571379577741027,-0.0114752296358347,0.0128624523058534
895,-0.0613479502499104,0.031571738421917,0.0106539931148291,0.00289489491842687,-0.0135455690324306,0.00971402786672115
896,-0.0624623410403728,0.0284824874252081,0.0104303387925029,0.00147235277108848,-0.0138036804273725,0.00775420246645808
897,-0.0628614574670792,0.0261375289410353,0.0115683199837804,0.00183394539635628,-0.0122596435248852,0.00766344415023923
898,-0.0627769604325294,0.0246219858527184,0.0139695126563311,0.00323746213689446,-0.00828311964869499,0.00897459406405687
899,-0.0623151957988739,0.0230467356741428,0.0168936885893345,0.00391580117866397,-0.00214553880505264,0.010258068330586
900,-0.0612683705985546,0.0218522716313601,0.0201712511479855,0.00378503231331706,0.00564046669751406,0.0112735945731401
901,-0.0598080679774284,0.0214457530528307,0.0236156620085239,0.00382680911570787,0.0136310616508126,0.0128262713551521
902,-0.0586317628622055,0.0208389461040497,0.025501636788249,0.00415957765653729,0.0188096184283495,0.0158929601311684
903,-0.0572482831776142,0.0195026192814112,0.0243444535881281,0.00464991619810462,0.0194698795676231,0.020570294931531
904,-0.0544101260602474,0.0180619303137064,0.021208243444562,0.00570226181298494,0.0170934572815895,0.0254439041018486
905,-0.0505262687802315,0.0172603633254766,0.0185828693211079,0.00739169167354703,0.0142878321930766,0.0288599077612162
906,-0.0478000193834305,0.017094686627388,0.0177773721516132,0.00929397810250521,0.0126261627301574,0.0303620658814907
907,-0.0475867725908756,0.0171543043106794,0.0184595920145512,0.0112344985827804,0.0125740012153983,0.0306521151214838
908,-0.0496914200484753,0.0167972445487976,0.0190520603209734,0.0126515664160252,0.0129116829484701,0.0296983141452074
909,-0.0527915954589844,0.0160444974899292,0.0187979638576508,0.013328486122191,0.0126569829881191,0.027313407510519
910,-0.0554725863039494,0.0160326696932316,0.0185656603425741,0.0137835238128901,0.0123399635776877,0.024779224768281
911,-0.0577168315649033,0.017172958701849,0.0185447223484516,0.0142529532313347,0.0117067592218518,0.023625697940588
912,-0.0598077327013016,0.0185184478759766,0.0186076611280441,0.0149404043331742,0.0102064227685332,0.0245193932205439
913,-0.0615212544798851,0.0192477647215128,0.0194432251155376,0.0156418941915035,0.00849955342710018,0.0267689730972052
914,-0.063335046172142,0.0188518948853016,0.0205396506935358,0.0155224511399865,0.00642445590347052,0.0286933816969395
915,-0.0657447427511215,0.0169231258332729,0.0204957332462072,0.0143653266131878,0.00352188874967396,0.0288401022553444
916,-0.0682324543595314,0.0139350071549416,0.0192631054669619,0.0124187907204032,0.00136006227694452,0.0268656797707081
917,-0.0698847994208336,0.0115905227139592,0.0185237899422646,0.0106699895113707,0.00208280119113624,0.0245230086147785
918,-0.0706597119569778,0.010587309487164,0.0198098961263895,0.010017623193562,0.00575689971446991,0.0229969006031752
919,-0.0713944733142853,0.00992462411522865,0.0228085480630398,0.0101711750030518,0.0103404643014073,0.0220373775810003
920,-0.0730502605438232,0.00859609618782997,0.0257039144635201,0.0105152484029531,0.0134928170591593,0.0221519637852907
921,-0.0767320767045021,0.00597817450761795,0.0261471159756184,0.0096770953387022,0.0136680109426379,0.0228807628154755
922,-0.0824015662074089,0.00237062852829695,0.0234875716269016,0.00661879358813167,0.0111121935769916,0.0224640946835279
923,-0.0873668491840363,-0.000869316281750798,0.0202425476163626,0.00285358773544431,0.00800907146185637,0.0206397790461779
924,-0.0884185060858727,-0.00245889532379806,0.0194395165890455,0.000904540764167905,0.00655783154070377,0.0190735124051571
925,-0.0855861604213715,-0.00224935892038047,0.02079788595438,0.00125303643289953,0.00713483151048422,0.0190864540636539
926,-0.0807885825634003,-0.000655222742352635,0.0226641353219748,0.00317908474244177,0.00937584694474936,0.0207242928445339
927,-0.0764027610421181,0.000905942695681006,0.0241423975676298,0.00567506439983845,0.0122750904411078,0.0228139534592628
928,-0.0750241428613663,0.000908794580027461,0.0243699811398983,0.00751211121678352,0.0144464829936624,0.024330073967576
929,-0.0764691382646561,0.000166733632795513,0.0236758645623922,0.00874544214457273,0.0163870025426149,0.0257425885647535
930,-0.0786971375346184,0.000269422132987529,0.0228374656289816,0.0101306950673461,0.0184634439647198,0.0275290831923485
931,-0.0809045657515526,0.00162593484856188,0.0212481245398521,0.0116258263587952,0.0185286849737167,0.0294409673660994
932,-0.0830391496419907,0.00378357735462487,0.0182017255574465,0.0127959027886391,0.0151684321463108,0.0312149450182915
933,-0.0847437828779221,0.00631342735141516,0.014463035389781,0.0134835252538323,0.0100304819643497,0.0326359607279301
934,-0.0858916565775871,0.00905813742429018,0.0111471395939589,0.0135087333619595,0.00505118910223246,0.0333759784698486
935,-0.0868643373250961,0.0114754876121879,0.00867692846804857,0.012723789550364,0.00113263656385243,0.03315344825387
936,-0.0875397324562073,0.0132911149412394,0.00803775899112225,0.0121145211160183,0.000101383615401573,0.0328101813793182
937,-0.0878908559679985,0.0145052606239915,0.00946963112801313,0.0124639961868525,0.00228012003935874,0.0330155566334724
938,-0.0891547352075577,0.0143943373113871,0.0104708159342408,0.0124002210795879,0.00414372188970447,0.0324766486883163
939,-0.0919024869799614,0.0130796218290925,0.00929053034633398,0.011284600943327,0.00372555386275053,0.030903946608305
940,-0.094392865896225,0.0124401403591037,0.00758942728862166,0.0110889226198196,0.00337284547276795,0.0304831154644489
941,-0.0944141000509262,0.0133670102804899,0.00750981690362096,0.013075165450573,0.00537287723273039,0.0322555862367153
942,-0.0921905115246773,0.0139907049015164,0.00862454902380705,0.0156470686197281,0.00869358330965042,0.0335960797965527
943,-0.0898876935243607,0.0127505343407393,0.00899105239659548,0.0166819989681244,0.0106137366965413,0.0318521149456501
944,-0.0885439217090607,0.0108452010899782,0.00813930947333574,0.0158319268375635,0.0108218546956778,0.027677720412612
945,-0.0874976292252541,0.0101798558607697,0.00779320113360882,0.0146874506026506,0.011467001400888,0.0235972907394171
946,-0.0866501107811928,0.0107956593856215,0.00869365688413382,0.0144402906298637,0.0128552252426744,0.0212587155401707
947,-0.0864197909832001,0.0114538287743926,0.00921968370676041,0.0142117151990533,0.01366385538131,0.0203430484980345
948,-0.0861310139298439,0.0113166505470872,0.008023994974792,0.0130749335512519,0.0135998297482729,0.0203095097094774
949,-0.0851910039782524,0.0105288857594132,0.00509798945859075,0.0115549005568028,0.0128581998869777,0.0219947844743729
950,-0.0837937816977501,0.0101923523470759,0.00191042153164744,0.0110279498621821,0.012439358048141,0.0265898257493973
951,-0.0828119516372681,0.0102594261988997,0.000229501369176432,0.0115245394408703,0.0137007962912321,0.0323068872094154
952,-0.0837917104363441,0.00895235221832991,-0.00024540806771256,0.0113893542438746,0.0160438995808363,0.0355291664600372
953,-0.0862873047590256,0.00657746754586697,2.43349677475635E-05,0.0107314120978117,0.0183187313377857,0.0365441702306271
954,-0.0871966481208801,0.00604593474417925,0.00212745252065361,0.0118816439062357,0.0207509621977806,0.0386789180338383
955,-0.0845295637845993,0.00873640179634094,0.00625420641154051,0.0158524848520756,0.0236585605889559,0.0430539846420288
956,-0.0798178017139435,0.0133379958570004,0.0106022050604224,0.0208780039101839,0.0260141715407372,0.048099160194397
957,-0.0757501646876335,0.0177716165781021,0.0135885020717978,0.0244646966457367,0.0267755966633558,0.0517734922468662
958,-0.073474645614624,0.0206494014710188,0.0153489615768194,0.0258588436990976,0.0262322127819061,0.0530468076467514
959,-0.0732126533985138,0.0213908609002829,0.0160449612885714,0.0254517253488302,0.0244106557220221,0.0514198392629623
960,-0.0743825659155846,0.0203299447894096,0.0152467815205455,0.0236321408301592,0.0213868394494057,0.0467947125434875
961,-0.0757367685437202,0.0190398506820202,0.0133605999872088,0.0213015135377645,0.0183201730251312,0.0407184325158596
962,-0.0764267891645432,0.0192372258752584,0.0116109969094396,0.0198535118252039,0.0164528470486403,0.0354299284517765
963,-0.0761765986680985,0.0208371579647064,0.0106661450117826,0.0197692606598139,0.016108151525259,0.0315565280616283
964,-0.0757093280553818,0.0217656921595335,0.00936728343367577,0.0194129403680563,0.0155321573838592,0.0281137265264988
965,-0.076130636036396,0.0203907750546932,0.00610291864722967,0.016990639269352,0.0122963469475508,0.0248119458556175
966,-0.0767664164304733,0.0172168351709843,0.0017482868861407,0.0133201936259866,0.00714172190055251,0.0225102286785841
967,-0.0755236074328423,0.0141089633107185,-0.000696722127031535,0.0111370654776692,0.0038663565646857,0.0223668906837702
968,-0.071606732904911,0.0129113290458918,0.0009311314788647,0.0127300247550011,0.00527616171166301,0.0259336847811937
969,-0.0670776963233948,0.0132455825805664,0.00490651000291109,0.0171261727809906,0.00943559408187866,0.0320904962718487
970,-0.0654920637607574,0.0120122106745839,0.00635184021666646,0.0192686505615711,0.0112070888280869,0.0350826345384121
971,-0.0662700980901718,0.00931210536509752,0.00481223873794079,0.0176297463476658,0.0104957316070795,0.0330273732542992
972,-0.0655626878142357,0.00851412955671549,0.00407597469165921,0.0161795876920223,0.0115010840818286,0.0299039110541344
973,-0.0638630837202072,0.00902968179434538,0.00387600576505065,0.0154930585995317,0.0133364824578166,0.0263649746775627
974,-0.0640005469322205,0.00850618910044432,0.00252326228655875,0.0138218412175775,0.0124377394095063,0.0211403425782919
975,-0.0666802749037743,0.00674294633790851,0.000613408396020532,0.0112680979073048,0.00835604593157768,0.0155726643279195
976,-0.0707481950521469,0.00455866847187281,-0.000990687869489193,0.00842017773538828,0.00325607927516103,0.0117434300482273
