,AF3,AF4,Fp1,Fp2,AF7,AF8
0,-0.0740401148796082,0.0407825224101543,0.00166808452922851,0.0210385024547577,0.000248937110882252,0.0406023561954498
1,-0.077539324760437,0.0392850898206234,0.0056154360063374,0.0234396569430828,0.00835477001965046,0.0478471554815769
2,-0.0810394957661629,0.0393059588968754,0.0121541945263743,0.0261673480272293,0.0147712435573339,0.0508614778518677
3,-0.0819152817130089,0.042893011122942,0.0194636881351471,0.0295661520212889,0.0188069231808186,0.0505296587944031
4,-0.0824302360415459,0.0472447015345097,0.0220200940966606,0.0304857939481735,0.0174690540879965,0.0446702912449837
5,-0.0849998220801353,0.0507842265069485,0.0188660267740488,0.0289284810423851,0.0123435845598578,0.034920834004879
6,-0.0887938663363457,0.054192315787077,0.014186717569828,0.0276037584990263,0.00983307603746653,0.0252996310591698
7,-0.0912254601716995,0.0569385886192322,0.0109156593680382,0.0273295789957047,0.013059782795608,0.0175058953464031
8,-0.0910677686333656,0.0585057139396667,0.00924909394234419,0.0279814973473549,0.0189584325999022,0.0126226153224707
9,-0.0904305204749107,0.0586673505604267,0.00759353954344988,0.028758043423295,0.0218422599136829,0.0109804607927799
10,-0.0915183201432228,0.0575467981398106,0.00542982993647456,0.0292309708893299,0.0197396017611027,0.0122837089002132
11,-0.0947193205356598,0.0553242936730385,0.00367538072168827,0.0294414423406124,0.01470887940377,0.0156868286430836
12,-0.0995277166366577,0.0517991967499256,0.00292864418588579,0.0288363434374332,0.00950721558183432,0.0194905623793602
13,-0.10510540753603,0.047421146184206,0.00335441180504858,0.0273486133664846,0.00641327910125256,0.0229254812002182
14,-0.110526919364929,0.0428813025355339,0.00445460574701428,0.0256303008645773,0.00633615860715508,0.0256459452211857
15,-0.114882491528988,0.0381933860480785,0.00507118739187717,0.0238563921302557,0.00828232523053885,0.0264476891607046
16,-0.117456287145615,0.0333133488893509,0.00463812099769711,0.0219480488449335,0.0103942370042205,0.0247816871851683
17,-0.118660248816013,0.0283730961382389,0.00342652737163007,0.0200336650013924,0.0111936815083027,0.0216382183134556
18,-0.120427764952183,0.0235052220523357,0.00157745368778706,0.0181102566421032,0.0103782033547759,0.0189674161374569
19,-0.124786697328091,0.0185796990990639,-0.00106927461456507,0.0158808436244726,0.00898929499089718,0.0187753010541201
20,-0.130909264087677,0.0135303558781743,-0.00405778456479311,0.013274515978992,0.00925746839493513,0.0210350658744574
21,-0.13451986014843,0.00923719070851803,-0.00607994478195906,0.0110084693878889,0.0135255008935928,0.0227674525231123
22,-0.134315595030785,0.00601867120712996,-0.00756147829815745,0.00916247442364693,0.0203061774373055,0.0211920738220215
23,-0.133276730775833,0.00349225243553519,-0.0100260376930237,0.0074951252900064,0.0251116752624512,0.0176326800137758
24,-0.132873550057411,0.0014889519661665,-0.0133192222565413,0.00637880340218544,0.0250842645764351,0.014983088709414
25,-0.132059007883072,-4.97160726808943E-05,-0.0162583254277706,0.00597368739545345,0.0199297089129686,0.0136534329503775
26,-0.129532486200333,-0.000410544453188777,-0.0173709820955992,0.0066528101451695,0.0119334999471903,0.0130449123680592
27,-0.125953391194344,0.000208462166483514,-0.0171007663011551,0.00786537397652864,0.00340826017782092,0.0124078094959259
28,-0.122923336923122,0.000149041603435762,-0.0177604202181101,0.00768912490457296,-0.00591517705470324,0.0106010166928172
29,-0.121261186897755,-0.00111521268263459,-0.0197865162044764,0.0056633148342371,-0.0167038664221764,0.00792910903692245
30,-0.12164319306612,-0.00333642261102796,-0.0223658736795187,0.00270916381850839,-0.0278804264962673,0.00536118447780609
31,-0.123774237930775,-0.00621100049465895,-0.0253212191164494,-0.000348631321685389,-0.0375166200101376,0.00330978608690202
32,-0.125035285949707,-0.00843312591314316,-0.0271766129881144,-0.00209746370092034,-0.0432862713932991,0.00228643324226141
33,-0.122904911637306,-0.00894345063716173,-0.0259678978472948,-0.00150789099279791,-0.043599758297205,0.0021778061054647
34,-0.119373746216297,-0.00825080368667841,-0.0231160018593073,0.000568017538171262,-0.0406058803200722,0.00287602632306516
35,-0.117934964597225,-0.0069847833365202,-0.0208386294543743,0.00318064237944782,-0.0369489267468452,0.00586352590471506
36,-0.11879226565361,-0.00549620296806097,-0.0191822983324528,0.0061218524351716,-0.032629519701004,0.0114934099838138
37,-0.119501814246178,-0.00367344706319273,-0.0168772544711828,0.00962933991104364,-0.026455195620656,0.0177924372255802
38,-0.118461720645428,-0.0012505401391536,-0.013203963637352,0.0138536551967263,-0.018146775662899,0.0237884167581797
39,-0.117376826703548,0.000520552566740662,-0.00989483948796988,0.0177819579839706,-0.0104887252673507,0.0289031658321619
40,-0.118197806179523,-9.2677197244484E-05,-0.00919058453291655,0.01952482201159,-0.00670379912480712,0.0297085735946894
41,-0.119108483195305,-0.00279407412745059,-0.0107696205377579,0.0183949936181307,-0.00616701832041144,0.0237398892641068
42,-0.115639820694923,-0.00469905324280262,-0.0117489816620946,0.0167561620473862,-0.00507144536823034,0.0142440665513277
43,-0.107952117919922,-0.00468999287113547,-0.011169670149684,0.0157659966498613,-0.00242303172126412,0.00482042599469423
44,-0.10213965177536,-0.00462310807779431,-0.0112840915098786,0.0134955169633031,-0.00112095125950873,-0.00410176673904061
45,-0.101681426167488,-0.00500164041295648,-0.0130455233156681,0.00972786359488964,-0.00234504276886582,-0.0116207078099251
46,-0.105115689337254,-0.00563477398827672,-0.0153992157429457,0.00602813018485904,-0.00476558320224285,-0.0165031924843788
47,-0.109815798699856,-0.00724403886124492,-0.0172361563891172,0.00320441927760839,-0.00677431281656027,-0.0184321906417608
48,-0.113164864480495,-0.00952888745814562,-0.0171407293528318,0.00181718205567449,-0.00625883229076862,-0.0167243555188179
49,-0.113655500113964,-0.0118576725944877,-0.0145013323053718,0.00190348189789802,-0.00179216754622757,-0.0122284423559904
50,-0.111539751291275,-0.0139056015759707,-0.0101798344403505,0.0029039909131825,0.00577290542423725,-0.00806631334125996
51,-0.108330950140953,-0.0150391841307282,-0.00545654445886612,0.00407297583296895,0.0138163175433874,-0.00663595180958509
52,-0.105572447180748,-0.0147177902981639,-0.00119920540601015,0.00498162163421512,0.0199980232864618,-0.00781266950070858
53,-0.103300057351589,-0.0125390077009797,0.00303864502348006,0.00618935190141201,0.024136969819665,-0.00956598483026028
54,-0.101481005549431,-0.00990858301520348,0.00683833751827478,0.00709981378167868,0.0258601903915405,-0.0109407808631659
55,-0.100692294538021,-0.00889880955219269,0.00871024373918772,0.006365105509758,0.0240313224494457,-0.0118666319176555
56,-0.101301372051239,-0.00978417042642832,0.00875422079116106,0.00373484240844846,0.0194976720958948,-0.0117055755108595
57,-0.102550968527794,-0.0110325403511524,0.00911748595535755,0.00078778964234516,0.0157559253275394,-0.00916837807744741
58,-0.103536650538445,-0.0111252823844552,0.0111291622743011,-0.000452807609690353,0.0157437566667795,-0.00336270104162395
59,-0.106317974627018,-0.0116598149761558,0.0116376914083958,-0.00175017898436636,0.0171089712530375,0.00233982829377055
60,-0.111310034990311,-0.0133890006691217,0.00875257886946201,-0.0043379464186728,0.0173289868980646,0.00434436602517962
61,-0.114108130335808,-0.0132510112598538,0.00601639458909631,-0.00488830450922251,0.0178860519081354,0.00462283659726381
62,-0.112814195454121,-0.0107457237318158,0.00479786610230803,-0.00283413077704608,0.0173392854630947,0.00457250326871872
63,-0.109988003969193,-0.00907801371067762,0.00272188615053892,-0.00188086065463722,0.0118416845798492,0.00223093410022557
64,-0.106474332511425,-0.00842933729290962,0.000504071766044945,-0.00247906451113522,0.00317919068038464,-0.00140850385650992
65,-0.101209342479706,-0.00638498133048415,0.000441705138655379,-0.00227860454469919,-0.00328687089495361,-0.00308210705406964
66,-0.0958948731422424,-0.0037680936511606,0.000804582610726357,-0.00178174022585154,-0.00602266658097506,-0.00255043827928603
67,-0.0935118421912193,-0.00356323085725307,-0.00106255058199167,-0.00294646923430264,-0.00672712037339807,-0.00143638567533344
68,-0.0933287069201469,-0.00643556332215667,-0.00405845558270812,-0.0053942296653986,-0.00604226579889655,-0.000615452125202864
69,-0.0920147970318794,-0.00980529841035604,-0.00481961201876402,-0.00641251169145107,-0.003245530417189,0.000503432413097471
70,-0.0889037922024727,-0.0106106186285615,-0.00181429123040289,-0.00399723928421736,0.00134423596318811,0.00334927951917052
71,-0.0863838493824005,-0.00889613013714552,0.00265151215717196,0.000302268221275881,0.00547746662050486,0.00710868136957288
72,-0.0868271067738533,-0.00780785037204623,0.00452190358191729,0.00252115214243531,0.00656980788335204,0.00824150256812572
73,-0.0904549360275269,-0.00958809722214937,0.0025631811004132,0.000756910361815244,0.0042251287959516,0.00467049842700362
74,-0.0944444686174393,-0.0127485450357199,-0.000423012825194746,-0.00257144519127905,0.00157205492723733,-0.000873885757755488
75,-0.0958386585116386,-0.0141757559031248,-0.00171082990709692,-0.00419410597532988,0.0025936895981431,-0.00344634801149368
76,-0.0955667495727539,-0.0141954710707068,-0.00222763908095658,-0.00466797268018126,0.00740351248532534,-0.00203468766994774
77,-0.0955192223191261,-0.0149997258558869,-0.00308068911544979,-0.00552541622892022,0.0137234497815371,0.00131540664006025
78,-0.0950688347220421,-0.0165702980011702,-0.00364600494503975,-0.00653499364852905,0.0191571973264217,0.00485401786863804
79,-0.0929836854338646,-0.0183908548206091,-0.00424174498766661,-0.00810078345239162,0.0209573153406382,0.00643197586759925
80,-0.0884994938969612,-0.01962511241436,-0.00449018739163876,-0.0096955094486475,0.0188817381858826,0.00601332960650325
81,-0.0826422944664955,-0.0193859580904245,-0.00368265039287508,-0.0102649265900254,0.0144610898569226,0.00547125190496445
82,-0.077728271484375,-0.0180478971451521,-0.00190745783038437,-0.00988436676561832,0.0101991025730968,0.00459438934922218
83,-0.0753113329410553,-0.0169075448065996,0.000529502402059734,-0.00876531470566988,0.0091312238946557,0.00187015428673476
84,-0.0766150429844856,-0.0179733373224735,0.0015577346784994,-0.00852382835000753,0.0104011865332723,-0.00319874379783869
85,-0.0807583704590797,-0.0212477706372738,0.000238326727412641,-0.00981159880757332,0.0113161969929934,-0.00828291941434145
86,-0.0843145474791527,-0.0241155494004488,-0.00115052401088178,-0.0105128083378077,0.0114608565345407,-0.0098356194794178
87,-0.0848721489310265,-0.0254380200058222,-0.000806063238997012,-0.00974861346185207,0.0110641978681087,-0.00784215331077576
88,-0.0819016844034195,-0.0254619885236025,0.0012956626014784,-0.00766686582937837,0.0100356237962842,-0.00403823470696807
89,-0.0767389163374901,-0.0245202910155058,0.00334742967970669,-0.0046620243228972,0.00749115878716111,1.86506404133979E-05
90,-0.0727667436003685,-0.0245569292455912,0.00186740071512759,-0.00340844481252134,0.00174493947997689,0.00160984741523862
91,-0.0702033862471581,-0.026257548481226,-0.00346821150742471,-0.0051538604311645,-0.00565864099189639,0.000362315535312518
92,-0.0645885020494461,-0.0266254041343927,-0.0075401016511023,-0.00667607923969626,-0.00903067737817764,-0.000750156468711793
93,-0.0551527440547943,-0.0239456202834845,-0.00624569924548268,-0.00506927398964763,-0.0053330771625042,0.000313718599500135
94,-0.0462689734995365,-0.0201912131160498,-0.000780035799834877,-0.00115978706162423,0.00235454528592527,0.00341828283853829
95,-0.0400991290807724,-0.0167632959783077,0.00607445416972041,0.00313930818811059,0.0102068493142724,0.00802253466099501
96,-0.0358184240758419,-0.0132695259526372,0.0130066834390163,0.00726197753101587,0.0178269241005182,0.014064833521843
97,-0.033992737531662,-0.0104213440790772,0.0181862376630306,0.0102821905165911,0.0253473594784737,0.0197810232639313
98,-0.0355630852282047,-0.00934469513595104,0.0193319916725159,0.0106820706278086,0.0315585322678089,0.0222200304269791
99,-0.0381698682904243,-0.00866194907575846,0.0177277866750956,0.00952455401420593,0.0365318432450294,0.0224010664969683
100,-0.0397490076720715,-0.0074265724979341,0.0153885269537568,0.00824427604675293,0.0395302399992943,0.0228227935731411
101,-0.04139294475317,-0.00705878948792815,0.011668898165226,0.00625752005726099,0.037919394671917,0.02275076135993
102,-0.0433224886655808,-0.00739689776673913,0.0074021159671247,0.00424367189407349,0.0324969366192818,0.0223890338093042
103,-0.0442131161689758,-0.00679397350177169,0.00471058301627636,0.00368828722275794,0.0267507117241621,0.0250829719007015
104,-0.0440479628741741,-0.00524454237893224,0.00294350949116051,0.00422844663262367,0.0218449253588915,0.0313953272998333
105,-0.0439000278711319,-0.00424551591277123,0.000235779603826813,0.00463394029065967,0.017263175919652,0.035915944725275
106,-0.0440218783915043,-0.0047113411128521,-0.00311960023827851,0.00398565782234073,0.0135329952463508,0.033157330006361
107,-0.0446001291275024,-0.0065948567353189,-0.00627402123063803,0.00163706985767931,0.0107124075293541,0.0236194487661123
108,-0.0461063049733639,-0.00981375575065613,-0.00934740900993347,-0.00207870174199343,0.0076679871417582,0.0117326648905873
109,-0.0481196641921997,-0.0139231188222766,-0.0123744178563356,-0.00565146375447512,0.00396822998300195,0.00152524444274604
110,-0.0494546815752983,-0.0174256656318903,-0.0144973574206233,-0.00727732758969069,0.000412691122619435,-0.00395591417327523
111,-0.0498259961605072,-0.0191459525376558,-0.0144971637055278,-0.00654448987916112,-0.0014573847874999,-0.00384960416704416
112,-0.0499381646513939,-0.0193427875638008,-0.0122326072305441,-0.00445095542818308,-0.000305947818560526,1.91101426025853E-05
113,-0.0495690926909447,-0.0187313705682755,-0.00884061306715012,-0.00191681017167866,0.0039986246265471,0.00518750539049506
114,-0.0477057807147503,-0.0176494605839252,-0.00598826399073005,0.000103335551102646,0.00944304745644331,0.00996609032154083
115,-0.0440877191722393,-0.0163976158946753,-0.00503857340663671,0.000390000524930656,0.0126832267269492,0.0135632548481226
116,-0.0397377051413059,-0.0158161371946335,-0.00618676422163844,-0.00159089872613549,0.0127926031127572,0.0154923889786005
117,-0.0356829389929771,-0.0160737428814173,-0.00786986108869314,-0.00423953356221318,0.012691892683506,0.0160633269697428
118,-0.0329016298055649,-0.0165516678243876,-0.00929415039718151,-0.00572997191920877,0.0138741992413998,0.0158446524292231
119,-0.0322010107338429,-0.0167107842862606,-0.0112322894856334,-0.00591444130986929,0.0142574179917574,0.015508659183979
120,-0.0326986983418465,-0.0158721506595612,-0.0133144771680236,-0.00533330999314785,0.0121489390730858,0.0164057668298483
121,-0.0332224741578102,-0.0145785287022591,-0.0145741980522871,-0.00513226073235273,0.00753053557127714,0.0179874002933502
122,-0.0340283401310444,-0.0150345768779516,-0.0149962576106191,-0.00620027119293809,0.00144665606785566,0.0173496771603823
123,-0.0356000997126102,-0.0175211131572723,-0.0149649744853377,-0.00795956421643496,-0.00425668386742473,0.0130483545362949
124,-0.0374382734298706,-0.0193656887859106,-0.0146772004663944,-0.00944143068045378,-0.00724098458886147,0.0056669213809073
125,-0.0387422293424606,-0.0194278284907341,-0.0147859491407871,-0.0109705328941345,-0.00564198009669781,-0.00470689730718732
126,-0.0379752852022648,-0.0187558382749558,-0.0151000842452049,-0.0128373624756932,0.00132749485783279,-0.0171299688518047
127,-0.0347963199019432,-0.0181619059294462,-0.0142825590446591,-0.0147184627130628,0.0117791220545769,-0.028852790594101
128,-0.0329583063721657,-0.0182796064764261,-0.0124085750430822,-0.0168824959546328,0.0207561608403921,-0.0371498018503189
129,-0.0358966402709484,-0.0200924649834633,-0.0112110218033195,-0.0193262044340372,0.0241139214485884,-0.0403461419045925
130,-0.0425043888390064,-0.0236680917441845,-0.012004847638309,-0.0212413426488638,0.0211685206741095,-0.0383753068745136
131,-0.0491676703095436,-0.0269731469452381,-0.014152561314404,-0.0217379573732615,0.0140931271016598,-0.03203060105443
132,-0.0527884960174561,-0.0289924461394548,-0.016835629940033,-0.0211595389991999,0.00540535105392337,-0.0233676303178072
133,-0.0518858432769775,-0.0307172406464815,-0.0190925747156143,-0.0199658591300249,-0.00198882538825274,-0.0150759052485228
134,-0.0481672659516335,-0.032938402146101,-0.020124513655901,-0.018534567207098,-0.00595164950937033,-0.00925157312303782
135,-0.0443934351205826,-0.0350679680705071,-0.02057795971632,-0.0179163105785847,-0.00707070250064135,-0.00639457302168012
136,-0.0406930930912495,-0.0350518189370632,-0.0202983878552914,-0.0174748077988625,-0.00656431308016181,-0.00338771054521203
137,-0.037416722625494,-0.0329692475497723,-0.0193956140428782,-0.0161823760718107,-0.00604956410825253,0.00196679914370179
138,-0.0362272784113884,-0.0318900793790817,-0.0189225692301989,-0.0146333128213882,-0.00636617466807365,0.00687183858826756
139,-0.0376409105956554,-0.0337148271501064,-0.0191225614398718,-0.0136826671659946,-0.00672876602038741,0.00782794877886772
140,-0.0405853614211082,-0.0372931808233261,-0.0195381194353104,-0.0132644781842828,-0.00595280807465315,0.00484192883595824
141,-0.0429806523025036,-0.0398401208221912,-0.018724013119936,-0.0122930174693465,-0.00246851518750191,0.000842422188725322
142,-0.0437932573258877,-0.0396856106817722,-0.0158708188682795,-0.0105247776955366,0.00295219267718494,-0.00182105461135507
143,-0.0442058481276035,-0.0382306464016438,-0.0125045236200094,-0.00962294545024633,0.00709150917828083,-0.00381481577642262
144,-0.0451962351799011,-0.0375065356492996,-0.010044027119875,-0.0104338806122541,0.00865462888032198,-0.00661194277927279
145,-0.0465326458215714,-0.0382521227002144,-0.00937926210463047,-0.0125653669238091,0.0076333568431437,-0.0105874445289373
146,-0.0481005012989044,-0.0414277650415897,-0.0120426053181291,-0.0164265651255846,0.00341143971309066,-0.0159569084644318
147,-0.0492524616420269,-0.046514131128788,-0.0172086451202631,-0.0214765854179859,-0.00267006061039865,-0.0218504052609205
148,-0.0488078519701958,-0.0508227199316025,-0.021190432831645,-0.0256434213370085,-0.00748107023537159,-0.0265899877995253
149,-0.0458613447844982,-0.0519610233604908,-0.0210275091230869,-0.0266218427568674,-0.00907234661281109,-0.0284219440072775
150,-0.0413480289280415,-0.0502158440649509,-0.0178030673414469,-0.0243231933563948,-0.00848866999149323,-0.0271197631955147
151,-0.0378531031310558,-0.0477441065013409,-0.0147987315431237,-0.0210974086076021,-0.00770057365298271,-0.0244654025882483
152,-0.0366234332323074,-0.0457387492060661,-0.0131652355194092,-0.0180927738547325,-0.00668595638126135,-0.0211418848484755
153,-0.0376203060150146,-0.0453401133418083,-0.0128261847421527,-0.0153692876920104,-0.00554656656458974,-0.0168835707008839
154,-0.0397843942046165,-0.0470995381474495,-0.0130373034626246,-0.0126784648746252,-0.004027568269521,-0.0112459724768996
155,-0.0413282476365566,-0.0496665500104427,-0.0127636846154928,-0.00995750911533833,-0.000372895126929507,-0.00380484340712428
156,-0.0413443595170975,-0.0514499545097351,-0.0122051006183028,-0.00792382564395666,0.00547005189582706,0.00440465100109577
157,-0.040439534932375,-0.0518893077969551,-0.0118543282151222,-0.00680679269134998,0.0108243217691779,0.01058613602072
158,-0.0405232347548008,-0.0513112470507622,-0.0114617981016636,-0.00617398042231798,0.0127987517043948,0.0126571655273438
159,-0.043012160807848,-0.0496902875602245,-0.00988116860389709,-0.00504418462514877,0.0114760715514421,0.0117019126191735
160,-0.0473913885653019,-0.047197662293911,-0.00676703499630094,-0.00307125225663185,0.00895707868039608,0.00996971502900124
161,-0.0517246499657631,-0.0445424914360046,-0.00306181772612035,-0.00103471893817186,0.00649982411414385,0.0092431977391243
162,-0.0552054680883884,-0.0426237247884274,-0.000326659239362925,1.37131228257203E-05,0.00359820714220405,0.00979061983525753
163,-0.058833159506321,-0.0428748577833176,-0.000933283532503992,-0.00100486248265952,-0.00130410376004875,0.00942518468946218
164,-0.0621580295264721,-0.0447674877941608,-0.00526930671185255,-0.00368188135325909,-0.00765779707580805,0.00722158141434193
165,-0.0633166581392288,-0.0455995090305805,-0.0105132311582565,-0.00630690483376384,-0.0123977027833462,0.00480149686336517
166,-0.0623443648219109,-0.0443917028605938,-0.0144180059432983,-0.00798486825078726,-0.0144555931910872,0.0033583571203053
167,-0.0616706348955631,-0.0432405211031437,-0.0181646831333637,-0.00996203999966383,-0.0170077085494995,0.00202859775163233
168,-0.0622644349932671,-0.0435547083616257,-0.0226471815258265,-0.0130933867767453,-0.0215139407664537,1.58932562044356E-05
169,-0.0620397254824638,-0.0441567562520504,-0.0257231928408146,-0.0158406011760235,-0.0246307458728552,-0.00234724069014192
170,-0.0595688745379448,-0.0442486144602299,-0.0263955686241388,-0.0178136490285397,-0.0238530803471804,-0.00621214183047414
171,-0.0552606321871281,-0.0435517840087414,-0.0252185091376305,-0.0194081179797649,-0.019106138497591,-0.0118722794577479
172,-0.0506239868700504,-0.0420778132975101,-0.0223138388246298,-0.0196773745119572,-0.0116796400398016,-0.0171624720096588
173,-0.0476932376623154,-0.0409347824752331,-0.0184566341340542,-0.0183498375117779,-0.00446411175653338,-0.0207083411514759
174,-0.0458651930093765,-0.0402863956987858,-0.0141535857692361,-0.0158423241227865,0.000996058457531035,-0.0221717990934849
175,-0.0431176908314228,-0.0396691709756851,-0.0105145126581192,-0.0132483756169677,0.00391813972964883,-0.0222566928714514
176,-0.0391293168067932,-0.0383055917918682,-0.00815574079751968,-0.0111378096044064,0.0043212459422648,-0.0210515465587378
177,-0.0348519943654537,-0.0360096357762814,-0.00585785880684853,-0.00906794797629118,0.00423889607191086,-0.0176565870642662
178,-0.032054390758276,-0.0350186750292778,-0.00439299270510674,-0.00786287616938353,0.00373211083933711,-0.0125680817291141
179,-0.0308624878525734,-0.0352631881833076,-0.0042114369571209,-0.00686895335093141,0.00253156758844852,-0.00598390819504857
180,-0.0297223646193743,-0.0340023748576641,-0.00367872696369886,-0.0040307748131454,0.00185555499047041,0.00148095400072634
181,-0.0289974510669708,-0.0321685336530209,-0.00347854127176106,-0.00118469947483391,0.000797671149484813,0.00549087300896645
182,-0.0294923353940248,-0.0322951897978783,-0.00473333988338709,-0.00127953721676022,-0.00176586047746241,0.0024414302315563
183,-0.0297914780676365,-0.034000288695097,-0.00642519583925605,-0.00334407528862357,-0.00506232678890228,-0.00459243264049292
184,-0.0281517021358013,-0.0360558032989502,-0.00829992070794106,-0.00527706183493137,-0.00894647743552923,-0.0106055466458201
185,-0.0235193949192762,-0.0371991619467735,-0.00988705083727837,-0.00574273709207773,-0.0125734247267246,-0.0142399733886123
186,-0.0170562881976366,-0.0370548814535141,-0.00999645236879587,-0.00448696315288544,-0.0141270197927952,-0.0169600937515497
187,-0.0118871806189418,-0.0367929115891457,-0.00845450256019831,-0.00268381671048701,-0.0124690728262067,-0.019991559907794
188,-0.00941016897559166,-0.0367461554706097,-0.00573701970279217,-0.00155534478835762,-0.00679327175021172,-0.0230393186211586
189,-0.00998300034552813,-0.0368445552885532,-0.00357977906242013,-0.0025256706867367,0.00116126029752195,-0.026137487962842
190,-0.0131474174559116,-0.0367460139095783,-0.00329667050391436,-0.00551100866869092,0.00741881085559726,-0.0286679435521364
191,-0.0164013579487801,-0.0353773795068264,-0.00377501803450286,-0.00809965562075377,0.00957903079688549,-0.0289738941937685
192,-0.0181205589324236,-0.0327492691576481,-0.0037615227047354,-0.00896123982965946,0.00769659038633108,-0.0272207353264093
193,-0.019516484811902,-0.0303845480084419,-0.00398376910015941,-0.00944709870964289,0.00283724046312273,-0.0254372153431177
194,-0.0215174462646246,-0.0297093000262976,-0.00582826044410467,-0.0113762794062495,-0.00351775833405554,-0.0247687194496393
195,-0.0222536716610193,-0.0303432978689671,-0.00860226713120937,-0.0140153961256146,-0.00892272964119911,-0.0237307194620371
196,-0.0203959960490465,-0.0310346484184265,-0.0103114601224661,-0.0155708445236087,-0.0115476446226239,-0.0208218190819025
197,-0.0175160113722086,-0.0310644507408142,-0.0102446470409632,-0.0159198641777039,-0.0121833793818951,-0.0167628135532141
198,-0.0152461174875498,-0.0288874562829733,-0.00771006708964705,-0.0146154006943107,-0.0109047321602702,-0.0115830171853304
199,-0.0140418140217662,-0.0236673764884472,-0.00256510986946523,-0.0115484343841672,-0.00609721755608916,-0.00486524123698473
200,-0.0147194797173142,-0.0183302871882916,0.00186489289626479,-0.0098978579044342,0.000274987425655127,0.00116127578075975
201,-0.017518050968647,-0.0157234556972981,0.00262922304682434,-0.0117894513532519,0.0046560731716454,0.00528617249801755
202,-0.0207924228161573,-0.0150268021970987,0.000931713846512139,-0.0150933349505067,0.00722183752804995,0.00855375919491053
203,-0.0231346432119608,-0.0153223751112819,-0.00134650547988713,-0.018106373026967,0.00838654674589634,0.00977443903684616
204,-0.0232717525213957,-0.016305860131979,-0.00274373544380069,-0.0200666896998882,0.00723586790263653,0.00789465103298426
205,-0.01972521468997,-0.0164084117859602,-0.00129022775217891,-0.0195464435964823,0.00482530472800136,0.00383349065668881
206,-0.0142995994538069,-0.0150418253615499,0.00224856683053076,-0.017424063757062,0.00222787261009216,-0.0021049166098237
207,-0.0105954613536596,-0.013360358774662,0.00450794491916895,-0.0162930153310299,-0.00129960896447301,-0.0091470442712307
208,-0.00919902976602316,-0.012317861430347,0.0042492812499404,-0.0169688072055578,-0.00578861776739359,-0.015532567165792
209,-0.00827772542834282,-0.0123689705505967,0.00280067697167397,-0.0183738097548485,-0.0101622445508838,-0.0205715429037809
210,-0.00626314105466008,-0.0133775128051639,0.00140704098157585,-0.0193038694560528,-0.0134206637740135,-0.0248228944838047
211,-0.00277730217203498,-0.013776795938611,0.000713155837729573,-0.0189662370830774,-0.0146009530872107,-0.0280745830386877
212,0.0010725335450843,-0.0124851483851671,0.000598939950577915,-0.017517076805234,-0.0139519553631544,-0.0298395231366158
213,0.0039054190274328,-0.0107761966064572,0.000120431948744226,-0.016179658472538,-0.0131972916424274,-0.0303067117929459
214,0.00592108909040689,-0.00983721204102039,-0.000912082381546497,-0.0152802728116512,-0.0130744064226747,-0.0286436509341002
215,0.00771741336211562,-0.00924263335764408,-0.00103551626671106,-0.0135883130133152,-0.0125537132844329,-0.0242589469999075
216,0.0086917020380497,-0.0085160406306386,0.000887492496985942,-0.0102444337680936,-0.0105918310582638,-0.0186601616442204
217,0.00876557920128107,-0.00798620283603668,0.00390925165265799,-0.00598669145256281,-0.00685093365609646,-0.0138232028111815
218,0.00959392543882132,-0.00763257779181004,0.00700596999377012,-0.0016629311721772,-0.000923314364627004,-0.0104202535003424
219,0.012275961227715,-0.00687571754679084,0.0101285558193922,0.00220152689144015,0.00703978072851896,-0.00854033511132002
220,0.0158697068691254,-0.00579028995707631,0.0131704043596983,0.00473764352500439,0.0160839967429638,-0.00753916939720511
221,0.0191334933042526,-0.00456908112391829,0.01587706618011,0.00580993760377169,0.0249405652284622,-0.00528870010748506
222,0.0217370614409447,-0.00249578943476081,0.0178310554474592,0.00621226197108626,0.0315649919211864,-0.00128973205573857
223,0.0236275717616081,0.00119988154619932,0.0189155153930187,0.00666852248832583,0.0342837050557137,0.00205169199034572
224,0.0245233103632927,0.00553277693688869,0.0192921925336123,0.00708385044708848,0.0329902470111847,0.00260516023263335
225,0.0239144749939442,0.00869523268193007,0.0187486428767443,0.00690564606338739,0.0284043401479721,0.00145083898678422
226,0.0207862537354231,0.00969915371388197,0.0161393899470568,0.00552280806005001,0.0208369195461273,0.000396342162275687
227,0.0151192201301456,0.00909369066357613,0.0110538695007563,0.00286029768176377,0.0118765439838171,-0.00145117763895541
228,0.00919161457568407,0.00883644353598356,0.00594046525657177,0.000121079450764228,0.00574405398219824,-0.0054006795398891
229,0.0052293031476438,0.00996568333357573,0.00385198090225458,-0.00112090306356549,0.00538669666275382,-0.0108724683523178
230,0.0033147088252008,0.0116784404963255,0.00510494690388441,-0.000365975603926927,0.00947602093219757,-0.0157366879284382
231,0.0021490016952157,0.0130253899842501,0.0077698165550828,0.00188540597446263,0.0148651693016291,-0.0174130350351334
232,-0.000189435333595611,0.0133473025634885,0.00941691920161247,0.00452807918190956,0.0184432249516249,-0.0151045750826597
233,-0.00492856046184897,0.011207870207727,0.00820845365524292,0.00561759993433952,0.0177211686968803,-0.011724479496479
234,-0.0104057732969522,0.00710267852991819,0.00513916183263063,0.00449290825054049,0.0141046866774559,-0.0109129110351205
235,-0.0135284224525094,0.00457627279683948,0.00284087681211531,0.00276436633430421,0.0117047764360905,-0.0129442792385817
236,-0.0129474923014641,0.00527319544926286,0.00189238332677633,0.00172336981631815,0.0122854141518474,-0.0157674308866262
237,-0.0100371856242418,0.00719722732901573,0.000853014236781746,0.00107222783844918,0.0144053231924772,-0.0169726479798555
238,-0.00716680753976107,0.00807019975036383,-0.00114436575677246,-0.000167441350640729,0.0157965645194054,-0.0157754141837358
239,-0.00446569640189409,0.00775014888495207,-0.00298559642396867,-0.0022148322314024,0.0162350367754698,-0.0138086453080177
240,-0.000250961165875196,0.0076443231664598,-0.00271308817900717,-0.00370306335389614,0.017645388841629,-0.0120044928044081
241,0.00502175698056817,0.00838213134557009,-9.38386583584361E-05,-0.00343742384575307,0.0199275817722082,-0.00970750395208597
242,0.00907127652317286,0.00907312612980604,0.00306442356668413,-0.00168350839521736,0.0200457852333784,-0.00638969428837299
243,0.0107867475599051,0.00881499983370304,0.00509043177589774,0.000471418519737199,0.0163588412106037,-0.00278209964744747
244,0.0110770026221871,0.00794101879000664,0.00574365817010403,0.00172405829653144,0.0103689916431904,-0.000889476214069873
245,0.0124150775372982,0.00762854563072324,0.0068757408298552,0.00231955922208726,0.00528077548369765,-0.00121667259372771
246,0.016012404114008,0.00835820008069277,0.010595953091979,0.00407485151663423,0.00362355774268508,-0.00163405458442867
247,0.0195649471133947,0.00954120513051748,0.015955276787281,0.00747075071558356,0.00505401054397225,-0.000728013576008379
248,0.0203479155898094,0.0115399397909641,0.0209034625440836,0.0119732851162553,0.00821053702384233,0.00135265674907714
249,0.0179151985794306,0.0148448562249541,0.023774228990078,0.016589155420661,0.0114533612504601,0.00388135411776602
250,0.0137294316664338,0.0186370387673378,0.0234651863574982,0.0196638610213995,0.0128131881356239,0.00615401659160852
251,0.0102570010349154,0.0226108655333519,0.0213819295167923,0.0210654605180025,0.0125193633139133,0.00870152749121189
252,0.00851402524858713,0.0266162268817425,0.0193464960902929,0.0214709248393774,0.0117689380422235,0.0116084674373269
253,0.00869361776858568,0.0309802647680044,0.0193438846617937,0.0222160294651985,0.0120783736929297,0.0142921451479197
254,0.0103483563289046,0.0357120111584663,0.0220258608460426,0.0241140034049749,0.0137731349095702,0.0162326451390982
255,0.0109688937664032,0.0386493094265461,0.0238207820802927,0.0246594287455082,0.014483286999166,0.0169252417981625
256,0.00976157374680042,0.0387337803840637,0.0222592484205961,0.02186269313097,0.0135626224800944,0.0178308766335249
257,0.00913564115762711,0.0377586856484413,0.0195618644356728,0.0173198096454144,0.0133601613342762,0.0213587675243616
258,0.0101114949211478,0.0375452414155006,0.0180056057870388,0.0132477357983589,0.014677383005619,0.0266288444399834
259,0.0110792508348823,0.0378896743059158,0.0165292732417583,0.0100965071469545,0.0146087724715471,0.0293184854090214
260,0.0119560109451413,0.0378736294806004,0.0143201053142548,0.0076343291439116,0.0115039562806487,0.0262638106942177
261,0.0136461025103927,0.0373359695076942,0.0123608419671655,0.00593108031898737,0.00703567778691649,0.0184338465332985
262,0.0144888320937753,0.0368903875350952,0.0112348664551973,0.00541205750778317,0.00272503821179271,0.0101555986329913
263,0.0127901593223214,0.0381327383220196,0.0120143704116344,0.0072650071233511,-4.26298174716067E-05,0.00589533522725105
264,0.00793845299631357,0.0411860384047031,0.0138210216537118,0.0103082312270999,-0.00152899452950805,0.00542543455958366
265,-0.00124642031732947,0.0435602776706219,0.0132021754980087,0.011262153275311,-0.00398044753819704,0.00482266210019588
266,-0.0135318757966161,0.0440248921513557,0.0109400153160095,0.010729799978435,-0.00554761802777648,0.00325694587081671
267,-0.0251767728477716,0.0433320850133896,0.0109757641330361,0.0112976897507906,-0.00205701286904514,0.00265094824135304
268,-0.0349357537925243,0.0420226044952869,0.0133595345541835,0.0127263069152832,0.0049771168269217,0.00327610550448298
269,-0.0443056710064411,0.0404864735901356,0.0148290973156691,0.0133824506774545,0.0102371936663985,0.00408499175682664
270,-0.0541104525327683,0.0391875579953194,0.0134820509701967,0.012927383184433,0.0112476823851466,0.00476468354463577
271,-0.0633843988180161,0.0383815281093121,0.0107452599331737,0.0129101285710931,0.0098371421918273,0.0061662532389164
272,-0.0706386789679527,0.0378421954810619,0.00940046180039644,0.0145321162417531,0.00912472512573004,0.00849241763353348
273,-0.075413703918457,0.0370967015624046,0.010568973608315,0.0173641033470631,0.00984968431293964,0.011062566190958
274,-0.0779149532318115,0.0364300161600113,0.0137810381129384,0.0208493024110794,0.0108155580237508,0.0139640839770436
275,-0.0788068473339081,0.0366176925599575,0.0176543835550547,0.0244118664413691,0.0112583599984646,0.0174010973423719
276,-0.0799152255058289,0.0371646322309971,0.0195556078106165,0.0268434956669807,0.0104005169123411,0.020656319335103
277,-0.0823439657688141,0.0362799279391766,0.0179012957960367,0.0266365576535463,0.00783848110586405,0.0216855797916651
278,-0.0847485587000847,0.0333662815392017,0.0141071863472462,0.0233947485685349,0.00470815598964691,0.0188142172992229
279,-0.0854714661836624,0.0299046505242586,0.0106073226779699,0.0190922971814871,0.00245698890648782,0.0139427725225687
280,-0.0845241397619247,0.0274727046489716,0.00862233899533749,0.015717139467597,0.00108472490683198,0.0105971349403262
281,-0.0825393050909042,0.0271710325032473,0.00857870187610388,0.0139152687042952,0.000163422810146585,0.0114191798493266
282,-0.0811279192566872,0.0284495893865824,0.00969884358346462,0.0129078840836883,-0.000263356836512685,0.0159302726387978
283,-0.0822562724351883,0.0285353530198336,0.0100312847644091,0.0109675442799926,-0.000496289983857423,0.0195402018725872
284,-0.0844042152166367,0.0268043205142021,0.0101408259943128,0.0088396267965436,-6.31460134172812E-05,0.0194787420332432
285,-0.0844309702515602,0.0243144910782576,0.0112141137942672,0.00706438161432743,0.000400541903218254,0.0154078518971801
286,-0.080786757171154,0.0210878141224384,0.0121504720300436,0.00402172701433301,-0.00106684560887516,0.00696033099666238
287,-0.0732061937451363,0.019131837412715,0.0134514011442661,0.00179280387237668,-0.00349901872687042,-0.00192380568478256
288,-0.0642741248011589,0.0206955801695585,0.016380462795496,0.00375802372582257,-0.00492809480056167,-0.00570700317621231
289,-0.0574377067387104,0.0242717396467924,0.0195846054702997,0.00823806133121252,-0.00528035731986165,-0.00491290306672454
290,-0.0528344139456749,0.0270742233842611,0.0209548603743315,0.0116063049063087,-0.00472183199599385,-0.00316885486245155
291,-0.0493777394294739,0.0276443511247635,0.0195461846888065,0.0119857434183359,-0.00308398343622684,-0.00103952758945525
292,-0.0474658831954002,0.0258533358573914,0.0160658806562424,0.00948401261121035,-0.000511666876263916,0.00416789995506406
293,-0.047401200979948,0.022299412637949,0.0124038001522422,0.0059368833899498,0.00198696949519217,0.0136472079902887
294,-0.0480926409363747,0.0181075166910887,0.0105153983458877,0.00344816013239324,0.00309706293046474,0.0235531274229288
295,-0.0482183210551739,0.014782895334065,0.0113903861492872,0.00300916377454996,0.00260488549247384,0.0281484760344028
296,-0.0475607365369797,0.0128583116456866,0.0141941113397479,0.00373810669407249,0.00160899141337723,0.0249186642467976
297,-0.0468205809593201,0.0113850263878703,0.0171148180961609,0.00371010834351182,0.00133160117547959,0.0156814381480217
298,-0.0455836653709412,0.010067799128592,0.0200179293751717,0.00309567432850599,0.00273006432689726,0.00500948866829276
299,-0.0421034507453442,0.0100475009530783,0.0244824197143316,0.00453786691650748,0.00617246562615037,-0.00093342293985188
300,-0.0366824828088284,0.01107666362077,0.029809407889843,0.00841523706912994,0.00917972903698683,0.0005231624818407
301,-0.031676035374403,0.0112377796322107,0.033002570271492,0.0115366708487272,0.00883500184863806,0.00455237040296197
302,-0.0283050909638405,0.0103702330961823,0.032733391970396,0.0117740584537387,0.00572155090048909,0.00617953017354012
303,-0.0268849991261959,0.00963487289845943,0.0292737875133753,0.00917244795709848,0.00138337805401534,0.00471121119335294
304,-0.0268628876656294,0.0091538093984127,0.0237142853438854,0.00450246874243021,-0.00237269653007388,0.000483811571029946
305,-0.0262713003903627,0.00867512356489897,0.017954783514142,-0.000412963301641867,-0.00284448987804353,-0.00488775782287121
306,-0.0241061598062515,0.00810842029750347,0.0130624156445265,-0.00386684015393257,1.74023807630874E-05,-0.00868819002062082
307,-0.0203419923782349,0.00803439505398273,0.0100095802918077,-0.00454420736059546,0.00397556973621249,-0.00831524189561605
308,-0.0150081915780902,0.00894709303975105,0.00923508871346712,-0.00224733422510326,0.00721246143803,-0.00304295192472637
309,-0.00792860426008701,0.0106257740408182,0.0104110315442085,0.00203571235761046,0.00989093910902739,0.00559172406792641
310,0.000923378742299974,0.0127945328131318,0.0135397240519524,0.00740123027935624,0.01375721860677,0.0152661697939038
311,0.00867222528904676,0.0141552183777094,0.0168465133756399,0.0115733342245221,0.0182888843119144,0.0220600832253695
312,0.0121949007734656,0.0138240912929177,0.0182885602116585,0.0125499172136188,0.0212152898311615,0.0232556071132421
313,0.0121349161490798,0.0128077138215303,0.0179319102317095,0.0110736321657896,0.0212667807936668,0.0209037382155657
314,0.011198278516531,0.0128212682902813,0.0169323198497295,0.00946950633078814,0.0189430136233568,0.0197808463126421
315,0.0114034190773964,0.0144916968420148,0.0164771769195795,0.00918840989470482,0.0164348538964987,0.0219050794839859
316,0.0124517101794481,0.015739381313324,0.0159133486449718,0.00899497698992491,0.0148988189175725,0.0243387240916491
317,0.0131815318018198,0.0146607765927911,0.014161835424602,0.00761992437765002,0.0142822647467256,0.0247844066470861
318,0.0132582020014524,0.0125693157315254,0.0125322584062815,0.00619139987975359,0.0148691590875387,0.0247328095138073
319,0.0118163647130132,0.0111175021156669,0.0120499078184366,0.0053497264161706,0.0150923393666744,0.0250018294900656
320,0.00934466626495123,0.0111638652160764,0.0125906905159354,0.00521504832431674,0.0133993839845061,0.0252278316766024
321,0.00796158332377672,0.0130121223628521,0.0140154287219048,0.00632555037736893,0.0106506468728185,0.0252974927425385
322,0.00808871258050203,0.0156213734298944,0.0158174391835928,0.00833564717322588,0.00824429001659155,0.0247592628002167
323,0.00895228609442711,0.0178918950259686,0.0178924296051264,0.0106921829283237,0.00748530309647322,0.0233666244894266
324,0.00994590483605862,0.0190023202449083,0.0204177889972925,0.0131176691502333,0.00910593848675489,0.0204662345349789
325,0.0109230447560549,0.0190163254737854,0.0236821845173836,0.0161921456456184,0.0130076901987195,0.0169573742896318
326,0.0112788751721382,0.0184013489633799,0.0268473047763109,0.0202457029372454,0.0178466252982616,0.0154472282156348
327,0.0103693976998329,0.0167602282017469,0.0281772799789906,0.0238969493657351,0.022200345993042,0.0161910708993673
328,0.00850743986666203,0.0140646509826183,0.0269540902227163,0.0253365691751242,0.0255934428423643,0.0173835996538401
329,0.00721169169992208,0.0123529238626361,0.0249121356755495,0.0255889445543289,0.0288812294602394,0.0198689289391041
330,0.00752355298027396,0.0135371135547757,0.0245980992913246,0.0273045133799315,0.0325590446591377,0.0254197437316179
331,0.00797844864428043,0.0163129959255457,0.0255923066288233,0.0300123058259487,0.0343651473522186,0.0314902700483799
332,0.00792319513857365,0.0190569590777159,0.0271156616508961,0.0324352793395519,0.0337694548070431,0.0349287129938602
333,0.00785982422530651,0.0209308117628098,0.0295803807675838,0.0341108590364456,0.0329392217099667,0.0350193567574024
334,0.00726844416931272,0.0205783862620592,0.0323229059576988,0.0339202471077442,0.0331320948898792,0.0316344052553177
335,0.00683624856173992,0.0187388975173235,0.0348316207528114,0.032346598803997,0.0350825637578964,0.0262054055929184
336,0.00829294417053461,0.0176991969347,0.0370806641876698,0.0310287903994322,0.0385426767170429,0.0210785269737244
337,0.0110772987827659,0.0183566380292177,0.038530919700861,0.0305193439126015,0.041784904897213,0.0175310019403696
338,0.0120479296892881,0.0195865482091904,0.0385050587356091,0.0300859417766333,0.0425887629389763,0.0157456062734127
339,0.00922393333166838,0.0189556684345007,0.03669523447752,0.0279284659773111,0.0391573198139668,0.0144558260217309
340,0.00498078856617212,0.0164237543940544,0.0351426303386688,0.0242158174514771,0.0333135090768337,0.0128989070653915
341,0.00229319091886282,0.0141781140118837,0.0359141044318676,0.0205945577472448,0.0281690340489149,0.0117430947721004
342,0.00125936407130212,0.013364058919251,0.0376426391303539,0.0178005322813988,0.0238275360316038,0.0131100760772824
343,0.00214040325954556,0.0147419534623623,0.0387575887143612,0.017251942306757,0.0208463259041309,0.0190976113080978
344,0.00476447772234678,0.0179363694041967,0.0382483787834644,0.0192074049264193,0.0202086940407753,0.0274130571633577
345,0.005837497767061,0.0199531894177198,0.0342072322964668,0.0210477206856012,0.0199479945003986,0.0336571149528027
346,0.00240885303355753,0.0177384298294783,0.0259070992469788,0.0199565999209881,0.0174452569335699,0.0354072563350201
347,-0.00351603212766349,0.0128587698563933,0.0166918616741896,0.0166421681642532,0.0137687455862761,0.0338005870580673
348,-0.00749022420495749,0.00964943319559097,0.0116373160853982,0.0143460528925061,0.0118183679878712,0.0314442738890648
349,-0.00711068045347929,0.0100996484979987,0.0127760544419289,0.0149262323975563,0.0128299295902252,0.0287919417023659
350,-0.00396722787991166,0.0126388156786561,0.0175148006528616,0.0169980749487877,0.0151443528011441,0.0245309416204691
351,-0.00224562617950141,0.0149771124124527,0.0218487698584795,0.0183568857610226,0.0159687399864197,0.0188863445073366
352,-0.00391740771010518,0.0171092543751001,0.0245029423385859,0.0191802512854338,0.0152939250692725,0.0142590347677469
353,-0.00777397677302361,0.0194213576614857,0.0259888991713524,0.0203184727579355,0.0144647872075439,0.0121029214933515
354,-0.0112234326079488,0.0218993872404099,0.0277261510491371,0.0222865510731936,0.0152555406093597,0.0125626195222139
355,-0.013485686853528,0.0243143998086452,0.0303122457116842,0.0246768053621054,0.019262408837676,0.0143809514120221
356,-0.0169835854321718,0.0261362474411726,0.0321567356586456,0.0262593179941177,0.0253064576536417,0.0158540885895491
357,-0.0220931153744459,0.0277587324380875,0.0328528583049774,0.0270240623503923,0.0311910696327686,0.0170231144875288
358,-0.0248619429767132,0.0307523086667061,0.0344176888465881,0.0282542016357183,0.0360712334513664,0.0194013528525829
359,-0.0239999424666166,0.0355238877236843,0.037169985473156,0.0297971162945032,0.0389207974076271,0.0229793135076761
360,-0.022894598543644,0.0401203297078609,0.0385764837265015,0.0296588782221079,0.0384088642895222,0.0250598341226578
361,-0.022418636828661,0.0435249917209148,0.0375069603323936,0.0274248905479908,0.0348605364561081,0.0245418418198824
362,-0.0210812259465456,0.0458734817802906,0.0343483611941338,0.0238336138427258,0.0284924414008856,0.0237137526273727
363,-0.018372718244791,0.0473861545324326,0.0301976799964905,0.0200915597379208,0.0201763678342104,0.0263192988932133
364,-0.0132435914129019,0.0497370734810829,0.0280727408826351,0.0188615098595619,0.014125251211226,0.0340685546398163
365,-0.00603745505213737,0.0531990341842175,0.0290029179304838,0.0209041703492403,0.0126125626266003,0.0434442162513733
366,-0.000322874868288636,0.0547679923474789,0.0297976732254028,0.0232497062534094,0.0121924541890621,0.0491334311664104
367,0.00125856325030327,0.0531764924526215,0.0284970439970493,0.0240175239741802,0.0100306812673807,0.0498812794685364
368,4.86835560877807E-05,0.051125094294548,0.0274232439696789,0.025270527228713,0.00824311748147011,0.0483405515551567
369,-0.00120569264981896,0.0503886193037033,0.0289757028222084,0.0284867119044065,0.0095291119068861,0.0463300049304962
370,-0.00161271507386118,0.0500266402959824,0.0324454568326473,0.0324493534862995,0.0133738992735744,0.0440563783049583
371,-0.00257436814717948,0.0479980446398258,0.0345510356128216,0.0345325917005539,0.0166878495365381,0.0400062724947929
372,-0.00493124593049288,0.0431527346372604,0.0332924872636795,0.0328651815652847,0.017819220200181,0.0315183028578758
373,-0.00840651150792837,0.0369543619453907,0.0298958271741867,0.0285101775079966,0.0173803735524416,0.0188646744936705
374,-0.01296809874475,0.031815268099308,0.0267339404672384,0.0241352617740631,0.0163761638104916,0.00586166325956583
375,-0.017198009416461,0.0299010761082172,0.0270377900451422,0.0234458949416876,0.0176116637885571,-0.00167769612744451
376,-0.0199554078280926,0.0313011929392815,0.0319818295538425,0.0282374247908592,0.0228062737733126,-0.000700356089510024
377,-0.0220208466053009,0.0329664200544357,0.0384376607835293,0.0354771353304386,0.0296266190707684,0.00526154180988669
378,-0.0230054594576359,0.0333316177129745,0.0434087850153446,0.0421455539762974,0.0352006554603577,0.0119168888777494
379,-0.0216042026877403,0.0334003977477551,0.046183854341507,0.0474981069564819,0.0383131355047226,0.0175022017210722
380,-0.018071286380291,0.0333232209086418,0.0469736121594906,0.0507561415433884,0.0393476486206055,0.0208130460232496
381,-0.0141387730836868,0.0330805405974388,0.0463651977479458,0.0515703521668911,0.0399508625268936,0.0225850977003574
382,-0.0119205731898546,0.0327913053333759,0.0443437360227108,0.0500793345272541,0.0411356538534164,0.0239224173128605
383,-0.0115409167483449,0.0322852358222008,0.0411190427839756,0.0470828898251057,0.0425920374691486,0.0244249608367682
384,-0.0115196844562888,0.031305342912674,0.0372676104307175,0.0439092367887497,0.0424086526036263,0.0240070447325706
385,-0.0111215999349952,0.0290279947221279,0.0328915305435658,0.0413434877991676,0.0382739417254925,0.0235508028417826
386,-0.0102294581010938,0.0257823411375284,0.0292102824896574,0.0399753265082836,0.031070027500391,0.0249058715999126
387,-0.01026476547122,0.022203641012311,0.0267643835395575,0.0388501435518265,0.0230671726167202,0.0284936297684908
388,-0.0127546517178416,0.0179291404783726,0.0245197582989931,0.0365676656365395,0.015461940318346,0.0315505787730217
389,-0.0165354870259762,0.0140890935435891,0.0228933375328779,0.0344003587961197,0.00904586352407932,0.0319831669330597
390,-0.0202367939054966,0.012082152068615,0.0220692586153746,0.0335334986448288,0.00320603209547699,0.0295495968312025
391,-0.0234090555459261,0.0117446333169937,0.0213930010795593,0.0331922471523285,-0.00160944287199527,0.0238378345966339
392,-0.02566840313375,0.0129327699542046,0.0213909596204758,0.0330442190170288,-0.00292034610174596,0.0162578951567411
393,-0.0269248373806477,0.0152549026533961,0.0219336971640587,0.0331778936088085,-0.00034022016916424,0.0105944508686662
394,-0.0263442900031805,0.0173047091811895,0.0216878522187471,0.0330255813896656,0.00442979577928782,0.00907923746854067
395,-0.0236520376056433,0.0174199752509594,0.0192109178751707,0.0317564494907856,0.00921915099024773,0.0103120589628816
396,-0.0196684207767248,0.01549625210464,0.0142917539924383,0.0296221170574427,0.012767082080245,0.0118410959839821
397,-0.0151480017229915,0.0124873351305723,0.00804105866700411,0.027466731145978,0.014898668974638,0.0117715066298842
398,-0.0109872836619616,0.00876269955188036,0.0014743636129424,0.0254843570291996,0.0150002408772707,0.00917915347963572
399,-0.00674598151817918,0.0059725409373641,-0.00320098921656609,0.0248367134481668,0.014298602938652,0.00632759882137179
400,-0.00206158123910427,0.00570603413507342,-0.00467798532918096,0.025958651676774,0.0140796126797795,0.00522068049758673
401,0.00180848594754934,0.00772766023874283,-0.00399273447692394,0.0278118792921305,0.013120274990797,0.00539644015952945
402,0.0035316024441272,0.0109317237511277,-0.00260420190170407,0.0296356603503227,0.0105581833049655,0.00606794003397226
403,0.00311943073756993,0.0144182778894901,-0.00119123735930771,0.0311587918549776,0.00742986379191279,0.00704461662098765
404,0.00237320200540125,0.0189086701720953,0.0019279639236629,0.0337845757603645,0.00641074823215604,0.00990299414843321
405,0.00186169496737421,0.0238825157284737,0.00687198713421822,0.0374258682131767,0.00764421047642827,0.0144934644922614
406,0.00121292925905436,0.0271769016981125,0.0104248337447643,0.0394011288881302,0.00785506702959538,0.0185318756848574
407,0.000749175902456045,0.027444064617157,0.00995237194001675,0.0379086658358574,0.00446584494784474,0.0211542155593634
408,0.000536085339263082,0.0248360894620419,0.00599746545776725,0.0336365774273872,-0.00171537755522877,0.0236495472490788
409,0.00117037887685001,0.0213929619640112,0.0023498663213104,0.0295282639563084,-0.00639095436781645,0.0273058470338583
410,0.00260311528109014,0.0190194901078939,0.00117344595491886,0.0275146011263132,-0.00739710358902812,0.0300618298351765
411,0.00416080234572291,0.0187211278825998,0.0018131323158741,0.0275314450263977,-0.00592086836695671,0.0294107720255852
412,0.00628568371757865,0.020599041134119,0.00401156907901168,0.0290632396936417,-0.00247990852221847,0.0254248306155205
413,0.00906288623809814,0.0234531760215759,0.00723593216389418,0.0313790366053581,0.00201115291565657,0.0197515524923801
414,0.0115518625825644,0.0258485432714224,0.0102956704795361,0.0332372039556503,0.00597295956686139,0.0138682667165995
415,0.012715907767415,0.026418749243021,0.0120161343365908,0.0330756716430187,0.00946659222245216,0.00768181914463639
416,0.0127490032464266,0.0247019976377487,0.0123911937698722,0.031317874789238,0.0140554644167423,0.00180049939081073
417,0.0131140099838376,0.0213196910917759,0.0126346331089735,0.0297686979174614,0.0204520374536514,-0.0020245814230293
418,0.0140283787623048,0.0164412911981344,0.0119128879159689,0.0278827250003815,0.0264937374740839,-0.00416275020688772
419,0.0157347973436117,0.0114885652437806,0.00956935249269009,0.0252826027572155,0.0301516819745302,-0.00499619822949171
420,0.0198072530329227,0.00938555505126715,0.00828602630645037,0.0246486905962229,0.0320367403328419,-0.00240026065148413
421,0.0250017009675503,0.0103441514074802,0.00940366182476282,0.0271572768688202,0.0322402827441692,0.00393976224586368
422,0.0288023389875889,0.012707163579762,0.011563915759325,0.0310917906463146,0.0305682364851236,0.0117421308532357
423,0.0303777456283569,0.0148970047011971,0.0124411024153233,0.0338420942425728,0.0270222555845976,0.0174844712018967
424,0.0287814941257238,0.0149612594395876,0.00967829395085573,0.0332913026213646,0.0205626171082258,0.0175819955766201
425,0.0245048590004444,0.0131422756239772,0.00424101622775197,0.030556770041585,0.0121314749121666,0.0130776353180408
426,0.0190029181540012,0.0107920980080962,-0.000980578712187707,0.0273712165653706,0.00417938642203808,0.00737625593319535
427,0.0143816489726305,0.00961882527917624,-0.00260418327525258,0.0257171634584665,3.63560902769677E-05,0.00450750160962343
428,0.012642134912312,0.0112596089020371,0.000849262054543942,0.0277655888348818,0.00155659497249871,0.00783364567905664
429,0.0120205208659172,0.0133862011134624,0.00527075119316578,0.0307499561458826,0.00472927745431662,0.013886365108192
430,0.00983597617596388,0.0132866743952036,0.00667683081701398,0.030885074287653,0.00518400873988867,0.0172304008156061
431,0.00559490500018001,0.0105898324400187,0.00401622802019119,0.0272487420588732,0.0018720559310168,0.016457499936223
432,0.0019798728171736,0.00651497347280383,-0.00104766874574125,0.0218696817755699,-0.00281369360163808,0.0140663934871554
433,0.00234218826517463,0.0043125688098371,-0.00403163349255919,0.0193683095276356,-0.00426527345553041,0.0142423324286938
434,0.00495635764673352,0.00491607328876853,-0.00318837282247841,0.020867396146059,-0.00164519948884845,0.0164169073104858
435,0.00598998740315437,0.00599830085411668,-0.000311080715619028,0.0231778584420681,0.0026312512345612,0.0163237396627665
436,0.00542350113391876,0.00671371584758163,0.00297268084250391,0.0242586527019739,0.00708312401548028,0.0131956748664379
437,0.00582766346633434,0.00829390436410904,0.00636892626062036,0.0250076856464148,0.0117286453023553,0.00997839495539665
438,0.00763177825137973,0.0104844309389591,0.00886585284024477,0.0260781403630972,0.0156457480043173,0.00801549013704062
439,0.00876282248646021,0.0115045942366123,0.00832576956599951,0.0264985710382462,0.0161064509302378,0.0061594070866704
440,0.00860224198549986,0.0107861710712314,0.00471071526408196,0.0258386433124542,0.0120995920151472,0.00370778585784137
441,0.00829481519758701,0.0090100672096014,-0.00046687966096215,0.02417435310781,0.00506872357800603,0.00048346901894547
442,0.00947702489793301,0.00837692711502314,-0.00490937381982803,0.0229641068726778,-0.00159358780365437,-0.00189857685472816
443,0.012232986278832,0.00989654846489429,-0.0069104265421629,0.0234578512609005,-0.00509893521666527,-0.0022214010823518
444,0.0142297884449363,0.0112495422363281,-0.00738969119265676,0.0243042595684528,-0.0059673790819943,-0.00264881970360875
445,0.0148588325828314,0.0116446204483509,-0.00678667612373829,0.0253276973962784,-0.00476632453501225,-0.00321573880501091
446,0.0154886692762375,0.0122463069856167,-0.00434281257912517,0.0279122963547707,-0.00178423000033945,-0.00139439501799643
447,0.0165566466748714,0.0130078243091702,-0.000286234397208318,0.0321960523724556,0.00172973237931728,0.00318951089866459
448,0.017818957567215,0.0136544862762094,0.00431467592716217,0.0371921956539154,0.00479877972975373,0.0091618075966835
449,0.0199724286794662,0.015074466355145,0.00929540861397982,0.0424131080508232,0.00773171847686172,0.0158344060182571
450,0.0227103531360626,0.0171033032238483,0.0142403347417712,0.0466377288103104,0.0103793870657682,0.0221170596778393
451,0.0234272703528404,0.0173398833721876,0.0165185388177633,0.0465902909636498,0.0105175413191319,0.0250144973397255
452,0.0216404665261507,0.0154640851542354,0.0152435665950179,0.0422882176935673,0.00832545571029186,0.0240125916898251
453,0.0193889513611794,0.0137693639844656,0.0127902207896113,0.0377793274819851,0.00679965037852526,0.0217273011803627
454,0.0177487041801214,0.013011914677918,0.0112833483144641,0.0350201949477196,0.00723102642223239,0.0191712826490402
455,0.0164014082401991,0.0124985091388226,0.0112931346520782,0.0331770218908787,0.00867851823568344,0.0163105614483356
456,0.0159014817327261,0.0120818950235844,0.0125676952302456,0.0315498746931553,0.0101715354248881,0.0139921139925718
457,0.0175184514373541,0.0121130980551243,0.0147497924044728,0.0303832590579987,0.0123463310301304,0.0125699462369084
458,0.0196133349090815,0.0125706493854523,0.017033439129591,0.0300068780779839,0.0155153479427099,0.0130302524194121
459,0.0199293829500675,0.0133943818509579,0.0186111144721508,0.030703442171216,0.0180186107754707,0.0177122559398413
460,0.0192580260336399,0.0150473229587078,0.0194421503692865,0.032687209546566,0.0181196592748165,0.0255232118070126
461,0.0183551795780659,0.0172972045838833,0.019392978399992,0.0350235886871815,0.0157141294330359,0.0308757703751326
462,0.0172867514193058,0.0196930728852749,0.0190812665969133,0.0368820317089558,0.0130346762016416,0.0299167428165674
463,0.0167627744376659,0.0222960822284222,0.0199010781943798,0.0384773202240467,0.0122631499543786,0.0241893865168095
464,0.0166464317589998,0.0241479519754648,0.022056432440877,0.0394906513392925,0.0133045129477978,0.0175678171217442
465,0.015907034277916,0.0242516174912453,0.0240526497364044,0.0387911014258862,0.0150039959698915,0.0121448617428541
466,0.0134941600263119,0.0228566490113735,0.0234150867909193,0.0354366041719913,0.0153842335566878,0.00752366241067648
467,0.00933560729026794,0.0202507209032774,0.0193898715078831,0.0297812838107347,0.012898912653327,0.00248031946830451
468,0.00491974828764796,0.0169230103492737,0.0139795755967498,0.0232343692332506,0.00847137812525034,-0.00346187641844153
469,0.00184181507211179,0.0139747215434909,0.00944890826940537,0.0169508252292871,0.00430806120857596,-0.00946981552988291
470,0.000678215583320707,0.0125510804355145,0.00715149426832795,0.0121132703498006,0.00196596863679588,-0.0135030206292868
471,0.000931366055738181,0.0128634935244918,0.00743244355544448,0.00961261801421642,0.00203220988623798,-0.0144037045538425
472,0.00134995696134865,0.013770142570138,0.00918691325932741,0.00887762382626534,0.00406771153211594,-0.0121764782816172
473,0.00153105775825679,0.0143818510696292,0.0109168058261275,0.00922085717320442,0.00770137086510658,-0.00637352094054222
474,0.00209358078427613,0.0144965220242739,0.011472431011498,0.0103332977741957,0.0126072419807315,0.00149190810043365
475,0.00424822373315692,0.0149336764588952,0.0110436026006937,0.0124350422993302,0.0177583079785109,0.00872145127505064
476,0.00855184905230999,0.0163066070526838,0.00983123201876879,0.0150965144857764,0.0207961052656174,0.0132670709863305
477,0.0131482183933258,0.0174883864820004,0.00672577321529388,0.0159666631370783,0.0189824867993593,0.0135736223310232
478,0.0164529830217361,0.0182091519236565,0.00270410627126694,0.0145438592880964,0.013254570774734,0.0113997207954526
479,0.0183661729097366,0.0189951043576002,5.16090622113552E-05,0.0129459267482162,0.00676488177850842,0.0103190587833524
480,0.0177723597735167,0.0189306326210499,-0.00148320849984884,0.0116481985896826,0.000154015084262937,0.0105766355991364
481,0.0145245045423508,0.0175279546529055,-0.00309694302268326,0.00952046643942595,-0.00718052592128515,0.00989390816539526
482,0.0113099934533238,0.0160404983907938,-0.0043958593159914,0.00684810429811478,-0.0141654228791595,0.00750105222687125
483,0.0103210955858231,0.016085721552372,-0.00420125434175134,0.00514757912606001,-0.0184091981500387,0.00457543274387717
484,0.0107000386342406,0.0177225470542908,-0.00293272966518998,0.00414368323981762,-0.0188709646463394,0.00145406113006175
485,0.0103130228817463,0.0191196836531162,-0.00249472307041287,0.00179836770985276,-0.0167959369719028,-0.00273878197185695
486,0.00864167790859938,0.0195447988808155,-0.00328191556036472,-0.00193326617591083,-0.0136333359405398,-0.00674543296918273
487,0.00594798941165209,0.0189727190881968,-0.00508856866508722,-0.00609810138121247,-0.0114524737000465,-0.00857496727257967
488,0.00331539893522859,0.0173449739813805,-0.00783071108162403,-0.0102159390226007,-0.0119777768850327,-0.00805067922919989
489,0.00237763253971934,0.0160364955663681,-0.010345907881856,-0.0132095264270902,-0.0147172575816512,-0.00570187764242291
490,0.00320783676579595,0.0165053457021713,-0.0110144270583987,-0.0139735620468855,-0.0176032595336437,-0.00236322032287717
491,0.00523937214165926,0.0188946817070246,-0.00893282052129507,-0.0123317316174507,-0.0183913186192513,0.00117390428204089
492,0.00798185728490353,0.0221457555890083,-0.00501121440902352,-0.00927913375198841,-0.016979742795229,0.00514351716265082
493,0.0103305885568261,0.0242262613028288,-0.00204594735987484,-0.00684291077777743,-0.0154632516205311,0.0100788921117783
494,0.0114719904959202,0.0240001138299704,-0.0019375781994313,-0.00639408221468329,-0.0145319504663348,0.0154122980311513
495,0.0117201348766685,0.0227878019213676,-0.00297286058776081,-0.00685076136142015,-0.0120828663930297,0.0201377887278795
496,0.0106180254369974,0.0216253101825714,-0.00397271616384387,-0.00731909833848476,-0.00883101206272841,0.0239934790879488
497,0.00823113601654768,0.0212016925215721,-0.00540653895586729,-0.00748354010283947,-0.00775020150467753,0.0284190010279417
498,0.00724110659211874,0.0232492797076702,-0.0060690650716424,-0.00634476542472839,-0.00824471563100815,0.0338229089975357
499,0.00921475887298584,0.0275007393211126,-0.00542458239942789,-0.00446849362924695,-0.00850942637771368,0.0368184968829155
500,0.0133281974121928,0.0322237350046635,-0.00369404954835773,-0.00258477497845888,-0.00745720649138093,0.0356183163821697
501,0.0178523920476437,0.0361323468387127,-0.00113683845847845,-0.000635331496596336,-0.00520417978987098,0.0317647494375706
502,0.0214527025818825,0.0378989353775978,0.000544633076060563,0.000240867142565548,-0.00353002152405679,0.0255452450364828
503,0.0250506997108459,0.0377120040357113,0.000308543734718114,-0.000848210300318897,-0.00331134186126292,0.0173083301633596
504,0.0292923469096422,0.037214171141386,-0.00106921629048884,-0.00290223699994385,-0.00470669707283378,0.00967504736036062
505,0.0322534069418907,0.0374658294022083,-0.00238046003505588,-0.00448032980784774,-0.0077164969407022,0.00493692746385932
506,0.0313644222915173,0.037706021219492,-0.00397403538227081,-0.0062170852907002,-0.0123956194147468,0.00174942181911319
507,0.0264993254095316,0.0377330966293812,-0.00633286638185382,-0.00831769965589046,-0.0183997321873903,-0.00166227004956454
508,0.0207241736352444,0.0392340682446957,-0.00836297310888767,-0.00895805656909943,-0.0240928251296282,-0.00397425889968872
509,0.0171199068427086,0.0425353944301605,-0.00990929454565048,-0.00823227781802416,-0.0282111465930939,-0.00431445008143783
510,0.0159867983311415,0.0462042987346649,-0.0121074942871928,-0.00858532264828682,-0.0305879674851894,-0.00412652222439647
511,0.015675151720643,0.0491252355277538,-0.0147632220759988,-0.0109398998320103,-0.0313614532351494,-0.00433008372783661
512,0.0149379335343838,0.0510257370769978,-0.0162616539746523,-0.0133212739601731,-0.0307906027883291,-0.00403337879106402
513,0.0143460920080543,0.0521396175026894,-0.0154850566759706,-0.0135695543140173,-0.0289525035768747,-0.00233861524611712
514,0.0163391921669245,0.0539668947458267,-0.011459968984127,-0.00991828180849552,-0.024720361456275,0.00238313898444176
515,0.0206733010709286,0.0566199868917465,-0.00582992611452937,-0.00341314729303122,-0.0192431956529617,0.00961223244667053
516,0.0233892016112804,0.0571429319679737,-0.00320147583261132,0.00106834270991385,-0.0169294457882643,0.0145264780148864
517,0.0230210572481155,0.0540411025285721,-0.00488573126494884,0.00104499503504485,-0.0190082620829344,0.0152689339593053
518,0.0216612238436937,0.0489754192531109,-0.00781586766242981,-0.00138743699062616,-0.0220095366239548,0.0147615438327193
519,0.0206791143864393,0.0434915535151958,-0.00983756966888905,-0.004364640917629,-0.0234571006149054,0.0139592550694942
520,0.0198177173733711,0.0379078760743141,-0.0113951303064823,-0.00810590758919716,-0.0242149792611599,0.0107074026018381
521,0.0195986740291119,0.0335592180490494,-0.0122956903651357,-0.0116083882749081,-0.0248265508562326,0.00508677680045366
522,0.0202059708535671,0.0316838659346104,-0.0127165140584111,-0.0139785315841436,-0.0255968626588583,-0.000964393024332821
523,0.020312936976552,0.0321997180581093,-0.013407371006906,-0.0153703652322292,-0.0271766074001789,-0.00622366415336728
524,0.0182111263275146,0.0345124863088131,-0.0130505422130227,-0.0146520882844925,-0.0287690721452236,-0.00963138788938522
525,0.0129249263554811,0.0381313301622868,-0.00983501691371202,-0.0105559611693025,-0.0285588726401329,-0.00970157887786627
526,0.00392804015427828,0.042283222079277,-0.00435155536979437,-0.00401787646114826,-0.0260470192879438,-0.00580952968448401
527,-0.0100011024624109,0.0443791747093201,0.000708770588971674,0.00177575321868062,-0.0231258627027273,-0.00112001283559948
528,-0.0281449016183615,0.0425766631960869,0.00365806627087295,0.00476053822785616,-0.0213361661881208,0.000211460777791217
529,-0.0466958321630955,0.0387926623225212,0.00561147555708885,0.00604589795693755,-0.0198032669723034,-0.00175248889718205
530,-0.0624655783176422,0.0363123528659344,0.00864954013377428,0.00724613945931196,-0.0165670271962881,-0.00444473419338465
531,-0.0767569616436958,0.0344020687043667,0.0108061162754893,0.00652369065210223,-0.0128911109641194,-0.00846365932375193
532,-0.0915220677852631,0.0298504754900932,0.00794460065662861,0.00147828215267509,-0.0117971645668149,-0.0157871395349503
533,-0.10461150854826,0.0228903815150261,0.000761988689191639,-0.00586737645789981,-0.0129536418244243,-0.0246479045599699
534,-0.115185804665089,0.015935568138957,-0.00656883604824543,-0.0121954260393977,-0.0147666316479445,-0.0320922769606113
535,-0.125308439135551,0.010939197614789,-0.0112907849252224,-0.0165174007415771,-0.0167671423405409,-0.0371247567236423
536,-0.134357362985611,0.00973703991621733,-0.01271294336766,-0.018448369577527,-0.0186057277023792,-0.0390074513852596
537,-0.139978721737862,0.0128668295219541,-0.0110411206260324,-0.0175743103027344,-0.0193571820855141,-0.0366674140095711
538,-0.142386168241501,0.0180232897400856,-0.00776432314887643,-0.0156881008297205,-0.0188541300594807,-0.0310291741043329
539,-0.143532782793045,0.0223005469888449,-0.00534419529139996,-0.0154126398265362,-0.0185752082616091,-0.0245744399726391
540,-0.145062163472176,0.0242447089403868,-0.00544725218787789,-0.017569862306118,-0.0200625993311405,-0.0193025842308998
541,-0.147176817059517,0.0239711757749319,-0.00727555528283119,-0.0208187326788902,-0.0229217112064362,-0.0151453902944922
542,-0.149232000112534,0.0225875563919544,-0.00870391633361578,-0.0233144666999578,-0.0254507567733526,-0.0113009670749307
543,-0.151671156287193,0.0202022194862366,-0.00957230199128389,-0.0256706010550261,-0.0270403921604156,-0.00985479634255171
544,-0.154539912939072,0.017096133902669,-0.0103684328496456,-0.0287395548075438,-0.0278303194791079,-0.0115293739363551
545,-0.156537115573883,0.0152243217453361,-0.010136797092855,-0.030874764546752,-0.027388421818614,-0.0124308848753572
546,-0.156847476959229,0.0161575023084879,-0.00793093163520098,-0.0302366744726896,-0.0243918634951115,-0.0105502838268876
547,-0.156267061829567,0.0188229698687792,-0.00486338743939996,-0.0276918169111013,-0.0189874432981014,-0.0092510050162673
548,-0.156341850757599,0.0201399810612202,-0.00365055096335709,-0.0266383923590183,-0.0144341941922903,-0.0129573894664645
549,-0.157177105545998,0.0186766032129526,-0.00524425320327282,-0.0287606362253428,-0.0133762573823333,-0.0209394376724958
550,-0.156829118728638,0.0166020058095455,-0.00707254651933908,-0.0314211249351501,-0.0146214077249169,-0.0270366035401821
551,-0.153609454631805,0.0170242339372635,-0.00544959120452404,-0.0307072848081589,-0.0145610580220819,-0.026863070204854
552,-0.149103835225105,0.0196632351726294,-0.000548788346350193,-0.0266685876995325,-0.0121459132060409,-0.0223651044070721
553,-0.14727646112442,0.0207960307598114,0.00283935270272195,-0.0236829314380884,-0.010849011130631,-0.0186191592365503
554,-0.149775698781013,0.0179242119193077,0.00110087858047336,-0.0246369335800409,-0.0134833799675107,-0.0183588564395905
555,-0.152594909071922,0.0142013179138303,-0.00293660955503583,-0.026242034509778,-0.0170463230460882,-0.0187369901686907
556,-0.150290742516518,0.0153206009417772,-0.0035744896158576,-0.0233039185404778,-0.0164302363991737,-0.0149097023531795
557,-0.143102824687958,0.0218678526580334,-0.000145592406624928,-0.016508748754859,-0.0120288040488958,-0.00780088035389781
558,-0.134897515177727,0.0304762106388807,0.00416824966669083,-0.00983139965683222,-0.00769323296844959,-0.00196325778961182
559,-0.128569111227989,0.0376871973276138,0.0067379092797637,-0.00573813635855913,-0.00583053845912218,-3.17974700010382E-05
560,-0.124742932617664,0.0419252254068851,0.00711042806506157,-0.00427733967080712,-0.00637281779199839,-0.00116140197496861
561,-0.121805414557457,0.0448267534375191,0.00656276615336537,-0.00348830176517367,-0.00761319836601615,-0.00150015600956976
562,-0.118044063448906,0.0477801524102688,0.00501392129808664,-0.00303770462051034,-0.00922584999352694,0.000930360867641866
563,-0.112014815211296,0.0508564636111259,0.00249429303221405,-0.00345372990705073,-0.0107403136789799,0.00508017698302865
564,-0.102897770702839,0.054175641387701,0.000464376498712227,-0.0041110054589808,-0.00995205622166395,0.00876834150403738
565,-0.0914650410413742,0.0589005015790462,0.000921008293516934,-0.0033634181600064,-0.00461007095873356,0.0110035734251142
566,-0.0812930017709732,0.0655382350087166,0.00445738295093179,-0.000555568898562342,0.00384448491968215,0.0115950237959623
567,-0.0778814852237701,0.0707651600241661,0.00684243347495794,0.000759881222620606,0.00836801901459694,0.00765958987176418
568,-0.0819176882505417,0.0721579045057297,0.00456799007952213,-0.00206085131503642,0.00527567323297262,-0.00191440084017813
569,-0.0888939872384071,0.0710055083036423,-0.000672378693707287,-0.00759918615221977,-0.0024607153609395,-0.0138215078040957
570,-0.0948938131332397,0.0694371908903122,-0.00557816401124001,-0.0135052110999823,-0.0110877640545368,-0.0235805977135897
571,-0.0982768833637238,0.069231390953064,-0.00756694935262203,-0.0171810872852802,-0.0173279829323292,-0.0274924580007792
572,-0.100188344717026,0.0694878399372101,-0.00738801248371601,-0.0187501013278961,-0.0203972700983286,-0.0266411565244198
573,-0.102178372442722,0.0684635862708092,-0.00707876542583108,-0.0203458871692419,-0.0211605746299028,-0.024150300770998
574,-0.102632366120815,0.0681687071919441,-0.00500738108530641,-0.020589916035533,-0.0179743990302086,-0.0185220185667276
575,-0.0992620959877968,0.0705624297261238,0.000358525838237256,-0.0176661778241396,-0.00961962901055813,-0.00943133700639009
576,-0.0936805829405785,0.0730007886886597,0.00542044173926115,-0.014237186871469,-0.000554387632291764,-0.00254938029684126
577,-0.0888563469052315,0.0725808143615723,0.00630265893414617,-0.012667560018599,0.00334542035125196,-0.00152766681276262
578,-0.0844128727912903,0.0700529739260674,0.00397224584594369,-0.0112900072708726,0.00196608295664191,-0.0036171383690089
579,-0.0798323974013329,0.066467322409153,0.000656220770906657,-0.00897645484656096,-0.00196162285283208,-0.00559373665601015
580,-0.0767677128314972,0.0611857511103153,-0.00269363005645573,-0.00713270017877221,-0.0069008101709187,-0.00756271788850427
581,-0.075555145740509,0.0549272820353508,-0.0047858040779829,-0.00618739053606987,-0.0110418805852532,-0.00912308041006327
582,-0.0746341794729233,0.0496659278869629,-0.0046807317994535,-0.00509179895743728,-0.0126061728224158,-0.00815448351204395
583,-0.0733664557337761,0.0456379652023315,-0.00380225758999586,-0.00413215719163418,-0.0128495953977108,-0.00471206707879901
584,-0.0717704817652702,0.0422665998339653,-0.00333495507948101,-0.00400864752009511,-0.0133310612291098,-0.000522216665558517
585,-0.0689282044768333,0.0393546037375927,-0.00191366544459015,-0.00400555646046996,-0.0121728396043181,0.00367984152399004
586,-0.064642921090126,0.0366688929498196,0.000961496320087463,-0.00401065219193697,-0.00821806397289038,0.00743272947147489
587,-0.0607689283788204,0.0342374332249165,0.00329453032463789,-0.00552343856543303,-0.00367415510118008,0.00912430603057146
588,-0.0590974539518356,0.0317213572561741,0.00279162731021643,-0.00951218139380217,-0.00146171275991946,0.00716317677870393
589,-0.0580472834408283,0.029470294713974,-6.34915841146722E-06,-0.0138401724398136,-0.00194118823856115,0.00340112671256065
590,-0.05511324852705,0.0281370766460896,-0.00299487798474729,-0.0161347519606352,-0.00343274790793657,0.000752606138121337
591,-0.0508415475487709,0.0269954577088356,-0.00530789513140917,-0.0169883817434311,-0.00409510219469666,-0.00103242474142462
592,-0.0468840673565865,0.0260634794831276,-0.00562651315703988,-0.0167546942830086,-0.00190142414066941,-0.00258643878623843
593,-0.0449761748313904,0.0254073031246662,-0.00395274069160223,-0.0154481856152415,0.00166636903304607,-0.00374660245142877
594,-0.045998927205801,0.0237547792494297,-0.00256029097363353,-0.0142778214067221,0.00246926164254546,-0.00506093865260482
595,-0.0471924319863319,0.0213495660573244,-0.00133838679175824,-0.0128903398290277,0.00136555824428797,-0.00636147893965244
596,-0.0456471219658852,0.0196218509227037,0.000748550635762513,-0.0104506369680166,0.00164615828543901,-0.00724918069317937
597,-0.0425228290259838,0.0192070286720991,0.00197864999063313,-0.00845321640372276,0.00245867646299303,-0.0083862766623497
598,-0.0400404743850231,0.0210828073322773,0.000856080267112702,-0.00827651470899582,0.00165048625785857,-0.00943431630730629
599,-0.0380584299564362,0.0269196629524231,-0.00102675217203796,-0.00893892999738455,-0.000354444229742512,-0.00861108675599098
600,-0.0350637398660183,0.0370803885161877,-0.00124179851263762,-0.0088295191526413,-0.00202123308554292,-0.00592958042398095
601,-0.0301168970763683,0.048954214900732,0.000412651628721505,-0.00786672439426184,-0.00278066308237612,-0.00415021879598498
602,-0.0229243151843548,0.0593430548906326,0.00316406204365194,-0.0060616391710937,-0.00240027951076627,-0.0041204709559679
603,-0.0148647530004382,0.0670887529850006,0.00703677488490939,-0.00282768858596683,-0.000544342387001961,-0.0039517330005765
604,-0.0101515026763082,0.0709905028343201,0.0101283947005868,-0.000374159048078582,0.0012437846744433,-0.00485967332497239
605,-0.0114184375852346,0.0703758746385574,0.00972818676382303,-0.00140450999606401,0.00103150610812008,-0.00937345903366804
606,-0.0167598649859428,0.0665672570466995,0.00616502668708563,-0.00534416688606143,-0.000785145384725183,-0.0169302728027105
607,-0.0229556895792484,0.0611866489052773,0.00115000165533274,-0.0104385763406754,-0.00348279671743512,-0.0251707397401333
608,-0.02745221555233,0.056159608066082,-0.0034571154974401,-0.0144246323034167,-0.00628013955429196,-0.0306659881025553
609,-0.0295911803841591,0.0525454096496105,-0.00636256393045187,-0.0160289220511913,-0.00805810745805502,-0.0319332964718342
610,-0.0306303929537535,0.0501135624945164,-0.00743759702891111,-0.0161327142268419,-0.00835567899048328,-0.0307899937033653
611,-0.0312059037387371,0.0489160381257534,-0.00639364682137966,-0.015387068502605,-0.00683147273957729,-0.0283857341855764
612,-0.0313711948692799,0.048530962318182,-0.00377369462512434,-0.0143493674695492,-0.00390521110966802,-0.0242362320423126
613,-0.0318000800907612,0.0473638288676739,-0.00169266283046454,-0.0142191927880049,-0.00138765852898359,-0.0187645778059959
614,-0.03275016695261,0.0442419350147247,-0.0018221705686301,-0.0153023041784763,-0.00118516164366156,-0.0139860473573208
615,-0.0339243449270725,0.0391761623322964,-0.00502454675734043,-0.0180602800101042,-0.00501622864976525,-0.0130017176270485
616,-0.0351087786257267,0.033484723418951,-0.0108510106801987,-0.0231018252670765,-0.0129214618355036,-0.0175067652016878
617,-0.0358600914478302,0.0297454688698053,-0.0162771940231323,-0.0286944061517715,-0.0209790989756584,-0.0253818109631538
618,-0.0355964526534081,0.0289576910436153,-0.0190880633890629,-0.0327349342405796,-0.0250405240803957,-0.0332479849457741
619,-0.0337699390947819,0.0303159430623055,-0.0199577435851097,-0.034298200160265,-0.0244745668023825,-0.0378869101405144
620,-0.0314834713935852,0.0322824418544769,-0.0202080253511667,-0.0335767455399036,-0.0214491672813892,-0.0376678220927715
621,-0.0305381771177053,0.0329400673508644,-0.0199780818074942,-0.0315206982195377,-0.0183109268546104,-0.0335724912583828
622,-0.03048250451684,0.0318455770611763,-0.0182507839053869,-0.0287558082491159,-0.0153517136350274,-0.0271416064351797
623,-0.0298144910484552,0.0300642102956772,-0.0145123284310102,-0.0258328225463629,-0.0115327034145594,-0.0205177552998066
624,-0.0288091246038675,0.0280292183160782,-0.0108913574367762,-0.0238751582801342,-0.00724641419947147,-0.0173475276678801
625,-0.0291209239512682,0.0246391240507364,-0.0104760704562068,-0.0245278291404247,-0.00465325219556689,-0.0206198990345001
626,-0.0302778221666813,0.0202147010713816,-0.0124986581504345,-0.0270648300647736,-0.00392668275162578,-0.0282922703772783
627,-0.030490780249238,0.0167363509535789,-0.0137866260483861,-0.0287714619189501,-0.00328378193080425,-0.0355630479753017
628,-0.0297777447849512,0.0147093124687672,-0.0134890386834741,-0.028969855979085,-0.00293187564238906,-0.0403939560055733
629,-0.0289800893515348,0.0136376144364476,-0.01237852871418,-0.0284479223191738,-0.00442381715402007,-0.0424739643931389
630,-0.0280090812593699,0.013533285818994,-0.0101788658648729,-0.0273932497948408,-0.00733817927539349,-0.0415985882282257
631,-0.0261473041027784,0.0145936962217093,-0.00633080117404461,-0.0257599670439959,-0.00979556050151587,-0.0386221781373024
632,-0.0222115460783243,0.0173734407871962,-0.000282892695395276,-0.022711468860507,-0.0096268467605114,-0.0340855643153191
633,-0.0168186724185944,0.0202668346464634,0.00618657330051064,-0.0189434178173542,-0.00737324310466647,-0.0291744656860828
634,-0.013037171214819,0.0195898748934269,0.00822980515658855,-0.0178965870290995,-0.00722114602103829,-0.0260360967367888
635,-0.0121911317110062,0.014810374006629,0.00407411670312285,-0.0210944153368473,-0.0113748228177428,-0.0243315063416958
636,-0.0132169611752033,0.00791935436427593,-0.00371130905114114,-0.0272937640547752,-0.018096785992384,-0.023213678970933
637,-0.0148934470489621,0.000530282501131296,-0.0116507271304727,-0.0341962240636349,-0.0239114928990602,-0.0229589249938726
638,-0.0154494037851691,-0.00537032773718238,-0.0167632512748241,-0.0387346595525742,-0.0254053510725498,-0.0225650947540998
639,-0.0121710915118456,-0.00805590115487576,-0.0176340527832508,-0.0389580950140953,-0.021474726498127,-0.0208122190088034
640,-0.00421396736055613,-0.00802010204643011,-0.0151390107348561,-0.0355049557983875,-0.0144242746755481,-0.0186731163412333
641,0.00522965705022216,-0.00735720945522189,-0.0119004212319851,-0.0310758017003536,-0.00842465925961733,-0.0182664357125759
642,0.0122596966102719,-0.00758532620966434,-0.010229229927063,-0.0280484743416309,-0.006374167278409,-0.0193750131875277
643,0.0158317163586617,-0.00958584155887365,-0.0109808212146163,-0.0272412411868572,-0.00869621336460114,-0.0205943081527948
644,0.0161039177328348,-0.0137374280020595,-0.0142194731160998,-0.0288262013345957,-0.0145436599850655,-0.0224049035459757
645,0.0142305269837379,-0.0184781681746244,-0.0177270378917456,-0.0311666689813137,-0.0206732209771872,-0.0249921604990959
646,0.0117588629946113,-0.0228175483644009,-0.0192753244191408,-0.0331116393208504,-0.0237513221800327,-0.0283054504543543
647,0.00818657875061035,-0.0273427534848452,-0.0201657135039568,-0.0359784439206123,-0.024586969986558,-0.0318418405950069
648,0.0026485095731914,-0.0319327190518379,-0.022309310734272,-0.0403038635849953,-0.0258383229374886,-0.0344692021608353
649,-0.00355779775418341,-0.0356989353895187,-0.025033300742507,-0.044532984495163,-0.0281938370317221,-0.0365296453237534
650,-0.00752115715295076,-0.0373994112014771,-0.0260173976421356,-0.0464525818824768,-0.0297009442001581,-0.0373805053532124
651,-0.00725497119128704,-0.0363181643188,-0.0243331380188465,-0.0450847521424294,-0.0285027399659157,-0.0351742915809155
652,-0.00403516832739115,-0.0336650684475899,-0.0224042944610119,-0.0424242541193962,-0.026656411588192,-0.0315326191484928
653,-0.000550769676920027,-0.0314200520515442,-0.0233115237206221,-0.0416211187839508,-0.0278410520404577,-0.0300575960427523
654,0.00271207257173955,-0.0303433761000633,-0.0271634496748447,-0.0429273992776871,-0.0320899374783039,-0.0310228243470192
655,0.00620451429858804,-0.0307275392115116,-0.0323205888271332,-0.0444855876266956,-0.0362844988703728,-0.0332550853490829
656,0.0090178931131959,-0.0329387970268726,-0.0373075380921364,-0.0453292354941368,-0.0377188138663769,-0.0367240868508816
657,0.0105216028168797,-0.0364247970283031,-0.0404779985547066,-0.045085359364748,-0.0356075093150139,-0.0393428839743137
658,0.0117022367194295,-0.0395207554101944,-0.0406129993498325,-0.0432643629610538,-0.0310992076992989,-0.0372255332767963
659,0.0137272989377379,-0.0408308766782284,-0.0385264605283737,-0.040425069630146,-0.0271753277629614,-0.0304747112095356
660,0.0181176997721195,-0.0392504744231701,-0.0348988771438599,-0.0370727032423019,-0.0249522775411606,-0.0228633992373943
661,0.0246019959449768,-0.0355902202427387,-0.0307447258383036,-0.0340835154056549,-0.0239769853651524,-0.0186146050691605
662,0.0302584860473871,-0.0327176749706268,-0.0283656846731901,-0.0333415009081364,-0.0253766439855099,-0.0198960825800896
663,0.0338231436908245,-0.0315716974437237,-0.0279571264982224,-0.0353715568780899,-0.0287710316479206,-0.0246765241026878
664,0.035481583327055,-0.0318252891302109,-0.0287543814629316,-0.0394642539322376,-0.032026544213295,-0.0303265172988176
665,0.0353593751788139,-0.0336512550711632,-0.0306970179080963,-0.044582549482584,-0.0347596146166325,-0.0359537489712238
666,0.0350866988301277,-0.0362306796014309,-0.032612070441246,-0.0489333346486092,-0.0375474616885185,-0.0401275120675564
667,0.0363521911203861,-0.0383307859301567,-0.0336035639047623,-0.051046084612608,-0.0404260493814945,-0.0414913073182106
668,0.0389347337186337,-0.039434228092432,-0.0343437306582928,-0.0506369099020958,-0.0429208762943745,-0.040086667984724
669,0.0420748926699162,-0.0396081879734993,-0.0352887809276581,-0.0481951273977757,-0.0443353764712811,-0.0365514382719994
670,0.0460288003087044,-0.0393516831099987,-0.0361077077686787,-0.0446602813899517,-0.0443200431764126,-0.0310690402984619
671,0.0522531718015671,-0.0383422710001469,-0.0351299047470093,-0.0397510342299938,-0.0417077578604221,-0.0227271132171154
672,0.0593385882675648,-0.0377857983112335,-0.0323136858642101,-0.0346122197806835,-0.0370997674763203,-0.0145824057981372
673,0.0626423880457878,-0.0417201519012451,-0.0310442373156548,-0.0341588333249092,-0.0342098996043205,-0.0146156409755349
674,0.0619176402688026,-0.0501167476177216,-0.032221470028162,-0.0396878346800804,-0.033854566514492,-0.0247489474713802
675,0.0616306625306606,-0.0579349398612976,-0.0330403447151184,-0.0460001565515995,-0.0331692285835743,-0.0373294204473495
676,0.0639888867735863,-0.062787763774395,-0.0321034304797649,-0.0489842295646667,-0.0306909214705229,-0.0447228886187077
677,0.0682116597890854,-0.0653186962008476,-0.0296514388173819,-0.0486031472682953,-0.0265213511884212,-0.0455784760415554
678,0.0729590803384781,-0.0663675889372826,-0.0261525809764862,-0.0463994108140469,-0.0211286060512066,-0.0430650785565376
679,0.077186606824398,-0.0671466365456581,-0.0222722571343184,-0.04355114325881,-0.0151632092893124,-0.0403175763785839
680,0.0816107988357544,-0.0677779912948608,-0.0180313345044851,-0.040164977312088,-0.00827164761722088,-0.038358811289072
681,0.0872686430811882,-0.0673494711518288,-0.0138095151633024,-0.0361945442855358,-0.00124215334653854,-0.0362799130380154
682,0.0921177193522453,-0.0666743814945221,-0.0120536861941218,-0.0327354595065117,0.00227395421825349,-0.0332100279629231
683,0.0933353081345558,-0.0679877549409866,-0.0153425447642803,-0.0315550938248634,-0.000460308801848441,-0.0304361172020435
684,0.0918736085295677,-0.0721485689282417,-0.0225114747881889,-0.033260315656662,-0.00739169865846634,-0.029853031039238
685,0.0909461230039597,-0.0775862112641335,-0.0294016636908054,-0.0365192964673042,-0.0135931530967355,-0.0316809453070164
686,0.0918247327208519,-0.0819684267044067,-0.0335488878190517,-0.0395736657083035,-0.0167140681296587,-0.0344252772629261
687,0.0935925468802452,-0.084403432905674,-0.0352779366075993,-0.0418377667665482,-0.0177500490099192,-0.0369109511375427
688,0.0958531126379967,-0.084838442504406,-0.0349127575755119,-0.0426763147115707,-0.0175939835608006,-0.0386839881539345
689,0.0992604419589043,-0.0835966467857361,-0.0323427878320217,-0.0412908084690571,-0.0166671313345432,-0.0391567796468735
690,0.103849537670612,-0.082049123942852,-0.0287626031786203,-0.0383924916386604,-0.0161214787513018,-0.0381530150771141
691,0.109277546405792,-0.0810404419898987,-0.0264650955796242,-0.0355317965149879,-0.0171380192041397,-0.0355886444449425
692,0.115205228328705,-0.0802860856056213,-0.0264321751892567,-0.0334197543561459,-0.019303273409605,-0.0312633253633976
693,0.119654938578606,-0.0801991075277328,-0.028202323243022,-0.0324552170932293,-0.0215140469372272,-0.0263447873294353
694,0.121846131980419,-0.0802793428301811,-0.0301624219864607,-0.0319389030337334,-0.022973669692874,-0.0217739809304476
695,0.124081820249558,-0.0793752148747444,-0.0308367963880301,-0.0308078918606043,-0.0238441172987223,-0.0179859716445208
696,0.127127557992935,-0.0787583291530609,-0.031779944896698,-0.0303112007677555,-0.0267103556543589,-0.0162041317671537
697,0.130196586251259,-0.078689306974411,-0.0333733148872852,-0.0303871314972639,-0.0318965129554272,-0.0148950824514031
698,0.133067756891251,-0.0772707685828209,-0.0328706651926041,-0.02894252166152,-0.0352968908846378,-0.0112907765433192
699,0.134298548102379,-0.0755813866853714,-0.0305967573076487,-0.0274619162082672,-0.0353482365608215,-0.00627057580277324
700,0.134097203612328,-0.0750122889876366,-0.028235238045454,-0.0274855177849531,-0.0328339226543903,-0.000537793210241944
701,0.136253178119659,-0.0726388692855835,-0.0242049302905798,-0.0257856249809265,-0.0262621454894543,0.00708937831223011
702,0.141185358166695,-0.0670796260237694,-0.0185992550104856,-0.0216924846172333,-0.016689645126462,0.0138219697400928
703,0.145525425672531,-0.0612204112112522,-0.0142401019111276,-0.0185021609067917,-0.00890341866761446,0.0152215482667089
704,0.147245407104492,-0.0576041974127293,-0.0127466162666678,-0.017353406175971,-0.00627098372206092,0.0110571589320898
705,0.145741194486618,-0.0569951832294464,-0.01449915766716,-0.017762441188097,-0.00939565524458885,0.00310975033789873
706,0.141800358891487,-0.0593174211680889,-0.0186692923307419,-0.0195114314556122,-0.0162080600857735,-0.00778734171763062
707,0.136746376752853,-0.0644091814756393,-0.0245383568108082,-0.0229799449443817,-0.0243888571858406,-0.0212719794362783
708,0.132479786872864,-0.0707928836345673,-0.0306521765887737,-0.0272559467703104,-0.0317520014941692,-0.0348340831696987
709,0.130707517266274,-0.076310969889164,-0.035086665302515,-0.0306363701820374,-0.0364730283617973,-0.0452859252691269
710,0.131435379385948,-0.079961009323597,-0.0377015359699726,-0.0327107273042202,-0.0385620445013046,-0.0514533147215843
711,0.134354755282402,-0.0814200714230537,-0.0382827334105968,-0.0331414006650448,-0.03785440325737,-0.0533704534173012
712,0.138067007064819,-0.0816572308540344,-0.0369661077857018,-0.0326757729053497,-0.0349730253219604,-0.0527738556265831
713,0.141027823090553,-0.0812583863735199,-0.0342718362808228,-0.0321801081299782,-0.031814843416214,-0.0509376153349876
714,0.142563804984093,-0.0806169509887695,-0.0312758013606071,-0.0324447527527809,-0.0303969662636518,-0.0486801452934742
715,0.142033517360687,-0.0810582190752029,-0.030060812830925,-0.0350604504346848,-0.0321795828640461,-0.0478274896740913
716,0.140396192669868,-0.0818619951605797,-0.0305569171905518,-0.0387219227850437,-0.0356117896735668,-0.0471280142664909
717,0.139311641454697,-0.0818008407950401,-0.0308797061443329,-0.0403607152402401,-0.0376099906861782,-0.043008740991354
718,0.140059947967529,-0.0814382284879684,-0.0293977800756693,-0.0385230965912342,-0.0360344015061855,-0.0345171131193638
719,0.143774688243866,-0.0817530304193497,-0.0257462114095688,-0.0337028056383133,-0.0303783882409334,-0.0245597437024117
720,0.148252800107002,-0.0850543007254601,-0.0227320361882448,-0.0296739898622036,-0.0239634029567242,-0.0187646094709635
721,0.149481877684593,-0.0928996503353119,-0.0233340598642826,-0.0298866257071495,-0.0207970682531595,-0.0204629246145487
722,0.147218301892281,-0.102512493729591,-0.02658661454916,-0.0327871777117252,-0.0208407193422318,-0.0266102980822325
723,0.144322484731674,-0.109887570142746,-0.0294501297175884,-0.0346451587975025,-0.0212283451110125,-0.0310935098677874
724,0.14254692196846,-0.114148028194904,-0.0302379932254553,-0.0339757576584816,-0.0189696252346039,-0.031267587095499
725,0.14152666926384,-0.117096289992332,-0.0289219599217176,-0.0318274199962616,-0.0130821550264955,-0.0293674562126398
726,0.141037166118622,-0.120128989219666,-0.0262564960867167,-0.0298712626099586,-0.00618957029655576,-0.0282395388931036
727,0.142033159732819,-0.122371792793274,-0.0226088482886553,-0.0284405518323183,-0.00177410326432437,-0.0273631848394871
728,0.144531592726707,-0.122564904391766,-0.0182914044708014,-0.0267817303538322,-0.00101376604288816,-0.0250271447002888
729,0.146889209747314,-0.121408849954605,-0.0148473801091313,-0.0250822138041258,-0.00387553381733596,-0.0227040164172649
730,0.149112090468407,-0.119208820164204,-0.0121594369411469,-0.0227666422724724,-0.00850735139101744,-0.0209146104753017
731,0.151744842529297,-0.116861164569855,-0.0100297415629029,-0.0200793072581291,-0.0133262993767858,-0.0192214585840702
732,0.154112920165062,-0.116417303681374,-0.0102464556694031,-0.0194286704063416,-0.0185509193688631,-0.01927131973207
733,0.156744956970215,-0.116600021719933,-0.0117891812697053,-0.0202060472220182,-0.0221198666840792,-0.0200784131884575
734,0.160275340080261,-0.115356862545013,-0.0115735260769725,-0.0195331275463104,-0.0211452357470989,-0.0187418349087238
735,0.163948714733124,-0.113263487815857,-0.00912870280444622,-0.0167016610503197,-0.0162091460078955,-0.0147241232916713
736,0.167340308427811,-0.110400825738907,-0.00548048317432404,-0.0122532974928617,-0.00933770183473825,-0.00823806039988995
737,0.169171661138535,-0.107182614505291,-0.00256508938036859,-0.00772274332121015,-0.00272288732230663,-0.000156946640345268
738,0.167409896850586,-0.105639599263668,-0.00259814481250942,-0.00540877180173993,0.00168306287378073,0.00713078770786524
739,0.163478657603264,-0.105280518531799,-0.00393151119351387,-0.00467465398833156,0.00508180586621165,0.0128563046455383
740,0.160492599010468,-0.104365639388561,-0.00328889349475503,-0.00333882984705269,0.00979052018374205,0.0164952240884304
741,0.159214913845062,-0.103403322398663,0.000115776427264791,-0.00119916256517172,0.0161311142146587,0.0164677314460278
742,0.157598629593849,-0.104037322103977,0.00422891974449158,0.000298998114885762,0.0214605294167995,0.0128773292526603
743,0.153740480542183,-0.107017047703266,0.00642107054591179,0.000151187326991931,0.0227216612547636,0.00749677652493119
744,0.149406388401985,-0.110759101808071,0.0068635200150311,-0.000654423958621919,0.0208139587193727,0.00314416014589369
745,0.147204980254173,-0.11299779266119,0.0072798877954483,-0.000712603970896453,0.0187947899103165,0.00161928799934685
746,0.147537738084793,-0.112469464540482,0.00953451171517372,0.00107059546280652,0.019630229100585,0.00253160204738379
747,0.149136558175087,-0.109315231442451,0.0141208851709962,0.00496585806831717,0.023991422727704,0.00542911235243082
748,0.149731308221817,-0.105864502489567,0.0178638454526663,0.00885074213147163,0.0279642324894667,0.0100031448528171
749,0.148328423500061,-0.104022815823555,0.0181982833892107,0.0110742198303342,0.02829834446311,0.0148456357419491
750,0.146279692649841,-0.102961257100105,0.0169393215328455,0.0126331131905317,0.0270087905228138,0.0183085184544325
751,0.144792214035988,-0.101316712796688,0.0165818929672241,0.0146521646529436,0.0276607740670443,0.0198866408318281
752,0.142974138259888,-0.0997777134180069,0.0166240371763706,0.0160417407751083,0.0303803235292435,0.0190486572682858
753,0.140837848186493,-0.0989959090948105,0.0159743689000607,0.0156045388430357,0.0336372815072536,0.0160695891827345
754,0.140018671751022,-0.0981035679578781,0.0149899162352085,0.0142084183171391,0.0368405841290951,0.0127835310995579
755,0.139337912201881,-0.0975504368543625,0.0139868799597025,0.0125785116106272,0.0393359959125519,0.00933381076902151
756,0.136501014232636,-0.0979043841362,0.0139877172186971,0.0112593257799745,0.04133091121912,0.00529353599995375
757,0.132399037480354,-0.0974434390664101,0.0166683476418257,0.0121460231021047,0.0435775555670261,0.00332576874643564
758,0.128286555409431,-0.0956705436110497,0.0206160005182028,0.0150672448799014,0.0445163249969482,0.00510776787996292
759,0.123671695590019,-0.0947036668658257,0.0216988865286112,0.0166309382766485,0.0414089746773243,0.00796955730766058
760,0.11964076757431,-0.0946374237537384,0.0196283385157585,0.0162552315741777,0.034991417080164,0.0102959740906954
761,0.118362113833427,-0.0934338346123695,0.0181235577911139,0.0165389310568571,0.0286883618682623,0.0127578219398856
762,0.120197325944901,-0.0903237164020538,0.019105976447463,0.0185806956142187,0.0244910810142756,0.0155905019491911
763,0.123573765158653,-0.0865905359387398,0.0209401343017817,0.0208811424672604,0.0221405029296875,0.0180908124893904
764,0.126588374376297,-0.0843552947044373,0.0210040491074324,0.0215401761233807,0.0202207341790199,0.0195667948573828
765,0.128847941756248,-0.0842254459857941,0.0190380457788706,0.0208730474114418,0.0179280247539282,0.0208730455487967
766,0.130628407001495,-0.0851827189326286,0.0171705111861229,0.0204612612724304,0.0160297378897667,0.0225034933537245
767,0.130611509084702,-0.0866966545581818,0.0164514686912298,0.0203150026500225,0.0147181544452906,0.022938571870327
768,0.127383574843407,-0.0891961678862572,0.0155884241685271,0.0189571529626846,0.0130965327844024,0.0207713600248098
769,0.123935237526894,-0.091407023370266,0.014825920574367,0.0173994991928339,0.0132285142317414,0.017663387581706
770,0.124451123178005,-0.0914795324206352,0.0157058201730251,0.0175737887620926,0.0177315045148134,0.0155719453468919
771,0.127681285142899,-0.0898900404572487,0.017576839774847,0.018546037375927,0.0246825460344553,0.014385893009603
772,0.129667863249779,-0.0875813737511635,0.0184189174324274,0.018848093226552,0.0299016367644072,0.0144639369100332
773,0.129782617092133,-0.084397554397583,0.0177784785628319,0.0186444595456123,0.032192274928093,0.0169023536145687
774,0.130097240209579,-0.080144464969635,0.0172425620257854,0.0189733058214188,0.0338975600898266,0.0217711832374334
775,0.130913257598877,-0.0758452042937279,0.0165019407868385,0.0192187149077654,0.035060241818428,0.0266156643629074
776,0.130401000380516,-0.0729673132300377,0.0132384113967419,0.0172713212668896,0.0327283255755901,0.0277560073882341
777,0.127872288227081,-0.070776529610157,0.00851479358971119,0.013854444026947,0.0272818394005299,0.0242620855569839
778,0.124285742640495,-0.0674039423465729,0.00585796777158976,0.0120418155565858,0.0228978767991066,0.0183397047221661
779,0.120894312858582,-0.0631971284747124,0.0061502861790359,0.0124543430283666,0.0220449343323708,0.0113688707351685
780,0.119037836790085,-0.0585149638354778,0.00809922255575657,0.0142048560082912,0.0238807946443558,0.00504705542698503
781,0.118654347956181,-0.0529579110443592,0.0098532484844327,0.0167819447815418,0.0261305291205645,0.00210512452758849
782,0.118571296334267,-0.0476241447031498,0.0100648561492562,0.0195320192724466,0.026669779792428,0.00249490491114557
783,0.117983587086201,-0.0436431728303432,0.00949199590831995,0.0223590806126595,0.0244255363941193,0.00479163881391287
784,0.115732662379742,-0.0412538386881351,0.00968947168439627,0.024964701384306,0.0199521631002426,0.00815401878207922
785,0.111512966454029,-0.0403440110385418,0.0109129538759589,0.0264566950500011,0.0151056479662657,0.0113159557804465
786,0.106345638632774,-0.0407964624464512,0.011487583629787,0.0259948018938303,0.0107323611155152,0.0128006050363183
787,0.10155264288187,-0.041706133633852,0.0102375810965896,0.0237046182155609,0.00715330895036459,0.0123352985829115
788,0.0990958288311958,-0.0410689637064934,0.00923689920455217,0.0216700211167336,0.00673032598569989,0.0114059634506702
789,0.100077293813229,-0.0385398492217064,0.0112744299694896,0.0219501983374357,0.0118284979835153,0.0112481461837888
790,0.102519869804382,-0.0365177281200886,0.0150139518082142,0.0233661159873009,0.0197312254458666,0.0104993768036366
791,0.103996649384499,-0.0359464325010777,0.0173627715557814,0.0242741890251637,0.0253544505685568,0.00860706437379122
792,0.104755006730556,-0.0348058976233006,0.0185125730931759,0.0256225783377886,0.0283150784671307,0.00788572523742914
793,0.105047665536404,-0.0328843519091606,0.018557446077466,0.0264930445700884,0.0296415388584137,0.0084328381344676
794,0.104284264147282,-0.0318103805184364,0.016346899792552,0.0246043130755425,0.0282805785536766,0.00877174641937017
795,0.103165090084076,-0.0316720567643642,0.012654734775424,0.020964290946722,0.0241308491677046,0.00948268454521894
796,0.102802529931068,-0.0311493407934904,0.00921014416962862,0.0185765586793423,0.0189013369381428,0.0117087904363871
797,0.103046990931034,-0.0292606856673956,0.00714692147448659,0.0189227573573589,0.0150959445163608,0.0150007586926222
798,0.103751003742218,-0.0256030559539795,0.00720147928223014,0.0217720177024603,0.0152212316170335,0.0185614265501499
799,0.104584835469723,-0.0206054616719484,0.0092057753354311,0.0261939186602831,0.0196502339094877,0.0226022507995367
800,0.103646002709866,-0.0170410480350256,0.0116416895762086,0.0297545194625854,0.0257909633219242,0.0262232702225447
801,0.101108089089394,-0.0166477896273136,0.014200272038579,0.0315353870391846,0.0318941362202168,0.0294542498886585
802,0.0991568341851234,-0.0178597625344992,0.0175411105155945,0.0333891324698925,0.0373688824474812,0.0352661684155464
803,0.0983843356370926,-0.0187297519296408,0.0216458272188902,0.0366192832589149,0.0413192138075829,0.0446325056254864
804,0.0987061932682991,-0.0180484596639872,0.0265456382185221,0.0413837842643261,0.0440470017492771,0.0547764599323273
805,0.0997230336070061,-0.0162695255130529,0.030796404927969,0.0460890457034111,0.0453320816159248,0.0623350962996483
806,0.100599229335785,-0.0151840792968869,0.0324329473078251,0.0484998933970928,0.0441003665328026,0.064911738038063
807,0.101186171174049,-0.0149636836722493,0.0320478640496731,0.0487294904887676,0.0409458987414837,0.0620782896876335
808,0.102199003100395,-0.0138408793136477,0.0316925533115864,0.0482617393136024,0.0375923551619053,0.0555747896432877
809,0.103708662092686,-0.0108603052794933,0.0321886390447617,0.0480463281273842,0.0348431318998337,0.0484694354236126
810,0.104360416531563,-0.00717520480975509,0.0324632860720158,0.0481243617832661,0.0320268981158733,0.0434186346828938
811,0.103393822908401,-0.00431905779987574,0.0310417953878641,0.0474880151450634,0.0284206252545118,0.0401188097894192
812,0.101611912250519,-0.00314623862504959,0.0275424364954233,0.0450457781553268,0.0248417370021343,0.0365902446210384
813,0.100407242774963,-0.00416940730065107,0.0225836057215929,0.0405048802495003,0.022864094004035,0.0316257812082767
814,0.10102079808712,-0.00598224205896258,0.0176504459232092,0.0353900045156479,0.023156238719821,0.026426088064909
815,0.103477299213409,-0.00560084916651249,0.0146456621587276,0.032759964466095,0.0247976165264845,0.0247595980763435
816,0.106275960803032,-0.00230246409773827,0.0140074519440532,0.0335371382534504,0.0257810205221176,0.028198042884469
817,0.108103051781654,0.00223116460256279,0.014706414192915,0.0357558056712151,0.0254318136721849,0.034043475985527
818,0.109113343060017,0.00682245241478086,0.0162685737013817,0.0380702987313271,0.025508901104331,0.0395600274205208
819,0.109792433679104,0.0105237765237689,0.0183054823428392,0.0400124564766884,0.0271191950887442,0.0438542552292347
820,0.109810099005699,0.0115582691505551,0.019155140966177,0.0402853935956955,0.0288357902318239,0.0458988882601261
821,0.109806910157204,0.0102073326706886,0.0186640862375498,0.0388029031455517,0.030199907720089,0.045132152736187
822,0.110948264598846,0.00889212545007467,0.0187660828232765,0.0369838066399097,0.0319945514202118,0.0425626561045647
823,0.113318093121052,0.00874700024724007,0.0209686253219843,0.0360071510076523,0.0340135619044304,0.0395076796412468
824,0.117322601377964,0.0098095266148448,0.0258474759757519,0.036847323179245,0.0365619547665119,0.0372027084231377
825,0.121475711464882,0.0108333835378289,0.0304389167577028,0.0380654148757458,0.0379985310137272,0.0352971516549587
826,0.12250567227602,0.0101621495559812,0.0305535718798637,0.0370646677911282,0.0352552086114883,0.0323368981480598
827,0.120889998972416,0.00904045812785625,0.0272593423724175,0.0347562022507191,0.0302913635969162,0.0293324589729309
828,0.119656421244144,0.00960594322532415,0.024037541821599,0.0332374759018421,0.0270365159958601,0.0289095267653465
829,0.120405159890652,0.0120583567768335,0.0223627667874098,0.0333494618535042,0.0262099429965019,0.0324930883944035
830,0.122700043022633,0.0146416742354631,0.0214837696403265,0.0345172584056854,0.0258861631155014,0.0373520404100418
831,0.125058576464653,0.0147824035957456,0.0197756327688694,0.0343424528837204,0.0241733975708485,0.037750106304884
832,0.127575486898422,0.0128959575667977,0.0176892671734095,0.0325805805623531,0.0223735701292753,0.0326912067830563
833,0.131176874041557,0.0116324769333005,0.0164113659411669,0.031448807567358,0.0222573056817055,0.0263295583426952
834,0.136334970593452,0.0125014847144485,0.0167456902563572,0.0324073918163776,0.0242612585425377,0.0225590076297522
835,0.142174437642097,0.0148531226441264,0.0183975342661142,0.0341945849359035,0.0272914674133062,0.021929943934083
836,0.145489662885666,0.0159268174320459,0.0183371379971504,0.0330472216010094,0.0282279029488564,0.0212327539920807
837,0.144768297672272,0.0146319335326552,0.0151938842609525,0.0280107595026493,0.0267516374588013,0.0187900513410568
838,0.142398193478584,0.0128901749849319,0.0112362261861563,0.0219890233129263,0.0256581753492355,0.0169802643358707
839,0.141168817877769,0.0119384517893195,0.00802587531507015,0.0170797575265169,0.0252936594188213,0.0176116414368153
840,0.140502646565437,0.0102071510627866,0.00412644306197762,0.0124008879065514,0.0222387071698904,0.0186544731259346
841,0.138607770204544,0.00639769807457924,-0.00102558231446892,0.00698823435232043,0.0153592331334949,0.0173836909234524
842,0.135876372456551,0.00203490047715604,-0.00505776982754469,0.00208938820287585,0.00795877724885941,0.0138351200148463
843,0.133790925145149,-0.000676561321597546,-0.00605157669633627,-0.000740372342988849,0.00283844256773591,0.00969951320439577
844,0.133484542369843,-0.000361599464667961,-0.00398703524842858,-0.00067605305230245,0.000751701707486063,0.00690278690308332
845,0.133840665221214,0.00215894519351423,-0.00134969770442694,0.00136936805211008,-2.84623674815521E-05,0.00542404176667333
846,0.13268369436264,0.00476312823593616,-0.000716147187631577,0.00353728979825974,-0.00166950782295316,0.00363619322888553
847,0.130096450448036,0.00715414714068174,-0.00147011701483279,0.00537016382440925,-0.00359610095620155,0.00167635409161448
848,0.125878006219864,0.00882753077894449,-0.0032307761721313,0.00577113823965192,-0.0056636044755578,-0.000146618389408104
849,0.11922413110733,0.00867330376058817,-0.00640889490023255,0.0031499657779932,-0.0083672758191824,-0.00257580284960568
850,0.112885296344757,0.00815590098500252,-0.00921942014247179,-0.00122805836144835,-0.0100848292931914,-0.00484160520136356
851,0.1101029291749,0.00843966007232666,-0.0103279324248433,-0.00511394720524549,-0.00982765667140484,-0.00617130845785141
852,0.109577521681786,0.00810790061950684,-0.0104710124433041,-0.00789285823702812,-0.00877370312809944,-0.00723362620919943
853,0.107737146317959,0.00632220413535833,-0.0108418362215161,-0.00998581014573574,-0.00874396227300167,-0.00874507986009121
854,0.10309262573719,0.00306336767971516,-0.0127949910238385,-0.0122914742678404,-0.0108350142836571,-0.0116828037425876
855,0.0975890457630157,-0.000657669501379132,-0.0155177358537912,-0.0139470649883151,-0.0133368689566851,-0.0146462004631758
856,0.0940601229667664,-0.0025460256729275,-0.0163225587457418,-0.0129772424697876,-0.0135186277329922,-0.0141859287396073
857,0.093526653945446,-0.00203527975827456,-0.0144155481830239,-0.00969737209379673,-0.0109970355406404,-0.00954837445169687
858,0.0954105779528618,0.00034010034869425,-0.0104940040037036,-0.00499975634738803,-0.00698418635874987,-0.00198172521777451
859,0.0972224995493889,0.00356387253850698,-0.00632945448160172,-3.27877096424345E-05,-0.00346542824991047,0.0050741801969707
860,0.0968460068106651,0.00577217619866133,-0.00335734710097313,0.00330653274431825,-0.000850490876473486,0.00717383064329624
861,0.0950789451599121,0.00646801479160786,-0.000218870423850603,0.00506061455234885,0.0029415728058666,0.00390211283229291
862,0.0930463150143623,0.00702717807143927,0.00462378934025764,0.00699082994833589,0.00866643432527781,-0.00109236652497202
863,0.0898351967334747,0.00837940443307161,0.00972938165068626,0.0092361019924283,0.0140600968152285,-0.00431674160063267
864,0.0842761099338531,0.0092300632968545,0.0117392875254154,0.00925358012318611,0.0153711084276438,-0.00554808788001537
865,0.0781484618782997,0.00907621532678604,0.00970056653022766,0.00602161977440119,0.0113223940134048,-0.00509404996410012
866,0.074636422097683,0.00990328192710876,0.00635319808498025,0.00204252079129219,0.0049912529066205,-0.00188939995132387
867,0.0744827836751938,0.0118587864562869,0.00359144364483655,-0.00105475063901395,-0.000127178165712394,0.00226607988588512
868,0.0763925835490227,0.013092553243041,0.00178927578963339,-0.00330331036821008,-0.00181080738548189,0.003803571453318
869,0.0784488990902901,0.0132430186495185,0.00115123658906668,-0.00445880787447095,0.000170287661603652,0.00250538624823093
870,0.077933557331562,0.0125509398058057,-3.95540737372357E-05,-0.00597129948437214,0.00215902319177985,-0.000687481951899827
871,0.0734941363334656,0.0113191390410066,-0.00319311418570578,-0.00941716600209475,0.000636391574516892,-0.00557020399719477
872,0.0681076273322105,0.0111007122322917,-0.00615527061745524,-0.0127332340925932,-0.00284860958345234,-0.00993326306343079
873,0.0660942494869232,0.0132804065942764,-0.00595691008493304,-0.0129185141995549,-0.00406993040814996,-0.0111944386735559
874,0.0672713071107864,0.0166091192513704,-0.00344013655558228,-0.0108983367681503,-0.00188615138176829,-0.0109094483777881
875,0.0689991340041161,0.0193791352212429,-0.000678204640280455,-0.00953490659594536,0.00264477008022368,-0.0124600315466523
876,0.0703896433115005,0.022301597520709,0.00248248502612114,-0.00927693489938974,0.00857768394052982,-0.0157373752444983
877,0.0720077306032181,0.0271305348724127,0.00703820679336786,-0.00812191423028708,0.0149693358689547,-0.017222361639142
878,0.0735712349414825,0.0334624163806438,0.0122159598395228,-0.00557646900415421,0.0199267901480198,-0.0152621967718005
879,0.0728413239121437,0.0385095737874508,0.0149387242272496,-0.00414939783513546,0.0198526084423065,-0.0116280326619744
880,0.069072887301445,0.040892343968153,0.0140381278470159,-0.00483642844483256,0.0139800114557147,-0.00754708983004093
881,0.0642025768756866,0.0413572899997234,0.0111408047378063,-0.00630556093528867,0.00574230356141925,-0.00351332407444716
882,0.0593454018235207,0.0403086692094803,0.00696292147040367,-0.00819345936179161,-0.00154768105130643,-0.00128501211293042
883,0.0542902573943138,0.0373182073235512,0.00132441555615515,-0.0108621995896101,-0.00648799631744623,-0.00209592655301094
884,0.0508179478347301,0.0338859520852566,-0.00309702381491661,-0.0120593477040529,-0.00729790236800909,-0.00267778825946152
885,0.0501148030161858,0.031730767339468,-0.00443181628361344,-0.0101267388090491,-0.00469269370660186,-6.81248202454299E-05
886,0.0494979880750179,0.0295156706124544,-0.00571872526779771,-0.00793410185724497,-0.00387231889180839,0.00288199237547815
887,0.0477349460124969,0.0274282805621624,-0.0072345188818872,-0.00652697822079062,-0.00524827232584357,0.00417532678693533
888,0.0460041575133801,0.0282112490385771,-0.00526506965979934,-0.00326401926577091,-0.00432486599311233,0.00618747808039188
889,0.0431223288178444,0.0315603837370873,-0.000169885985087603,0.00153478886932135,-0.000997836235910654,0.0101033300161362
890,0.0372862592339516,0.0343323200941086,0.00418272335082293,0.00448183389380574,0.00118612276855856,0.0135104916989803
891,0.0286438446491957,0.0343845523893833,0.00507602375000715,0.00363621837459505,-0.000341775128617883,0.0142647298052907
892,0.0181585978716612,0.0312580168247223,0.00209544040262699,-0.000640404818113893,-0.00552194006741047,0.0128312828019261
893,0.00745343929156661,0.0263317581266165,-0.00255720317363739,-0.00646941317245364,-0.0113327046856284,0.0107236765325069
894,-0.0015824711881578,0.0223352313041687,-0.00645952252671123,-0.0120182894170284,-0.0148281063884497,0.00900386646389961
895,-0.00885189045220613,0.0200750138610601,-0.0106188636273146,-0.0176244676113129,-0.0172234494239092,0.00684081064537168
896,-0.015382363460958,0.0186525732278824,-0.0167733058333397,-0.0237506218254566,-0.0208152234554291,0.0025873645208776
897,-0.0208165291696787,0.0179913472384214,-0.0230849552899599,-0.0288811530917883,-0.0243820585310459,-0.00370093644596636
898,-0.0244311541318893,0.0180907789617777,-0.0259618181735277,-0.0313751772046089,-0.0258099846541882,-0.0103706084191799
899,-0.026932755485177,0.0188177321106195,-0.024298720061779,-0.0310639441013336,-0.0253854040056467,-0.0155599489808083
900,-0.0298685189336538,0.0202743839472532,-0.0201918799430132,-0.0294798016548157,-0.0245518665760756,-0.0182195361703634
901,-0.0337879806756973,0.0224048383533955,-0.0156853813678026,-0.0280171558260918,-0.0235492642968893,-0.017765499651432
902,-0.0385998412966728,0.0235986094921827,-0.0127500975504518,-0.0277043748646975,-0.0236846916377544,-0.0154174268245697
903,-0.0439240112900734,0.0219535827636719,-0.0127279721200466,-0.0290792249143124,-0.0268036648631096,-0.0135280676186085
904,-0.0486448667943478,0.0179769117385149,-0.0142989857122302,-0.0310646779835224,-0.0312468651682138,-0.0122659923508763
905,-0.0508944131433964,0.0141432331874967,-0.0146286627277732,-0.0314782708883286,-0.0327658243477345,-0.00885212514549494
906,-0.0492815896868706,0.0118936067447066,-0.0126636847853661,-0.0299881678074598,-0.0297433771193028,-0.00229561701416969
907,-0.0449569374322891,0.00963910948485136,-0.0110656786710024,-0.0294167846441269,-0.0258097983896732,0.00324652739800513
908,-0.0387703999876976,0.00666678650304675,-0.0115586798638105,-0.0302214529365301,-0.0237957146018744,0.00539003079757094
909,-0.030612587928772,0.00394379487261176,-0.0136655559763312,-0.0310287177562714,-0.0237064324319363,0.00475561898201704
910,-0.0221869852393866,0.00131668441463262,-0.0170220229774714,-0.0325461886823177,-0.02603461407125,0.00125194666907191
911,-0.0149685405194759,-0.0010120797669515,-0.0198761932551861,-0.0344859287142754,-0.0299781281501055,-0.00369746657088399
912,-0.00859547406435013,-0.00260431994684041,-0.0201094597578049,-0.0354016423225403,-0.0332412645220757,-0.00823784712702036
913,-0.0021662381477654,-0.00410197861492634,-0.0180903766304255,-0.0353960879147053,-0.034948643296957,-0.012164537794888
914,0.00428575184196234,-0.00601623440161347,-0.0162542723119259,-0.0356985740363598,-0.0362330451607704,-0.0160210113972425
915,0.00916937924921513,-0.00806481018662453,-0.0165800917893648,-0.0373897664248943,-0.0385154709219933,-0.0206401310861111
916,0.011611370369792,-0.00949341244995594,-0.01869903691113,-0.0399789325892925,-0.0411765314638615,-0.0250965543091297
917,0.011707741767168,-0.010599154047668,-0.0220005102455616,-0.0428715646266937,-0.0429923348128796,-0.0284100137650967
918,0.0106666898354888,-0.0118209980428219,-0.0259900745004416,-0.0457060970366001,-0.043329231441021,-0.0313609801232815
919,0.0114678908139467,-0.0123195592314005,-0.0285844672471285,-0.0469677709043026,-0.041473887860775,-0.0338668003678322
920,0.0147909102961421,-0.012626875191927,-0.0295358877629042,-0.0473730377852917,-0.038568664342165,-0.0366443619132042
921,0.0186621155589819,-0.01435711607337,-0.0306622590869665,-0.0488163866102695,-0.0362193323671818,-0.0402129925787449
922,0.0229045618325472,-0.0168040730059147,-0.0314669720828533,-0.0498290881514549,-0.0329769961535931,-0.0411932170391083
923,0.0288546252995729,-0.0174881927669048,-0.0296752937138081,-0.047920498996973,-0.0267539341002703,-0.0368750765919685
924,0.0340214967727661,-0.0171988047659397,-0.0268278047442436,-0.0452116802334785,-0.0210815723985434,-0.0314635299146175
925,0.0342647843062878,-0.0180488377809525,-0.0259257163852453,-0.0447749197483063,-0.0210050046443939,-0.029319453984499
926,0.0293190814554691,-0.0193504579365253,-0.0270123165100813,-0.0458630248904228,-0.0267983805388212,-0.0284004062414169
927,0.0216003153473139,-0.0201000552624464,-0.0299766305834055,-0.0477380193769932,-0.036525521427393,-0.0267007537186146
928,0.0139722656458616,-0.0199841596186161,-0.0342592485249043,-0.050578661262989,-0.0466335751116276,-0.0258855018764734
929,0.0076479334384203,-0.0193341579288244,-0.0380835346877575,-0.0534725077450275,-0.0532086305320263,-0.0272086896002293
930,0.00313032371923327,-0.0178311821073294,-0.0390796810388565,-0.0538900643587112,-0.0541673339903355,-0.0283318385481834
931,0.000111213630589191,-0.0155219677835703,-0.0371252782642841,-0.05134167522192,-0.0511184334754944,-0.0279854107648134
932,-0.00349183147773147,-0.0143042467534542,-0.0350186750292778,-0.0486378893256187,-0.0470797531306744,-0.0286330487579107
933,-0.00848463363945484,-0.0151019534096122,-0.0343314036726952,-0.0474982857704163,-0.0421495623886585,-0.0318725556135178
934,-0.014318005181849,-0.0179508961737156,-0.0362868532538414,-0.0485101342201233,-0.0377879105508327,-0.0376312285661697
935,-0.0197967607527971,-0.022138986736536,-0.0409198328852654,-0.0513769388198853,-0.0365827083587646,-0.0446007661521435
936,-0.0237369351089001,-0.0261822510510683,-0.0454924330115318,-0.0545289255678654,-0.0382609330117702,-0.0504371002316475
937,-0.0263707209378481,-0.0300949942320585,-0.0482084900140762,-0.0570899769663811,-0.0411766991019249,-0.0544360019266605
938,-0.0273853372782469,-0.032876119017601,-0.0480837300419807,-0.0572894662618637,-0.0425052791833878,-0.0558222234249115
939,-0.0265333540737629,-0.0326903946697712,-0.0451482348144054,-0.0540181808173656,-0.0408879444003105,-0.0533144138753414
940,-0.0255693234503269,-0.0310891252011061,-0.0419318713247776,-0.0499388016760349,-0.038155809044838,-0.047050416469574
941,-0.0260441321879625,-0.0307802353054285,-0.0401368960738182,-0.0473054759204388,-0.0360243394970894,-0.0372404865920544
942,-0.0278865806758404,-0.0330135226249695,-0.0392873361706734,-0.0462367758154869,-0.0352835319936275,-0.0271102897822857
943,-0.0295927319675684,-0.0371387712657452,-0.0385906584560871,-0.0465898811817169,-0.0359967090189457,-0.0226787254214287
944,-0.0286874808371067,-0.0404454693198204,-0.0377865880727768,-0.0476734936237335,-0.0370096750557423,-0.0252734981477261
945,-0.0234078597277403,-0.0397231318056583,-0.0359820313751698,-0.0466968864202499,-0.0361400246620178,-0.0285227410495281
946,-0.016564579680562,-0.0360131748020649,-0.0340822301805019,-0.0428190119564533,-0.0340766161680222,-0.0278129018843174
947,-0.0135994516313076,-0.0352528989315033,-0.0364451818168163,-0.0411107316613197,-0.035854410380125,-0.0277750659734011
948,-0.0146681619808078,-0.0391374528408051,-0.0432129874825478,-0.0443462766706944,-0.0422311462461948,-0.0322694517672062
949,-0.0162634719163179,-0.0429133623838425,-0.0489804893732071,-0.0486959330737591,-0.0479401871562004,-0.0384023785591125
950,-0.0176263321191072,-0.0435736551880836,-0.0515126511454582,-0.0512276850640774,-0.0511752851307392,-0.0435397326946259
951,-0.0193504989147186,-0.0417373552918434,-0.0522690787911415,-0.052010353654623,-0.0536646470427513,-0.0470782406628132
952,-0.0202934443950653,-0.0379416197538376,-0.0511307269334793,-0.0506254844367504,-0.0538593232631683,-0.0480949021875858
953,-0.02025699429214,-0.0336239188909531,-0.0487134419381619,-0.0483889728784561,-0.0503882430493832,-0.048024594783783
954,-0.0210342239588499,-0.0314300283789635,-0.0481866002082825,-0.0486236661672592,-0.0464345291256905,-0.0499823428690434
955,-0.0224272049963474,-0.0310559142380953,-0.050050925463438,-0.0509948916733265,-0.0445081070065498,-0.053429126739502
956,-0.0226027108728886,-0.0303620249032974,-0.0520491451025009,-0.0527691058814526,-0.0441255979239941,-0.0556296296417713
957,-0.0208757910877466,-0.0290565732866526,-0.0529482997953892,-0.0532268285751343,-0.0445257537066936,-0.0552893914282322
958,-0.0170956030488014,-0.0271799303591251,-0.0519032888114452,-0.0522756539285183,-0.0445692241191864,-0.0514177046716213
959,-0.0119824865832925,-0.0251158438622952,-0.0493981055915356,-0.0506607182323933,-0.0442245751619339,-0.0444793254137039
960,-0.00730998301878572,-0.0237647090107203,-0.0466336198151112,-0.0493667162954807,-0.0449043475091457,-0.0368214063346386
961,-0.00375863839872181,-0.0229642055928707,-0.042871318757534,-0.0471543520689011,-0.0458138696849346,-0.0299772098660469
962,-0.00150344823487103,-0.0233950465917587,-0.0390167161822319,-0.044090710580349,-0.0460211187601089,-0.025883287191391
963,-0.000846570357680321,-0.0260848514735699,-0.0372714065015316,-0.04220787063241,-0.0463495813310146,-0.026007816195488
964,-0.000940782367251813,-0.0299935694783926,-0.0368390753865242,-0.041669599711895,-0.0465477146208286,-0.0286061447113752
965,-0.00154227449093014,-0.0340406261384487,-0.036991398781538,-0.0422099269926548,-0.0464228354394436,-0.031583197414875
966,-0.00301072164438665,-0.0380478724837303,-0.0385829582810402,-0.0438304133713245,-0.046484712511301,-0.033657718449831
967,-0.00442622788250446,-0.0409541539847851,-0.0408148728311062,-0.0447476953268051,-0.045672569423914,-0.0326298996806145
968,-0.00483865756541491,-0.0412603802978992,-0.0417658239603043,-0.0435216166079044,-0.0422408021986485,-0.0281532555818558
969,-0.00493776658549905,-0.0393435023725033,-0.0409747362136841,-0.0415264070034027,-0.0361022502183914,-0.024174964055419
970,-0.00678178854286671,-0.0376850515604019,-0.0395813137292862,-0.0410937629640102,-0.0292748976498842,-0.0247776955366135
971,-0.0103242136538029,-0.0375690348446369,-0.0380669422447681,-0.042487733066082,-0.0234437435865402,-0.0297169368714094
972,-0.0125897200778127,-0.038200318813324,-0.0364104248583317,-0.0443997010588646,-0.0190186351537704,-0.0365943983197212
973,-0.0123803429305553,-0.0388804115355015,-0.0359999351203442,-0.0463597141206265,-0.0176041014492512,-0.0442880503833294
974,-0.0110848983749747,-0.0382380373775959,-0.0367452576756477,-0.0473301075398922,-0.0201933141797781,-0.0508561246097088
975,-0.0104594090953469,-0.0347664840519428,-0.0362645946443081,-0.0452627055346966,-0.0248042587190866,-0.0527937822043896
976,-0.0126691265031695,-0.0306148659437895,-0.0348887108266354,-0.0414208322763443,-0.0301774423569441,-0.0500158444046974
977,-0.0180615708231926,-0.0287065915763378,-0.0341731533408165,-0.0383902154862881,-0.0359075628221035,-0.0450442805886269
978,-0.0235371571034193,-0.0276241339743137,-0.0323761738836765,-0.0345366112887859,-0.0391160361468792,-0.0378249734640121
979,-0.026838842779398,-0.0257832538336515,-0.0289440900087357,-0.028820900246501,-0.0383859053254128,-0.0292129516601563
980,-0.027728358283639,-0.0235815402120352,-0.0260345619171858,-0.0237713828682899,-0.0354834869503975,-0.0225925799459219
981,-0.0256911050528288,-0.0206971205770969,-0.0240660328418016,-0.0205421838909388,-0.0320383608341217,-0.01951914280653
982,-0.0225060544908047,-0.0183618236333132,-0.0239403080195189,-0.0198287554085255,-0.0307716559618711,-0.0212842617183924
983,-0.02098816819489,-0.018434239551425,-0.0270343814045191,-0.0219519659876823,-0.0333379693329334,-0.0276918318122625
