,AF3,AF4,Fp1,Fp2,AF7,AF8
0,-0.012243882752955,-0.00636509247124195,0.0127745633944869,0.0050613428466022,-0.00826034042984247,-0.0129507165402174
1,-0.0126076806336641,0.0033277771435678,0.0131473392248154,-0.00156846677418798,-0.00880446098744869,0.00247274339199066
2,-0.0121051389724016,0.0120394537225366,0.0108497636392713,-0.0124939139932394,-0.0120633598417044,0.0160495080053806
3,-0.0134502993896604,0.0155080081894994,0.00443331198766828,-0.0241367518901825,-0.0183721054345369,0.0248409565538168
4,-0.0161673501133919,0.011325323022902,-0.00273593934252858,-0.0313593670725822,-0.0244391746819019,0.0270495675504208
5,-0.0177101939916611,0.00246067228727043,-0.00734458165243268,-0.0323614180088043,-0.0283010695129633,0.0239021070301533
6,-0.0170216523110867,-0.00549398455768824,-0.0102488184347749,-0.0295459870249033,-0.0289507806301117,0.0179821848869324
7,-0.0145984552800655,-0.00950590707361698,-0.0129051273688674,-0.024837851524353,-0.0258950777351856,0.0114139057695866
8,-0.0113641377538443,-0.0112779904156923,-0.0149281658232212,-0.0192064307630062,-0.0211870986968279,0.00525323068723083
9,-0.00771515304222703,-0.0124074388295412,-0.0148560544475913,-0.0135328052565455,-0.0158011391758919,0.000534791091922671
10,-0.00418535945937037,-0.0112036103382707,-0.0119280880317092,-0.0077045913785696,-0.0087873162701726,-0.00201073801144958
11,-0.00210443884134293,-0.00757565069943666,-0.00640513421967626,-0.00185956957284361,-0.00135241355746984,-0.00406657205894589
12,-0.0013791014207527,-0.0041547529399395,0.00134832912590355,0.00351294525898993,0.00423152651637793,-0.0072420141659677
13,-0.0012843064032495,-0.00331374118104577,0.0102535504847765,0.00818983837962151,0.00646842969581485,-0.00930610671639442
14,-0.00221722153946757,-0.00547825684770942,0.0176769234240055,0.0102774146944284,0.0052449144423008,-0.00751909427344799
15,-0.00481877289712429,-0.00739713665097952,0.0199881624430418,0.00785581860691309,0.000586980255320668,-0.00168081047013402
16,-0.00893759541213512,-0.00633736280724406,0.0158544536679983,0.00310171861201525,-0.007626221049577,0.00592969637364149
17,-0.0123209245502949,-0.00432975869625807,0.00920641515403986,-0.000539056840352714,-0.015076800249517,0.00997474510222673
18,-0.0135869458317757,-0.00395648181438446,0.0052836942486465,-0.00211508572101593,-0.0169826783239841,0.00789080373942852
19,-0.0145577723160386,-0.00541867688298225,0.0045967772603035,-0.00346705596894026,-0.0153150428086519,0.00297004263848066
20,-0.0160615164786577,-0.00778463436290622,0.00439637340605259,-0.00659491121768951,-0.0138171054422855,-0.00112107640597969
21,-0.0167476665228605,-0.00899425987154245,0.00316002801991999,-0.00982579402625561,-0.0135690597817302,-0.00237148813903332
22,-0.0164948031306267,-0.0074685993604362,0.000698659103363752,-0.011283652856946,-0.0147832967340946,-0.00070382107514888
23,-0.0164233427494764,-0.0049274736084044,-0.00334656564518809,-0.0123864291235805,-0.0166969820857048,0.00141940009780228
24,-0.016687324270606,-0.0043308506719768,-0.00851043686270714,-0.0138433100655675,-0.0173464324325323,0.00167108816094697
25,-0.0162275210022926,-0.00563551485538483,-0.0126556120812893,-0.0138333924114704,-0.0152150196954608,9.88737228908576E-05
26,-0.0143427113071084,-0.00683623412624002,-0.0142444502562284,-0.0117020374163985,-0.0114753795787692,-0.0022991388104856
27,-0.0109687438234687,-0.00698910374194384,-0.0129243582487106,-0.00850981008261442,-0.00794969592243433,-0.00443504564464092
28,-0.00602133153006434,-0.00658620474860072,-0.00876347906887531,-0.0050525781698525,-0.00448938738554716,-0.00519353803247213
29,-0.00108671735506505,-0.00730772921815515,-0.00327667640522122,-0.00279724597930908,-0.00238297996111214,-0.00522484444081783
30,0.00151574821211398,-0.00905989296734333,0.0026006125845015,-0.00255388906225562,-0.00266124797053635,-0.00536898616701365
31,0.000883897417224944,-0.00896850414574146,0.00842068996280432,-0.0031228675507009,-0.00406765658408403,-0.00440543657168746
32,-0.00209535052999854,-0.00580024439841509,0.0120360357686877,-0.0023811140563339,-0.00694161048159003,-0.000670853711199015
33,-0.00496033765375614,-0.0016772341914475,0.0121742626652122,0.000565261521842331,-0.012137402780354,0.00598176615312696
34,-0.00598277756944299,0.00104375649243593,0.0100419986993074,0.00326582812704146,-0.018223887309432,0.0125358374789357
35,-0.00498830992728472,0.00245213392190635,0.00777764664962888,0.00280304835177958,-0.0207672622054815,0.014446010813117
36,-0.00303236627951264,0.00356308626942337,0.00679204193875194,-0.00104730378370732,-0.0162588376551867,0.0100467214360833
37,-0.00174948759377003,0.00497878529131413,0.00820961128920317,-0.00468806456774473,-0.00869462918490171,0.00333767314441502
38,-0.00181992421858013,0.00605142861604691,0.0110916392877698,-0.00331167713738978,-0.00669142045080662,0.000409582193242386
39,-0.00241099484264851,0.00479400623589754,0.0118423756211996,0.00209525064565241,-0.0108219580724835,0.0020792237482965
40,-0.00250857090577483,0.00156590272672474,0.00886303279548883,0.00579700386151671,-0.0134746860712767,0.00542137352749705
41,-0.00258687837049365,-0.00204130471684039,0.00354475947096944,0.00473019666969776,-0.0110167246311903,0.00831211358308792
42,-0.00291631533764303,-0.00637569883838296,-0.00122590793762356,-0.000131285909446888,-0.0045184688642621,0.00868637766689062
43,-0.00339028751477599,-0.0111505659297109,-0.00292385439388454,-0.00634888745844364,0.00278206006623805,0.00564674753695726
44,-0.00457134563475847,-0.0136498240754008,-0.00153764802962542,-0.0114049734547734,0.00644103903323412,0.00186474528163671
45,-0.00490772351622581,-0.0114951096475124,0.00151404540520161,-0.0130880251526833,0.00619866792112589,0.00118178559932858
46,-0.00239676469936967,-0.00641628680750728,0.00486457534134388,-0.0112481527030468,0.00511926226317883,0.00414646975696087
47,0.00189445982687175,-0.00292174192145467,0.00732055306434631,-0.00866202265024185,0.00416778726503253,0.00848063826560974
48,0.00601176870986819,-0.00327130686491728,0.00847734790295362,-0.00775139452889562,0.00255920807830989,0.0119252558797598
49,0.00784695707261562,-0.00651013990864158,0.00791379902511835,-0.00780902896076441,-0.000799377041403204,0.0127710234373808
50,0.0058335904031992,-0.0103984661400318,0.00529681937769055,-0.00610997574403882,-0.00563887041062117,0.0104364743456244
51,0.00250687194056809,-0.013531681150198,0.00241652596741915,-0.0022539074998349,-0.00840998627245426,0.0046731517650187
52,0.00130975479260087,-0.0166311599314213,0.0011724621290341,0.000995513051748276,-0.00702400552108884,-0.00439237058162689
53,0.00144385441672057,-0.0193818677216768,0.00185295462142676,0.00232224864885211,-0.0039498801343143,-0.012966537848115
54,0.00116887188050896,-0.0188193246722221,0.00408284133300185,0.00251368572935462,-0.00249143992550671,-0.0160191599279642
55,0.000941364967729896,-0.0139117753133178,0.00725629972293973,0.00239571952261031,-0.00196196115575731,-0.0124397119507194
56,0.00083177542546764,-0.00732347089797258,0.0106345508247614,0.00265604932792485,-0.000262989458860829,-0.00495007121935487
57,0.000125295482575893,-0.00162306590937078,0.0127759324386716,0.00380044034682214,0.000385916820960119,0.00192312698345631
58,-0.000769497826695442,0.00341666350141168,0.0126747973263264,0.00514566013589501,-0.00130497536156327,0.00506669422611594
59,-0.000950608809944242,0.00932871084660292,0.012227876111865,0.00638278480619192,-0.0026257096324116,0.00580558693036437
60,-0.000592529948335141,0.0148064447566867,0.0136041874065995,0.00775601249188185,-0.00302929943427444,0.00671864906325936
61,-0.000912125571630895,0.0151769602671266,0.0152842327952385,0.00731621170416474,-0.00466600758954883,0.00809934921562672
62,-0.00206991145387292,0.00874573923647404,0.0147914420813322,0.00363188097253442,-0.00842666253447533,0.00935923215001822
63,-0.00277686724439263,-0.000577767030335963,0.0113908629864454,-0.00269571132957935,-0.0120850177481771,0.0087530231103301
64,-0.00209575681947172,-0.00875516515225172,0.00621368875727057,-0.0100648310035467,-0.011990643106401,0.00484247738495469
65,-2.85013520624489E-05,-0.0141291776672006,0.00204219156876206,-0.0159942358732224,-0.00788392312824726,-0.000505779753439128
66,0.00285578728653491,-0.0155537202954292,0.000312716932967305,-0.0185138359665871,-0.00285597587935627,-0.00420502992346883
67,0.0049509503878653,-0.0129312677308917,-0.000743120908737183,-0.0171564519405365,-0.000347492576111108,-0.0045838188380003
68,0.0049212509766221,-0.00877969712018967,-0.00258428300730884,-0.0121022174134851,-0.00165480410214514,-0.00179601763375103
69,0.00329842581413686,-0.00686173373833299,-0.0041251708753407,-0.00359770911745727,-0.00459618447348475,0.00168666581157595
70,0.00145497673656791,-0.00877285655587912,-0.00369960721582174,0.00669862702488899,-0.00593342073261738,0.00241945474408567
71,0.000576226855628192,-0.0125227840617299,-0.000902742904145271,0.0146311419084668,-0.00508485222235322,-0.001360799302347
72,0.000941131904255599,-0.0142188621684909,0.00298617803491652,0.0162425674498081,-0.00552701251581311,-0.00749095901846886
73,0.00190136476885527,-0.0114978356286883,0.00613807700574398,0.0121179530397058,-0.00975246261805296,-0.0105396555736661
74,0.00290113291703165,-0.00633316580206156,0.00767285982146859,0.00541566452011466,-0.0151391141116619,-0.00839430466294289
75,0.00378859578631818,-0.00251380866393447,0.00830720085650682,-0.00133413949515671,-0.0179878454655409,-0.00466640666127205
76,0.00395666155964136,-0.000342328887199983,0.00879420805722475,-0.00516795413568616,-0.0178835336118937,-0.00171517615672201
77,0.00316057563759387,0.00243281712755561,0.00827459990978241,-0.00456961523741484,-0.0168313831090927,0.00208662799559534
78,0.00181071925908327,0.00515952007845044,0.00607332121580839,-0.00168848980683833,-0.0161076728254557,0.00679578958079219
79,-0.000314711389364675,0.00458440277725458,0.00230702757835388,-0.000234760649618693,-0.0154558317735791,0.00866473931819201
80,-0.00249803438782692,0.000641682825516909,-0.00280998228117824,-0.00243774009868503,-0.0141206784173846,0.00539183244109154
81,-0.00300132832489908,-0.00203091185539961,-0.0069956467486918,-0.00649038935080171,-0.0107163982465863,0.000742544478271157
82,-0.00196092971600592,0.000878506281878799,-0.00744829745963216,-0.0087184514850378,-0.0059625213034451,0.000285949761746451
83,-0.000730616447981447,0.00621330784633756,-0.00516107957810164,-0.00927378516644239,-0.00326722650788724,0.00343893026001751
84,-0.000103040925750975,0.0060006445273757,-0.00397800887003541,-0.0111044188961387,-0.00436423998326063,0.00478581385686994
85,-0.00088056456297636,-0.000742249772883952,-0.00574742071330547,-0.0133618703112006,-0.00800203438848257,0.00209300615824759
86,-0.00351952249184251,-0.00757056660950184,-0.00774054368957877,-0.0121111189946532,-0.0115004703402519,-0.00229949806816876
87,-0.00677074724808335,-0.00889081601053476,-0.00663958676159382,-0.00611119344830513,-0.014894999563694,-0.00529506057500839
88,-0.00847639329731464,-0.00481734238564968,-0.00295304716564715,0.00241535110399127,-0.0190391521900892,-0.00630929647013545
89,-0.00820695795118809,0.000278442836133763,0.000534252496436238,0.00928430259227753,-0.0219195634126663,-0.00722902733832598
90,-0.00614203745499253,0.00286220712587237,0.00250999606214464,0.0105672022327781,-0.0203559603542089,-0.00958098378032446
91,-0.00169738032855093,0.00214497512206435,0.00399201875552535,0.00644124625250697,-0.0127009330317378,-0.0128631871193647
92,0.0034020347520709,-0.000706966617144644,0.0048057809472084,0.000511798076331615,-0.00339780957438052,-0.0143474759534001
93,0.00680983858183026,-0.00441411091014743,0.00325623550452292,-0.00524179777130485,0.00223516928963363,-0.0129617704078555
94,0.00811638403683901,-0.00795966014266014,-0.000684493046719581,-0.011649421416223,0.00416189106181264,-0.0109527641907334
95,0.00719998776912689,-0.0092884162440896,-0.00473840394988656,-0.0183336902409792,0.00416676932945848,-0.00892372522503138
96,0.00514717912301421,-0.00700551085174084,-0.00594715494662523,-0.0224953312426806,0.00386438542045653,-0.00538104865700006
97,0.00411041267216206,-0.0032878159545362,-0.00288138096220791,-0.0224919058382511,0.00462634628638625,-0.00159869843628258
98,0.0040710587054491,-0.00159326416905969,0.00300932885147631,-0.0191361662000418,0.00547285843640566,-0.000703692028764635
99,0.00307054584845901,-0.00292014633305371,0.00785799976438284,-0.0141917057335377,0.00355303566902876,-0.00304626021534204
100,0.00137107656337321,-0.00589063856750727,0.00830994918942451,-0.00961639825254679,-0.00106446864083409,-0.00773559929803014
101,0.00126166047994047,-0.00846428051590919,0.00482449121773243,-0.00636000791564584,-0.00555211678147316,-0.0145549634471536
102,0.00252587394788861,-0.00975291710346937,0.000746803474612534,-0.00340901827439666,-0.00813082605600357,-0.0205940548330545
103,0.00258940225467086,-0.0101164700463414,-0.0028922944329679,-0.000385134626412764,-0.00915864668786526,-0.0227594077587128
104,0.000331897579599172,-0.00751906540244818,-0.00664341915398836,0.00164282193873078,-0.00945608038455248,-0.0220554433763027
105,-0.00282504921779037,-0.00183386018034071,-0.00839075352996588,0.00194605661090463,-0.00922486279159784,-0.0210658367723227
106,-0.00519829569384456,0.000671655870974064,-0.00704102637246251,0.000593287695664912,-0.00923612341284752,-0.0205924846231937
107,-0.00617130054160953,-0.00218444247730076,-0.00512003526091576,-0.00126637623179704,-0.0100362310186028,-0.0190517921000719
108,-0.00443729851394892,-0.00608100136741996,-0.00410740962252021,-0.00323975295759737,-0.00980429537594318,-0.0161426793783903
109,0.000883933971635997,-0.00789959728717804,-0.00343855889514089,-0.00640730373561382,-0.0055503617040813,-0.0139881456270814
110,0.00647121109068394,-0.00657254690304399,-0.00416474975645542,-0.0110964644700289,0.000651476322673261,-0.0130772283300757
111,0.00743932323530316,-0.00210494827479124,-0.00733968615531921,-0.0164763238281012,0.00287899142131209,-0.0121969459578395
112,0.00351651222445071,0.00354616437107325,-0.0100922966375947,-0.0203076377511024,0.000937365170102566,-0.0102942390367389
113,-0.00155068770982325,0.00778010254725814,-0.00930369086563587,-0.0196566972881556,-0.00123492465354502,-0.00639739586040378
114,-0.00455016968771815,0.00938690826296806,-0.00616619363427162,-0.0149864787235856,-0.0026669732760638,-0.00276478962041438
115,-0.00464327959343791,0.00822815112769604,-0.0034757989924401,-0.0090452628210187,-0.00490127969533205,-0.00404909159988165
116,-0.00239492114633322,0.00505892978981137,-0.00171593367122114,-0.0018885089084506,-0.00744948536157608,-0.0102659855037928
117,0.0012641113717109,0.00199124729260802,0.000432143540820107,0.00701398076489568,-0.00737879378721118,-0.0156341306865215
118,0.00458866311237216,0.00118571706116199,0.00318462331779301,0.0149609791114926,-0.00425366358831525,-0.0151244774460793
119,0.00574539229273796,0.00190260808449239,0.00435476005077362,0.017249958589673,-0.000735772831831127,-0.0108386315405369
120,0.0038969898596406,0.00107364961877465,0.00180454785004258,0.0121680907905102,1.49300840348587E-05,-0.00846743956208229
121,-0.000400155520765111,-0.0025484417565167,-0.00327762705273926,0.00390627048909664,-0.00368106737732887,-0.00954965688288212
122,-0.00461685797199607,-0.00727046886458993,-0.0073943855240941,-0.00265488051809371,-0.00934199336916208,-0.0129601843655109
123,-0.00614253478124738,-0.00932559929788113,-0.00856160651892424,-0.00621138187125325,-0.0130326189100742,-0.0172576382756233
124,-0.0049137850292027,-0.00544610572978854,-0.0077785411849618,-0.00716786319389939,-0.013349668122828,-0.0197933912277222
125,-0.00229823286645114,0.00201551080681384,-0.00671892054378986,-0.00718640629202127,-0.0108379134908319,-0.0200869459658861
126,0.000334727024892345,0.00654841400682926,-0.00640896242111921,-0.00869213789701462,-0.00766996713355184,-0.0195714924484491
127,0.00231718178838491,0.00631194887682796,-0.0063880467787385,-0.0109158186241984,-0.00559608545154333,-0.0174511447548866
128,0.00450282637029886,0.00499345827847719,-0.00602625729516149,-0.0118440128862858,-0.0049928268417716,-0.0132915806025267
129,0.00755004864186049,0.00438409484922886,-0.00585678638890386,-0.01161028444767,-0.00658573163673282,-0.00896200910210609
130,0.0106456018984318,0.00384508678689599,-0.0045060315169394,-0.00989686138927937,-0.00958030391484499,-0.00544167123734951
131,0.0124257057905197,0.00405281269922853,-0.00253213639371097,-0.00758848432451487,-0.0126489102840424,-0.00236984342336655
132,0.0117371873930097,0.00559592340141535,-0.00429181568324566,-0.00744814053177834,-0.0165879912674427,0.000305091147311032
133,0.00755667220801115,0.00695146340876818,-0.0108651602640748,-0.0100423498079181,-0.0220552925020456,0.00174150930251926
134,0.00075876759365201,0.0077626770362258,-0.0191313344985247,-0.0134938713163137,-0.0273580756038427,0.000378826109226793
135,-0.00466118939220905,0.0095823360607028,-0.0239033903926611,-0.0156803242862225,-0.0290375147014856,-0.0046460316516459
136,-0.00614194478839636,0.0107258353382349,-0.0223868414759636,-0.0163986310362816,-0.026846444234252,-0.0116160195320845
137,-0.00407881196588278,0.00738530326634645,-0.0179474428296089,-0.0171108935028315,-0.0223058983683586,-0.0179113131016493
138,0.000761284376494586,0.000205754811759107,-0.0145853403955698,-0.0183319933712482,-0.0147961610928178,-0.0230684168636799
139,0.00611418811604381,-0.0061687920242548,-0.0137945767492056,-0.0189766902476549,-0.00739376386627555,-0.0282777603715658
140,0.0094259288161993,-0.00918323546648026,-0.0151368733495474,-0.0188802964985371,-0.00469438685104251,-0.0347974300384521
141,0.0105355829000473,-0.00966177508234978,-0.0166508555412292,-0.0205893367528915,-0.00703119393438101,-0.0430815629661083
142,0.00995149463415146,-0.00878141820430756,-0.0176011435687542,-0.0249313395470381,-0.0143464142456651,-0.0515919402241707
143,0.00788950361311436,-0.00725313648581505,-0.0186043977737427,-0.02926230058074,-0.0269167441874743,-0.0577171854674816
144,0.00572253530845046,-0.00553399370983243,-0.0195206198841333,-0.0325483530759811,-0.0410267598927021,-0.0599608048796654
145,0.00483738444745541,-0.00342800980433822,-0.0207368787378073,-0.0360769741237164,-0.0511737838387489,-0.0580513030290604
146,0.00500369956716895,7.55133044094691E-07,-0.0235923212021589,-0.0402105562388897,-0.0562194064259529,-0.0532924309372902
147,0.00468133762478828,0.00478520896285772,-0.0281274598091841,-0.0443849675357342,-0.0595663823187351,-0.0493845045566559
148,0.0034175377804786,0.00920787360519171,-0.0324146598577499,-0.0477297268807888,-0.0620838589966297,-0.0485151708126068
149,0.00289914454333484,0.0126684475690126,-0.0342697575688362,-0.0480956062674522,-0.0597244687378407,-0.0484752468764782
150,0.00381276407279074,0.0150756277143955,-0.0348987691104412,-0.0443147495388985,-0.051940992474556,-0.0465970113873482
151,0.00481647020205855,0.0155211696401238,-0.0372798033058643,-0.0391376987099648,-0.0444872938096523,-0.0428694151341915
152,0.00428106961771846,0.0143940905109048,-0.0411328934133053,-0.036921814084053,-0.0422272272408009,-0.0395997278392315
153,0.00189193873666227,0.0126695279031992,-0.0441031344234943,-0.0388460010290146,-0.0455411933362484,-0.037983912974596
154,-0.00056089845020324,0.0106333494186401,-0.0450669303536415,-0.0429382622241974,-0.0518077798187733,-0.0366586968302727
155,-0.000374494207790121,0.00837454199790955,-0.043390579521656,-0.0464779138565063,-0.0560315698385239,-0.0341854244470596
156,0.00253727100789547,0.00699620833620429,-0.0390637964010239,-0.0458138510584831,-0.0552920252084732,-0.0294995736330748
157,0.00556914648041129,0.0070757744833827,-0.0341279841959476,-0.0388333424925804,-0.0517409294843674,-0.0232834853231907
158,0.00762852234765887,0.00718475505709648,-0.0299161542207003,-0.0278672967106104,-0.048011664301157,-0.0189267676323652
159,0.00909870304167271,0.00629185233265162,-0.0255531705915928,-0.0179795492440462,-0.046367920935154,-0.0204189829528332
160,0.00940033886581659,0.00407305639237165,-0.0211603697389364,-0.0142425559461117,-0.0492460541427135,-0.0297048948705196
161,0.00865412969142199,0.00123389274813235,-0.0189050976186991,-0.0178070794790983,-0.05454421043396,-0.0428764633834362
162,0.0090388236567378,-0.000454124354291707,-0.0197349525988102,-0.0243497397750616,-0.0547768138349056,-0.0522028729319572
163,0.0108179291710258,-0.00100092822685838,-0.022618705406785,-0.0299560874700546,-0.0470732748508453,-0.0539203397929668
164,0.0113974576815963,-0.00160911004059017,-0.0265513453632593,-0.0335985124111176,-0.03876868262887,-0.0501376502215862
165,0.0104917995631695,-0.0026571424677968,-0.0301639828830957,-0.0344026163220406,-0.0364580154418945,-0.0454146713018417
166,0.00949869956821203,-0.0042358972132206,-0.0327663533389568,-0.0331764183938503,-0.0388518236577511,-0.0425956211984158
167,0.00804466847330332,-0.00622353982180357,-0.0348669551312923,-0.0323307067155838,-0.0406528785824776,-0.0415547303855419
168,0.00565006071701646,-0.00806441064924002,-0.0358343794941902,-0.0325672477483749,-0.0381450913846493,-0.0411032997071743
169,0.00301223015412688,-0.00815996807068586,-0.0341776944696903,-0.0318884626030922,-0.033466849476099,-0.0383764617145061
170,0.00116328580770642,-0.00507214525714517,-0.0295058097690344,-0.0283661354333162,-0.0318437106907368,-0.0315862856805325
171,0.000662521575577557,-0.00064749299781397,-0.0233943276107311,-0.0236836969852448,-0.0347962193191051,-0.0240186210721731
172,0.000808375712949783,0.00223859306424856,-0.0189219359308481,-0.0203955043107271,-0.0397594943642616,-0.0192297212779522
173,-0.000253173580858856,0.00318719097413123,-0.0189637504518032,-0.0187665708363056,-0.0443869642913342,-0.0174872148782015
174,-0.00210326048545539,0.00336456042714417,-0.0215723644942045,-0.0167050417512655,-0.0458153672516346,-0.0171074047684669
175,-0.00177413073834032,0.00420459546148777,-0.0216032452881336,-0.0119672268629074,-0.0416733026504517,-0.0162832885980606
176,0.00148908572737128,0.00632833456620574,-0.0187781099230051,-0.00577613199129701,-0.0333599857985973,-0.0147085916250944
177,0.00581418443471193,0.00969125796109438,-0.0163051467388868,-0.00173218024428934,-0.0245467852801085,-0.0131555674597621
178,0.00903354585170746,0.0127074811607599,-0.0152887273579836,-0.00232902518473566,-0.0198600124567747,-0.0129598453640938
179,0.00946693774312735,0.0116304652765393,-0.0144280083477497,-0.0060238279402256,-0.0231265518814325,-0.0149049572646618
180,0.00746879819780588,0.00582502130419016,-0.0128289647400379,-0.008980100043118,-0.0316252112388611,-0.0193328429013491
181,0.00507452245801687,-0.00184760149568319,-0.0118315313011408,-0.0100368410348892,-0.0358030237257481,-0.0269175563007593
182,0.0035564717836678,-0.00860834866762161,-0.0123094534501433,-0.0102285332977772,-0.0304021649062634,-0.0352389179170132
183,0.00323553779162467,-0.011785495094955,-0.0128685012459755,-0.0103769348934293,-0.0192272830754519,-0.0390488542616367
184,0.00361609528772533,-0.011163686402142,-0.0126012610271573,-0.0115005001425743,-0.00849167350679636,-0.0369041487574577
185,0.00342438346706331,-0.00930526945739985,-0.0116103701293468,-0.0137165784835815,-0.00245551229454577,-0.0314011201262474
186,0.00212181895039976,-0.00783080887049437,-0.00999406538903713,-0.0151530401781201,-0.00180152046959847,-0.025193003937602
187,0.000728557701222599,-0.00672688940539956,-0.0085168806836009,-0.0143535826355219,-0.00349025800824165,-0.020500410348177
188,0.000532627745997161,-0.00564974825829268,-0.00777393346652389,-0.0119051868095994,-0.00413180468603969,-0.0175428688526154
189,0.00159452040679753,-0.00357594387605786,-0.00733268959447742,-0.00883191358298063,-0.00298560876399279,-0.0133170792832971
190,0.00263870204798877,8.49341886350885E-05,-0.00719626620411873,-0.00506796687841415,-0.00273118680343032,-0.00556917162612081
191,0.00265242252498865,0.00332300341688097,-0.00800014846026897,-0.00125902367290109,-0.0060789305716753,0.00302894529886544
192,0.00192458287347108,0.00249964115209877,-0.00897989887744188,-7.25622749087051E-06,-0.00935668684542179,0.00623616529628634
193,0.000499318761285394,-0.00261612399481237,-0.00943145155906677,-0.00202781986445189,-0.00827042944729328,0.00153772346675396
194,-0.0010768958600238,-0.00703115202486515,-0.00955718755722046,-0.0038363232742995,-0.00480659026652575,-0.00672287493944168
195,-0.00033581763273105,-0.00690265791490674,-0.00872714165598154,-0.00200338661670685,-0.00112136790994555,-0.0132835973054171
196,0.00276695773936808,-0.00358246406540275,-0.00706050358712673,0.0031996420584619,0.00288385036401451,-0.0155843794345856
197,0.00493396678939462,-0.000923538987990469,-0.00451535871252418,0.00919765885919333,0.00881360750645399,-0.0140062114223838
198,0.0048160869628191,-0.000565497146453708,0.000803051865659654,0.014660082757473,0.0163155980408192,-0.010710246860981
199,0.00448450213298202,-0.000686367100570351,0.0103723211213946,0.0200477167963982,0.0230501685291529,-0.00655093742534518
200,0.00536697031930089,-7.4312774813734E-05,0.022260494530201,0.0252109989523888,0.0283821746706963,-0.000976503768470138
201,0.00605458719655871,0.00162130768876523,0.0313720926642418,0.0286924857646227,0.029239883646369,0.00544737139716744
202,0.00622127670794725,0.00631048763170838,0.0340935401618481,0.0284672006964684,0.0227089561522007,0.0106889763846993
203,0.00700885243713856,0.0128269195556641,0.0295441765338182,0.0239279214292765,0.0115410862490535,0.0129322735592723
204,0.00819579605013132,0.0153444670140743,0.0191623829305172,0.0173789989203215,0.00206135492771864,0.0118329767137766
205,0.00873810518532991,0.0111617278307676,0.00776121392846107,0.0128474878147244,-0.00077352044172585,0.0103192944079638
206,0.00784985348582268,0.00431199884042144,0.000294749886961654,0.0126479929313064,0.00312128523364663,0.0123886056244373
207,0.00558803835883737,-0.000318427511956543,-0.00188690715003759,0.015003714710474,0.00993731059134007,0.018673999235034
208,0.00226880260743201,-0.00272065494209528,-0.000151709260535426,0.0173572488129139,0.0154740959405899,0.0271921940147877
209,-0.00184987764805555,-0.00489547429606318,0.00278059998527169,0.0195097699761391,0.0184924043715,0.034931868314743
210,-0.00582607975229621,-0.00707119284197688,0.00514738075435162,0.0227432791143656,0.0205701310187578,0.0393067076802254
211,-0.00833314191550016,-0.00904553849250078,0.00862720981240273,0.0282913483679295,0.0242727603763342,0.0400729402899742
212,-0.00870094820857048,-0.0105266105383635,0.0147096794098616,0.0358017086982727,0.0296162702143192,0.0391867719590664
213,-0.00672931224107742,-0.0111322151497006,0.021898427978158,0.0429379567503929,0.0343536585569382,0.038672499358654
214,-0.00270984624512494,-0.0110275028273463,0.0276272632181644,0.0467227064073086,0.0379928350448608,0.0381709784269333
215,0.00156497489660978,-0.00946219079196453,0.0308409165591002,0.0469299741089344,0.0400937348604202,0.0374824702739716
216,0.00418531941249967,-0.00545095140114427,0.0334876552224159,0.0466369651257992,0.0397721864283085,0.0386962629854679
217,0.00442265486344695,-0.00101452029775828,0.0373811908066273,0.0477125160396099,0.037331011146307,0.0421831756830215
218,0.00227971910499036,0.000303352368064225,0.0418180003762245,0.0498548895120621,0.0349645726382732,0.0450969189405441
219,-0.000691378198098391,-0.00221670744940639,0.0454486794769764,0.052841555327177,0.0369082130491734,0.0445742420852184
220,-0.00136314867995679,-0.00589776132255793,0.0482585616409779,0.0567250736057758,0.0465819239616394,0.0410597212612629
221,0.00129733374342322,-0.00845732539892197,0.0511532165110111,0.0612938590347767,0.0631306767463684,0.0373838618397713
222,0.00458685168996453,-0.010504886507988,0.053803700953722,0.0651741027832031,0.0806593149900436,0.0347643755376339
223,0.00609503220766783,-0.0120401354506612,0.0550743862986565,0.0675222128629684,0.09169851988554,0.0334475040435791
224,0.00598341133445501,-0.0116016427055001,0.0552362464368343,0.0702847763895988,0.0929746925830841,0.0343838296830654
225,0.00546001316979527,-0.0100419400259852,0.0563152804970741,0.075138047337532,0.0880732610821724,0.0358973704278469
226,0.00540339155122638,-0.00982342008501291,0.0600929781794548,0.0809298679232597,0.0831006914377213,0.0336592085659504
227,0.00545503292232752,-0.0122629944235086,0.0659004300832748,0.0847980231046677,0.0810942575335503,0.0264837462455034
228,0.00496741058304906,-0.0155108645558357,0.0713775902986526,0.085680827498436,0.08134775608778,0.0193833764642477
229,0.00413997564464808,-0.0165474507957697,0.0746000036597252,0.0848369151353836,0.0816545784473419,0.0171569306403399
230,0.00273365573957562,-0.015563034452498,0.0754014030098915,0.0827402472496033,0.0815282985568047,0.0189099237322807
231,0.000394537521060556,-0.0125766145065427,0.0755701214075089,0.0806166306138039,0.0817434564232826,0.023615313693881
232,-0.00206476449966431,-0.00508758937940001,0.0762330070137978,0.0803848206996918,0.0809254869818687,0.0314207300543785
233,-0.00348648335784674,0.0056055043824017,0.0772032216191292,0.0823116004467011,0.077680729329586,0.0399403348565102
234,-0.00306623452343047,0.0122768711298704,0.078775554895401,0.0844082459807396,0.0744421109557152,0.0447073765099049
235,-0.000926524226088077,0.00993794109672308,0.0800323486328125,0.0839061364531517,0.0748289749026299,0.0435293912887573
236,0.00192479905672371,0.00155520346015692,0.0789193585515022,0.0812867283821106,0.0790906101465225,0.0402913652360439
237,0.00470819091424346,-0.00667145801708102,0.0761299505829811,0.0795982331037521,0.0841671153903008,0.0395134128630161
238,0.00660656625404954,-0.0120990397408605,0.0745614990592003,0.0802433490753174,0.0869272723793983,0.0402991250157356
239,0.00676262564957142,-0.0162540171295404,0.0753722712397575,0.0816739872097969,0.0863521546125412,0.0391344726085663
240,0.00535046402364969,-0.0206037312746048,0.0777359083294868,0.0817066952586174,0.0829004794359207,0.0342478528618813
241,0.00326029816642404,-0.0249920319765806,0.0800255686044693,0.0789635553956032,0.078706406056881,0.0264912154525518
242,0.000939982710406184,-0.0291766263544559,0.0803127437829971,0.0736145451664925,0.0764537453651428,0.0181856025010347
243,-0.00138192006852478,-0.0324221812188625,0.0781606957316399,0.0689605623483658,0.0765534043312073,0.0118105709552765
244,-0.00305211381055415,-0.0332360528409481,0.074930913746357,0.0688366070389748,0.0783640295267105,0.00930215790867805
245,-0.00333875534124672,-0.0311567131429911,0.0719272866845131,0.0733906626701355,0.081862136721611,0.0110256783664227
246,-0.00240156217478216,-0.0276959557086229,0.0694225952029228,0.0788208097219467,0.0855996608734131,0.0145092699676752
247,-0.00106200063601136,-0.0248590316623449,0.0679139718413353,0.0815021842718124,0.0867777094244957,0.0159013923257589
248,0.000183811542228796,-0.0234604552388191,0.0680289268493652,0.0800740942358971,0.0849969387054443,0.0133501468226314
249,0.00143278168980032,-0.0231883190572262,0.0688710361719131,0.074702687561512,0.0813026204705238,0.00852941256016493
250,0.00318312598392367,-0.0235562548041344,0.0695963203907013,0.0681325867772102,0.0758468434214592,0.0050069629214704
251,0.00483693322166801,-0.0248254965990782,0.0713360160589218,0.0636159107089043,0.070092536509037,0.00386917660944164
252,0.00565975904464722,-0.0263631772249937,0.0748576074838638,0.062204871326685,0.0671027600765228,0.00348692550323904
253,0.00532042793929577,-0.0260316785424948,0.0772119909524918,0.0633528009057045,0.0661668926477432,0.00246774824336171
254,0.00314216245897114,-0.0233371406793594,0.0754411220550537,0.0659880787134171,0.063222162425518,0.000753443397115916
255,0.000874395424034446,-0.0201763138175011,0.0715211927890778,0.0683455914258957,0.058342058211565,-0.000721766147762537
256,0.00106712593697011,-0.0188685674220324,0.0684209913015366,0.0677644461393356,0.0545011796057224,-0.00232398649677634
257,0.00263610132969916,-0.0199705101549625,0.0659212991595268,0.0637455210089684,0.0520225204527378,-0.00352284032851458
258,0.00333487591706216,-0.021599380299449,0.0632252544164658,0.0594966560602188,0.0512105338275433,-0.00158553768415004
259,0.0037095604930073,-0.0206722393631935,0.0608985386788845,0.0581124350428581,0.0534740686416626,0.00450574792921543
260,0.00512241944670677,-0.0159167163074017,0.059157557785511,0.0591434687376022,0.0567229613661766,0.0136426351964474
261,0.00676166359335184,-0.0105265723541379,0.057814497500658,0.060611329972744,0.0579377822577953,0.0235472843050957
262,0.00640043243765831,-0.00871095899492502,0.0562551580369473,0.0614537224173546,0.0563601516187191,0.0316811949014664
263,0.00300390110351145,-0.0103277768939734,0.0532457455992699,0.0613590627908707,0.0509999766945839,0.036675687879324
264,-0.00168676802422851,-0.0132039021700621,0.0486733429133892,0.0593318715691566,0.0431174524128437,0.0360292382538319
265,-0.00419420329853892,-0.0166337806731462,0.0446751639246941,0.0538861267268658,0.0372228398919106,0.0278801675885916
266,-0.00294985063374043,-0.0197687391191721,0.0436684228479862,0.0466779917478561,0.0354516692459583,0.016617963090539
267,-0.000388207234209403,-0.0218925252556801,0.0454536750912666,0.0414168685674667,0.0366167612373829,0.00873248651623726
268,0.000883546483237296,-0.0217032805085182,0.0489142052829266,0.0402502194046974,0.0377048216760159,0.00840247422456741
269,0.00100199040025473,-0.0177491046488285,0.0530038848519325,0.0422699674963951,0.0358053743839264,0.0158646702766418
270,0.000179750772076659,-0.0114219570532441,0.0551444478332996,0.0441220439970493,0.0316214822232723,0.0257107876241207
271,-0.00144817307591438,-0.00484306737780571,0.0540395677089691,0.0448134988546371,0.0280608348548412,0.0328131355345249
272,-0.00232879165560007,0.000242289039306343,0.0508593805134296,0.0457284897565842,0.0272277966141701,0.0354774370789528
273,-0.00152406026609242,0.00234864861704409,0.0470910221338272,0.0472399368882179,0.0296690817922354,0.0334970392286778
274,0.000276402221061289,0.00129893945995718,0.0448316559195518,0.0485758930444717,0.0338438265025616,0.027954014018178
275,0.00163020717445761,-0.00219486420974135,0.0443165749311447,0.0476416274905205,0.0365105271339417,0.0208186563104391
276,0.00247669708915055,-0.00607486208900809,0.0436414331197739,0.0446799211204052,0.0370088219642639,0.0147353550419211
277,0.0038515196647495,-0.00852128583937883,0.042574405670166,0.0432812198996544,0.0382712371647358,0.0108150392770767
278,0.005691550206393,-0.00957167334854603,0.0414003171026707,0.0448887571692467,0.0417067185044289,0.00800197198987007
279,0.00782566238194704,-0.00951799750328064,0.0395128093659878,0.0482782833278179,0.0456077978014946,0.0063445158302784
280,0.00971114356070757,-0.00806447584182024,0.0360500402748585,0.051185630261898,0.0463840290904045,0.0077301487326622
281,0.0103631550446153,-0.00524990307167172,0.0312173999845982,0.0504100322723389,0.0419768802821636,0.0129155348986387
282,0.0108124073594809,-0.00217815232463181,0.0271576661616564,0.0445550419390202,0.0364451035857201,0.0194511115550995
283,0.0114985071122646,0.000344579864758998,0.0244508292526007,0.0362020432949066,0.0336262732744217,0.024722084403038
284,0.0100736068561673,0.00241184537298977,0.0217536650598049,0.0298541709780693,0.0310409627854824,0.0278498567640781
285,0.00711436429992318,0.003499501850456,0.0204778015613556,0.0279049407690763,0.0291798375546932,0.0275422725826502
286,0.00569832744076848,0.00265159318223596,0.0226059444248676,0.0284702479839325,0.0309843569993973,0.0234322715550661
287,0.00524011673405766,0.000918606529012322,0.0257457755506039,0.0282045491039753,0.0306592136621475,0.0189586915075779
288,0.00388265424408019,0.000745761673897505,0.0267762001603842,0.0261422526091337,0.022471871227026,0.0184864643961191
289,0.00184641650412232,0.00204678811132908,0.0257884953171015,0.0232208725064993,0.0109048373997211,0.022058816626668
290,-0.000983751611784101,0.00179956457577646,0.023634035140276,0.019433731213212,0.000626257969997823,0.0251665860414505
291,-0.00515916105359793,-0.00183017214294523,0.0205761101096869,0.0142317330464721,-0.00822955556213856,0.0232712011784315
292,-0.00915687531232834,-0.00638191867619753,0.0169912744313478,0.0108037795871496,-0.0143414195626974,0.0169498529285192
293,-0.0101862670853734,-0.00748932315036654,0.0137761197984219,0.0141063360497355,-0.0155287459492683,0.0110422456637025
294,-0.00713753467425704,-0.00360644981265068,0.0126160522922874,0.0231783855706453,-0.0110997688025236,0.00787967350333929
295,-0.00247606355696917,0.00268170959316194,0.0131345000118017,0.0306736566126347,-0.00275182235054672,0.00624502031132579
296,0.000551028933841735,0.00815374031662941,0.013387018814683,0.0320389457046986,0.00626334315165877,0.00604624394327402
297,0.0020180179271847,0.0116785671561956,0.0136514250189066,0.0301806330680847,0.0138037642464042,0.00757081340998411
298,0.00321016553789377,0.0127359656617045,0.0141530055552721,0.028759790584445,0.0180369336158037,0.00852163136005402
299,0.00445292238146067,0.0111939823254943,0.0140329292044044,0.0278919450938702,0.0182102005928755,0.00728866038843989
300,0.00591840595006943,0.00873305648565292,0.0131821054965258,0.0268875416368246,0.0164870098233223,0.00683717709034681
301,0.00708587840199471,0.00729540502652526,0.0116639928892255,0.0253412611782551,0.0140612898394465,0.0105220265686512
302,0.00633451482281089,0.00637075444683433,0.00921644270420074,0.0219806022942066,0.00951261539012194,0.0161496512591839
303,0.00344652403146029,0.00479434756562114,0.00646317424252629,0.0171631090342999,0.00354576855897903,0.019406009465456
304,0.000594763027038425,0.00322903273627162,0.004924391862005,0.0136720417067409,-0.00101176917087287,0.0197412166744471
305,-0.00128915754612535,0.00285522127524018,0.00485863909125328,0.0127932000905275,-0.00411722157150507,0.0195241309702396
306,-0.00344354729168117,0.00439428724348545,0.00565847381949425,0.0131241315975785,-0.00775022571906447,0.0206560026854277
307,-0.00604414753615856,0.00812017265707254,0.00683406228199601,0.0127925435081124,-0.012206663377583,0.0235939286649227
308,-0.00774195324629545,0.0127040147781372,0.006998086348176,0.011715279892087,-0.0158802382647991,0.0283617563545704
309,-0.00854681711643934,0.0155849251896143,0.0046133422292769,0.0106284450739622,-0.0181622672826052,0.0345402285456657
310,-0.00937214866280556,0.0154688116163015,0.000736683199647814,0.00898161809891462,-0.0198740772902966,0.0398079194128513
311,-0.00976421777158976,0.0128142749890685,-0.0017405510880053,0.00671366322785616,-0.0203321110457182,0.0410119667649269
312,-0.00910258293151855,0.00889044906944036,-0.00160209077876061,0.00579699175432324,-0.0184169691056013,0.0377110280096531
313,-0.00829605385661125,0.0051146405749023,0.000173782231286168,0.00701308436691761,-0.015545167028904,0.0318820215761662
314,-0.00909704156219959,0.00244179042056203,0.000768374069593847,0.00764601165428758,-0.0138849578797817,0.0251293089240789
315,-0.0120157971978188,0.0015123636694625,-0.00198793644085526,0.0057742465287447,-0.0131090683862567,0.0194780677556992
316,-0.0156640727072954,0.00221488438546658,-0.00708361761644483,0.00294935097917914,-0.0119590871036053,0.0163327287882566
317,-0.0180251467972994,0.00325709185563028,-0.0124155422672629,0.000416256225435063,-0.0109096271917224,0.013919242657721
318,-0.0179057568311691,0.00365653866901994,-0.016320614144206,-0.00208743405528367,-0.0105213429778814,0.0110405823215842
319,-0.0155624551698565,0.00360041111707687,-0.0181261114776134,-0.00497961416840553,-0.0105864452198148,0.00827669259160757
320,-0.0121041117236018,0.00455068191513419,-0.0173043049871922,-0.00774907507002354,-0.0106677245348692,0.00579135119915009
321,-0.0088633056730032,0.00821026135236025,-0.0136656686663628,-0.00926138181239367,-0.0104387095198035,0.00388810993172228
322,-0.00714133260771632,0.013089626096189,-0.010116470977664,-0.0108375623822212,-0.0114653389900923,0.00115431367885321
323,-0.00747454818338156,0.0152635714039207,-0.00995458941906691,-0.0144688710570335,-0.0152503903955221,-0.00518140802159905
324,-0.00854677800089121,0.0142088048160076,-0.0119205610826612,-0.0179509595036507,-0.018377672880888,-0.0132990386337042
325,-0.00894691050052643,0.0133792767301202,-0.0129703525453806,-0.016233928501606,-0.0184145327657461,-0.0165291409939528
326,-0.00904589798301458,0.0155125996097922,-0.012380626052618,-0.007957823574543,-0.0184355974197388,-0.0120400935411453
327,-0.00906191673129797,0.0191103685647249,-0.0104706780984998,0.00186908396426588,-0.0193304661661386,-0.00457088369876146
328,-0.0089427288621664,0.0202150698751211,-0.00882453285157681,0.00745259458199143,-0.0209951717406511,0.000307892332784832
329,-0.00938073266297579,0.0184628311544657,-0.00976676400750875,0.00738577963784337,-0.0255152620375156,0.00219455896876752
330,-0.0107240304350853,0.0158331710845232,-0.0131424441933632,0.00363557296805084,-0.032739195972681,0.00291910185478628
331,-0.0120643591508269,0.0131363123655319,-0.0166283324360847,-0.000603011925704777,-0.0388478077948093,0.0030996126588434
332,-0.0126708708703518,0.0112685998901725,-0.0190087165683508,-0.0032000089995563,-0.0390538237988949,0.00389430951327085
333,-0.0131075298413634,0.0108471345156431,-0.0212075840681791,-0.00516960117965937,-0.0327528528869152,0.0064648617990315
334,-0.0127211669459939,0.0116619616746902,-0.0231962520629168,-0.0082927979528904,-0.0231540258973837,0.00992240943014622
335,-0.0103793991729617,0.0127795236185193,-0.0242580603808165,-0.0124708032235503,-0.0137244071811438,0.0117187555879354
336,-0.00747279543429613,0.0127826724201441,-0.0253396034240723,-0.0165063384920359,-0.0077797370031476,0.0100242393091321
337,-0.00553965847939253,0.0115156639367342,-0.0264185164123774,-0.0191296469420195,-0.00584518536925316,0.00603503175079823
338,-0.00411419803276658,0.0104118445888162,-0.0259301140904427,-0.0193752218037844,-0.00531713059172034,0.00282863737083972
339,-0.00282322987914085,0.00960434414446354,-0.0245944801717997,-0.0186040289700031,-0.00522352801635861,0.000889490998815745
340,-0.00216660252772272,0.00854518171399832,-0.0245481412857771,-0.0193751342594624,-0.00757585233077407,-0.00130700063891709
341,-0.00210942351259291,0.00847311038523912,-0.0255253836512566,-0.0213001482188702,-0.013351715169847,-0.00345676857978106
342,-0.002475077053532,0.0104688666760921,-0.0262276083230972,-0.0229008160531521,-0.0214261375367641,-0.00527478009462357
343,-0.00302223768085241,0.0141609869897366,-0.0264584831893444,-0.0238159149885178,-0.0291059035807848,-0.0065458775497973
344,-0.00319232908077538,0.0171775110065937,-0.0264353770762682,-0.0240224599838257,-0.0321565270423889,-0.0066167232580483
345,-0.00309396511875093,0.0167610477656126,-0.026658583432436,-0.0242610331624746,-0.0294511113315821,-0.00639170780777931
346,-0.0029746952932328,0.0134044224396348,-0.0275551192462444,-0.0257167257368565,-0.0252879485487938,-0.00682171108201146
347,-0.0027646073140204,0.0104218879714608,-0.0276397746056318,-0.0274217315018177,-0.0239507351070642,-0.00612976774573326
348,-0.00213513756170869,0.0101172318682075,-0.0242892932146788,-0.0262354891747236,-0.0233738329261541,-0.00169739604461938
349,-0.000963506870903075,0.0106134740635753,-0.0176972635090351,-0.0212571769952774,-0.0195019841194153,0.00357911665923893
350,-0.000976122275460511,0.0111041394993663,-0.011306126601994,-0.0136015266180038,-0.0164880342781544,0.00553502328693867
351,-0.0042067551985383,0.0139827420935035,-0.00930175557732582,-0.00585726788267493,-0.0215969644486904,0.00509349349886179
352,-0.00949124526232481,0.0182984694838524,-0.0146443815901876,-0.00343755329959095,-0.0336636528372765,0.00322718871757388
353,-0.0137342559173703,0.0215664058923721,-0.0262661576271057,-0.00934361573308706,-0.0462153218686581,-0.000677958189044148
354,-0.0159488543868065,0.0230401996523142,-0.039618942886591,-0.0209113489836454,-0.0557412430644035,-0.00615842267870903
355,-0.0168956127017736,0.0224062781780958,-0.0505050830543041,-0.0330922901630402,-0.0618412382900715,-0.0111620109528303
356,-0.016171183437109,0.0199848711490631,-0.0567721128463745,-0.0423274002969265,-0.0637146532535553,-0.0143902320414782
357,-0.0126954773440957,0.0170136988162994,-0.0591761283576488,-0.0483076274394989,-0.0609717778861523,-0.0170449875295162
358,-0.00668372726067901,0.0147310914471745,-0.0604558698832989,-0.0524492673575878,-0.0562358312308788,-0.0210129227489233
359,-0.000426190672442317,0.0127041358500719,-0.0624751336872578,-0.0569610297679901,-0.0541290119290352,-0.0276902187615633
360,0.0030624377541244,0.0104639157652855,-0.0660920590162277,-0.0640370100736618,-0.0587666369974613,-0.0356483720242977
361,0.00287956441752613,0.0094262883067131,-0.0713327452540398,-0.0722718685865402,-0.0706194862723351,-0.0394893735647202
362,0.00164589041378349,0.0106561984866858,-0.0765040814876556,-0.0775778740644455,-0.0842375531792641,-0.0359892994165421
363,0.00235152849927545,0.0131440637633204,-0.0808306783437729,-0.0798796191811562,-0.093815803527832,-0.029275119304657
364,0.00379778491333127,0.0146315777674317,-0.0852342993021011,-0.0839095488190651,-0.0980977341532707,-0.0263192299753428
365,0.00339436321519315,0.0138038070872426,-0.0901195481419563,-0.0929863527417183,-0.0982667654752731,-0.0305398553609848
366,0.00143798079807311,0.0124840931966901,-0.0964213311672211,-0.106253519654274,-0.0987894460558891,-0.0404019057750702
367,-0.000914715579710901,0.0135935060679913,-0.104644909501076,-0.11992097645998,-0.105396769940853,-0.0505178719758987
368,-0.00338446884416044,0.01684695109725,-0.111959800124168,-0.129175066947937,-0.117742300033569,-0.0560375601053238
369,-0.00571266375482082,0.0195120368152857,-0.114912316203117,-0.131374835968018,-0.129276946187019,-0.0569912269711494
370,-0.00724695716053247,0.0203860141336918,-0.113130688667297,-0.128191828727722,-0.133934482932091,-0.0567480027675629
371,-0.00715179415419698,0.0221738070249558,-0.108797289431095,-0.123304069042206,-0.13151615858078,-0.0571743212640285
372,-0.00519264582544565,0.0270768292248249,-0.105229832231998,-0.120068065822124,-0.126011565327644,-0.0589900985360146
373,-0.00209128949791193,0.0320009365677834,-0.104778811335564,-0.120773658156395,-0.121391318738461,-0.0632564723491669
374,0.00110445520840585,0.0349215529859066,-0.107266910374165,-0.124997302889824,-0.121012710034847,-0.0677127912640572
375,0.00365580897778273,0.03615353256464,-0.111541055142879,-0.130820274353027,-0.12513279914856,-0.069167360663414
376,0.00551682244986296,0.0344001054763794,-0.115579381585121,-0.134781554341316,-0.128333315253258,-0.0671121180057526
377,0.0066521386615932,0.0300729498267174,-0.118131622672081,-0.133688032627106,-0.125972211360931,-0.0633169934153557
378,0.00575935421511531,0.0254216380417347,-0.121307298541069,-0.12990739941597,-0.12189070135355,-0.0617312006652355
379,0.00264925160445273,0.0223114751279354,-0.125656872987747,-0.128662124276161,-0.121222913265228,-0.0649274215102196
380,-0.000767412770073861,0.0209863148629665,-0.129224196076393,-0.131553664803505,-0.123641669750214,-0.0714040100574493
381,-0.00321737257763743,0.0196669455617666,-0.130793228745461,-0.134742483496666,-0.126889199018478,-0.0767105594277382
382,-0.00403805077075958,0.0164932794868946,-0.129228234291077,-0.135108381509781,-0.127863481640816,-0.0779849290847778
383,-0.00284292339347303,0.0114818988367915,-0.124840036034584,-0.135670021176338,-0.124883033335209,-0.0767618492245674
384,0.000390432745916769,0.00786745361983776,-0.11981526017189,-0.139665976166725,-0.120540849864483,-0.0739119723439217
385,0.00449996953830123,0.00843712966889143,-0.116317838430405,-0.145855918526649,-0.119243942201138,-0.0679821074008942
386,0.00652505923062563,0.0110859740525484,-0.115164861083031,-0.151428386569023,-0.122732654213905,-0.0597465932369232
387,0.0055131558328867,0.0135896690189838,-0.11564315110445,-0.153716087341309,-0.129109114408493,-0.0510579496622086
388,0.00319988070987165,0.0162870865315199,-0.116349004209042,-0.151030793786049,-0.13483327627182,-0.0433161519467831
389,0.000715742295142263,0.0185305681079626,-0.116338491439819,-0.143976166844368,-0.137302786111832,-0.0379142686724663
390,-0.000617678218986839,0.0193354245275259,-0.115717902779579,-0.135013177990913,-0.135037109255791,-0.0349060632288456
391,0.000369192654034123,0.0183241702616215,-0.115348845720291,-0.127372592687607,-0.126907020807266,-0.0344656631350517
392,0.00260135624557734,0.0169021431356668,-0.115139126777649,-0.122402191162109,-0.114285580813885,-0.0370879545807838
393,0.00431024376302958,0.0178529415279627,-0.112595647573471,-0.117598474025726,-0.100792653858662,-0.0411548502743244
394,0.00487625505775213,0.0193535648286343,-0.106655165553093,-0.11155366897583,-0.0891875103116035,-0.0452585183084011
395,0.00442369934171438,0.0165545158088207,-0.100973464548588,-0.107305698096752,-0.081598237156868,-0.0508038401603699
396,0.00345820165239275,0.00965859927237034,-0.0985110774636269,-0.106201522052288,-0.0780145302414894,-0.0584849901497364
397,0.00271455477923155,0.00274332938715816,-0.0978222042322159,-0.105501234531403,-0.0750741362571716,-0.0658400058746338
398,0.00268362159840763,-0.000770795217249542,-0.0964292585849762,-0.101600252091885,-0.0725159347057343,-0.0687809959053993
399,0.00371319171972573,-0.000352616887539625,-0.0925719887018204,-0.0938843861222267,-0.0721314623951912,-0.0665458813309669
400,0.00581506127491593,0.00156393961515278,-0.0853938236832619,-0.0864147916436195,-0.0707490295171738,-0.0621705204248428
401,0.00774199841544032,0.00419183680787683,-0.0765228271484375,-0.0820652917027473,-0.0660607442259789,-0.0555512681603432
402,0.00737896747887135,0.0079425647854805,-0.0689967274665833,-0.0806477591395378,-0.0622729137539864,-0.0450790785253048
403,0.00480044074356556,0.0117123993113637,-0.0633167028427124,-0.0816821828484535,-0.0621706359088421,-0.0325403027236462
404,0.00290856789797544,0.0155466347932816,-0.0585236549377441,-0.0831957533955574,-0.063122920691967,-0.0206795353442431
405,0.00357970339246094,0.0203537419438362,-0.0550441518425941,-0.0818023756146431,-0.0612428560853004,-0.0106302183121443
406,0.00570479035377502,0.0238148681819439,-0.0535122863948345,-0.0753830149769783,-0.0543692260980606,-0.00270977872423828
407,0.00768698984757066,0.0240912437438965,-0.0535970963537693,-0.0644862800836563,-0.0444144047796726,0.00230288901366293
408,0.00872455723583698,0.0231843404471874,-0.0547062084078789,-0.0529610700905323,-0.0365573167800903,0.00332398735918105
409,0.00817642826586962,0.021022068336606,-0.0562991723418236,-0.0457785986363888,-0.0338622108101845,0.000808826414868236
410,0.00642349664121866,0.0165099781006575,-0.0576464906334877,-0.0443191006779671,-0.0339758284389973,-0.00204231822863221
411,0.00521537661552429,0.0118682868778706,-0.0577120333909988,-0.0459048859775066,-0.0323542803525925,-0.00195154000539333
412,0.00542211392894387,0.00848602876067162,-0.0559975653886795,-0.0478267259895802,-0.0269900299608707,0.000221591064473614
413,0.00577065674588084,0.00509814498946071,-0.0533144846558571,-0.0487547442317009,-0.019890109077096,0.000862885324750096
414,0.00606019981205463,0.00172847788780928,-0.0488335490226746,-0.0464723594486713,-0.0125946290791035,-0.000202148599782959
415,0.00711933197453618,-0.000588732829783112,-0.0411191806197166,-0.0400593057274818,-0.00510521046817303,-0.00114066957030445
416,0.00804068427532911,-0.00199581030756235,-0.0322144962847233,-0.0320863090455532,0.000396529241697863,-0.00268005952239037
417,0.00693387957289815,-0.00309251504950225,-0.0252987369894981,-0.0254283081740141,0.00152773037552834,-0.00607615523040295
418,0.00412536552175879,-0.00380850466899574,-0.020540988072753,-0.0206007566303015,0.000495174201205373,-0.00989543832838535
419,0.00266315741464496,-0.00382985174655914,-0.0174671690911055,-0.0172469224780798,0.00195320206694305,-0.011791835539043
420,0.00317718437872827,-0.00338616291992366,-0.0175331197679043,-0.0160266514867544,0.0058890487998724,-0.0117931719869375
421,0.00417600246146321,-0.00223830179311335,-0.0194907188415527,-0.0174051616340876,0.0112365670502186,-0.0100963190197945
422,0.00586522091180086,-0.000240293782553636,-0.0196329187601805,-0.0204033870249987,0.0196394417434931,-0.00514555722475052
423,0.00770559394732118,0.00232656602747738,-0.0178664941340685,-0.022113960236311,0.0284694507718086,0.00431279931217432
424,0.00725059118121862,0.0046306005679071,-0.0180830806493759,-0.0218137558549643,0.0318446718156338,0.0154177062213421
425,0.00405663484707475,0.005299829877913,-0.0217475742101669,-0.0220236629247665,0.0292570888996124,0.0223406329751015
426,-9.42517508519813E-05,0.00440438184887171,-0.0256781335920095,-0.022676594555378,0.0247167944908142,0.0227280594408512
427,-0.00314398785121739,0.00329431006684899,-0.0267336182296276,-0.0215370245277882,0.0231834650039673,0.0178429316729307
428,-0.00324197812005877,0.00452261418104172,-0.0237372275441885,-0.0175146963447332,0.0274384971708059,0.0109385969117284
429,-0.00064537359867245,0.00936302449554205,-0.0172916520386934,-0.0106957545503974,0.0342717915773392,0.00718453107401729
430,0.00260465731844306,0.0149135095998645,-0.00978886056691408,-0.00212922273203731,0.0373845621943474,0.0105663882568479
431,0.0057456805370748,0.0177047476172447,-0.00366857554763556,0.00553192803636193,0.0345762595534325,0.0196902304887772
432,0.00842521619051695,0.0166617445647717,0.00046244464465417,0.0100143812596798,0.0294160488992929,0.0291077811270952
433,0.00861838366836309,0.012020462192595,0.0028844503685832,0.0112411910668015,0.025339825078845,0.0343322046101093
434,0.00594641268253326,0.00515263993293047,0.00381734571419656,0.010356429964304,0.0232282653450966,0.0338280722498894
435,0.00320366653613746,-0.00141185021493584,0.00421948544681072,0.00960502587258816,0.0240005031228065,0.0293419938534498
436,0.00293907895684242,-0.00592081062495708,0.00560077652335167,0.0108080059289932,0.0293767433613539,0.0236880891025066
437,0.00408510537818074,-0.00796401873230934,0.00822615530341864,0.0138187250122428,0.0377989076077938,0.0185601320117712
438,0.00381543464027345,-0.00800155755132437,0.010815872810781,0.0177950896322727,0.0448302626609802,0.0149034559726715
439,0.00252846698276699,-0.0074569433927536,0.0127961402758956,0.0217522997409105,0.0494727492332459,0.0130590768530965
440,0.002561867935583,-0.00688236299902201,0.0149802751839161,0.02539355866611,0.0533101037144661,0.0124117117375135
441,0.00424643512815237,-0.00361904106102884,0.017560763284564,0.030082244426012,0.0560782440006733,0.0119685502722859
442,0.00583835132420063,0.00468136789277196,0.0191769599914551,0.0352687872946262,0.0556376501917839,0.0117429811507463
443,0.00524483527988195,0.0141308400779963,0.0188028439879417,0.0383002460002899,0.0501679927110672,0.0136670311912894
444,0.00222209235653281,0.0181433670222759,0.0165123995393515,0.0381297133862972,0.0406945906579494,0.0190635211765766
445,-0.000954045855905861,0.0155459055677056,0.0133425379171968,0.0354022160172462,0.031574796885252,0.0266248304396868
446,-0.0023691828828305,0.00906889047473669,0.010703282430768,0.0309577044099569,0.0275241862982512,0.0332546606659889
447,-0.00173349643591791,0.00107217440381646,0.00949903205037117,0.0253621600568295,0.0301981195807457,0.0350303761661053
448,0.0008638248546049,-0.00575942732393742,0.011469797231257,0.0209075976163149,0.0374495089054108,0.0309832207858562
449,0.00419024890288711,-0.00895854737609625,0.0168504733592272,0.0205015055835247,0.043929748237133,0.0246983710676432
450,0.00624012900516391,-0.0078686373308301,0.0214702598750591,0.0236298441886902,0.0450482778251171,0.020477507263422
451,0.00683600315824151,-0.00340060354210436,0.0215093716979027,0.0274844504892826,0.041586235165596,0.0203904882073402
452,0.00734477816149592,0.00171450560446829,0.0178709700703621,0.0300805550068617,0.0379983559250832,0.0226989183574915
453,0.00787170883268118,0.00376544566825032,0.0130214942619205,0.030865864828229,0.0381230041384697,0.0235223397612572
454,0.00728049967437983,0.0022731781937182,0.00911819655448198,0.0309145636856556,0.0419919304549694,0.02198719792068
455,0.0058798179961741,-0.000162203868967481,0.00896153505891562,0.031602256000042,0.0468376092612743,0.019817927852273
456,0.00490522896870971,-0.00176083063706756,0.0126922447234392,0.0325998552143574,0.0499666295945644,0.0181612074375153
457,0.00371352001093328,-0.00186995300464332,0.0171705819666386,0.0329225212335587,0.049611184746027,0.0175521001219749
458,0.00100215338170528,-0.00173488561995327,0.0199385304003954,0.0321385003626347,0.0462106317281723,0.0176528990268707
459,-0.00168482621666044,-0.00359862321056426,0.0209974199533463,0.0309011954814196,0.0434643514454365,0.0168254394084215
460,-0.00152843550313264,-0.00647666305303574,0.0214875936508179,0.0312175843864679,0.0445742011070251,0.0139727126806974
461,0.00139177299570292,-0.00796905625611544,0.0226326063275337,0.0342286080121994,0.0484929904341698,0.00994422100484371
462,0.00465175230056047,-0.00927357655018568,0.024551372975111,0.0382191650569439,0.051903709769249,0.00394077226519585
463,0.00610933639109135,-0.013099224306643,0.0260303281247616,0.0406597927212715,0.0508873425424099,-0.00497431540861726
464,0.0057046334259212,-0.0177621394395828,0.0274460390210152,0.0414353013038635,0.0440076999366283,-0.0119959618896246
465,0.00509956246241927,-0.0191991962492466,0.0295632723718882,0.0420873016119003,0.0359265878796577,-0.0115487510338426
466,0.00443227123469114,-0.0170748326927423,0.0320439152419567,0.0435110963881016,0.0316059403121471,-0.00388874625787139
467,0.0025095958262682,-0.014123460277915,0.0352018773555756,0.0450720600783825,0.0299501530826092,0.00650584185495973
468,-8.15191669971682E-05,-0.0123769212514162,0.0383673757314682,0.0451295524835587,0.0281018707901239,0.0148554528132081
469,-0.0017066088039428,-0.0123194232583046,0.0392677821218967,0.0426690094172955,0.0266343466937542,0.0182161051779985
470,-0.00205723731778562,-0.0126808295026422,0.0371133685112,0.0385828167200089,0.0276671350002289,0.0168037116527557
471,-0.00183067913167179,-0.0115658976137638,0.0339184105396271,0.0354083962738514,0.0317438021302223,0.0138260005041957
472,-0.00190477399155498,-0.0102074118331075,0.0308280158787966,0.0337620079517365,0.0369074493646622,0.0110267624258995
473,-0.00214054482057691,-0.0102998483926058,0.0269656162708998,0.0326022244989872,0.0414571948349476,0.00793553981930017
474,-0.00164800183847547,-0.00947423931211233,0.022800650447607,0.0332823991775513,0.0456306263804436,0.00627656001597643
475,-0.000681137084029615,-0.00599014619365335,0.0196818020194769,0.0367492586374283,0.0486701615154743,0.00727493641898036
476,0.00091129686916247,-0.0026096876244992,0.0190515629947186,0.0407578684389591,0.0512344725430012,0.0091875372454524
477,0.00324185634963214,-0.00116825895383954,0.0218731984496117,0.044621367007494,0.0544993989169598,0.0131808137521148
478,0.00485976226627827,9.48563028941862E-05,0.0262034386396408,0.0481022447347641,0.0556365363299847,0.0198815930634737
479,0.00501751527190208,0.000251874182140455,0.0287915617227554,0.0473249144852161,0.0519683100283146,0.0230679623782635
480,0.00410945015028119,-0.00337580731138587,0.0287581905722618,0.0417317263782024,0.0438511222600937,0.0188818145543337
481,0.00285794259980321,-0.00826586037874222,0.0276156943291426,0.0353765301406384,0.0344776324927807,0.0108874654397368
482,0.00119151605758816,-0.00924789160490036,0.0270763598382473,0.0308185964822769,0.0269107799977064,0.00375001202337444
483,-0.00183411978650838,-0.00642005214467645,0.0273212995380163,0.0282750520855188,0.0208563767373562,-0.00104994582943618
484,-0.00513296062126756,-0.00541812181472778,0.0272291675209999,0.0264309421181679,0.0168101340532303,-0.00447183707728982
485,-0.00679683359339833,-0.00804167985916138,0.0261546056717634,0.025714036077261,0.0151710230857134,-0.0060854060575366
486,-0.00669382000342011,-0.0103892171755433,0.0246355105191469,0.0277139265090227,0.0141079435124993,-0.00666624680161476
487,-0.00407187826931477,-0.010162740945816,0.0239017307758331,0.0304602328687906,0.0163331981748343,-0.00989182107150555
488,0.00170603999868035,-0.00882765557616949,0.0247322227805853,0.0316202752292156,0.0259937681257725,-0.0148005364462733
489,0.00732735777273774,-0.00849329773336649,0.0260481089353561,0.0323680229485035,0.0389036945998669,-0.0156972650438547
490,0.00925696641206741,-0.00821120664477348,0.0263138264417648,0.034541841596365,0.0478316694498062,-0.00962059386074543
491,0.00897587276995182,-0.00664619775488973,0.0265846382826567,0.0376479662954807,0.0518251173198223,0.000385354447644204
492,0.00947242416441441,-0.00605762051418424,0.028507811948657,0.0394471064209938,0.053489413112402,0.00803405418992043
493,0.0118225514888763,-0.00716769136488438,0.0314286425709724,0.0399418473243713,0.055251769721508,0.0109582170844078
494,0.0159046500921249,-0.00661944132298231,0.0341860540211201,0.0414991602301598,0.0591110289096832,0.0113135939463973
495,0.0195085667073727,-0.00350562925450504,0.0364374630153179,0.0445462130010128,0.0632396638393402,0.00955711863934994
496,0.0199530720710754,-0.00141875469125807,0.0375887155532837,0.0468085929751396,0.0639161318540573,0.00399586791172624
497,0.0175007060170174,-0.00314104836434126,0.0370558723807335,0.0460901260375977,0.0621179305016994,-0.00466552283614874
498,0.0147145111113787,-0.00660617277026176,0.0365198403596878,0.0443683192133904,0.0617213062942028,-0.0108477491885424
499,0.0136428084224463,-0.00780126312747598,0.0387599170207977,0.0464613884687424,0.0641890242695808,-0.00886121951043606
500,0.0142257995903492,-0.00680573657155037,0.0446348339319229,0.0532848201692104,0.06821259111166,-0.000513623759616166
501,0.0143119413405657,-0.00608968827873468,0.0521599352359772,0.061023261398077,0.070062167942524,0.00901452358812094
502,0.0113797765225172,-0.00607243832200766,0.0560965947806835,0.0646383687853813,0.0648680627346039,0.0174044817686081
503,0.00674168253317475,-0.00540494499728084,0.0529529228806496,0.0614861287176609,0.0530301444232464,0.0227490272372961
504,0.00489001022651792,-0.00264789490029216,0.0455890148878098,0.0534481294453144,0.0414599999785423,0.0232352018356323
505,0.00605070730671287,0.00164936657529324,0.0379637368023396,0.0443803705275059,0.0326304771006107,0.0192742887884378
506,0.00595671171322465,0.00516585633158684,0.0307711772620678,0.0369088239967823,0.0224707089364529,0.0137280002236366
507,0.0033023408614099,0.00697206892073154,0.0243263058364391,0.0320835448801517,0.0118771977722645,0.011136663146317
508,0.000689694366883487,0.00780620658770204,0.0203432179987431,0.0300595592707396,0.0067743337713182,0.0136652300134301
509,-0.000600298342760652,0.00763366231694818,0.0193077232688665,0.0294187292456627,0.00879042688757181,0.0177665129303932
510,-0.00132031191606075,0.0070523452013731,0.0198571681976318,0.0284650772809982,0.0136404205113649,0.0212214514613152
511,-0.00185477989725769,0.00798386335372925,0.0207245983183384,0.0274459719657898,0.0162339322268963,0.0276268906891346
512,-0.00280290935188532,0.0121421767398715,0.0212244428694248,0.0270826406776905,0.0148402517661452,0.0392431803047657
513,-0.00538039673119783,0.0182437151670456,0.0205298140645027,0.0262213330715895,0.00978392083197832,0.0514255575835705
514,-0.0098658250644803,0.0219057723879814,0.0176406390964985,0.0227186791598797,0.00111597590148449,0.0570924505591393
515,-0.0152248740196228,0.0214927010238171,0.0125180715695024,0.0157421994954348,-0.0102982595562935,0.0548466816544533
516,-0.0190842766314745,0.0191016644239426,0.0067649488337338,0.00682414881885052,-0.0203086249530315,0.0494714081287384
517,-0.018733924254775,0.0181819815188646,0.004065265879035,-0.00079784047557041,-0.0228587742894888,0.0458747819066048
518,-0.0144038507714868,0.0210086330771446,0.00805659219622612,-0.00458047213032842,-0.0178970936685801,0.0455709211528301
519,-0.00989752355962992,0.026570413261652,0.0168191567063332,-0.00474259024485946,-0.013523044064641,0.0486688129603863
520,-0.00823257490992546,0.0324717946350574,0.0235911216586828,-0.00393445463851094,-0.0147240133956075,0.0553624257445335
521,-0.00855381693691015,0.036696333438158,0.0255800783634186,-0.00329512497410178,-0.016514228656888,0.0650054961442947
522,-0.00905332900583744,0.0377841144800186,0.0263772215694189,-0.00152207678183913,-0.0135813830420375,0.0749723538756371
523,-0.00940835196524858,0.0360272005200386,0.0282741524279118,0.000905915047042072,-0.00887639913707972,0.0817623138427734
524,-0.00961996521800756,0.0336127690970898,0.0281943492591381,0.0020110544282943,-0.00819511152803898,0.0848136693239212
525,-0.00944641698151827,0.0323564112186432,0.0232327990233898,0.00176310772076249,-0.0117340981960297,0.0870955809950829
526,-0.00892399530857801,0.0317776873707771,0.0155169507488608,0.00130731391254812,-0.0148335359990597,0.0900587290525436
527,-0.00755709176883101,0.0315155796706676,0.0103833107277751,0.0016726414905861,-0.0134965954348445,0.0924953892827034
528,-0.00522315688431263,0.0326953493058681,0.0105640599504113,0.00319368811324239,-0.008077641017735,0.0941461101174355
529,-0.00338475313037634,0.0344808176159859,0.013740960508585,0.00430632662028074,-0.00316992239095271,0.0953532010316849
530,-0.00276813982054591,0.0344893001019955,0.0176143571734428,0.00363350543193519,-0.0015381999546662,0.0958027690649033
531,-0.00360974366776645,0.0322886928915977,0.0214092992246151,0.00200394098646939,-0.00359460269100964,0.0955028012394905
532,-0.00530909514054656,0.0297075361013412,0.0237963236868382,7.78104731580243E-05,-0.00887686293572187,0.0946198254823685
533,-0.00613540457561612,0.0282397512346506,0.0240887757390738,-0.00266841216944158,-0.0140196280553937,0.0930941626429558
534,-0.00603811955079436,0.0275034829974175,0.0226867310702801,-0.00648086285218596,-0.0165539085865021,0.0909776166081429
535,-0.00534786563366652,0.0263947825878859,0.0216975230723619,-0.0108606861904264,-0.0153319016098976,0.0889127403497696
536,-0.00446362234652042,0.0247849095612764,0.0234285593032837,-0.0144164524972439,-0.0107654575258493,0.088554784655571
537,-0.00457814009860158,0.0238789953291416,0.0267724525183439,-0.0158931259065866,-0.0064740851521492,0.090883657336235
538,-0.00579332048073411,0.0245725940912962,0.0284657571464777,-0.0154878636822104,-0.00493084965273738,0.0952005460858345
539,-0.00794935692101717,0.0265353862196207,0.0267455540597439,-0.0144135011360049,-0.00673434603959322,0.100562177598476
540,-0.0101426495239139,0.0296185910701752,0.0234737265855074,-0.0141211291775107,-0.00950183439999819,0.105425000190735
541,-0.0106781199574471,0.0338785871863365,0.0216166339814663,-0.0148820830509067,-0.0103033855557442,0.106603093445301
542,-0.00959052238613367,0.0373331643640995,0.021499814465642,-0.0160106644034386,-0.0102100651711226,0.101712383329868
543,-0.00821762904524803,0.0372308194637299,0.0218749083578587,-0.0178335346281528,-0.0105281081050634,0.0931919813156128
544,-0.00761338882148266,0.0329288206994534,0.0220236014574766,-0.0206436365842819,-0.0110620930790901,0.0858552381396294
545,-0.00794627983123064,0.0259332004934549,0.0218594763427973,-0.0231988094747067,-0.0115008410066366,0.0807840898633003
546,-0.0088998069986701,0.0191928949207067,0.0212958566844463,-0.0232186540961266,-0.0115692215040326,0.0766405984759331
547,-0.00870696641504765,0.0163962543010712,0.0212204083800316,-0.0201527997851372,-0.00888723134994507,0.0732141435146332
548,-0.00636063469573855,0.0191169697791338,0.0231041628867388,-0.0163851957768202,-0.00179408420808613,0.0718589201569557
549,-0.00485401228070259,0.0232759583741426,0.0260808151215315,-0.0145148644223809,0.00526435021311045,0.073241300880909
550,-0.00583576643839478,0.0239682141691446,0.0279057323932648,-0.0153288375586271,0.00823989510536194,0.0748055428266525
551,-0.00644379248842597,0.0213017016649246,0.0280296467244625,-0.0179796423763037,0.0106168920174241,0.073702946305275
552,-0.00500933965668082,0.0185499340295792,0.0271516796201468,-0.0208399631083012,0.0159803591668606,0.0709057748317719
553,-0.00311945518478751,0.0185547601431608,0.0263794250786304,-0.0210340097546577,0.0218109730631113,0.0688970163464546
554,-0.00174261617939919,0.0202083792537451,0.0272951647639275,-0.0170698538422585,0.0251288469880819,0.0669566988945007
555,-0.00108446169178933,0.0202596262097359,0.0307886004447937,-0.0121587086468935,0.0251216050237417,0.0638187602162361
556,-0.00167628959752619,0.018216323107481,0.0357555113732815,-0.0102991303429008,0.0233877841383219,0.0618394538760185
557,-0.00220053526572883,0.0160437896847725,0.0385324768722057,-0.0128854727372527,0.0236098431050777,0.063191369175911
558,-0.000674238952342421,0.01569814234972,0.036484032869339,-0.0185979064553976,0.0267746988683939,0.0664066523313522
559,0.0025048905517906,0.0165764465928078,0.031194269657135,-0.0235208347439766,0.0309648476541042,0.067943349480629
560,0.00595655897632241,0.0158396419137716,0.0252228621393442,-0.0241524409502745,0.0350400246679783,0.063740536570549
561,0.009173265658319,0.013104148209095,0.0203781668096781,-0.0198200959712267,0.0393351092934608,0.0529677197337151
562,0.0118443472310901,0.0100360540673137,0.0178632102906704,-0.0126113900914788,0.042739275842905,0.039139486849308
563,0.0135473981499672,0.00689632119610906,0.0182118881493807,-0.0051863775588572,0.0434527583420277,0.0265278425067663
564,0.0137354172766209,0.00437495065853,0.0215447340160608,0.00160487182438374,0.0412856340408325,0.020190391689539
565,0.0122547689825296,0.00428793299943209,0.0262263976037502,0.00753493700176477,0.0357411243021488,0.0231103915721178
566,0.00967387948185205,0.00656384648755193,0.029634291306138,0.0110505586490035,0.026975167915225,0.0317036248743534
567,0.00592292286455631,0.00854465737938881,0.0307768452912569,0.0111218262463808,0.0176796540617943,0.0394868329167366
568,0.00194188684690744,0.00784125085920095,0.0309896823018789,0.00905415043234825,0.0120286028832197,0.0427710860967636
569,-0.000582776847295463,0.00446902867406607,0.031152006238699,0.00539793306961656,0.0117190815508366,0.0419454388320446
570,-0.00187191949225962,0.000799552071839571,0.0303397532552481,0.000102369587693829,0.0140336202457547,0.0400159098207951
571,-0.00245258794166148,-0.000223368828301318,0.027745608240366,-0.0046508451923728,0.015881385654211,0.0398616008460522
572,-0.00197136146016419,0.00160190754104406,0.0238219015300274,-0.00677784159779549,0.0168974883854389,0.0415175184607506
573,0.000558887142688036,0.00385110476054251,0.0211314409971237,-0.00609705084934831,0.019196767359972,0.0421316921710968
574,0.0045761214569211,0.00406344700604677,0.0219509210437536,-0.00365112395957112,0.0234337914735079,0.0390346720814705
575,0.00725538050755858,0.00156548863742501,0.0239471923559904,-0.00102166552096605,0.0267075430601835,0.0333654806017876
576,0.00833757687360048,-0.0019941977225244,0.0238226372748613,0.00160079181659967,0.0288347955793142,0.029320951551199
577,0.0108306845650077,-0.00317743746563792,0.0241431463509798,0.00574752036482096,0.0335041172802448,0.0301964525133371
578,0.0152221554890275,0.000371051457477733,0.027980487793684,0.0111583191901445,0.0397504717111588,0.0354452766478062
579,0.0179035067558289,0.00667657935991883,0.031819324940443,0.0155569892376661,0.0419493243098259,0.040467943996191
580,0.0162792634218931,0.0146580478176475,0.0317038744688034,0.0189345013350248,0.0379425436258316,0.041070494800806
581,0.0115766869857907,0.0254064090549946,0.0288335010409355,0.0234894622117281,0.0299526583403349,0.0373757518827915
582,0.00651494972407818,0.0340981408953667,0.0262679141014814,0.0291501879692078,0.0224911794066429,0.0314118713140488
583,0.00300783012062311,0.0338920764625072,0.0250306371599436,0.0327544957399368,0.019717974588275,0.0248225871473551
584,0.00128330534789711,0.025609577074647,0.0247937627136707,0.0322579890489578,0.0206172224134207,0.0201527141034603
585,-9.33216942939907E-05,0.0155801363289356,0.0264085289090872,0.029969384893775,0.0203194469213486,0.0202667228877544
586,-0.00260347640141845,0.00881190877407789,0.03093121945858,0.0300518330186605,0.0155172357335687,0.0255291815847158
587,-0.00492845382541418,0.00653960928320885,0.0369610600173473,0.0333600379526615,0.00846269633620977,0.0326812379062176
588,-0.00432370789349079,0.00646583875641227,0.041506040841341,0.0365791916847229,0.00523329805582762,0.0360937789082527
589,-0.000742329459171742,0.00554509554058313,0.0430462174117565,0.0361906290054321,0.00950206816196442,0.0327077619731426
590,0.00414928374812007,0.0030288037378341,0.0415137857198715,0.0312447939068079,0.0207184758037329,0.0253630392253399
591,0.00894352793693542,-0.000358870514901355,0.0376387499272823,0.0232062209397554,0.0344667360186577,0.0183038376271725
592,0.0116808982565999,-0.00297917798161507,0.0338389165699482,0.0172834247350693,0.0447051338851452,0.0137811731547117
593,0.0108608473092318,-0.00347388931550086,0.0325368195772171,0.0187356006354094,0.0493742525577545,0.0116758458316326
594,0.00690875435248017,-0.00281135272234678,0.0331292524933815,0.0251677632331848,0.0497393868863583,0.00987316481769085
595,0.00213690265081823,-0.00182888214476407,0.0331524237990379,0.0300097055733204,0.047043651342392,0.00876243226230145
596,-0.00112689088564366,0.000711793021764606,0.0313216261565685,0.0305337067693472,0.0414013564586639,0.0118695255368948
597,-0.00290858722291887,0.00508689461275935,0.0280749648809433,0.0282539557665586,0.0328540951013565,0.0188703387975693
598,-0.00429191580042243,0.00858343113213778,0.0246657487004995,0.0253471620380878,0.0252363365143538,0.0238510426133871
599,-0.00573188997805119,0.00878926087170839,0.021985212340951,0.0232004839926958,0.0226210933178663,0.0230782274156809
600,-0.00716604059562087,0.00719641381874681,0.0202521272003651,0.0232477001845837,0.0232271626591682,0.018930085003376
601,-0.00861806701868773,0.00677188253030181,0.0192480161786079,0.0249115787446499,0.0234266482293606,0.0142912156879902
602,-0.00986749120056629,0.0082320598885417,0.0194094907492399,0.0259340852499008,0.0230743661522865,0.00991630926728249
603,-0.00974273029714823,0.010178797878325,0.0214411988854408,0.0263653863221407,0.0229476075619459,0.00686178775504231
604,-0.00760816363617778,0.0114951506257057,0.0244325045496225,0.0265506785362959,0.022723201662302,0.00547660049051046
605,-0.00479893991723657,0.0119853485375643,0.0267461687326431,0.0251550618559122,0.021370705217123,0.00501116737723351
606,-0.00316723668947816,0.0113258957862854,0.0272180549800396,0.0214128457009792,0.0173233952373266,0.00437072617933154
607,-0.00246739713475108,0.00934094376862049,0.0254808478057384,0.0166968051344156,0.0114812534302473,0.0021591039840132
608,-0.00102043186780065,0.00567023968324065,0.02217329852283,0.013711029663682,0.00790857244282961,-0.00162747001741081
609,0.00115099328104407,0.000197711167857051,0.0181214064359665,0.0131354806944728,0.00877091567963362,-0.00599839771166444
610,0.0024526184424758,-0.00559231406077743,0.0141159417107701,0.0133633110672235,0.011440908536315,-0.0103677790611982
611,0.00269908225163817,-0.00866287294775248,0.0108471158891916,0.0130333285778761,0.0136560797691345,-0.0143190985545516
612,0.00173602264840156,-0.00834249332547188,0.00813158042728901,0.0118792029097676,0.0147161148488522,-0.0172796752303839
613,-0.00209198892116547,-0.00808235350996256,0.005796920042485,0.0103489449247718,0.0122055169194937,-0.0183557495474815
614,-0.00747855845838785,-0.0102359876036644,0.00496728345751762,0.00858275126665831,0.00751022947952151,-0.018667321652174
615,-0.0109303342178464,-0.0141592808067799,0.0056050019338727,0.00627699960023165,0.0048040859401226,-0.0215291511267424
616,-0.0108346547931433,-0.0179000254720449,0.00575500726699829,0.00331386993639171,0.00474214693531394,-0.0275438968092203
617,-0.0082999849691987,-0.0195020120590925,0.00422353949397802,0.000265298323938623,0.00603207433596253,-0.0330186560750008
618,-0.00572469271719456,-0.0193041078746319,0.00220087287016213,-0.0014905733987689,0.00890013109892607,-0.0345800518989563
619,-0.00422959122806787,-0.0196260903030634,0.00195775181055069,-0.00166375236585736,0.0140688708052039,-0.0331507436931133
620,-0.00451004412025213,-0.0213653463870287,0.00298139965161681,-0.00162688305135816,0.0173853132873774,-0.0315828062593937
621,-0.00545884529128671,-0.0234252922236919,0.00398146966472268,-0.00167074147611856,0.0161963831633329,-0.031617496162653
622,-0.00442110281437635,-0.0239918623119593,0.00579867605119944,-0.000881314394064248,0.0139138586819172,-0.0325143113732338
623,-0.00150837050750852,-0.0211121160537004,0.00802338868379593,3.6128556530457E-05,0.0131807858124375,-0.0311306808143854
624,0.000957686803303659,-0.0146113997325301,0.00879793614149094,1.74843225977384E-05,0.014788530766964,-0.0250697955489159
625,0.0019308018963784,-0.00701348809525371,0.00793222803622484,-9.97827155515552E-05,0.0173866879194975,-0.0156827960163355
626,0.00224215583875775,-0.00164013134781271,0.00644352473318577,0.000815523497294635,0.0180875491350889,-0.00785332452505827
627,0.00254057021811605,-0.000490250997245312,0.00545492488890886,0.00301754102110863,0.017042763531208,-0.00557849649339914
628,0.00224027945660055,-0.00406221719458699,0.00542424991726875,0.00542336283251643,0.0159293450415134,-0.00937134027481079
629,0.00154915894381702,-0.0114458361640573,0.00533777615055442,0.00602157693356276,0.0152057278901339,-0.0177350547164679
630,0.0023190132342279,-0.0189406499266624,0.00452262489125133,0.00481153046712279,0.0156516544520855,-0.0264483857899904
631,0.00437195412814617,-0.022900240495801,0.00353794521652162,0.00404189666733146,0.0174463503062725,-0.0307098869234324
632,0.00626301625743508,-0.0238435231149197,0.00421594129875302,0.00508526060730219,0.0208932459354401,-0.030944837257266
633,0.00819750502705574,-0.0213676989078522,0.00761615810915828,0.0071798749268055,0.025430966168642,-0.030290586873889
634,0.00943742319941521,-0.0147224022075534,0.0103781605139375,0.0076029384508729,0.0269700214266777,-0.0306801982223988
635,0.00889022834599018,-0.0084928460419178,0.00927102938294411,0.00556826964020729,0.0242071412503719,-0.0320866033434868
636,0.00721541605889797,-0.0066047296859324,0.005898242816329,0.00370341329835355,0.0209380853921175,-0.032730620354414
637,0.00539826555177569,-0.00805370043963194,0.00336048076860607,0.00331771187484264,0.0195305570960045,-0.0313462391495705
638,0.00452094525098801,-0.0101949786767364,0.00309195718728006,0.00417668046429753,0.0199799295514822,-0.0272747129201889
639,0.00460343807935715,-0.0123867075890303,0.00365565647371113,0.00574101507663727,0.0217577517032623,-0.0222036857157946
640,0.0045888377353549,-0.0153063824400306,0.00319454213604331,0.00803927984088659,0.023490684106946,-0.0193065293133259
641,0.00530118588358164,-0.0186184756457806,0.00277565605938435,0.010800919495523,0.0244690421968699,-0.0204540491104126
642,0.00777010200545192,-0.0210048798471689,0.00385087286122143,0.0122236721217632,0.0246010515838861,-0.0250571686774492
643,0.0107576996088028,-0.0190497953444719,0.00607050210237503,0.0122753726318479,0.0234000366181135,-0.0282199550420046
644,0.0126132247969508,-0.0110827255994082,0.0080078886821866,0.0111948028206825,0.0210256800055504,-0.0270015969872475
645,0.0125131048262119,-0.00193696736823767,0.00814991630613804,0.00893052015453577,0.0184814129024744,-0.0251089334487915
646,0.0105453403666615,0.00177330756559968,0.00631882064044476,0.00749203795567155,0.016194187104702,-0.0266531798988581
647,0.00746809039264917,-0.00115264276973903,0.00315163866616786,0.0081040570512414,0.0139695834368467,-0.0312302839010954
648,0.00482944305986166,-0.00575560424476862,5.33474049007054E-05,0.0107672568410635,0.0131911737844348,-0.0346038490533829
649,0.00420078495517373,-0.00768914306536317,-0.000845228263642639,0.0147669957950711,0.0147262485697865,-0.0333100333809853
650,0.00473512848839164,-0.00780291063711047,0.00067137717269361,0.0177238956093788,0.0153444763273001,-0.0286918953061104
651,0.00440227566286922,-0.0088401660323143,0.00273143989033997,0.0175470765680075,0.0128266122192144,-0.0251847878098488
652,0.00299576320685446,-0.011659842915833,0.00462925434112549,0.0151647618040442,0.00966652855277061,-0.025336429476738
653,0.00192487775348127,-0.0152191612869501,0.00712819630280137,0.0135110095143318,0.00824349652975798,-0.0281619150191545
654,0.00263055344112217,-0.0179388504475355,0.00960903894156218,0.0136469416320324,0.00921487342566252,-0.0318025350570679
655,0.00434899656102061,-0.0191346369683743,0.00931004714220762,0.0137955192476511,0.0110053271055222,-0.0362407080829144
656,0.00451118964701891,-0.0195646584033966,0.00437773065641522,0.0115969348698854,0.00989634729921818,-0.0429895892739296
657,0.0025321685243398,-0.0188408959656954,-0.00227144663222134,0.00818115286529064,0.00495077716186643,-0.0498168915510178
658,0.000668640830554068,-0.0153279220685363,-0.00513538904488087,0.00721928151324391,-0.000277409213595092,-0.0509224459528923
659,0.00131337426137179,-0.0101501811295748,-0.00321319606155157,0.00874805822968483,-0.00206705718301237,-0.0454941429197788
660,0.00447027012705803,-0.00646612513810396,-0.000698192976415157,0.0100668082013726,-0.000638786819763482,-0.0389005839824677
661,0.0077663823030889,-0.00530695402994752,-0.00106477201916277,0.00968671962618828,0.00158531148917973,-0.0352633148431778
662,0.00912154745310545,-0.00508387945592403,-0.00430768355727196,0.00824231654405594,0.00355815049260855,-0.0340281128883362
663,0.00942980963736773,-0.00467013521119952,-0.00730366725474596,0.00838333368301392,0.00694406032562256,-0.0340162068605423
664,0.0109225120395422,-0.00470114732161164,-0.00598450191318989,0.0110791828483343,0.0132443113252521,-0.0369892753660679
665,0.0134326014667749,-0.00405820552259684,0.00010752932575997,0.0139778768643737,0.0193448178470135,-0.0434424132108688
666,0.0147413443773985,-0.000348999863490462,0.00663189170882106,0.0154067343100905,0.0200131833553314,-0.0480335801839828
667,0.0136815449222922,0.00483330152928829,0.00932884495705366,0.0165727529674768,0.014143050648272,-0.045905027538538
668,0.0111581413075328,0.00763640971854329,0.00754017010331154,0.017203401774168,0.00623749429360032,-0.0408012643456459
669,0.00907954480499029,0.00523561984300613,0.0026117495726794,0.0135945389047265,0.00312687736004591,-0.0408089831471443
670,0.00931703113019466,-0.00215158588252962,-0.00278178439475596,0.00598080828785896,0.00892891176044941,-0.0476622395217419
671,0.0118820983916521,-0.00933230761438608,-0.00439550867304206,0.00091951951617375,0.0197113305330276,-0.0545197725296021
672,0.0150237744674087,-0.0123315434902906,4.36704685853329E-05,0.0028396537527442,0.0275245942175388,-0.0552699118852615
673,0.016977259889245,-0.0122564444318414,0.00774522265419364,0.0096870269626379,0.0289451628923416,-0.0510181449353695
674,0.0166045017540455,-0.0113138081505895,0.013420931994915,0.0170242618769407,0.0245649460703135,-0.0459703765809536
675,0.0148339765146375,-0.0108248479664326,0.0136193875223398,0.0212160013616085,0.0177567861974239,-0.0429791919887066
676,0.0133195146918297,-0.0104190204292536,0.00930673815310001,0.0208597760647535,0.012989685870707,-0.0426464527845383
677,0.0121046742424369,-0.00814419984817505,0.00462890276685357,0.0178578458726406,0.0113550424575806,-0.043883915990591
678,0.0110841449350119,-0.00385670596733689,0.00296336133033037,0.015546097420156,0.010795122012496,-0.0448716469109058
679,0.0102664474397898,-0.000564875430427492,0.00411563832312822,0.015175755135715,0.00889537204056978,-0.044062651693821
680,0.00974711682647467,-0.000571167329326272,0.00599859328940511,0.0159914828836918,0.00631550373509526,-0.0411320813000202
681,0.0100166797637939,-0.00315883290022612,0.00803097803145647,0.0171080231666565,0.00637819292023778,-0.0367938429117203
682,0.0105930212885141,-0.00624095182865858,0.00952191092073917,0.0175308883190155,0.00901014637202024,-0.0327034257352352
683,0.0106354970484972,-0.00784704554826021,0.00963687710464001,0.0176265817135572,0.0109246661886573,-0.0300448555499315
684,0.0092101413756609,-0.00761101953685284,0.00823371112346649,0.0182344652712345,0.0100030275061727,-0.0285351015627384
685,0.00613490818068385,-0.00674425205215812,0.0050491108559072,0.0182190518826246,0.00669892132282257,-0.0280459895730019
686,0.00330457091331482,-0.00598720274865627,0.00135075312573463,0.0170996859669685,0.0039047182071954,-0.0285266991704702
687,0.00211290339939296,-0.00525471661239862,-0.000691834080498666,0.0172169823199511,0.00449936930090189,-0.0291343089193106
688,0.00233699521049857,-0.00392159586772323,-0.000235625193454325,0.0207719765603542,0.00867567211389542,-0.0294739883393049
689,0.00350217730738223,-0.000973156129475683,0.00191056984476745,0.0265497490763664,0.0142834829166532,-0.0302462428808212
690,0.00512871472164989,0.00255551468580961,0.00421122647821903,0.0302037261426449,0.0186176188290119,-0.033014640212059
691,0.00677251955494285,0.00408432073891163,0.00572240585461259,0.0295955315232277,0.0186684057116508,-0.0376938432455063
692,0.00850581750273705,0.00343161774799228,0.00656239222735167,0.0278572738170624,0.0138638950884342,-0.0418217778205872
693,0.0105516277253628,0.00177500327117741,0.00706954207271338,0.0278774108737707,0.00781445577740669,-0.0454113632440567
694,0.0125039080157876,-0.000366283667972311,0.00720625836402178,0.0282218232750893,0.0036554909311235,-0.0510896854102612
695,0.0146426176652312,-0.00218659755773842,0.00730088632553816,0.0271912328898907,0.00318666361272335,-0.0576727353036404
696,0.0172043908387423,-0.00297128781676292,0.00822906848043203,0.0262321047484875,0.00723520247265697,-0.0600606091320515
697,0.0187136922031641,-0.00244330591522157,0.00927832815796137,0.0262309573590755,0.0123443603515625,-0.056412510573864
698,0.0186953824013472,-0.00158652733080089,0.00833400990813971,0.025932002812624,0.0145408371463418,-0.0493163913488388
699,0.0178738851100206,-0.00246182084083557,0.00513211218640208,0.0247744508087635,0.0144537445157766,-0.0423778332769871
700,0.0160916931927204,-0.00535544380545616,0.00168517604470253,0.0232774708420038,0.0146251060068607,-0.0383944660425186
701,0.0131258964538574,-0.00877571292221546,0.00013116977061145,0.0224019959568977,0.0153008978813887,-0.0375951044261456
702,0.00944665633141994,-0.0116077437996864,-0.000449611805379391,0.0222703274339437,0.0139331137761474,-0.0383558347821236
703,0.00663584005087614,-0.0134748117998242,-0.00220298743806779,0.0223310235887766,0.00998307671397924,-0.0391470976173878
704,0.00638481369242072,-0.0144375534728169,-0.00343625666573644,0.0226187221705914,0.00753367180004716,-0.0397701524198055
705,0.00838632695376873,-0.014572462067008,-0.00158277119044214,0.0234962198883295,0.00934916082769632,-0.0411458797752857
706,0.0108704939484596,-0.0132703464478254,0.00222080992534757,0.0251365508884192,0.0134482830762863,-0.043500479310751
707,0.0121080866083503,-0.0103199668228626,0.00472747860476375,0.0261512361466885,0.0172264594584703,-0.0466394126415253
708,0.0104073658585548,-0.00721394224092364,0.00334247248247266,0.0249113161116838,0.0170505717396736,-0.049240343272686
709,0.00598119851201773,-0.00585419917479157,-0.00123742350842804,0.0216397773474455,0.0106571977958083,-0.0483178682625294
710,0.00156921031884849,-0.00573588907718658,-0.00568026071414351,0.0176392886787653,0.00231123552657664,-0.0425288528203964
711,-0.000732060638256371,-0.00399418594315648,-0.00830711051821709,0.0147122796624899,-0.00360540999099612,-0.0332673639059067
712,-0.000568739778827876,-3.51706476067193E-05,-0.00870745442807674,0.0138781815767288,-0.00723563181236386,-0.0239748973399401
713,0.000805000541731715,0.00252705789171159,-0.0067359390668571,0.0146876042708755,-0.0105884680524468,-0.0188326817005873
714,0.00125892192590982,6.49093417450786E-05,-0.00474059814587235,0.0154798785224557,-0.0146133974194527,-0.019970491528511
715,-0.000518773798830807,-0.00748909870162606,-0.00598862254992127,0.0139361517503858,-0.0189355537295341,-0.0271924715489149
716,-0.00362585484981537,-0.0167425293475389,-0.0106544308364391,0.0104970755055547,-0.023098811507225,-0.0384754054248333
717,-0.00564352702349424,-0.0236525442451239,-0.0161193143576384,0.00770783331245184,-0.0265703108161688,-0.049833856523037
718,-0.00467737857252359,-0.0266067273914814,-0.0188142713159323,0.00566750159487128,-0.0271624103188515,-0.057681318372488
719,-0.000475148524856195,-0.0267236214131117,-0.0167834237217903,0.00260648760013282,-0.0222538486123085,-0.0612937435507774
720,0.00445045297965407,-0.0258818361908197,-0.0128054646775126,-0.00203904579393566,-0.0148021811619401,-0.0613143667578697
721,0.00698631722480059,-0.0242723990231752,-0.0107362633571029,-0.00596194574609399,-0.0104611972346902,-0.0571969226002693
722,0.00701276399195194,-0.0203921590000391,-0.0111101269721985,-0.0060174698010087,-0.00994214229285717,-0.0484732463955879
723,0.00641648937016726,-0.0135165862739086,-0.0135278310626745,-0.00279604480601847,-0.0100675420835614,-0.0379501096904278
724,0.0063817803747952,-0.00632855854928494,-0.0175653733313084,-2.35839252127334E-05,-0.00742951780557632,-0.031493216753006
725,0.00648100301623344,-0.00376825942657888,-0.0213281773030758,9.97462052509945E-07,-0.00141763698775321,-0.0331239886581898
726,0.00557459099218249,-0.00693522579967976,-0.0225994903594255,-0.00138908252120018,0.00448410864919424,-0.040632575750351
727,0.00390024553053081,-0.0116730583831668,-0.0208413675427437,-0.000693872396368533,0.00653342343866825,-0.0469897016882896
728,0.00259047863073647,-0.0145217273384333,-0.0182205587625504,0.00352001003921032,0.003543711733073,-0.0475344844162464
729,0.00173548061866313,-0.0155056780204177,-0.0167270861566067,0.009382214397192,-0.00281045702286065,-0.0447955504059792
730,0.00146257842425257,-0.0151257859542966,-0.015615182928741,0.015010735951364,-0.00786588154733181,-0.0433810353279114
731,0.00152956647798419,-0.0124016087502241,-0.0144111616536975,0.0184332951903343,-0.0101743284612894,-0.0446742027997971
732,0.000139871845021844,-0.00841507688164711,-0.0138160604983568,0.0167781990021467,-0.014490095898509,-0.0488603189587593
733,-0.00338496756739914,-0.00787777733057737,-0.013692426495254,0.0114572467282414,-0.0230291504412889,-0.056314904242754
734,-0.0068921186029911,-0.0120832240208983,-0.0130134085193276,0.00752676650881767,-0.0313555225729942,-0.0656667724251747
735,-0.00799364969134331,-0.0162221398204565,-0.0120984381064773,0.00484668929129839,-0.0349944718182087,-0.0727525055408478
736,-0.00708838412538171,-0.0159801431000233,-0.0136381639167666,-1.50847054101177E-05,-0.0345491804182529,-0.0722944140434265
737,-0.00608323840424418,-0.0125461695715785,-0.0182971581816673,-0.0061497469432652,-0.0317999869585037,-0.0622667148709297
738,-0.00537086185067892,-0.0104932086542249,-0.0224463809281588,-0.0104075688868761,-0.025083389133215,-0.0464784577488899
739,-0.00437952764332294,-0.0123616671189666,-0.0234221126884222,-0.0122609240934253,-0.0144761921837926,-0.0318553373217583
740,-0.00311522209085524,-0.0169530026614666,-0.0231005363166332,-0.0133842639625072,-0.00522155780345201,-0.0231856387108564
741,-0.00131146772764623,-0.021636663004756,-0.0235368050634861,-0.0141554372385144,0.000645330408588052,-0.0210549496114254
742,0.00138906843494624,-0.0250398050993681,-0.0237314384430647,-0.01310059055686,0.00683199241757393,-0.0243644677102566
743,0.00389646412804723,-0.0273006036877632,-0.0225376691669226,-0.0106821227818727,0.0133515959605575,-0.0314643047749996
744,0.00380779476836324,-0.0285974126309156,-0.0218555424362421,-0.010715439915657,0.0136303408071399,-0.0391719378530979
745,-5.00573260069359E-05,-0.0284100845456123,-0.0244389697909355,-0.0153296096250415,0.00471952883526683,-0.0445894971489906
746,-0.00622193980962038,-0.0265696756541729,-0.0292051490396261,-0.0209186319261789,-0.00782664306461811,-0.0470734164118767
747,-0.0120560145005584,-0.0238937083631754,-0.0329506099224091,-0.021727541461587,-0.0179524999111891,-0.0463921278715134
748,-0.0147164389491081,-0.0211436729878187,-0.0345608033239841,-0.0160351656377316,-0.0229328144341707,-0.0420456454157829
749,-0.0131912268698215,-0.0197304375469685,-0.0346058048307896,-0.00757002644240856,-0.0218067765235901,-0.036728136241436
750,-0.00953727494925261,-0.0214675981551409,-0.0338298305869102,-0.00168324809055775,-0.0164665803313255,-0.0371619611978531
751,-0.00592164183035493,-0.0247878078371286,-0.0321777351200581,-0.000645580352284014,-0.0100363912060857,-0.0465109534561634
752,-0.00277839275076985,-0.0252245385199785,-0.0291892327368259,-0.0029651983641088,-0.00432109972462058,-0.0589252449572086
753,-0.000942198152188212,-0.021684443578124,-0.0265989769250155,-0.00686137937009335,-0.00219110841862857,-0.0664711594581604
754,-0.00114965322427452,-0.0179772153496742,-0.0259224306792021,-0.0117999091744423,-0.00449672993272543,-0.067658893764019
755,-0.00175121077336371,-0.0171336103230715,-0.0252992082387209,-0.0167049262672663,-0.0060045225545764,-0.0656401962041855
756,-0.00217739236541092,-0.0180839411914349,-0.0238464456051588,-0.019851440563798,-0.00534387677907944,-0.0616672672331333
757,-0.00493506714701653,-0.017847316339612,-0.0232888851314783,-0.02095059864223,-0.0091413576155901,-0.0553747080266476
758,-0.0103342458605766,-0.014961002394557,-0.0237609334290028,-0.0207918230444193,-0.0198226515203714,-0.047018725425005
759,-0.0156772006303072,-0.0110475700348616,-0.0245887041091919,-0.0189796332269907,-0.033308569341898,-0.036916583776474
760,-0.0192503537982702,-0.00935569405555725,-0.026063309982419,-0.0154788857325912,-0.0436028838157654,-0.0283991862088442
761,-0.0200414657592773,-0.0108933243900537,-0.0271169412881136,-0.0113853393122554,-0.0442018583416939,-0.025446055456996
762,-0.0166873391717672,-0.0128363110125065,-0.0262919571250677,-0.00798231828957796,-0.032859031111002,-0.0281425975263119
763,-0.00970210880041122,-0.0142652736976743,-0.0250684879720211,-0.00808666460216045,-0.0133817112073302,-0.0358631499111652
764,-0.00292538618668914,-0.0180946011096239,-0.0259938836097717,-0.0133067555725574,0.00571104092523456,-0.0462304726243019
765,0.000584717781748623,-0.0241827983409166,-0.0276248585432768,-0.0207689050585032,0.0180892404168844,-0.0538887679576874
766,0.00126003206241876,-0.0299424268305302,-0.026684733107686,-0.0261982679367065,0.024351067841053,-0.056115809828043
767,0.00016882162890397,-0.0346675179898739,-0.0224589891731739,-0.027539074420929,0.0261936914175749,-0.0542327761650085
768,-0.00207957020029426,-0.036970779299736,-0.0163677707314491,-0.0243705250322819,0.0227584764361382,-0.0491973049938679
769,-0.00455358158797026,-0.0350264869630337,-0.0115370480343699,-0.0175515972077847,0.013760662637651,-0.0421399958431721
770,-0.0065696625970304,-0.0294906515628099,-0.0116505213081837,-0.0108643202111125,0.000412198685808107,-0.0374686904251575
771,-0.0078401230275631,-0.0217790957540274,-0.0178596004843712,-0.00911132618784904,-0.0156672559678555,-0.0376881398260593
772,-0.00866394117474556,-0.013791280798614,-0.027851602062583,-0.0137114375829697,-0.0317866802215576,-0.0386411882936955
773,-0.010379764251411,-0.00926411710679531,-0.0379147119820118,-0.0218955967575312,-0.0449145585298538,-0.0360215753316879
774,-0.0133191775530577,-0.00952679011970758,-0.0440787114202976,-0.0286162886768579,-0.0522344298660755,-0.0311177410185337
775,-0.0154875367879868,-0.0113886259496212,-0.0443881116807461,-0.0313913971185684,-0.052051268517971,-0.0266095735132694
776,-0.0154774244874716,-0.0113460468128324,-0.0411325395107269,-0.0326798632740974,-0.0474920235574245,-0.02245800383389
777,-0.0145869860425591,-0.00877590570598841,-0.0366212949156761,-0.0340725481510162,-0.0456280820071697,-0.0177036579698324
778,-0.0150020271539688,-0.0058342139236629,-0.0299801826477051,-0.0351433828473091,-0.0498417764902115,-0.0124235292896628
779,-0.0177573952823877,-0.00411883369088173,-0.0209127850830555,-0.0355628915131092,-0.0590022914111614,-0.00541185913607478
780,-0.0222882125526667,-0.00355782266706228,-0.012874785810709,-0.0351791381835938,-0.0712756291031837,0.00484792841598392
781,-0.0264284648001194,-0.00413778331130743,-0.0101430593058467,-0.0358228459954262,-0.0819396749138832,0.0159130748361349
782,-0.0271057765930891,-0.0048294928856194,-0.0124144433066249,-0.0386148914694786,-0.0831089690327644,0.0244627315551043
783,-0.0237286407500505,-0.00416361447423697,-0.0163383595645428,-0.0422833859920502,-0.0721411854028702,0.0303824786096811
784,-0.0196244232356548,-0.00177426997106522,-0.0200892183929682,-0.0446717664599419,-0.0566628314554691,0.0362028516829014
785,-0.0180082581937313,0.00186134874820709,-0.0232683811336756,-0.0437761805951595,-0.0467077754437923,0.0438901707530022
786,-0.0191494692116976,0.00489909993484616,-0.0265467185527086,-0.0413920395076275,-0.0455919876694679,0.0509813092648983
787,-0.021054070442915,0.00620031822472811,-0.0302775613963604,-0.0414652526378632,-0.0490638054907322,0.0536436587572098
788,-0.0216832756996155,0.00668438524007797,-0.0323709808290005,-0.044642586261034,-0.0511214174330235,0.0516764260828495
789,-0.0205311793833971,0.00717326812446117,-0.0308322180062532,-0.0485868230462074,-0.0505665391683578,0.0475180633366108
790,-0.018588837236166,0.00797547399997711,-0.0265464074909687,-0.0500189997255802,-0.0505546741187572,0.0441098511219025
791,-0.0172142740339041,0.0094786062836647,-0.0212025046348572,-0.0464118346571922,-0.0536272898316383,0.0438932813704014
792,-0.0161320753395557,0.0113372812047601,-0.0146483508870006,-0.0381158664822578,-0.0578201487660408,0.0469639636576176
793,-0.014181274920702,0.0121755106374621,-0.00666995253413916,-0.0283163189888,-0.0588217303156853,0.0506982766091824
794,-0.0118207708001137,0.0110961804166436,0.000223566079512239,-0.0213437974452972,-0.0564437210559845,0.0525319799780846
795,-0.0098811537027359,0.0085224648937583,0.00406544469296932,-0.0201506242156029,-0.0517906099557877,0.0512678660452366
796,-0.00840865541249514,0.00620658742263913,0.00512205343693495,-0.0247322730720043,-0.0456647202372551,0.0479023233056068
797,-0.00799938198179007,0.00590668991208076,0.00295806839130819,-0.0326798409223557,-0.0417422540485859,0.0457600988447666
798,-0.00845358707010746,0.00830049719661474,-0.00112853397149593,-0.040126983076334,-0.0399242080748081,0.0469077937304974
799,-0.00833963416516781,0.014318753965199,-0.00335503043606877,-0.0440420582890511,-0.0365159064531326,0.0507888980209827
800,-0.00769391283392906,0.0236118771135807,-0.00265700370073318,-0.0448424145579338,-0.0328395590186119,0.0559028126299381
801,-0.00808511488139629,0.030955733731389,-0.00309848506003618,-0.0460314340889454,-0.033861193805933,0.0597462877631187
802,-0.00947366654872894,0.0306117590516806,-0.00733417086303234,-0.0485711097717285,-0.0394775718450546,0.0606127865612507
803,-0.00904413592070341,0.025011645630002,-0.0109560964629054,-0.0485430881381035,-0.0428764522075653,0.0610363334417343
804,-0.00568971456959844,0.0206107031553984,-0.0106397503986955,-0.0436947718262672,-0.0417755581438541,0.0636491402983665
805,-0.002373565454036,0.0181277617812157,-0.00921446550637484,-0.0362051874399185,-0.0412776097655296,0.0659512653946877
806,-0.00141630438156426,0.015450106933713,-0.00877044349908829,-0.0296559762209654,-0.0428690798580647,0.0645126104354858
807,-0.00206784275360405,0.0132980085909367,-0.00775447627529502,-0.025990929454565,-0.0434592887759209,0.0603536888957024
808,-0.0022659539245069,0.0127063915133476,-0.00540476758033037,-0.0244425926357508,-0.0414400100708008,0.0566002056002617
809,-0.000887957110535353,0.012741201557219,-0.00373488222248852,-0.0244069155305624,-0.0369304716587067,0.0535454340279102
810,0.000941040576435626,0.0120338574051857,-0.00439032865688205,-0.0265877414494753,-0.0311580337584019,0.0484035760164261
811,0.00201542256399989,0.011017975397408,-0.00600309064611793,-0.0294725988060236,-0.0259586088359356,0.040013674646616
812,0.00256408960558474,0.0111046340316534,-0.00539648253470659,-0.0295508094131947,-0.0225224401801825,0.0302512180060148
813,0.00278794183395803,0.0112199680879712,-0.00157592119649053,-0.0263393651694059,-0.0206847004592419,0.0202863942831755
814,0.00241718860343099,0.00936377607285976,0.00273236632347107,-0.0224353317171335,-0.019329596310854,0.0113543877378106
815,0.00153550470713526,0.00638728542253375,0.0045282538048923,-0.0193997900933027,-0.0180228110402822,0.00668922998011112
816,0.000256533094216138,0.00418886123225093,0.00345948897302151,-0.0179876778274775,-0.0170466843992472,0.00883463956415653
817,-0.00144118978641927,0.0028847826179117,0.000720751937478781,-0.0196969471871853,-0.0157393757253885,0.0167501866817474
818,-0.0029065536800772,0.00240372377447784,-0.00241373619064689,-0.0243732668459415,-0.0133981192484498,0.0268925875425339
819,-0.0033682081848383,0.00396948214620352,-0.00422814534977078,-0.0281273014843464,-0.0115907415747643,0.0364409536123276
820,-0.00300124939531088,0.00766781345009804,-0.00373706314712763,-0.0272956360131502,-0.0120583102107048,0.0436270348727703
821,-0.00257700472138822,0.0108575411140919,-0.00234758644364774,-0.0234438795596361,-0.0130653567612171,0.0469871312379837
822,-0.00216730660758913,0.0112406443804502,-0.00217573554255068,-0.0203227233141661,-0.0120979379862547,0.0464240312576294
823,-0.000875158351846039,0.00920556671917439,-0.00354037689976394,-0.0185985807329416,-0.00905227102339268,0.0436642654240131
824,0.00195026863366365,0.00650698179379106,-0.00455648778006434,-0.0163576286286116,-0.00404892209917307,0.0409269481897354
825,0.00599863147363067,0.00489063747227192,-0.00388232921250165,-0.0134590351954103,0.00247925007715821,0.0386782586574554
826,0.0102686993777752,0.00498968176543713,-0.00248840195126832,-0.0115240998566151,0.0086113465949893,0.0359054319560528
827,0.012682817876339,0.00495208194479346,-0.00187244161497802,-0.0111734373494983,0.0119955390691757,0.0318622477352619
828,0.0118631888180971,0.00298912054859102,-0.00172502780333161,-0.0116699347272515,0.0120608247816563,0.0265427939593792
829,0.00926554203033447,0.000529882439877838,-0.000216465021367185,-0.01095225289464,0.0105271069332957,0.0210917070508003
830,0.00573537265881896,-0.00157151650637388,0.00209837057627738,-0.00876493472605944,0.00724803050979972,0.0148409297689795
831,0.000534665305167437,-0.00320572312921286,0.00305121508426964,-0.00596011150628328,0.000533640326466411,0.00457309652119875
832,-0.00470795389264822,-0.00287124258466065,0.0031216130591929,-0.00208727829158306,-0.0082151722162962,-0.0104427300393581
833,-0.00706630665808916,-0.00211687362752855,0.00465845596045256,0.00188590935431421,-0.0152538679540157,-0.0255484916269779
834,-0.00605627708137035,-0.00266142887994647,0.00757850101217628,0.00421832781285048,-0.0179935358464718,-0.0323934555053711
835,-0.00377462059259415,-0.00249783741310239,0.00799035094678402,0.00390014867298305,-0.0166618768125772,-0.0255567822605371
836,-0.00169578194618225,-9.96226299321279E-05,0.00449286634102464,0.00107774406205863,-0.0115105779841542,-0.007277128752321
837,0.000264572037849575,0.00354549172334373,0.000142300486913882,-0.00331900571472943,-0.00176618015393615,0.0143220303580165
838,0.00164659414440393,0.00591220054775476,-0.00366549775935709,-0.00917825568467379,0.00883505586534739,0.0304857827723026
839,0.00254996959120035,0.00786240212619305,-0.00659554917365313,-0.0143064837902784,0.0139562105759978,0.0392480194568634
840,0.00354386656545103,0.0120462952181697,-0.00691893231123686,-0.0158396922051907,0.0126712834462523,0.0427607446908951
841,0.00445521343499422,0.0159573275595903,-0.00336507568135858,-0.0143590411171317,0.00866681151092052,0.0408531427383423
842,0.00504905637353659,0.0162267033010721,0.00319549534469843,-0.0108991488814354,0.00346613582223654,0.0342264845967293
843,0.00448887422680855,0.0125377187505364,0.00849469099193811,-0.00641295174136758,-0.00425422051921487,0.0251455064862967
844,0.00303103495389223,0.00615311739966273,0.00909826811403036,-0.00237495847977698,-0.0123577704653144,0.0157976076006889
845,0.00278966082260013,-0.000952268252149224,0.00660069938749075,5.73217257624492E-05,-0.0147599782794714,0.00682299491018057
846,0.00408576661720872,-0.00761035224422812,0.00401622708886862,0.000708786654286087,-0.00910249259322882,-0.0039513586089015
847,0.00532174808904529,-0.0132139110937715,0.0026875410694629,0.00118722044862807,-2.7131432943861E-05,-0.0165324285626411
848,0.00679256953299046,-0.0169747769832611,0.00316490791738033,0.0012477736454457,0.00727959116920829,-0.0265785977244377
849,0.00944550707936287,-0.0182822812348604,0.00457790959626436,-0.000387914973543957,0.011300721205771,-0.0299693234264851
850,0.0118615953251719,-0.0168193634599447,0.00452409312129021,-0.00194303691387177,0.0123631758615375,-0.0257182531058788
851,0.0126711847260594,-0.0135890170931816,0.00231534219346941,-0.00189138087444007,0.0125793581828475,-0.0173512920737267
852,0.0119085209444165,-0.0111418170854449,-0.000902377534657717,-0.001499850070104,0.0131443599238992,-0.0115367975085974
853,0.0104687549173832,-0.0102614900097251,-0.0034735263325274,-0.00149649265222251,0.0129976412281394,-0.0108566209673882
854,0.00945555325597525,-0.00946871191263199,-0.00390474661253393,-0.00100730848498642,0.0123586552217603,-0.011625723913312
855,0.00853817630559206,-0.00771550741046667,-0.00262900930829346,0.000628450186923146,0.0117896366864443,-0.0102612990885973
856,0.00648410292342305,-0.00595177104696631,-0.001286382204853,0.00241405167616904,0.010426564142108,-0.00785234663635492
857,0.00277536013163626,-0.00636582262814045,-0.00136148347519338,0.00144463393371552,0.0065819607116282,-0.0077910958789289
858,-0.0018151142867282,-0.00778695801272988,-0.00314391264691949,-0.00201557762920856,-0.000959269120357931,-0.00999075081199408
859,-0.00511540193110704,-0.00517851114273071,-0.00479114335030317,-0.00382886570878327,-0.00884187035262585,-0.0113362716510892
860,-0.00551713025197387,0.00336544751189649,-0.00475154165178537,-0.00303595326840878,-0.0117527339607477,-0.0106336558237672
861,-0.00463013723492622,0.0121389599516988,-0.004436154384166,-0.00250095129013062,-0.0100591704249382,-0.00922538060694933
862,-0.00459776446223259,0.0138770444318652,-0.00547338742762804,-0.00335604231804609,-0.00793572887778282,-0.00790178123861551
863,-0.00483376672491431,0.00797045417129993,-0.00622422713786364,-0.00325941178016365,-0.00704960618168116,-0.00554001238197088
864,-0.00310273771174252,-0.000607337453402579,-0.00465670367702842,-0.000664369494188577,-0.00417077168822289,-0.00163631432224065
865,0.00180013326462358,-0.00768464803695679,-0.00167308747768402,0.00281050242483616,0.00469851726666093,0.00166689383331686
866,0.00866990443319082,-0.0128151876851916,0.00193623325321823,0.00589340133592486,0.0191269405186176,0.0023260519374162
867,0.0148767502978444,-0.0170467626303434,0.00720814522355795,0.00903732888400555,0.034866027534008,0.000711938948370516
868,0.0177261047065258,-0.0207332819700241,0.013466339558363,0.0118934456259012,0.0467554591596127,-0.00239223474636674
869,0.0165991336107254,-0.0230880007147789,0.018067205324769,0.0138114150613546,0.0511335171759129,-0.00580251635983586
870,0.0130209140479565,-0.0226816069334745,0.019362784922123,0.0147789679467678,0.0466956906020641,-0.00774694094434381
871,0.00860264152288437,-0.0194675792008638,0.0167554970830679,0.013108229264617,0.0344206281006336,-0.00883836206048727
872,0.00485163321718574,-0.0150677729398012,0.0103354724124074,0.00644514337182045,0.0174513459205627,-0.0113228987902403
873,0.00253705377690494,-0.010716600343585,0.00194942578673363,-0.00347579619847238,0.000723007193300873,-0.0150397596880794
874,0.000864191097207367,-0.00681568589061499,-0.00562597950920463,-0.0121078360825777,-0.0119192581623793,-0.0167599357664585
875,-0.00164716178551316,-0.0039903880096972,-0.0107944877818227,-0.0176001563668251,-0.0203742012381554,-0.013640146702528
876,-0.0056739985011518,-0.00238100602291524,-0.0135492766276002,-0.020638694986701,-0.0267264284193516,-0.00627535162493587
877,-0.0104258209466934,-0.00134504947345704,-0.0147107494994998,-0.0213735774159431,-0.0322331860661507,0.0023339856415987
878,-0.0136964404955506,-0.000952450383920223,-0.01414839271456,-0.0189526081085205,-0.0347198024392128,0.00913316663354635
879,-0.0141988703981042,-0.00116329826414585,-0.0113858254626393,-0.0131856678053737,-0.0333322249352932,0.0130884097889066
880,-0.0139352399855852,-0.000473095016786829,-0.00810516718775034,-0.00544159300625324,-0.0329214781522751,0.0165180191397667
881,-0.0150370160117745,0.00233103055506945,-0.00628943555057049,0.000708137114997953,-0.0369069129228592,0.0217449311167002
882,-0.0171631164848804,0.00680557591840625,-0.00555467186495662,0.000751918181777,-0.0442800521850586,0.0283376052975655
883,-0.0190319549292326,0.0122020086273551,-0.00378957763314247,-0.00415216293185949,-0.0527937971055508,0.0354925952851772
884,-0.0198425706475973,0.0177320130169392,-0.00118992570787668,-0.00889923516660929,-0.0590754561126232,0.0416731722652912
885,-0.0194928236305714,0.0215822067111731,-0.00113811600022018,-0.012740490026772,-0.0601416192948818,0.0445102155208588
886,-0.0181151106953621,0.0237824767827988,-0.0044105569832027,-0.0169638432562351,-0.0550919435918331,0.0451084189116955
887,-0.0159868877381086,0.026102788746357,-0.00829258374869823,-0.0213498827069998,-0.0450496897101402,0.0462446473538876
888,-0.0140965944156051,0.0266977064311504,-0.0102319763973355,-0.0243193749338388,-0.0334170684218407,0.0485156439244747
889,-0.0132151944562793,0.0243511851876974,-0.0083944546058774,-0.0233258232474327,-0.0238646697252989,0.0515632107853889
890,-0.0128531428053975,0.0222240518778563,-0.00371387810446322,-0.020779836922884,-0.0184945277869701,0.0531453117728233
891,-0.0127714360132813,0.0209418628364801,-0.000973279122263193,-0.0222684722393751,-0.0180205386132002,0.050478246062994
892,-0.0126965073868632,0.0175721123814583,-0.00337202218361199,-0.0272666364908218,-0.0202727932482958,0.0435422323644161
893,-0.0107587967067957,0.0115937832742929,-0.0082684550434351,-0.0310659930109978,-0.0201729368418455,0.0340567827224731
894,-0.00547380093485117,0.00612811138853431,-0.0107310088351369,-0.0308909937739372,-0.0147696258500218,0.025008462369442
895,0.00147218944039196,0.00419475510716438,-0.0091549614444375,-0.0271952096372843,-0.00621726224198937,0.0186645314097404
896,0.00644009886309505,0.00596109265461564,-0.00503278244286776,-0.0218571778386831,0.00117770617362112,0.0146825117990375
897,0.00750221172347665,0.00872713141143322,-0.000296997517580166,-0.0161683596670628,0.0032858750782907,0.0129142254590988
898,0.00567255076020956,0.0101381028071046,0.00339131592772901,-0.0106755029410124,-0.000799842353444546,0.0144359664991498
899,0.00350506277754903,0.0105446483939886,0.00633874954655766,-0.00556641072034836,-0.00568345747888088,0.0186585206538439
900,0.00261144922114909,0.0104262717068195,0.00938137248158455,-0.00167247815988958,-0.00548549182713032,0.0225185863673687
901,0.0022306062746793,0.0087088430300355,0.0110348919406533,-0.000978205585852265,-0.00110481842420995,0.0227304343134165
902,0.000702919322066009,0.00539508275687695,0.0108877690508962,-0.00345818698406219,0.0021875137463212,0.0192641727626324
903,-0.00223621819168329,0.00270402594469488,0.0101631246507168,-0.0065208850428462,0.000592900498304516,0.0154013345018029
904,-0.00551000609993935,0.00298956176266074,0.00816558673977852,-0.00932245422154665,-0.00638893013820052,0.0131450016051531
905,-0.00802958011627197,0.00667328992858529,0.00481852609664202,-0.0113819902762771,-0.0151473321020603,0.0122427670285106
906,-0.00916548632085323,0.0108190905302763,0.00237165344879031,-0.0116282282397151,-0.0202117767184973,0.0116284657269716
907,-0.00897599011659622,0.0117507185786963,0.0015086131170392,-0.0109891416504979,-0.019989762455225,0.00989173166453838
908,-0.00774622708559036,0.00932616181671619,0.00087814184371382,-0.0103129334747791,-0.0161500535905361,0.0065364446491003
909,-0.00581720191985369,0.00594760524109006,0.000387170119211078,-0.00866918731480837,-0.0109447753056884,0.00226115458644927
910,-0.00393657898530364,0.00292356079444289,0.000853344507049769,-0.00595920579507947,-0.00686623062938452,-0.00217438279651105
911,-0.00255162687972188,0.000168130383826792,0.001842254656367,-0.0036342169623822,-0.00537764560431242,-0.00638797087594867
912,-0.00141066592186689,-0.00265597575344145,0.00220338627696037,-0.00250330730341375,-0.00543720042333007,-0.00956473965197802
913,2.68758758465992E-05,-0.00504295853897929,0.0010213142959401,-0.00178248272277415,-0.00288693630136549,-0.00924458913505077
914,0.00177273142617196,-0.0055216639302671,-0.0016322823939845,-0.000632423267234117,0.00452754693105817,-0.00406514294445515
915,0.00246447185054421,-0.00363380555063486,-0.00482239341363311,0.000599129707552493,0.0126441847532988,0.00352243194356561
916,0.000707789731677622,0.000380196957848966,-0.00820362661033869,0.00123415270354599,0.0153620708733797,0.00994732137769461
917,-0.00244373362511396,0.00507241860032082,-0.0114774648100138,0.000980359269306064,0.0113078132271767,0.0122553650289774
918,-0.00430628936737776,0.00947336480021477,-0.0126021374017,0.00162210618145764,0.00418833503499627,0.0107279764488339
919,-0.00406941026449203,0.0143228815868497,-0.00971571449190378,0.0050781574100256,-0.00152626924682409,0.00920881330966949
920,-0.00309271574951708,0.0172537136822939,-0.00408792495727539,0.00976380426436663,-0.0039018546231091,0.00919974688440561
921,-0.00303417094983161,0.0150407264009118,0.00133569689933211,0.0126834223046899,-0.00499022053554654,0.00837713200598955
922,-0.00396661227568984,0.00936580635607243,0.00502241402864456,0.0128381429240108,-0.00616515520960093,0.00588045688346028
923,-0.00322299171239138,0.00473463768139482,0.00768117001280189,0.011677953414619,-0.0033409595489502,0.00388256041333079
924,0.000100619086879306,0.00247671664692461,0.0101271132007241,0.01053268276155,0.00617390312254429,0.00252426322549582
925,0.00272173341363668,0.00107398710679263,0.0115868933498859,0.0100944647565484,0.0171221289783716,-8.35501996334642E-05
926,0.00298492587171495,-0.000149728308315389,0.0116176772862673,0.0106642181053758,0.023513650521636,-0.00493754167109728
927,0.00224424013867974,-0.000918938952963799,0.0111360745504498,0.0114023685455322,0.0241671018302441,-0.0123115666210651
928,0.000838196312543005,-0.000219486726564355,0.0109801478683949,0.0120524959638715,0.0191547479480505,-0.020423911511898
929,-0.00133775558788329,0.0021107557695359,0.0108367381617427,0.0134058091789484,0.0107660191133618,-0.0256672911345959
930,-0.00302428309805691,0.00493570417165756,0.00981116108596325,0.0164048690348864,0.00384999695234001,-0.0253860056400299
931,-0.00281472108326852,0.00780879333615303,0.00865135248750448,0.0208875220268965,0.00157250266056508,-0.0205804854631424
932,-0.00103008968289942,0.0107322623953223,0.00790844764560461,0.0241348203271627,0.00362374004907906,-0.0162984617054462
933,0.00090755510609597,0.0123476404696703,0.00614654226228595,0.0233868751674891,0.00747397216036916,-0.017360420897603
934,0.00215663621202111,0.0111925350502133,0.00381499179638922,0.0195713229477406,0.0109057007357478,-0.022948145866394
935,0.00221945345401764,0.00826389249414206,0.00234220596030355,0.0153340306133032,0.0122310565784574,-0.0270733200013638
936,0.000777640379965305,0.00517055159434676,0.000878548773471266,0.0116985570639372,0.0103207593783736,-0.0259057339280844
937,-0.00186302117072046,0.00210749381221831,-0.000709009298589081,0.00940639805048704,0.00729801598936319,-0.0211349204182625
938,-0.00452106678858399,-0.000573556928429753,-0.000718738592695445,0.00942331645637751,0.00691912742331624,-0.0158047303557396
939,-0.00560725154355168,-0.00204938510432839,0.000546429597306997,0.0110210636630654,0.00965064764022827,-0.0113975573331118
940,-0.00521012581884861,-0.00249861320480704,0.00073914579115808,0.0122960554435849,0.0122116087004542,-0.00841062888503075
941,-0.00428320374339819,-0.0025634856428951,-0.000210566693567671,0.0119260074570775,0.0129128405824304,-0.00721599766984582
942,-0.0019159666262567,-0.002318543381989,-0.000308476068312302,0.00926799327135086,0.0146919954568148,-0.0084433164447546
943,0.00209093349985778,-0.00238551688380539,0.000926198554225266,0.00469426019117236,0.0195449609309435,-0.0127677479758859
944,0.00577866099774837,-0.00329357921145856,0.00255443179048598,0.00119211536366493,0.0256547685712576,-0.0180634055286646
945,0.00782543141394854,-0.00417210813611746,0.00398724619299173,0.00200157449580729,0.0303700882941484,-0.0197743363678455
946,0.00845449045300484,-0.00527751538902521,0.00485634431242943,0.00542889768257737,0.0324767231941223,-0.0173992309719324
947,0.00855733547359705,-0.00659623509272933,0.00432355282828212,0.00646010227501392,0.0318611040711403,-0.015423409640789
948,0.00839954800903797,-0.00662104226648808,0.00168378441594541,0.00328130531124771,0.0276025142520666,-0.0181105509400368
949,0.00861883256584406,-0.00679430365562439,-0.00184243603143841,-0.000763108895625919,0.0212449748069048,-0.0261403620243073
950,0.0096018249168992,-0.00902106519788504,-0.00329948915168643,-0.00118216883856803,0.0163198374211788,-0.0366275012493134
951,0.00963003654032946,-0.0117910550907254,-0.0014137988910079,0.00262067350558937,0.0124242259189487,-0.045902069658041
952,0.00829667784273624,-0.0126814721152186,0.00240383949130774,0.00677297078073025,0.00765333557501435,-0.05086824670434
953,0.00656560994684696,-0.0111205177381635,0.00560771627351642,0.00724004488438368,0.00170194962993264,-0.0495494976639748
954,0.00499642081558704,-0.00864441692829132,0.00645855907350779,0.00372393592260778,-0.0027545178309083,-0.0434650741517544
955,0.00530386157333851,-0.00634143641218543,0.00605428917333484,-0.000686470186337829,6.50152796879411E-05,-0.0372827500104904
956,0.00809974689036608,-0.00376626383513212,0.00610107183456421,-0.00234357663430274,0.00950505025684834,-0.033437192440033
957,0.0117641007527709,-0.00171368289738894,0.00639317277818918,-1.94518415810307E-05,0.0183204766362906,-0.0308090951293707
958,0.0146323377266526,-0.00225939275696874,0.0054784887470305,0.00405142270028591,0.0239247269928455,-0.0288550779223442
959,0.015335843898356,-0.00481883948668838,0.00252955756150186,0.00745942583307624,0.026485713198781,-0.0273335464298725
960,0.0138578312471509,-0.00700285099446774,-0.00126785587053746,0.00934871006757021,0.0255629438906908,-0.0266185030341148
961,0.0127480328083038,-0.00836795940995216,-0.00423443876206875,0.00898309424519539,0.0239012241363525,-0.0290772002190351
962,0.0139993531629443,-0.00976425129920244,-0.00583894038572907,0.0070629813708365,0.0249732472002506,-0.0352644398808479
963,0.0158817116171122,-0.011297132819891,-0.00625099241733551,0.00588206155225635,0.0275351647287607,-0.0424521677196026
964,0.0163818467408419,-0.0120959933847189,-0.00514694070443511,0.00677488790825009,0.0284959506243467,-0.0471689365804195
965,0.0164803769439459,-0.011095779016614,-0.00269562704488635,0.00894014071673155,0.0285986494272947,-0.0474727675318718
966,0.0172950737178326,-0.00807428546249866,-0.000894312339369208,0.0103930085897446,0.0291362199932337,-0.0442466698586941
967,0.0176181029528379,-0.0048307878896594,-0.00146850291639566,0.0102399997413158,0.0290650371462107,-0.0404304340481758
968,0.0166654661297798,-0.00396583508700132,-0.00405786326155066,0.00920415855944157,0.0285262782126665,-0.0389171279966831
969,0.0153181636705995,-0.00592800648882985,-0.00763186765834689,0.00787593238055706,0.0275719594210386,-0.040728822350502
970,0.0140162417665124,-0.00889197457581759,-0.0114268725737929,0.00633578049018979,0.0250475704669952,-0.044584684073925
971,0.0128937587141991,-0.0105627300217748,-0.0139710009098053,0.0053916908800602,0.0216673631221056,-0.0482834354043007
972,0.0117470780387521,-0.0108780339360237,-0.0135868545621634,0.00607160339131951,0.0184841994196177,-0.0512520037591457
973,0.0105904554948211,-0.0118412794545293,-0.00985745154321194,0.0076685007661581,0.0153120439499617,-0.0544629953801632
974,0.0103724990040064,-0.0140338484197855,-0.00410284521058202,0.00821101851761341,0.0120843397453427,-0.0579757690429688
