,AF3,AF4,Fp1,Fp2,AF7,AF8
0,-0.00111013685818762,-4.01077668357175E-05,-0.00274727935902774,-0.00332254962995648,-0.00324684218503535,0.0267674159258604
1,-0.00196224288083613,-0.000217315231566317,-0.00152298749890178,0.00148175016511232,4.08260784752201E-05,0.031127605587244
2,-0.0024404542054981,0.00184549938421696,-0.000328689638990909,0.00410305056720972,-0.00176701892632991,0.0341408252716064
3,-0.00254639517515898,0.00202047917991877,-3.33862080879044E-05,0.00300047849304974,-0.00519176665693522,0.0319606922566891
4,-0.00198536273092031,0.00302507868036628,-0.000406699633458629,-2.79697396763368E-05,-0.00628931820392609,0.0260731931775808
5,-0.000152601729496382,0.00716120423749089,-0.000528035860043019,-0.00260960031300783,-0.0037516443990171,0.0199324488639832
6,0.00230588368140161,0.0106253679841757,0.00087027542758733,-0.00319233117625117,0.000268593663349748,0.0164414849132299
7,0.00462880125269294,0.0107709774747491,0.00499081052839756,-0.00139963498804718,0.00265803677029908,0.0179700218141079
8,0.00631391815841198,0.00880092475563288,0.011009362526238,0.000686952727846801,0.00219934294000268,0.0237374901771545
9,0.00664261216297746,0.00675758253782988,0.0162743795663118,0.000228904347750358,-0.00048701383639127,0.0309754963964224
10,0.0057164691388607,0.00514244055375457,0.0187297761440277,-0.00365308579057455,-0.00423211976885796,0.0368802547454834
11,0.00372031447477639,0.00296180695295334,0.0171530060470104,-0.00920088123530149,-0.0101451855152845,0.0394917316734791
12,0.000618272344581783,0.00064311153255403,0.0116893984377384,-0.0129167940467596,-0.0183332357555628,0.03976209461689
13,-0.00232951832003891,-0.00133718783035874,0.00523285334929824,-0.0134687861427665,-0.0229485463351011,0.0383600890636444
14,-0.00393397407606244,-0.00340429949574173,0.00144759332761168,-0.0126226413995028,-0.0212512202560902,0.0347252003848553
15,-0.00474904756993055,-0.00508362101390958,0.00141412997618318,-0.0115352170541883,-0.0178862903267145,0.0301611162722111
16,-0.00538407871499658,-0.00548937357962132,0.0036934856325388,-0.00961811374872923,-0.015484357252717,0.0272182412445545
17,-0.00521322852000594,-0.00397786591202021,0.00646349834278226,-0.00637207832187414,-0.0122394692152739,0.0278435721993446
18,-0.00423328299075365,-0.00165513576939702,0.00749806314706802,-0.00315815024077892,-0.00776560232043266,0.0306304357945919
19,-0.00374182127416134,-0.000350207526935264,0.00588698452338576,-0.000831891607958823,-0.00372902303934097,0.0326744616031647
20,-0.00464517483487725,0.000122528610518202,0.00381726026535034,0.0022406002972275,-0.00144788343459368,0.0342125706374645
21,-0.00663155689835548,8.46137700136751E-05,0.00326902396045625,0.00620710430666804,-0.00195466401055455,0.0360359027981758
22,-0.00813575461506844,-0.00127089151646942,0.00413330597802997,0.00829361751675606,-0.00381090026348829,0.0369236506521702
23,-0.00856459885835648,-0.00171769282314926,0.00481104664504528,0.00611425330862403,-0.00470582395792007,0.0365943685173988
24,-0.00932088494300842,0.00168242631480098,0.00383294187486172,-1.68383976415498E-05,-0.00603857217356563,0.0365016646683216
25,-0.0105504347011447,0.00640799570828676,0.00180018588434905,-0.0069098798558116,-0.0106719406321645,0.0380331054329872
26,-0.0108700385317206,0.00875647831708193,0.000636328244581819,-0.0116661200299859,-0.0186362732201815,0.0398343205451965
27,-0.00957178045064211,0.00806346535682678,0.00270953238941729,-0.0142364725470543,-0.0258070267736912,0.0383702740073204
28,-0.00670491391792893,0.00631820503622293,0.00839728489518166,-0.01523750834167,-0.0267412625253201,0.0331289060413837
29,-0.00322956684976816,0.0064535322599113,0.0145312529057264,-0.0136724943295121,-0.0207204539328814,0.0277545470744371
30,-0.000778223271481693,0.00901764538139105,0.0176665261387825,-0.00861327722668648,-0.013648989610374,0.0267063677310944
31,-0.000363095809007064,0.0125630814582109,0.0165132712572813,-0.00255612866021693,-0.011228134855628,0.0305188205093145
32,-0.0010940539650619,0.0148528283461928,0.0129474820569158,0.000964120903518051,-0.0116857634857297,0.034385196864605
33,-0.00105914322193712,0.0134541634470224,0.00972777511924505,0.00114902947098017,-0.010224468074739,0.0331267975270748
34,-1.66236554832722E-06,0.00926090124994516,0.00701385270804167,-0.00124071666505188,-0.00703762331977487,0.0271983258426189
35,0.000841163913719356,0.00584054086357355,0.00481162592768669,-0.00446548638865352,-0.00451654614880681,0.0219185259193182
36,0.000823091948404908,0.00520492671057582,0.00415600417181849,-0.00597885297611356,-0.00321473157964647,0.0211318228393793
37,0.000268578733084723,0.00725769624114037,0.00459902174770832,-0.00493144616484642,-0.00359575473703444,0.0244456566870213
38,-0.000249392876867205,0.0104929506778717,0.00506213353946805,-0.00335435965098441,-0.00504624284803867,0.0290197171270847
39,-0.000327624729834497,0.0129929995164275,0.00561324460431933,-0.00258461246266961,-0.00554013485088944,0.0331501699984074
40,-0.000117550895083696,0.0133085651323199,0.00631113769486547,-0.00210703862830997,-0.00425517419353127,0.0362920686602592
41,0.000849202973768115,0.0112349800765514,0.00750911841169,-0.00168294657487422,-0.000383403763407841,0.0359745174646378
42,0.00336937233805656,0.00840657483786345,0.009810671210289,-0.00106957950629294,0.00588017655536532,0.0310450773686171
43,0.00610681250691414,0.00700382050126791,0.0122779747471213,0.0005606270278804,0.0111264185979962,0.0259693562984467
44,0.00664615491405129,0.00741492910310626,0.0137567967176437,0.00275794533081353,0.0120631577447057,0.0257192384451628
45,0.0043121324852109,0.00919249374419451,0.0149539671838284,0.00369913689792156,0.00758406054228544,0.0309433229267597
46,0.000460074399597943,0.0132812140509486,0.0162767935544252,0.00246378662995994,-0.0017203981988132,0.0386600866913795
47,-0.00398570625111461,0.0171443317085505,0.0146919842809439,-0.00204340857453644,-0.0134095251560211,0.0435722060501575
48,-0.00826110504567623,0.016010943800211,0.00873837806284428,-0.00856717303395271,-0.0227647349238396,0.0430422574281693
49,-0.0107507267966866,0.0110277682542801,0.00195570709183812,-0.0128782596439123,-0.0252092070877552,0.0389874130487442
50,-0.0107527356594801,0.00637397496029735,-0.00174222327768803,-0.0132611803710461,-0.0199396703392267,0.0340746752917767
51,-0.00890560634434223,0.00544585799798369,-0.000568897521588951,-0.0100148366764188,-0.0103100957348943,0.0312435980886221
52,-0.00725576048716903,0.00921794772148132,0.00328162242658436,-0.0052362778224051,-0.00240947608835995,0.0314976722002029
53,-0.00752089684829116,0.0142170181497931,0.00549076264724135,-0.00226955581456423,-0.00120960536878556,0.0317363142967224
54,-0.0083877369761467,0.0165870822966099,0.00608316669240594,-0.00037613621680066,-0.00388662819750607,0.0294167827814817
55,-0.00736395549029112,0.0145536903291941,0.00791133474558592,0.00237781135365367,-0.00228290539234877,0.0238254964351654
56,-0.00373113132081926,0.00850315298885107,0.0113402958959341,0.00403491733595729,0.00605224538594484,0.0158360358327627
57,0.000812718877568841,0.00201637391000986,0.0142146646976471,0.00233043590560555,0.0162433814257383,0.0102344499900937
58,0.00362572772428393,-0.00134336960036308,0.0140162529423833,-0.00248027849011123,0.0227255653589964,0.0106286415830255
59,0.00444116024300456,-0.00160199601668864,0.0108874812722206,-0.00858362950384617,0.0253327190876007,0.0133563028648496
60,0.0042643086053431,0.000315219629555941,0.00710997637361288,-0.0136669427156448,0.0265802536159754,0.0132584245875478
61,0.00333565985783935,0.00513416528701782,0.00445255031809211,-0.0161514636129141,0.0255431141704321,0.0107665359973907
62,0.00194892869330943,0.0104500139132142,0.00426913145929575,-0.0161229912191629,0.0206032451242208,0.00833328254520893
63,0.000371955538867041,0.0113174943253398,0.00632015103474259,-0.0153263658285141,0.0130186667665839,0.00731215486302972
64,-0.000430257990956306,0.00852755736559629,0.00831963028758764,-0.0152051597833633,0.0053605898283422,0.00991016253829002
65,-0.000609809707384557,0.00698656681925058,0.0084795905277133,-0.0152060259133577,-0.00222361437045038,0.0169982183724642
66,-0.00178303616121411,0.00882765278220177,0.00745188724249601,-0.0138378208503127,-0.00967355724424124,0.0260968953371048
67,-0.00384156801737845,0.013857938349247,0.00701041845604777,-0.0100226178765297,-0.0138554610311985,0.0348547399044037
68,-0.00634728418663144,0.0202020481228828,0.00695502199232578,-0.00550301698967814,-0.0133268469944596,0.0410275682806969
69,-0.00983105413615704,0.0221224743872881,0.00525764655321836,-0.0048489454202354,-0.0103088095784187,0.0412158295512199
70,-0.0137530015781522,0.017078185454011,0.00154917873442173,-0.00815584510564804,-0.00698944786563516,0.0359958931803703
71,-0.0162295829504728,0.0102524086833,-0.00170026568230242,-0.010146651417017,-0.00337380496785045,0.02947779558599
72,-0.0158058721572161,0.00577510660514236,-0.0021959925070405,-0.00837911758571863,0.000525670417118818,0.0233983639627695
73,-0.0130626671016216,0.00316684017889202,-0.000341592880431563,-0.00531408982351422,0.00366502185352147,0.0176463089883327
74,-0.00968403648585081,0.00282326759770513,0.00147086998913437,-0.00360193243250251,0.00526093970984221,0.0137684848159552
75,-0.00629386911168695,0.00674281921237707,0.00204622279852629,-0.00310796545818448,0.00496386410668492,0.0142173245549202
76,-0.0029011401347816,0.0121460221707821,0.00275902380235493,-0.00317077105864882,0.00456836493685842,0.0173746943473816
77,-0.000509826058987528,0.0133524797856808,0.00438473280519247,-0.00366862793453038,0.00616201153025031,0.0186432469636202
78,0.000117008326924406,0.00944127049297094,0.00553054548799992,-0.00391351152211428,0.00846012867987156,0.0157371759414673
79,0.000413152563851327,0.00326882628723979,0.00510111125186086,-0.0038205177988857,0.00948156602680683,0.00963666290044785
80,0.0015255999751389,-0.00194703403394669,0.00321228639222682,-0.0042890184558928,0.0077313301153481,0.0040980214253068
81,0.00223460095003247,-0.00442625535652041,-5.5808723118389E-05,-0.00673445500433445,0.00229848688468337,0.000833799946121871
82,0.00137782073579729,-0.00495568942278624,-0.003416339866817,-0.0114536872133613,-0.00362381245940924,-0.00211692997254431
83,-0.00108518125489354,-0.00491377525031567,-0.00459275301545858,-0.0161725226789713,-0.00674347067251801,-0.00393318291753531
84,-0.00421886285766959,-0.00452362699434161,-0.0032315703574568,-0.0181323979049921,-0.00798345543444157,-0.00241902866400778
85,-0.00672441255301237,-0.00350513029843569,-0.000722352240700275,-0.0156975369900465,-0.00781842134892941,0.000775720400270075
86,-0.00839479081332684,-0.00253349868580699,0.00204765889793634,-0.00971783511340618,-0.00466855196282268,0.00203290930949152
87,-0.0095583600923419,-0.00220512808300555,0.00495029240846634,-0.00435079541057348,0.000408104358939454,0.000784396252129227
88,-0.0107192602008581,-0.000689155422151089,0.00656760297715664,-0.0028155364561826,0.00221337797120214,0.00158549100160599
89,-0.0121035883203149,0.00534353079274297,0.00584861682727933,-0.0034226777497679,-0.00190724886488169,0.00934425834566355
90,-0.0128052718937397,0.0157633256167173,0.00364767713472247,-0.0038253040984273,-0.00742030376568437,0.0219442378729582
91,-0.0118493819609284,0.0234953463077545,0.000925139582250267,-0.00438640872016549,-0.0085818050429225,0.0309354532510042
92,-0.00952859781682491,0.0218317955732346,-0.000291581905912608,-0.00492657069116831,-0.00499160960316658,0.0299568735063076
93,-0.00707954168319702,0.012263398617506,0.00133276183623821,-0.00557172438129783,-0.000111977111373562,0.0188807435333729
94,-0.0052327886223793,0.00084050529403612,0.00339037994854152,-0.00693086721003056,0.00329142855480313,0.00250767380930483
95,-0.00419172225520015,-0.00845473073422909,0.0024261549115181,-0.00817423779517412,0.00426318543031812,-0.0129165798425674
96,-0.00409844750538468,-0.0150699196383357,-0.0021944111213088,-0.00919280108064413,0.00256464956328273,-0.0230282191187143
97,-0.00369161600247025,-0.0191638041287661,-0.00701154721900821,-0.0102754356339574,0.000425590231316164,-0.0260638035833836
98,-0.00170795212034136,-0.0194168742746115,-0.00851713679730892,-0.0104229096323252,9.8585311206989E-05,-0.0221292842179537
99,0.000736053276341408,-0.0140018295496702,-0.00651720445603132,-0.00846767891198397,-0.000695150578394532,-0.012424529530108
100,0.00273513630963862,-0.00480285054072738,-0.00165844289585948,-0.00438915798440576,-0.00235984474420547,0.000443368859123439
101,0.00464366190135479,0.00274295383132994,0.00418860139325261,0.000356967328116298,-0.00133683241438121,0.0121161192655563
102,0.00607327185571194,0.00563294813036919,0.00791032705456018,0.00379736465401948,0.00252867350354791,0.0186120923608541
103,0.00681510986760259,0.00573685066774488,0.00916237663477659,0.00605293037369847,0.00615014042705297,0.0205618366599083
104,0.00652358401566744,0.00571863865479827,0.00925505347549915,0.00859342236071825,0.00654618255794048,0.0214740484952927
105,0.00405248673632741,0.00572705967351794,0.00884304195642471,0.0114729544147849,0.00335711310617626,0.0221999809145927
106,0.000861922453623265,0.00500122271478176,0.00878628436475992,0.0137264328077435,-6.58527060295455E-05,0.0210186801850796
107,7.8369201219175E-05,0.00337227014824748,0.00962113309651613,0.0142297772690654,-0.00121949159074575,0.0176739264279604
108,0.00107450317591429,0.00143488706089556,0.0114319501444697,0.0128375720232725,-0.000739472860004753,0.014991813339293
109,0.000426799990236759,-0.000655883166473359,0.0135318087413907,0.0105859227478504,-0.000924008782021701,0.0147230718284845
110,-0.00253092963248491,-0.00291959382593632,0.0145189017057419,0.00910094659775496,-0.0038390529807657,0.0152465747669339
111,-0.00529291247949004,-0.0035188386682421,0.0137690911069512,0.00882389023900032,-0.0071548861451447,0.014281933195889
112,-0.00610706768929958,-0.00261763180606067,0.0106476722285151,0.00740012107416987,-0.00703123677521944,0.0110704498365521
113,-0.0051873167976737,-0.00298960506916046,0.00582576543092728,0.00348674389533699,-0.0043917247094214,0.00656486535444856
114,-0.00413368921726942,-0.0044191344641149,0.00178317131940275,-0.001271195942536,-0.00361786433495581,0.00187971733976156
115,-0.00505590438842773,-0.00616047438234091,-0.00161749741528183,-0.0059850737452507,-0.00871599931269884,-0.00272636767476797
116,-0.00872833840548992,-0.00978802610188723,-0.0061369314789772,-0.0113101107999682,-0.0196024235337973,-0.00701135257259011
117,-0.0134316887706518,-0.0140418149530888,-0.0113261509686708,-0.0162594467401505,-0.0304695218801498,-0.0101771121844649
118,-0.0156498216092587,-0.0129564916715026,-0.0148618770763278,-0.0176019575446844,-0.0332465991377831,-0.0110006080940366
119,-0.0137164555490017,-0.00518970331177115,-0.0147402081638575,-0.0140746980905533,-0.0252945926040411,-0.00877855811268091
120,-0.00922090094536543,0.00193409959319979,-0.0106492573395371,-0.00923050381243229,-0.0110550029203296,-0.00518329860642552
121,-0.00389535003341734,0.00403422629460692,-0.00345468055456877,-0.00673970393836498,0.00417090440168977,-0.00242880289442837
122,0.00118117674719542,0.00425090361386538,0.0038523655384779,-0.00646670069545507,0.015673516318202,0.000315949437208474
123,0.00478880200535059,0.00485299853608012,0.00740154599770904,-0.00713445572182536,0.0197024904191494,0.00343216047622263
124,0.00596748013049364,0.00443159369751811,0.00663249939680099,-0.00797706935554743,0.0159274693578482,0.00557432370260358
125,0.00432806508615613,0.0024262445513159,0.00390968006104231,-0.0080243581905961,0.00618684012442827,0.00809483230113983
126,0.00118000840302557,0.000118262010801118,0.00210790522396564,-0.00639134692028165,-0.00430793128907681,0.0119121838361025
127,-0.00119007320608944,-0.00129443663172424,0.00259528635069728,-0.00323053100146353,-0.00903970934450626,0.0148087749257684
128,-0.00205260887742043,-0.00126207165885717,0.00386145384982228,9.78185539679544E-07,-0.00789838843047619,0.0150459427386522
129,-0.00213833432644606,0.000646369415335357,0.0046430598013103,0.00280720205046237,-0.00602262420579791,0.0139708425849676
130,-0.00229756697081029,0.00386346597224474,0.00663462607190013,0.00669209053739905,-0.00693751545622945,0.0145321292802691
131,-0.00283518177457154,0.00680561130866408,0.0103737190365791,0.0110988216474652,-0.00970621313899755,0.0159860551357269
132,-0.00287012779153883,0.00881269387900829,0.0131351184099913,0.0127179315313697,-0.010790241882205,0.0141581771895289
133,-0.000798272667452693,0.00919936690479517,0.0139147881418467,0.0112647172063589,-0.00762860104441643,0.00799817498773336
134,0.0027261758223176,0.00782516784965992,0.0131063396111131,0.00935505144298077,-0.00154043489601463,0.000555400794837624
135,0.00458734994754195,0.00560512905940413,0.00947485771030188,0.00682790251448751,0.002650102134794,-0.00629288796335459
136,0.0040294611826539,0.00323128537274897,0.00379789317958057,0.00214647082611918,0.0029237896669656,-0.0119042256847024
137,0.00309822452254593,0.00240203551948071,-0.00105460884515196,-0.00386581663042307,0.00245456001721323,-0.0134548051282763
138,0.00215309322811663,0.00302574667148292,-0.00450411532074213,-0.00930806528776884,0.0031406122725457,-0.0101310508325696
139,-0.000135063703055494,0.00169680512044579,-0.00717579759657383,-0.0129733979701996,0.00378990918397903,-0.00647817179560661
140,-0.00279641454108059,-0.00179916759952903,-0.00824492424726486,-0.014187722466886,0.00409887684509158,-0.00625054072588682
141,-0.00310692237690091,-0.00316062360070646,-0.00654147053137422,-0.0126514732837677,0.00556114036589861,-0.00759082892909646
142,-0.00025112257571891,0.00014045626448933,-0.00247294548898935,-0.0104682352393866,0.00998154375702143,-0.00723762437701225
143,0.00404537050053477,0.00633847108110785,0.000508090364746749,-0.0105800060555339,0.0143892839550972,-0.00449092499911785
144,0.00784927327185869,0.0135072460398078,-0.00061683141393587,-0.0119255259633064,0.0130523992702365,0.000388370070140809
145,0.0102606620639563,0.0200529005378485,-0.00289665814489126,-0.0115316910669208,0.00692115863785148,0.00622486928477883
146,0.0107689797878265,0.0227542724460363,-0.000924709544051439,-0.00811317283660173,0.00150177720934153,0.0112801641225815
147,0.0106984907761216,0.021097905933857,0.00651144701987505,-0.0016817320138216,-9.97926399577409E-05,0.0148217556998134
148,0.0115173300728202,0.0170663855969906,0.0146318636834621,0.00500422809273005,0.000617907790001482,0.0158189050853252
149,0.0118367839604616,0.0113009996712208,0.0176455359905958,0.00816578418016434,0.00115237606223673,0.012977079488337
150,0.0103045552968979,0.00450919941067696,0.0157293844968081,0.00806090235710144,0.00230654003098607,0.0067112660035491
151,0.0080413231626153,-0.00115279015153646,0.0124752167612314,0.00700438814237714,0.00541548104956746,-0.000598098733462393
152,0.00643471116200089,-0.00318435556255281,0.0100941015407443,0.00554343359544873,0.00874596275389194,-0.00632813852280378
153,0.0053615546785295,-0.00207383930683136,0.00971986539661884,0.00280482089146972,0.0106541374698281,-0.0109736416488886
154,0.00546154053881764,-0.000625679444056004,0.0114168738946319,0.000383240170776844,0.0139874005690217,-0.0166873317211866
155,0.00736028049141169,0.0013778533320874,0.0143207795917988,0.00269707688130438,0.0205665454268456,-0.0222792401909828
156,0.00855750404298306,0.00424470799043775,0.0163411106914282,0.00825988035649061,0.0256238263100386,-0.0251348651945591
157,0.00637281965464354,0.00521711306646466,0.0146866785362363,0.0102100567892194,0.0239496324211359,-0.0238911919295788
158,0.00252555520273745,0.00412180088460445,0.00996171962469816,0.00653554406017065,0.0172790288925171,-0.0179136376827955
159,0.000670950510539114,0.00246445136144757,0.00590076437219977,-0.000205129399546422,0.0115311378613114,-0.00890681054443121
160,0.00151975685730577,0.000331448158249259,0.00433298293501139,-0.0073876092210412,0.0101526109501719,0.000100086668680888
161,0.00326319900341332,-0.00188939354848117,0.00400244118645787,-0.0136222708970308,0.0119654620066285,0.00712707964703441
162,0.00378793128766119,-0.004483537748456,0.00272184005007148,-0.0193699989467859,0.013429144397378,0.0105960499495268
163,0.0028417743742466,-0.00686567835509777,6.13489755778573E-05,-0.0240978114306927,0.0125344591215253,0.0110336383804679
164,0.00145590805914253,-0.00621564127504826,-0.00241435202769935,-0.0247837211936712,0.00893169734627008,0.0119417356327176
165,5.1685932703549E-05,-0.00151139451190829,-0.00290438579395413,-0.0194835215806961,0.00410747155547142,0.0147447930648923
166,-0.00123936065938324,0.00439502811059356,-0.0021637212485075,-0.0107446778565645,0.000293719349429011,0.0161894001066685
167,-0.00253078085370362,0.00772584648802876,-0.00278183328919113,-0.00326325464993715,-0.00242613232694566,0.0135147394612432
168,-0.00325990188866854,0.0076508610509336,-0.00375976483337581,0.000631529081147164,-0.00287591363303363,0.0081612104550004
169,-0.00207450403831899,0.00613726489245892,-0.00252201594412327,0.00157821702305228,0.00139835919253528,0.00351497903466225
170,0.00122966035269201,0.00574172660708427,0.000701088400091976,0.00147168128751218,0.009719617664814,0.00119560060556978
171,0.00466640014201403,0.00691588316112757,0.00401507411152124,0.000700549047905952,0.0186664424836636,-0.00113626988604665
172,0.00609776051715016,0.00671943929046392,0.00546975154429674,-0.00163701619021595,0.0247034672647715,-0.00648276507854462
173,0.006265873555094,0.00372030353173614,0.00551835354417562,-0.00491487048566341,0.0269960798323154,-0.0137387774884701
174,0.00694026099517941,0.000478057452710345,0.00630270689725876,-0.00746206566691399,0.026918537914753,-0.0187360029667616
175,0.00806309748440981,-0.000926822307519615,0.00814407970756292,-0.00805885437875986,0.0251105893403292,-0.0181867033243179
176,0.00893763173371553,-0.00123185885604471,0.0103480834513903,-0.00661764713004231,0.0215060450136662,-0.0130805158987641
177,0.00967340357601643,-0.00202663079835474,0.012458230368793,-0.00436587538570166,0.0167051795870066,-0.00935092102736235
178,0.010461057536304,-0.0035168828908354,0.0140379816293716,-0.00300367083400488,0.0124370874837041,-0.0123977260664105
179,0.0113609787076712,-0.00459117628633976,0.0153142269700766,-0.00361938308924437,0.0113985920324922,-0.0200435202568769
180,0.0120033249258995,-0.00324082071892917,0.0154921989887953,-0.00633158395066857,0.0121942171826959,-0.023726150393486
181,0.0109780170023441,0.000721025571692735,0.0123878587037325,-0.0115889143198729,0.00871326122432947,-0.0184543505311012
182,0.00845547579228878,0.00374808418564498,0.00688057253137231,-0.0181914214044809,0.00134762621019036,-0.00711907027289271
183,0.00569801079109311,0.00317229609936476,0.00186765904072672,-0.0223689209669828,-0.00391350220888853,0.00388193689286709
184,0.00225118594244123,-0.00115503417328,-0.00350239221006632,-0.0235345046967268,-0.00711176451295614,0.00821787118911743
185,-0.00233234069310129,-0.00789943896234035,-0.0103545775637031,-0.0238614249974489,-0.012664639391005,0.00396204506978393
186,-0.00598948961123824,-0.0132275391370058,-0.0148344580084085,-0.0230056066066027,-0.0190280079841614,-0.00467862887308002
187,-0.00532200234010816,-0.0137928379699588,-0.0139991948381066,-0.0196990538388491,-0.0192631706595421,-0.0116567369550467
188,0.000143506156746298,-0.0110147520899773,-0.0101569276303053,-0.0149877546355128,-0.010456976480782,-0.0133030246943235
189,0.00725620985031128,-0.00868453085422516,-0.00605030031874776,-0.0108803762122989,0.00465559540316463,-0.0101141016930342
190,0.01276960875839,-0.00819101370871067,-0.00213217199780047,-0.00861387047916651,0.0221439562737942,-0.00578081281855702
191,0.0149778267368674,-0.00840122159570456,0.000833792262710631,-0.00804412271827459,0.0374181233346462,-0.00303358258679509
192,0.0141164371743798,-0.00809784885495901,0.0020604261662811,-0.00754726538434625,0.0463541224598885,-0.00247488729655743
193,0.0114341136068106,-0.00705679366365075,0.00307361967861652,-0.00538559257984161,0.047637801617384,-0.00415639067068696
194,0.00739305140450597,-0.00603627366945148,0.00502204988151789,-0.00167513859923929,0.0416049100458622,-0.00726502714678645
195,0.00292845163494349,-0.00668121268972754,0.00550121022388339,-6.46030312054791E-05,0.0305177792906761,-0.0112033579498529
196,-0.000495638698339462,-0.00918802618980408,0.00217766407877207,-0.00329449819400907,0.0186157636344433,-0.0147355329245329
197,-0.00203627930022776,-0.0112730460241437,-0.00211295811459422,-0.00802429020404816,0.0101364487782121,-0.0154218366369605
198,-0.000996325979940593,-0.0115651497617364,-0.00291163008660078,-0.0091847712174058,0.00702598225325346,-0.0130583578720689
199,0.00226359651423991,-0.0104045094922185,-0.000104394930531271,-0.00493368785828352,0.00815541483461857,-0.00933993607759476
200,0.00564036145806313,-0.00819544773548841,0.00391987012699246,0.00325985928066075,0.0101252403110266,-0.00633780984207988
201,0.00675885891541839,-0.00654092524200678,0.00714153191074729,0.011001804843545,0.00808146223425865,-0.00678086094558239
202,0.00495411735028028,-0.00646339124068618,0.00837856251746416,0.0143004367128015,0.000639204226899892,-0.00943094212561846
203,0.0016343230381608,-0.00511073367670178,0.00849668029695749,0.0136080803349614,-0.00751107838004828,-0.00879943091422319
204,-0.00156605790834874,0.00100366375409067,0.00791840068995953,0.0114327678456903,-0.0115833142772317,-0.00315194786526263
205,-0.00432397006079555,0.00936893839389086,0.00482771638780832,0.00830702390521765,-0.0108762159943581,0.00387626723386347
206,-0.00652542291209102,0.0123563883826137,-0.00105187203735113,0.00368073116987944,-0.00641439715400338,0.00732183083891869
207,-0.00802976451814175,0.00642222119495273,-0.00737964827567339,-0.00161340727936476,0.000425021862611175,0.00408375076949596
208,-0.00876503903418779,-0.00442600017413497,-0.0117053268477321,-0.00535010732710361,0.00754426419734955,-0.00447698449715972
209,-0.00838892348110676,-0.0135974753648043,-0.0126287490129471,-0.00523641239851713,0.0123635428026319,-0.012014620937407
210,-0.00747297517955303,-0.017372252419591,-0.0105059556663036,-0.00115692499093711,0.0127817979082465,-0.0119672622531652
211,-0.00633193785324693,-0.0168666411191225,-0.00694844778627157,0.00361570180393755,0.00984946638345718,-0.00515620457008481
212,-0.00468508433550596,-0.0150650460273027,-0.00323795527219772,0.00673775421455503,0.00617842469364405,0.0015226558316499
213,-0.00335763348266482,-0.0132463546469808,-2.34033468586858E-05,0.00938261765986681,0.00324839889071882,0.00345899420790374
214,-0.00323481485247612,-0.0113084856420755,0.00276996521279216,0.0125690512359142,0.00242434232495725,0.000908511749003083
215,-0.00388345215469599,-0.00940006598830223,0.00555949751287699,0.0157190170139074,0.00353000708855689,-0.0035483103711158
216,-0.00493406411260366,-0.00860152300447226,0.00745828170329332,0.0177774373441935,0.00316122709773481,-0.00794254336506128
217,-0.00597737776115537,-0.00916321109980345,0.00787028018385172,0.0185373537242413,0.000395547715015709,-0.0118774678558111
218,-0.0060928943566978,-0.00889259111136198,0.00835331715643406,0.0195536855608225,-0.00108861923217773,-0.0145521806553006
219,-0.00536015443503857,-0.00618929136544466,0.0092258108779788,0.0213745180517435,-0.000412447960115969,-0.014766507782042
220,-0.0038345695938915,-0.00241802772507072,0.00910312402993441,0.0218248795717955,0.000974854803644121,-0.0134446676820517
221,-0.00157926278188825,0.000559607869945467,0.00816591456532478,0.0197101775556803,0.00300004426389933,-0.0117707876488566
222,-0.000237289161304943,0.0021560222376138,0.00655183009803295,0.0159095246344805,0.00388322584331036,-0.0099131278693676
223,-0.000832973688375205,0.00389349530451,0.00298336101695895,0.0121505511924624,0.000910752452909946,-0.00811825226992369
224,-0.00271949591115117,0.00738515099510551,-0.00119588186498731,0.0118918521329761,-0.00527082616463304,-0.00503486022353172
225,-0.0052131088450551,0.0103667406365275,-0.00243021850474179,0.0167818814516068,-0.0114126270636916,-0.000545368646271527
226,-0.0076976865530014,0.0105232270434499,-0.000966793857514858,0.0230588596314192,-0.0157069638371468,0.00222671520896256
227,-0.010414726100862,0.00816025398671627,-0.000687708263285458,0.0251663010567427,-0.0194303393363953,0.000890210038051009
228,-0.0139411278069019,0.00387525372207165,-0.00323838298209012,0.0212485250085592,-0.0239931344985962,-0.00470034778118134
229,-0.0170526243746281,-0.000993702211417258,-0.00663303770124912,0.0142024019733071,-0.0276434291154146,-0.0123823210597038
230,-0.0182949174195528,-0.00437616277486086,-0.00865573342889547,0.00831280462443829,-0.0283796545118093,-0.0182969588786364
231,-0.0179120395332575,-0.0053042946383357,-0.00910781603306532,0.00533308135345578,-0.0279045645147562,-0.0205699801445007
232,-0.0167758855968714,-0.00464280974119902,-0.00851055420935154,0.00413384288549423,-0.0289683863520622,-0.0207934509962797
233,-0.0155441695824265,-0.00384945119731128,-0.00633113598451018,0.00332147278822958,-0.0319077186286449,-0.0212694630026817
234,-0.0142441987991333,-0.00325041427277029,-0.00323852803558111,0.00187286001164466,-0.0346584878861904,-0.022955596446991
235,-0.0129957729950547,-0.00241970364004374,-0.00280032842420042,-0.00094637117581442,-0.0363387800753117,-0.0256684850901365
236,-0.0126241268590093,-0.00181311939377338,-0.00708435755223036,-0.00492575531825423,-0.0380771420896053,-0.0289390031248331
237,-0.01360934227705,-0.00260756001807749,-0.0145656047388911,-0.00983935315161943,-0.0404397062957287,-0.0331272035837173
238,-0.0156479459255934,-0.00527255283668637,-0.0225366726517677,-0.0153778353706002,-0.044113177806139,-0.0393584035336971
239,-0.0173002667725086,-0.00884801894426346,-0.0281554348766804,-0.0203340873122215,-0.0489645265042782,-0.048073161393404
240,-0.0171769838780165,-0.0121375480666757,-0.0304983258247375,-0.0253115203231573,-0.0542363151907921,-0.0593394041061401
241,-0.0148551277816296,-0.0137899927794933,-0.0309080090373755,-0.0318924598395824,-0.0597844868898392,-0.0715342462062836
242,-0.0111204786226153,-0.0125267365947366,-0.0313440226018429,-0.0388781130313873,-0.065408781170845,-0.0801877677440643
243,-0.00827578455209732,-0.00980040803551674,-0.0333168990910053,-0.0445621497929096,-0.0709656700491905,-0.0829755440354347
244,-0.00772824743762612,-0.00850253365933895,-0.0368950515985489,-0.049343653023243,-0.0764470398426056,-0.0828391313552856
245,-0.00871239975094795,-0.00937924813479185,-0.0411286279559135,-0.0539979636669159,-0.0822533220052719,-0.0836717560887337
246,-0.01012899633497,-0.0116310603916645,-0.0448801293969154,-0.0582839399576187,-0.0885362103581429,-0.086618185043335
247,-0.0118220569565892,-0.0150162121281028,-0.0482017770409584,-0.0620213933289051,-0.0956394672393799,-0.0911192372441292
248,-0.0132846245542169,-0.0185705050826073,-0.0513219609856606,-0.0641846507787704,-0.103780336678028,-0.095550499856472
249,-0.0138730695471168,-0.0205760020762682,-0.0531251020729542,-0.063604511320591,-0.112019836902618,-0.0989130288362503
250,-0.0135673293843865,-0.0207513198256493,-0.0529648549854755,-0.0627061873674393,-0.11830098181963,-0.102632395923138
251,-0.0118467379361391,-0.0198483914136887,-0.051045011729002,-0.0646023079752922,-0.119243174791336,-0.107800871133804
252,-0.0093535678461194,-0.0194083414971828,-0.047846257686615,-0.069061666727066,-0.114622473716736,-0.114370569586754
253,-0.00848385877907276,-0.0202393624931574,-0.0458795465528965,-0.0742577239871025,-0.112405553460121,-0.121542386710644
254,-0.0100237000733614,-0.0208742208778858,-0.0478230863809586,-0.0785500183701515,-0.119124703109264,-0.126922830939293
255,-0.0122891310602427,-0.019837249070406,-0.052454985678196,-0.0811462104320526,-0.1295365691185,-0.128320246934891
256,-0.0136056076735258,-0.0157281775027514,-0.0572743639349937,-0.0822692364454269,-0.136282593011856,-0.125667944550514
257,-0.0142061430960894,-0.00826706644147635,-0.0621813200414181,-0.0841127783060074,-0.139929756522179,-0.122093766927719
258,-0.0148044833913445,-0.00144233694300056,-0.0674476698040962,-0.08922079205513,-0.14432318508625,-0.121259123086929
259,-0.0144380433484912,0.00122444517910481,-0.0714267715811729,-0.0963126048445702,-0.149408832192421,-0.123230457305908
260,-0.0132789611816406,-1.58625207404839E-05,-0.0736637860536575,-0.102627828717232,-0.15348356962204,-0.12587283551693
261,-0.0128594618290663,-0.00389634934253991,-0.0749411359429359,-0.106153525412083,-0.155791074037552,-0.126801669597626
262,-0.0124741001054645,-0.00846030842512846,-0.0745486840605736,-0.105682864785194,-0.154976725578308,-0.125202596187592
263,-0.0111387195065618,-0.01223667524755,-0.0730262398719788,-0.102884888648987,-0.151488095521927,-0.123329035937786
264,-0.0098423520103097,-0.0152951637282968,-0.0722583457827568,-0.10063811391592,-0.148116141557693,-0.124010495841503
265,-0.00906526204198599,-0.0166776720434427,-0.0718107894062996,-0.0996715500950813,-0.14604277908802,-0.127949148416519
266,-0.00827826838940382,-0.0152922030538321,-0.0709455534815788,-0.0986681282520294,-0.144461169838905,-0.13323512673378
267,-0.00768940756097436,-0.0134336380288005,-0.0711493268609047,-0.0973603427410126,-0.143278002738953,-0.137595474720001
268,-0.00712870946153998,-0.0124482261016965,-0.0725846514105797,-0.0967616587877274,-0.141706123948097,-0.139288187026978
269,-0.00560261961072683,-0.0101166600361466,-0.0730479136109352,-0.0964037925004959,-0.137974753975868,-0.136163726449013
270,-0.00300131319090724,-0.00583236059173942,-0.070505328476429,-0.0944851711392403,-0.133072599768639,-0.127293527126312
271,-0.000806424883194268,-0.00192537577822804,-0.0650675371289253,-0.0908844470977783,-0.129892334342003,-0.115082733333111
272,-0.00040683924453333,0.000466422527097166,-0.0594156831502914,-0.0870506465435028,-0.128888145089149,-0.102783136069775
273,-0.00129243277478963,0.00298477406613529,-0.0566764622926712,-0.0836575329303741,-0.127745553851128,-0.0918399170041084
274,-0.00181127840187401,0.00692311907187104,-0.0574124157428741,-0.0814052447676659,-0.123703792691231,-0.083785317838192
275,-0.00107477651908994,0.0110999885946512,-0.0592874251306057,-0.0809567272663116,-0.115633457899094,-0.0793453529477119
276,0.00053628085879609,0.0131826577708125,-0.0595945529639721,-0.0798738747835159,-0.104889698326588,-0.0756682232022285
277,0.00220663729123771,0.0132911875844002,-0.0574744790792465,-0.0755364596843719,-0.094754584133625,-0.0705704987049103
278,0.00346419890411198,0.0120405238121748,-0.053984172642231,-0.0700203478336334,-0.0877714082598686,-0.0663603320717812
279,0.00429644668474793,0.00734832836315036,-0.0499247126281261,-0.0664894133806229,-0.0837001949548721,-0.0656634047627449
280,0.00516898464411497,-0.000391994981328025,-0.0460612177848816,-0.0654008612036705,-0.0811695829033852,-0.0687762200832367
281,0.00692965183407068,-0.00724777532741427,-0.0441493764519691,-0.0649800226092339,-0.0782817006111145,-0.0728408172726631
282,0.00921361893415451,-0.0104386648163199,-0.0444214977324009,-0.0630974173545837,-0.0725930258631706,-0.0729659795761108
283,0.0105219995602965,-0.00946931727230549,-0.0443104021251202,-0.0586515814065933,-0.0637026354670525,-0.0678509846329689
284,0.00979112274944782,-0.00561752449721098,-0.0421862788498402,-0.0520559586584568,-0.0556210950016975,-0.0601249150931835
285,0.00715597672387958,-0.00138208933640271,-0.0397965498268604,-0.0454286932945251,-0.052645705640316,-0.0522079728543758
286,0.00373292062431574,0.00149959290865809,-0.0394522249698639,-0.040150448679924,-0.0533356033265591,-0.0457580089569092
287,0.000797127257101238,0.00327738397754729,-0.0401490703225136,-0.0359297320246696,-0.0518242157995701,-0.0435679778456688
288,-0.000495665590278804,0.00329101085662842,-0.0382964685559273,-0.0332856513559818,-0.0436631441116333,-0.0474649667739868
289,0.000161479489179328,0.000395258015487343,-0.0334817804396153,-0.0325482115149498,-0.0302506200969219,-0.0523233115673065
290,0.000831308832857758,-0.00343158794566989,-0.0306781474500895,-0.0328325740993023,-0.0201316010206938,-0.0497988052666187
291,-0.00123288319446146,-0.00560411065816879,-0.0331222116947174,-0.0340271554887295,-0.0205141510814428,-0.0391842648386955
292,-0.0043087862432003,-0.00476770242676139,-0.0359362736344337,-0.0343915410339832,-0.0257252901792526,-0.0256946962326765
293,-0.00395445059984922,-0.000997211784124374,-0.0331644602119923,-0.0307946261018515,-0.0250665154308081,-0.012543935328722
294,0.000605667533818632,0.00303334556519985,-0.025359895080328,-0.023712107911706,-0.0153058096766472,-0.00106573663651943
295,0.00689343316480517,0.00471904454752803,-0.0167175997048616,-0.0156812835484743,0.000116135262942407,0.00728658121079206
296,0.0113876713439822,0.00355867156758904,-0.0108219953253865,-0.00805796217173338,0.0143978372216225,0.012039540335536
297,0.0117509188130498,0.000426725368015468,-0.00704784225672483,-0.000608881236985326,0.0226325914263725,0.0147509882226586
298,0.00931454822421074,-0.00334368925541639,-0.00171649013645947,0.00711977807804942,0.0261008813977242,0.016837140545249
299,0.00672114873304963,-0.00667933700606227,0.00536451861262321,0.0134726986289024,0.0281100310385227,0.0178284663707018
300,0.00502489414066076,-0.00857126992195845,0.011142959818244,0.0181548930704594,0.0308576431125402,0.0179767925292253
301,0.00456476071849465,-0.00770900119096041,0.0143613023683429,0.0235740393400192,0.0362713858485222,0.0180191360414028
302,0.00496393628418446,-0.00514545571058989,0.0157394465059042,0.0293325018137693,0.0439836084842682,0.0171140301972628
303,0.0050672609359026,-0.00406782981008291,0.0156049821525812,0.032758891582489,0.0514621585607529,0.0159401297569275
304,0.00428718002513051,-0.0043917172588408,0.0136435786262155,0.032604094594717,0.0565389320254326,0.0169902127236128
305,0.00245372205972672,-0.00444561894983053,0.0105035714805126,0.0293251033872366,0.0579779669642448,0.0203271340578794
306,0.000609214592259377,-0.00456374604254961,0.00902099441736937,0.024913227185607,0.0568860061466694,0.0239107590168715
307,0.000531565514393151,-0.00474461447447538,0.011649064719677,0.0217547193169594,0.0555409602820873,0.0267016943544149
308,0.00163882051128894,-0.00362050416879356,0.0167976208031178,0.0210870914161205,0.0540144480764866,0.0288620591163635
309,0.00247019389644265,-0.0010077441111207,0.0217144526541233,0.0235627349466085,0.0519895181059837,0.0308666042983532
310,0.00306131853722036,0.000971708912402391,0.026064969599247,0.0305618532001972,0.0496875792741776,0.0340589433908463
311,0.00437687570229173,0.00115949672181159,0.029642928391695,0.041956253349781,0.0480390302836895,0.0387648157775402
312,0.00648857792839408,0.000495316693559289,0.031171128153801,0.0538347102701664,0.0484573319554329,0.0421571843326092
313,0.00709846150130033,-0.00116614659782499,0.0305449981242418,0.0613529048860073,0.0497034154832363,0.0419275499880314
314,0.00505244452506304,-0.00389506225474179,0.0289685409516096,0.0621771402657032,0.0502228513360024,0.0398755297064781
315,0.00274715386331081,-0.00411543715745211,0.0279608406126499,0.0580992586910725,0.0505953021347523,0.0403068289160728
316,0.00310482969507575,0.000252714176895097,0.0290664341300726,0.0536771789193153,0.0527582392096519,0.045614518225193
317,0.00609886646270752,0.00483480794355273,0.0313414558768272,0.051406092941761,0.0583518519997597,0.0536183007061481
318,0.00951843149960041,0.00558773754164577,0.0323773883283138,0.0513353012502193,0.066007174551487,0.0604737624526024
319,0.012398574501276,0.00347956595942378,0.0325230695307255,0.0532353967428207,0.0731751993298531,0.0646263211965561
320,0.0144802154973149,0.00027330411830917,0.0334240198135376,0.0553264133632183,0.078571118414402,0.0660910457372665
321,0.0153470868244767,-0.00224217772483826,0.0358381234109402,0.0566735565662384,0.0810176208615303,0.0664631128311157
322,0.0144276199862361,-0.00225502252578735,0.0395269654691219,0.0593158043920994,0.0801150649785995,0.068147711455822
323,0.010782920755446,-0.00121334020514041,0.0428117029368877,0.0640414655208588,0.077447921037674,0.0700330138206482
324,0.00585562596097589,-0.0012476792326197,0.0449598096311092,0.0697484239935875,0.0750314295291901,0.0695479214191437
325,0.0023620780557394,-0.000764243304729462,0.0469471737742424,0.0754430964589119,0.0727650448679924,0.0665322989225388
326,0.000654332805424929,0.00165964895859361,0.048572339117527,0.07981176674366,0.0692407563328743,0.0620312727987766
327,0.000614357879385352,0.0031762751750648,0.0489636920392513,0.0816240385174751,0.0662544071674347,0.0573052503168583
328,0.00223100394941866,0.00298844929784536,0.0487738400697708,0.0813039466738701,0.0670474842190742,0.0554687902331352
329,0.00365906557999551,0.00486021395772696,0.0487346835434437,0.0802505612373352,0.0705949738621712,0.0593544244766235
330,0.00316127575933933,0.00989874079823494,0.0485078729689121,0.0781163051724434,0.0728640481829643,0.0663637742400169
331,0.00171650410629809,0.0146777657791972,0.0483929850161076,0.0744818672537804,0.073204018175602,0.0714024901390076
332,0.000946884392760694,0.0161211751401424,0.0481548681855202,0.0708466842770576,0.0743113905191422,0.0734762474894524
333,0.000910205068066716,0.0142854750156403,0.0466816388070583,0.0688383802771568,0.0776053592562675,0.0750098675489426
334,0.00114166992716491,0.0105042653158307,0.0450169332325459,0.0694538652896881,0.0834188461303711,0.0768972784280777
335,0.000824078219011426,0.0063238013535738,0.0445628054440022,0.0727878585457802,0.0897440984845161,0.0785701349377632
336,-0.00144393322989345,0.00309025659225881,0.043547198176384,0.0758097842335701,0.0910614505410194,0.0791120752692223
337,-0.0056573860347271,0.00154312571976334,0.0405546352267265,0.0754251033067703,0.0850905850529671,0.0776705592870712
338,-0.0091910595074296,0.00265080225653946,0.0385336317121983,0.0750017538666725,0.0773496478796005,0.0763935819268227
339,-0.009780028834939,0.00513578858226538,0.0400544404983521,0.0788602381944656,0.0739881992340088,0.0762316733598709
340,-0.00734903104603291,0.00481584807857871,0.0435181744396687,0.0847851783037186,0.0759400948882103,0.0732455924153328
341,-0.00340469600632787,-0.000131768771097995,0.0461139269173145,0.08831537514925,0.0804094672203064,0.0662990435957909
342,-0.000415344024077058,-0.00648173084482551,0.0468595996499062,0.0881723389029503,0.0830382779240608,0.0597410127520561
343,0.000495896209031343,-0.00986876338720322,0.0470083355903625,0.0857011154294014,0.0807993784546852,0.0572892166674137
344,0.000459931878140196,-0.00804159697145224,0.0485931485891342,0.0831829160451889,0.0745468139648438,0.0594867132604122
345,7.15301575837657E-05,-0.00152607308700681,0.0521054305136204,0.0832050144672394,0.0677149742841721,0.0642769560217857
346,-0.000504098425153643,0.00469151465222239,0.0556255057454109,0.0865383297204971,0.0638748407363892,0.0678002461791039
347,-0.0001942778180819,0.00631822971627116,0.0570835694670677,0.0900069028139114,0.0650529116392136,0.067203551530838
348,0.000434145069448277,0.00473545072600245,0.0557584390044212,0.0885177329182625,0.069346010684967,0.063247948884964
349,0.000205455915420316,0.00262679252773523,0.0521056726574898,0.0808256864547729,0.0727931708097458,0.0591050200164318
350,-0.000492127961479127,0.00197563949041069,0.0474083982408047,0.0718023404479027,0.0737462490797043,0.0572672449052334
351,-0.00147848611231893,0.0035262166056782,0.0426796302199364,0.0667976066470146,0.0733267962932587,0.0585959181189537
352,-0.00293955695815384,0.00586220901459455,0.0384439378976822,0.0660952925682068,0.0735177919268608,0.0628597438335419
353,-0.00428723637014627,0.00780749972909689,0.0346541553735733,0.0661387965083122,0.0756054073572159,0.06832005828619
354,-0.00487344153225422,0.009621636942029,0.0313561223447323,0.0643124654889107,0.0794415026903152,0.0714993923902512
355,-0.00456021772697568,0.0105583677068353,0.0296132545918226,0.0616717375814915,0.0838308706879616,0.0695033520460129
356,-0.00302673201076686,0.0090789906680584,0.0300592556595802,0.0608160831034184,0.0874144285917282,0.0627615302801132
357,-0.000422469136537984,0.00540625210851431,0.0316292531788349,0.06186593323946,0.0886491984128952,0.053700789809227
358,0.00209569348953664,0.000787880446296185,0.0332828424870968,0.0627394914627075,0.0864601209759712,0.0452985875308514
359,0.00374338962137699,-0.00360819674097002,0.0348536595702171,0.0618753843009472,0.0810573548078537,0.0411125309765339
360,0.00464829755946994,-0.00657688733190298,0.0353082790970802,0.0585699491202831,0.0727223306894302,0.0424156412482262
361,0.00533775519579649,-0.00736984563991427,0.0346185676753521,0.0533150359988213,0.0635446831583977,0.0464926399290562
362,0.00615598913282156,-0.00669543026015162,0.0351792089641094,0.0482628829777241,0.0579209923744202,0.0504091829061508
363,0.00726225133985281,-0.00584605988115072,0.0376721285283566,0.0463260225951672,0.0571562610566616,0.052797582000494
364,0.00876285135746002,-0.00578132178634405,0.0402558296918869,0.0497201234102249,0.059327132999897,0.0509993024170399
365,0.0103173162788153,-0.00683392584323883,0.0429721660912037,0.0581823401153088,0.0629698559641838,0.043410561978817
366,0.01147495303303,-0.00777252530679107,0.0471608564257622,0.0680584535002708,0.0668799057602882,0.0338803566992283
367,0.0120635740458965,-0.00646582199260592,0.0511465631425381,0.0749304741621017,0.0702465027570724,0.0288205780088902
368,0.0118285957723856,-0.00210407166741788,0.0521204806864262,0.0778099000453949,0.0727471709251404,0.0320076420903206
369,0.0103348977863789,0.00341675314120948,0.0499353259801865,0.0786183178424835,0.0742304474115372,0.0425440557301044
370,0.00768720451742411,0.00867049023509026,0.0461168177425861,0.0785862430930138,0.0755049735307693,0.0550472736358643
371,0.00490575330331922,0.0146859493106604,0.0420973002910614,0.0773587003350258,0.0771054103970528,0.0628912672400475
372,0.00260944850742817,0.0197920259088278,0.038014754652977,0.0741940662264824,0.0770224407315254,0.0632395967841148
373,0.000539275642950088,0.0194304920732975,0.0326629467308521,0.0684143006801605,0.0731687769293785,0.0568456575274467
374,-0.000765978475101292,0.012962712906301,0.0274535976350307,0.0605531856417656,0.0685401186347008,0.0459580905735493
375,1.11340832518181E-05,0.00417486950755119,0.0258257482200861,0.0528069250285625,0.0667508020997047,0.0339609682559967
376,0.00249655358493328,-0.00435577845200896,0.0268796645104885,0.0459647364914417,0.0660237073898315,0.0219415817409754
377,0.00461019761860371,-0.010673732496798,0.0280252564698458,0.0410115569829941,0.0644123777747154,0.0110877389088273
378,0.00482757436111569,-0.0120993740856647,0.0295566469430923,0.0398659482598305,0.0624017380177975,0.00649504689499736
379,0.00321431970223784,-0.00953353941440582,0.0313026905059814,0.0400856137275696,0.059815339744091,0.0106698274612427
380,0.0015190796693787,-0.00515423668548465,0.0320828892290592,0.0382754169404507,0.0571552477777004,0.0200753267854452
381,0.00171181850600988,0.000156125213834457,0.0319628342986107,0.0359847769141197,0.0569723099470139,0.0300613585859537
382,0.00386019214056432,0.00412243511527777,0.0311071295291185,0.0362464152276516,0.0600730665028095,0.0375714600086212
383,0.00636737933382392,0.00484185246750712,0.0295640025287867,0.0397244393825531,0.0642778277397156,0.0403012856841087
384,0.00859128590673208,0.00257042748853564,0.0287551060318947,0.0444380044937134,0.0678811594843864,0.0371739976108074
385,0.0104733258485794,-0.00157926138490438,0.0295611955225468,0.0478211604058743,0.0688755065202713,0.0303520280867815
386,0.0108742201700807,-0.0057743270881474,0.0309722013771534,0.0501211732625961,0.0651491209864616,0.0249678399413824
387,0.00967465806752443,-0.00780576141551137,0.0324233211576939,0.0526343397796154,0.0592012219130993,0.0248651653528214
388,0.00809163972735405,-0.00657328777015209,0.0341793410480022,0.0551129728555679,0.0557501316070557,0.029902620241046
389,0.0068082339130342,-0.00325160287320614,0.0354609712958336,0.0559854730963707,0.0559476017951965,0.0364969447255135
390,0.00535494554787874,-4.85481796204112E-05,0.0347246043384075,0.0538642778992653,0.0579186230897903,0.0411501862108707
391,0.00287895952351391,0.00299772107973695,0.0320725664496422,0.0506146848201752,0.0594257935881615,0.0446382537484169
392,-0.000388927466701716,0.00771194929257035,0.0295882541686296,0.0494028888642788,0.059223361313343,0.0484447367489338
393,-0.0031349437776953,0.0148728983476758,0.0292323529720306,0.050363052636385,0.0570994950830936,0.050820741802454
394,-0.0047413450665772,0.0206388775259256,0.0306828953325748,0.051090132445097,0.0523195937275887,0.049196869134903
395,-0.00592647399753332,0.0190334152430296,0.0315379537642002,0.0500785000622272,0.0442427769303322,0.0431790426373482
396,-0.0069773462601006,0.0107715716585517,0.0308065637946129,0.0479879938066006,0.0356633849442005,0.0364088825881481
397,-0.00840027444064617,0.00138847017660737,0.0292894504964352,0.045761089771986,0.0291567966341972,0.0331004373729229
398,-0.0110461367294192,-0.00556066492572427,0.027297105640173,0.0425815097987652,0.0236536636948586,0.0324606150388718
399,-0.0132503574714065,-0.00803710520267487,0.024849645793438,0.0366491638123989,0.0200415533035994,0.0311167370527983
400,-0.0124669438228011,-0.0057724229991436,0.0217178203165531,0.0281503181904554,0.0209102686494589,0.0284716244786978
401,-0.00866792723536491,-0.00177540036384016,0.0172671768814325,0.0200908333063126,0.026852548122406,0.026540843769908
402,-0.00373164191842079,0.000937771110329777,0.0120210666209459,0.0173803884536028,0.0361958108842373,0.0252986401319504
403,0.000329942442476749,0.0013575378106907,0.00833437778055668,0.0221134349703789,0.0442071072757244,0.0206134468317032
404,0.00283149536699057,-0.000288034410914406,0.00797113217413425,0.0302240867167711,0.0474908202886581,0.0108224870637059
405,0.00446335505694151,-0.00323978019878268,0.0102163860574365,0.0369915515184402,0.0472927317023277,-0.000527832715306431
406,0.00529862428084016,-0.0068953619338572,0.0132453329861164,0.0409517288208008,0.0446483381092548,-0.00963456835597754
407,0.0042186863720417,-0.00905442517250776,0.0155243463814259,0.0420674569904804,0.0390864387154579,-0.0126692913472652
408,0.0015211186837405,-0.00714741228148341,0.0164409410208464,0.0405927821993828,0.0330322235822678,-0.00668463623151183
409,-0.000671146961394697,-0.00270688394084573,0.0163496490567923,0.0362258777022362,0.029664808884263,0.00499723944813013
410,-0.00155651301611215,0.000682484067510813,0.0159421004354954,0.0290213096886873,0.0278511606156826,0.0152645576745272
411,-0.00126520963385701,0.0025726743042469,0.0151686230674386,0.0214432943612337,0.0255069620907307,0.0211465656757355
412,-0.000198924564756453,0.00376654136925936,0.0127263255417347,0.0158524047583342,0.0222605001181364,0.0231363009661436
413,0.00072461721720174,0.00384237756952643,0.00932887941598892,0.0134913045912981,0.0191127434372902,0.0223989747464657
414,0.00258758501149714,0.00404136022552848,0.00896050315350294,0.0161718744784594,0.0201144944876432,0.0225431080907583
415,0.00572175206616521,0.00734861474484205,0.0127528812736273,0.0241443198174238,0.0256646536290646,0.0261641163378954
416,0.00695413211360574,0.0145368073135614,0.0165857095271349,0.0327059775590897,0.0295375362038612,0.0290097743272781
417,0.00510054267942905,0.0215941350907087,0.0170322097837925,0.0348433926701546,0.0296284798532724,0.0258683897554874
418,0.00219683302566409,0.0231425669044256,0.0133694997057319,0.0282943807542324,0.0280514359474182,0.0186316501349211
419,-0.000757751287892461,0.0186128672212362,0.00639022141695023,0.0177377685904503,0.0246241763234138,0.0126880966126919
420,-0.00272335181944072,0.0118364645168185,9.96782728179824E-06,0.0109520712867379,0.0212437100708485,0.0112116597592831
421,-0.00158591673243791,0.00611581280827522,-0.0014665211783722,0.0113102532923222,0.0226777661591768,0.0133508369326591
422,0.00239064125344157,0.00224664760753512,0.00193715118803084,0.0158211402595043,0.0280841793864965,0.0155769856646657
423,0.00673995306715369,-2.99266012007138E-05,0.00709484424442053,0.0201287399977446,0.0317385718226433,0.0147571386769414
424,0.00992792751640081,-0.00135814805980772,0.0109765073284507,0.021442074328661,0.0311634819954634,0.0102878706529737
425,0.0118716266006231,-0.00317842070944607,0.0119963912293315,0.0203182883560658,0.0284416545182467,0.0052057602442801
426,0.0128011610358953,-0.00649157026782632,0.0104771070182323,0.0196070801466703,0.0259219780564308,0.00290200766175985
427,0.0127167655155063,-0.0102620385587215,0.00824526138603687,0.0203607100993395,0.0238857418298721,0.00235308357514441
428,0.0119630917906761,-0.0117598213255405,0.00761531013995409,0.0216207262128592,0.0232037268579006,0.00114569638390094
429,0.0112516395747662,-0.00933441612869501,0.00961920153349638,0.0229926221072674,0.024713508784771,0.000287208880763501
430,0.0109325191006064,-0.00545656867325306,0.0130445808172226,0.0236138831824064,0.0273154396563768,0.000897263351362199
431,0.0106488205492496,-0.00381525256671011,0.0158125534653664,0.0223025679588318,0.0291610937565565,0.00218575797043741
432,0.0095011331140995,-0.00490034371614456,0.0157498400658369,0.0201541408896446,0.0280622374266386,0.00403757160529494
433,0.00767507497221231,-0.00704186502844095,0.0123008163645864,0.0186420194804668,0.0244965739548206,0.00657743820920587
434,0.00617542210966349,-0.00833196751773357,0.00782976858317852,0.0177241936326027,0.0221784431487322,0.00863037165254354
435,0.00415063230320811,-0.00770410103723407,0.00471080280840397,0.0173083860427141,0.0218415502458811,0.0083781685680151
436,0.000749147788155824,-0.00564897386357188,0.00353240827098489,0.0167562514543533,0.0207012817263603,0.00511154439300299
437,-0.00218405248597264,-0.00284507707692683,0.0037760348059237,0.0141960009932518,0.0185123924165964,-0.000196817607502453
438,-0.00283396034501493,0.00164335034787655,0.00412360159680247,0.00929887872189283,0.0170372053980827,-0.00509483646601439
439,-0.00164161587599665,0.00640143174678087,0.00304750772193074,0.00416231388226151,0.0164098311215639,-0.0080160778015852
440,0.000441450218204409,0.00724500697106123,0.00108608964364976,0.00179719598963857,0.0171161126345396,-0.00918846949934959
441,0.00289344601333141,0.00377015001140535,0.000568169227335602,0.0032463138923049,0.0200339015573263,-0.00910335034132004
442,0.0044697979465127,-0.0019794141408056,0.00138956354930997,0.00570351118221879,0.0237080343067646,-0.00924023427069187
443,0.00479034846648574,-0.00815276056528091,0.00160429126117378,0.00639734510332346,0.0261250138282776,-0.0103792743757367
444,0.0053018955513835,-0.0121288085356355,0.000877151149325073,0.0065794107504189,0.0265249647200108,-0.0108760157600045
445,0.00643289368599653,-0.0126741901040077,-0.000299480831017718,0.00838599354028702,0.0244890823960304,-0.00991570670157671
446,0.00801636558026075,-0.0109036844223738,-0.00163761107251048,0.00982507131993771,0.0207650363445282,-0.00911291968077421
447,0.0103662554174662,-0.00783936493098736,-0.00330165727064013,0.00777739053592086,0.0183845721185207,-0.00934140104800463
448,0.0127965714782476,-0.00463858293369412,-0.00538386544212699,0.0030109747312963,0.0196430236101151,-0.00915281847119331
449,0.0140651436522603,-0.00366577319800854,-0.00637234328314662,-0.00121562811546028,0.0228514038026333,-0.00691665196791291
450,0.0133443893864751,-0.00541059579700232,-0.00562145002186298,-0.00300320633687079,0.0243829358369112,-0.00301523460075259
451,0.0109347701072693,-0.00701225083321333,-0.00441083265468478,-0.00252929329872131,0.0233365781605244,0.00101033132523298
452,0.0085595240816474,-0.00491635827347636,-0.00315254670567811,-0.000248330528847873,0.0216003619134426,0.00461956765502691
453,0.00726864859461784,0.00014229302178137,-0.00218397192656994,0.00338177988305688,0.0199000891298056,0.00721423653885722
454,0.00678017642349005,0.0032198375556618,-0.00139014003798366,0.00737412553280592,0.0175691973417997,0.00727060250937939
455,0.00580891268327832,0.00111140555236489,9.6235908131348E-06,0.00866005569696426,0.0138643188402057,0.00333937280811369
456,0.00248384848237038,-0.00446262862533331,0.000356428878149018,0.00381012563593686,0.00775345601141453,-0.00416768621653318
457,-0.00211202655918896,-0.00776166142895818,-0.00118289678357542,-0.00432353699579835,0.000799447647295892,-0.011557930149138
458,-0.00404022680595517,-0.00607460783794522,-0.00194930960424244,-0.00875792372971773,-0.0015063340542838,-0.0158506520092487
459,-0.00191488757263869,-0.00245182448998094,-0.000493176514282823,-0.00685518607497215,0.0036709550768137,-0.0181107521057129
460,0.00171699468046427,0.000235299798077904,0.00133560132235289,-0.00179170037154108,0.0120849451050162,-0.0205665826797485
461,0.00422392226755619,-5.11600228492171E-05,0.00133713788818568,0.00116073957178742,0.0184230785816908,-0.0241107884794474
462,0.00540846260264516,-0.00381846539676189,0.000164716955623589,-0.000115079485112801,0.0216672569513321,-0.0279461238533258
463,0.00627630995586514,-0.00772213144227862,-0.000319496757583693,-0.00283755292184651,0.0225070938467979,-0.030021658167243
464,0.00778951589018106,-0.00870622042566538,0.000478085043141618,-0.00318827480077744,0.021200655028224,-0.0278753973543644
465,0.0100177908316255,-0.00691658537834883,0.00218069669790566,8.26617688289844E-05,0.0180788077414036,-0.020888090133667
466,0.0110429171472788,-0.00476813456043601,0.00292393518611789,0.00368387741036713,0.0130832921713591,-0.0131942601874471
467,0.0093853147700429,-0.00480719422921538,0.00160672899801284,0.00296989758498967,0.00698081078007817,-0.00990664772689343
468,0.00655896496027708,-0.00769296521320939,-0.000285350164631382,-0.00222225487232208,0.00158803048543632,-0.0108486656099558
469,0.00495251547545195,-0.0115020526573062,-0.00149376504123211,-0.0082754036411643,-0.00324144819751382,-0.0116262212395668
470,0.00507119949907064,-0.012881419621408,-0.00166721281129867,-0.0120376935228705,-0.00807990878820419,-0.00915276631712914
471,0.00609605340287089,-0.00914689432829618,-0.000428787636337802,-0.0124908890575171,-0.0115251364186406,-0.00321624078787863
472,0.00693814596161246,-0.000789430399890989,0.000796959851868451,-0.0107775069773197,-0.0126556726172566,0.00407588528469205
473,0.00661543849855661,0.00655180588364601,-3.76346251869109E-05,-0.00979210995137692,-0.0115827936679125,0.00854230392724276
474,0.00475550768896937,0.0073829130269587,-0.00272803590632975,-0.0114747621119022,-0.00924033485352993,0.00828418508172035
475,0.00148405903019011,0.00204932573251426,-0.00677271373569965,-0.014359968714416,-0.00755816604942083,0.00460474099963903
476,-0.00125592632684857,-0.00554841943085194,-0.0108577869832516,-0.0149774290621281,-0.00607204716652632,-0.0013045477680862
477,-0.000619192374870181,-0.0116649996489286,-0.0120605658739805,-0.0120179653167725,-0.00247217318974435,-0.00894345156848431
478,0.00309206172823906,-0.0146844545379281,-0.00982822757214308,-0.00770993949845433,0.00248138559982181,-0.0189665574580431
479,0.00734818866476417,-0.0153728490695357,-0.00581500772386789,-0.00400616461411119,0.00627976190298796,-0.0309847071766853
480,0.0106560597196221,-0.0135846585035324,-0.00156371470075101,-0.000489270954858512,0.00761508429422975,-0.0399628914892673
481,0.0118175279349089,-0.00902250874787569,0.000691472494509071,0.00273061636835337,0.00500473752617836,-0.0403286702930927
482,0.0104291420429945,-0.00470656948164105,-0.000366606487659737,0.0038437070325017,-0.00129336200188845,-0.0323858857154846
483,0.00823227968066931,-0.00122736382763833,-0.00273420568555593,0.00256461091339588,-0.00797264277935028,-0.020755534991622
484,0.00724128307774663,0.00365169299766421,-0.00401011388748884,9.26530847209506E-05,-0.0120219634845853,-0.0106328353285789
485,0.00798929575830698,0.00753372488543391,-0.00383118842728436,-0.00296254619024694,-0.0114528266713023,-0.00607976503670216
486,0.00923578161746264,0.00689727393910289,-0.00234386743977666,-0.00599503703415394,-0.00617441209033132,-0.0071442499756813
487,0.00975794438272715,0.00237497081980109,0.000291074597043917,-0.00917640794068575,0.0016855817520991,-0.0107219368219376
488,0.00869881361722946,-0.00294201355427504,0.00254990928806365,-0.0127511890605092,0.00679549295455217,-0.0135984253138304
489,0.005222013220191,-0.00606503011658788,0.00193970801774412,-0.0148520329967141,0.00286662182770669,-0.0133942235261202
490,0.00106906308792531,-0.00633911462500691,-0.00155213242396712,-0.0139534743502736,-0.00713639473542571,-0.0103125181049109
491,-0.0010530122090131,-0.00520378723740578,-0.00577165232971311,-0.0115461191162467,-0.0144387790933251,-0.00659886375069618
492,-0.0011675365967676,-0.00449580186977983,-0.00927288737148046,-0.0106139183044434,-0.0155597319826484,-0.00432767625898123
493,-0.000892564363311976,-0.00485610170289874,-0.0109001817181706,-0.0120358522981405,-0.0120370285585523,-0.00422872509807348
494,-0.00121632043737918,-0.0056547992862761,-0.0102914972230792,-0.0134454937651753,-0.00764355761930346,-0.00632348842918873
495,-0.00181174126919359,-0.00733823981136084,-0.00833761226385832,-0.0129660423845053,-0.00478673679754138,-0.0112287327647209
496,-0.00158776959870011,-0.00923343561589718,-0.00536861922591925,-0.0102297756820917,-0.00348613318055868,-0.0180520825088024
497,0.000387164443964139,-0.00864287745207548,-0.000733358261641115,-0.00474736047908664,-0.00317053310573101,-0.0248049311339855
498,0.00353638315573335,-0.00641262857243419,0.00462788809090853,0.000993647146970034,-0.00197400781325996,-0.0313279926776886
499,0.00561428954824805,-0.00394250405952334,0.00749776605516672,0.0032254287507385,0.000603824970312417,-0.0351215824484825
500,0.00561750493943691,0.000265732174739242,0.00661600800231099,0.00354898674413562,0.00247934553772211,-0.0307273138314486
501,0.0044074198231101,0.00563986226916313,0.00390830542892218,0.00485349120572209,0.00210008444264531,-0.0183933451771736
502,0.00255827186629176,0.00861913245171309,0.000790779711678624,0.00486374599859118,-0.00074626796413213,-0.00508251739665866
503,0.000267800176516175,0.00628848373889923,-0.00287945312447846,0.00109323288779706,-0.00523444125428796,0.00254864362068474
504,-0.00161012983880937,0.000226371688768268,-0.00635965494439006,-0.00425833137705922,-0.00924753304570913,0.00225810799747705
505,-0.00218307855539024,-0.00581720005720854,-0.00790571607649326,-0.0084501663222909,-0.0102055883035064,-0.00338928634300828
506,-0.00191458407789469,-0.010498576797545,-0.00743761518970132,-0.011846112087369,-0.00797570124268532,-0.0101318079978228
507,-0.00200264132581651,-0.013487403281033,-0.00624582916498184,-0.0140103427693248,-0.0049786064773798,-0.0155768962576985
508,-0.00345338974148035,-0.0147115318104625,-0.0047934795729816,-0.0131095265969634,-0.00312623311765492,-0.0195468831807375
509,-0.00567066483199596,-0.0151202473789454,-0.00259464886039495,-0.0107507333159447,-0.0025461814366281,-0.022371182218194
510,-0.00611041858792305,-0.0145181408151984,0.000310616131173447,-0.00963614322245121,-0.00193232530727983,-0.023018654435873
511,-0.0043466379866004,-0.0121778817847371,0.00245631160214543,-0.010256065055728,-0.00132168980780989,-0.0205375254154205
512,-0.00322439731098711,-0.00965440738946199,0.00216894596815109,-0.0129623198881745,-0.00261385110206902,-0.0158714465796947
513,-0.00491981115192175,-0.00759945437312126,-0.000459908362245187,-0.0170951746404171,-0.00704074185341597,-0.0107870474457741
514,-0.00851408764719963,-0.00499027594923973,-0.00346996425651014,-0.0186367426067591,-0.0138030797243118,-0.00760990148410201
515,-0.0107854446396232,-0.00366843701340258,-0.00445295916870236,-0.0149949602782726,-0.0183673854917288,-0.00869585853070021
516,-0.00902120117098093,-0.00488947564736009,-0.0018226255197078,-0.00869920197874308,-0.0154879838228226,-0.0131756477057934
517,-0.00491212215274572,-0.00629630777984858,0.00254331436008215,-0.00343334302306175,-0.0073637068271637,-0.0170878376811743
518,-0.00238756742328405,-0.00505126593634486,0.00412085419520736,-0.00134068273473531,-0.00135274883359671,-0.016966450959444
519,-0.00228699157014489,0.000924639170989394,0.00109138817060739,-0.00267340522259474,3.13906130031683E-05,-0.0116141969338059
520,-0.004346021451056,0.00949801132082939,-0.00528167001903057,-0.00616359850391746,-0.00230956543236971,-0.00352938007563353
521,-0.00789036229252815,0.0149632785469294,-0.0120973130688071,-0.00994070991873741,-0.00799582246690989,0.00327989528886974
522,-0.0102292839437723,0.0149441827088594,-0.0157387889921665,-0.0123236775398254,-0.0138265220448375,0.00698278099298477
523,-0.00974045600742102,0.0114581724628806,-0.014730810187757,-0.0118201905861497,-0.015108066610992,0.00813949014991522
524,-0.00787842646241188,0.00790855474770069,-0.00997907947748899,-0.00820327457040548,-0.0123086050152779,0.00753003684803844
525,-0.00762671278789639,0.004951779730618,-0.00410326104611158,-0.00488658994436264,-0.0109420381486416,0.00311941420659423
526,-0.0097173023968935,0.000228705888730474,-0.000123036064906046,-0.00519326608628035,-0.0143759921193123,-0.00655820732936263
527,-0.0115325450897217,-0.00598152074962854,0.000818058906588703,-0.0083908187225461,-0.0210731960833073,-0.0183636005967855
528,-0.0108930366113782,-0.0102848950773478,-1.08680042103515E-05,-0.0107042631134391,-0.0274579077959061,-0.0264604687690735
529,-0.00838385056704283,-0.0109462412074208,-0.0005273133283481,-0.00889113917946815,-0.0310758892446756,-0.0261403825134039
530,-0.00525824492797256,-0.0092081343755126,-0.000166617159266025,-0.00401020236313343,-0.0304684732109308,-0.0177469309419394
531,-0.00213468004949391,-0.00680602341890335,-0.000663713261019439,-0.000874708115588874,-0.0248458236455917,-0.0062827062793076
532,-0.000364662468200549,-0.00449279695749283,-0.00419037323445082,-0.00348456460051239,-0.0171531606465578,0.00184884003829211
533,-0.00126111600548029,-0.00288967066444457,-0.009342928417027,-0.00970945879817009,-0.01246746070683,0.00234908447600901
534,-0.0051725385710597,-0.00375451380386949,-0.0127978352829814,-0.0146067216992378,-0.0139447282999754,-0.00461122114211321
535,-0.0103596523404121,-0.00656983163207769,-0.0135980704799294,-0.0164254438132048,-0.020312862470746,-0.0131357004866004
536,-0.0129550434648991,-0.00717930775135756,-0.0126870982348919,-0.0164425875991583,-0.0249563995748758,-0.0153923844918609
537,-0.0112715428695083,-0.00396111281588674,-0.0112728485837579,-0.0168835744261742,-0.0214993879199028,-0.010140810161829
538,-0.00763796688988805,0.00101024052128196,-0.0103423604741693,-0.0181122273206711,-0.0125552406534553,-0.00223332433961332
539,-0.00554341683164239,0.00546287698671222,-0.0105979237705469,-0.0194966737180948,-0.00825346447527409,0.00305840326473117
540,-0.0062973890453577,0.00859162304550409,-0.0122144185006619,-0.0211698599159718,-0.0124898068606853,0.0031561809591949
541,-0.00840104930102825,0.0108299413695931,-0.0152666568756104,-0.0227091647684574,-0.0195049792528152,-0.000246007111854851
542,-0.00995098985731602,0.0109753273427486,-0.018557658419013,-0.0232044160366058,-0.0238394383341074,-0.00448122108355165
543,-0.0105368886142969,0.00749387266114354,-0.0196721591055393,-0.0221307780593634,-0.0250139944255352,-0.00851201731711626
544,-0.0104638356715441,0.00198021228425205,-0.0170308314263821,-0.0186749882996082,-0.024370938539505,-0.0115791270509362
545,-0.010393793694675,-0.00208590645343065,-0.0114175397902727,-0.0129619315266609,-0.0233080331236124,-0.0135959722101688
546,-0.0110495174303651,-0.00195133301895112,-0.00626177713274956,-0.00798518676310778,-0.0224115885794163,-0.0149928200989962
547,-0.0114552360028028,0.000213849067222327,-0.00416837446391582,-0.00687580276280642,-0.0189665593206882,-0.0158978085964918
548,-0.0108162984251976,-0.00094239303143695,-0.00533115770667791,-0.00955622643232346,-0.0124608986079693,-0.0176122281700373
549,-0.0107220252975822,-0.00624630972743034,-0.00888895615935326,-0.013361319899559,-0.00868136715143919,-0.0210837908089161
550,-0.0119516933336854,-0.0123995942994952,-0.0135107282549143,-0.0154121601954103,-0.0106263002380729,-0.0244889035820961
551,-0.0128435594961047,-0.0163240637630224,-0.0177443102002144,-0.0144529789686203,-0.0143725005909801,-0.0250117722898722
552,-0.0117060476914048,-0.0167197305709124,-0.0198871698230505,-0.0111409779638052,-0.0159789063036442,-0.0212803483009338
553,-0.00846931710839272,-0.0145044820383191,-0.019781855866313,-0.00779566448181868,-0.0148254614323378,-0.0147442482411861
554,-0.00568168750032783,-0.0126075185835361,-0.0206374954432249,-0.00866254605352879,-0.0132787758484483,-0.0100748743861914
555,-0.00580353802070022,-0.0129562634974718,-0.0244292002171278,-0.0153498584404588,-0.0140106016770005,-0.0112741030752659
556,-0.00722041912376881,-0.0135335754603148,-0.0274940729141235,-0.0225553382188082,-0.015097763389349,-0.0162580944597721
557,-0.00726463738828897,-0.0115561308339238,-0.0256968084722757,-0.0247154962271452,-0.0133549766615033,-0.0196244195103645
558,-0.00588840059936047,-0.00684120785444975,-0.0204330161213875,-0.0228986814618111,-0.0103526664897799,-0.0196214579045773
559,-0.00425430294126272,-0.000484116841107607,-0.0155056519433856,-0.0198615044355392,-0.00966873206198215,-0.0174760445952415
560,-0.00304731400683522,0.00682586338371038,-0.0118934661149979,-0.0152401998639107,-0.0116963051259518,-0.013828219845891
561,-0.00306027731858194,0.0133339306339622,-0.00981076154857874,-0.0103941401466727,-0.0151729993522167,-0.010569422505796
562,-0.00467861350625753,0.0153649775311351,-0.0103075271472335,-0.00828196294605732,-0.0194549281150103,-0.00994955282658339
563,-0.00629871897399426,0.0114386035129428,-0.0125310076400638,-0.00794454477727413,-0.0234449133276939,-0.0100947814062238
564,-0.00636802986264229,0.00518718454986811,-0.0138975894078612,-0.00643867952749133,-0.0267548635601997,-0.0079144649207592
565,-0.00547031639143825,0.00162191491108388,-0.0119965318590403,-0.00411338824778795,-0.0294494275003672,-0.00416534021496773
566,-0.00463120453059673,0.000718768977094442,-0.00664385780692101,-0.0043486999347806,-0.0301035214215517,-0.00215319590643048
567,-0.0039279330521822,-0.000913150317501277,-0.00066068209707737,-0.00821159686893225,-0.0278308689594269,-0.00288845575414598
568,-0.00352036138065159,-0.00311572314240038,0.00255635427311063,-0.0122452173382044,-0.0246134661138058,-0.00330369430594146
569,-0.00386287667788565,-0.00460612960159779,0.00199436163529754,-0.0125454049557447,-0.0230746250599623,-0.00171973870601505
570,-0.0048258937895298,-0.00642767129465938,-0.00079687061952427,-0.00914538651704788,-0.0228950008749962,-0.000910675036720932
571,-0.00589758716523647,-0.00894754938781261,-0.00375443673692644,-0.0047148996964097,-0.0216215010732412,-0.00332698924466968
572,-0.00662542786449194,-0.0112126702442765,-0.00593278091400862,-0.00191368535161018,-0.0179392322897911,-0.00832861475646496
573,-0.00706216134130955,-0.0119914375245571,-0.00883932039141655,-0.00351864704862237,-0.013377271592617,-0.0134624820202589
574,-0.00831001531332731,-0.0103688184171915,-0.0148684876039624,-0.0102565689012408,-0.0122000370174646,-0.0167637038975954
575,-0.0107863200828433,-0.00692444015294313,-0.0213407892733812,-0.017596647143364,-0.0158915519714355,-0.0178283248096704
576,-0.0123852696269751,-0.00332498317584395,-0.0216716919094324,-0.0201002582907677,-0.0192806925624609,-0.0172000210732222
577,-0.011099704541266,-0.00202644616365433,-0.0151495859026909,-0.0187643468379974,-0.0190826803445816,-0.0171102583408356
578,-0.00770876277238131,-0.00452245585620403,-0.00755014922469854,-0.0173492804169655,-0.0195987559854984,-0.0187054947018623
579,-0.00459737796336412,-0.00813341978937387,-0.00301206018775702,-0.0157609172165394,-0.0238835625350475,-0.0193660948425531
580,-0.00302148098126054,-0.00835669972002506,-0.00206464994698763,-0.0132878534495831,-0.0287469681352377,-0.0177168902009726
581,-0.00193605176173151,-0.00464771781116724,-0.00341028347611427,-0.0115858009085059,-0.0306621845811605,-0.0156230311840773
582,-0.000338669051416218,-0.00100661814212799,-0.00471090152859688,-0.0122127570211887,-0.0297362487763166,-0.0140358619391918
583,0.00107998447492719,0.000102914767921902,-0.00480892835184932,-0.0145340161398053,-0.0276360604912043,-0.011812393553555
584,0.00117807497736067,-8.38803171063773E-05,-0.00505969021469355,-0.0166757050901651,-0.0256261210888624,-0.00819311756640673
585,-0.000508053170051426,-0.000846877810545266,-0.00776416668668389,-0.0184516794979572,-0.0240925326943398,-0.00483658304437995
586,-0.00342570128850639,-0.00221742526628077,-0.0131530081853271,-0.0204174425452948,-0.0225159507244825,-0.00358899682760239
587,-0.00639520585536957,-0.00368775078095496,-0.0184184890240431,-0.0214302595704794,-0.0201131720095873,-0.00353798340074718
588,-0.0083540603518486,-0.00417415145784616,-0.0204915385693312,-0.0204835012555122,-0.0161286704242229,-0.00301310187205672
589,-0.00947284046560526,-0.00247824983671308,-0.0191856604069471,-0.0185443628579378,-0.0119998604059219,-0.00265764957293868
590,-0.0102431792765856,-0.000394435046473518,-0.0164965745061636,-0.0170641224831343,-0.0102506736293435,-0.00460457196459174
591,-0.00988726504147053,-0.000456496200058609,-0.0137686897069216,-0.016268840059638,-0.010583933442831,-0.00872177537530661
592,-0.00830683764070272,-0.00188914930913597,-0.0112661784514785,-0.0156976766884327,-0.0110254753381014,-0.0124192927032709
593,-0.00720020104199648,-0.00327646499499679,-0.0098769199103117,-0.0153483683243394,-0.0110815744847059,-0.0149241546168923
594,-0.00784537382423878,-0.00414588674902916,-0.010985285975039,-0.0149650573730469,-0.0117629831656814,-0.01715237647295
595,-0.00971087068319321,-0.00436462461948395,-0.0138831678777933,-0.0133126983419061,-0.0137186506763101,-0.0188468936830759
596,-0.0112963719293475,-0.00443670665845275,-0.0158822014927864,-0.0105646699666977,-0.0167354550212622,-0.0192318353801966
597,-0.011635223403573,-0.00494769355282187,-0.0166374556720257,-0.0095953680574894,-0.0203966163098812,-0.0184174161404371
598,-0.0107751386240125,-0.00569864036515355,-0.0179232992231846,-0.0112702464684844,-0.0247328914701939,-0.0177952386438847
599,-0.00887066498398781,-0.00382522051222622,-0.0185020789504051,-0.0125893512740731,-0.0293749328702688,-0.0184966828674078
600,-0.00631278473883867,0.00356793566606939,-0.0158550068736076,-0.0118155367672443,-0.0329646654427052,-0.0205026660114527
601,-0.00351934321224689,0.0125020751729608,-0.010834370739758,-0.00978793762624264,-0.0336837768554688,-0.0226941574364901
602,-0.000808425946161151,0.0155093241482973,-0.00739583745598793,-0.00861202366650105,-0.0306873079389334,-0.0233936291188002
603,0.000395530805690214,0.0113865155726671,-0.00949232559651136,-0.0104299746453762,-0.0259618852287531,-0.0220180694013834
604,-0.000284048175672069,0.00455036107450724,-0.0162606928497553,-0.0147933084517717,-0.0216057300567627,-0.0185870919376612
605,-0.0008488082094118,-0.00126883166376501,-0.0216237045824528,-0.0191895235329866,-0.0178140681236982,-0.0125858308747411
606,-0.000346902175806463,-0.00495706032961607,-0.0210912488400936,-0.0204876903444529,-0.0162767227739096,-0.00397182535380125
607,0.000721835473086685,-0.00566555093973875,-0.0159079506993294,-0.0163210853934288,-0.0185778271406889,0.00489397579804063
608,0.00251118582673371,-0.0031397535931319,-0.0100289164111018,-0.008611467666924,-0.0218236856162548,0.00981221813708544
609,0.00422902731224895,-0.00106216117274016,-0.00583080016076565,-0.00222548167221248,-0.0227594263851643,0.0082453778013587
610,0.00482724653556943,-0.00157602492254227,-0.00302771455608308,0.000462506286567077,-0.021082665771246,0.00244464166462421
611,0.00557297980412841,-0.00185442587826401,-0.000815652834717184,-0.000333057541865855,-0.0172574538737535,-0.00276610278524458
612,0.00700135342776775,-0.00063298997702077,0.000805377901997417,-0.00261685065925121,-0.0131391501054168,-0.00454895105212927
613,0.00622375728562474,0.000377278920495883,0.00125732261221856,-0.00400800025090575,-0.0132814254611731,-0.00320688053034246
614,0.0014191985828802,1.5414532754221E-05,-0.000532609468791634,-0.00534645281732082,-0.0186832994222641,-0.00154880853369832
615,-0.0037375227548182,-0.00109544792212546,-0.00444808229804039,-0.00753919593989849,-0.0226742178201675,-0.00177759560756385
616,-0.0042444639839232,-0.0023062105756253,-0.008454205468297,-0.00843327306210995,-0.0197310708463192,-0.0034170844592154
617,0.000277652812656015,-0.00407357420772314,-0.0110312504693866,-0.00622673099860549,-0.0110691292211413,-0.00579451909288764
618,0.00570485228672624,-0.0067188311368227,-0.0121012460440397,-0.00191476871259511,-0.000974413007497787,-0.0104752648621798
619,0.00900061242282391,-0.0086318152025342,-0.0113129997625947,0.00121273600962013,0.00726006366312504,-0.0183296948671341
620,0.0107511328533292,-0.00698398519307375,-0.008883704431355,-0.0003353709471412,0.0121109839528799,-0.0263844635337591
621,0.0119112059473991,-0.00189693598076701,-0.00615622429177165,-0.00627874443307519,0.0138123584911227,-0.0307160075753927
622,0.0116088921204209,0.00306484894827008,-0.00422783754765987,-0.011180343106389,0.0120453676208854,-0.0280703864991665
623,0.0087788412347436,0.00428205775097013,-0.00372580345720053,-0.0114225186407566,0.00636368757113814,-0.0179549567401409
624,0.00525980303063989,0.00175989931449294,-0.00398890767246485,-0.00931400898844004,0.000956793723162264,-0.0049076578579843
625,0.00271839392371476,-0.000557557854335755,-0.00360349402762949,-0.00827139522880316,-0.0011019924422726,0.00561218662187457
626,5.38669191882946E-05,-0.00100506609305739,-0.00175999477505684,-0.00960357580333948,-0.00302060786634684,0.0107159009203315
627,-0.00318672857247293,-0.00174220732878894,0.00122918223496526,-0.0121084963902831,-0.00843167118728161,0.0106866173446178
628,-0.00591028481721878,-0.00346034066751599,0.00383029947988689,-0.0133801018819213,-0.0158227384090424,0.00833979342132807
629,-0.00718536740168929,-0.00519801257178187,0.00488949660211802,-0.0117519414052367,-0.0208779685199261,0.00625494355335832
630,-0.00689861457794905,-0.00576009135693312,0.00469623599201441,-0.00701743457466364,-0.0215569008141756,0.0044301631860435
631,-0.00514247873798013,-0.00443545216694474,0.00383409974165261,-0.00166453642304987,-0.0184552595019341,0.000884543405845761
632,-0.00192134745884687,-0.0035390208940953,0.00332679925486445,0.00116990599781275,-0.0129533726722002,-0.0052338857203722
633,0.00123226956930012,-0.00606404151767492,0.00319215026684105,0.000136552363983355,-0.00725405383855104,-0.0130412289872766
634,0.00131255260203034,-0.0113833257928491,0.000813175516668707,-0.0047706994228065,-0.00399384135380387,-0.0212688781321049
635,-0.00147642660886049,-0.0158071089535952,-0.00445895548909903,-0.0106125408783555,-0.00220373459160328,-0.0276763904839754
636,-0.0035628154873848,-0.0163569673895836,-0.00960869155824184,-0.0134829571470618,0.000468502636067569,-0.0292654652148485
637,-0.00317622302100062,-0.0133989518508315,-0.0122273555025458,-0.0130670834332705,0.00316076911985874,-0.0250065941363573
638,-0.00115702045150101,-0.0094099510461092,-0.0123039558529854,-0.0111171836033463,0.00521218404173851,-0.0181039851158857
639,0.00110209186095744,-0.00657003419473767,-0.0100540313869715,-0.00893420353531837,0.00715667102485895,-0.0134307956323028
640,0.00277086207643151,-0.00578961428254843,-0.00545880477875471,-0.00778167136013508,0.00835306663066149,-0.0122268227860332
641,0.00383893237449229,-0.00563556840643287,-6.3169514760375E-05,-0.00811175908893347,0.00766415987163782,-0.0115258982405066
642,0.00497382180765271,-0.00330779235810041,0.00441713025793433,-0.00887158326804638,0.0058220406062901,-0.00805338006466627
643,0.00595076149329543,0.000989431515336037,0.00679275905713439,-0.00997339189052582,0.00456660939380527,-0.00163710943888873
644,0.00527079682797194,0.0044539119116962,0.00590835884213448,-0.0123321181163192,0.00338365999050438,0.00439785188063979
645,0.00316478032618761,0.00611667754128575,0.00258262944407761,-0.015091935172677,0.00169470079708844,0.00684462022036314
646,0.000731916748918593,0.00659978063777089,-0.00160580698866397,-0.0169075559824705,-9.15922064450569E-05,0.00518848467618227
647,-0.00237388862296939,0.00697407592087984,-0.0057295048609376,-0.0167070757597685,-0.00254671229049563,0.00127628049813211
648,-0.00614534504711628,0.00688841752707958,-0.0077029699459672,-0.0135950464755297,-0.00692686624825001,-0.00278310105204582
649,-0.00941712781786919,0.00427853595465422,-0.0048814807087183,-0.00894597452133894,-0.0141249299049377,-0.00592177314683795
650,-0.0111373728141189,0.000242555688600987,0.00196318118833005,-0.00506370794028044,-0.0230840034782887,-0.00637024082243443
651,-0.0108579155057669,-0.00212721317075193,0.00726683251559734,-0.00379050825722516,-0.0300493855029345,-0.00386337330564857
652,-0.00829434022307396,-0.00206945464015007,0.00675386097282171,-0.00578011525794864,-0.0296933278441429,-0.000870766874868423
653,-0.00420166552066803,-0.000869528390467167,0.00186258554458618,-0.00848881434649229,-0.0206400211900473,0.000696041213814169
654,0.000125007689348422,0.00150686746928841,-0.00326530006714165,-0.00873152539134026,-0.00738573120906949,0.00112810381688178
655,0.0043162596412003,0.00493060145527124,-0.00625651888549328,-0.00770523305982351,0.00470129959285259,0.00160368869546801
656,0.00714624719694257,0.00593580724671483,-0.00760401180014014,-0.00900558568537235,0.0121386181563139,0.00177271699067205
657,0.00761745125055313,0.00374615984037519,-0.00792217068374157,-0.0116861779242754,0.0146345878019929,0.00122217054013163
658,0.00732832634821534,0.00177266879472882,-0.0067406571470201,-0.0113599570468068,0.014232330955565,0.000977081712335348
659,0.00729595217853785,0.00304306601174176,-0.0040957136079669,-0.00647058477625251,0.0115018514916301,0.00167656736448407
660,0.00634367298334837,0.00725540518760681,-0.000513551582116634,0.000149430736200884,0.00575357349589467,0.00200318801216781
661,0.00401716958731413,0.0104160774499178,0.00363571336492896,0.00406666193157434,-0.00156811939086765,0.000654897245112807
662,0.00129050575196743,0.0111564099788666,0.00638232519850135,0.00393655057996511,-0.00757011584937572,-0.000304411049000919
663,-0.000643270672298968,0.0122317392379045,0.00521499803289771,0.00182540633250028,-0.00976263079792261,0.00162221025675535
664,-0.00102304376196116,0.0137326568365097,0.00081615848466754,-0.000589269388001412,-0.00701947649940848,0.00506913615390658
665,-0.000239476154092699,0.0132406204938889,-0.00359813333489001,-0.0027902505826205,-0.0018585646757856,0.00805061031132936
666,0.00112067919690162,0.0111629320308566,-0.00498185493052006,-0.00458626914769411,0.00228709145449102,0.0104040438309312
667,0.00258356845006347,0.00917091686278582,-0.00247225514613092,-0.00572165893390775,0.00439009536057711,0.0112372459843755
668,0.00323012145236135,0.00734057975932956,0.00222301040776074,-0.00615508854389191,0.00354738719761372,0.00917877350002527
669,0.00287974230013788,0.00486291572451591,0.00686130346730351,-0.00706061348319054,-0.000244965282035992,0.00383124826475978
670,0.0015539611922577,0.00146228028461337,0.0090373270213604,-0.00859456975013018,-0.00611363910138607,-0.00320128095336258
671,-0.000724352081306279,-0.00142122327815741,0.00735801830887794,-0.00839769653975964,-0.0134093901142478,-0.00881110783666372
672,-0.00180580839514732,-0.0019590356387198,0.0035587593447417,-0.00607525557279587,-0.016698531806469,-0.0120407119393349
673,0.000144995676237158,-0.000628894253168255,-0.000263934285612777,-0.0045367544516921,-0.0116802379488945,-0.0143162682652473
674,0.00346673675812781,-7.91108031990007E-05,-0.00316244177520275,-0.00497508747503161,-0.00363358645699918,-0.0161992628127337
675,0.00586113007739186,-0.00136959087103605,-0.00519460206851363,-0.00643271673470736,0.00142499711364508,-0.0164197515696287
676,0.00696276128292084,-0.00229594577103853,-0.00671805813908577,-0.00712186889722943,0.00361658213660121,-0.0127931740134954
677,0.0070386822335422,-0.000264733127551153,-0.00636747758835554,-0.00510702468454838,0.00526154041290283,-0.00469125714153051
678,0.00546448212116957,0.0022045630030334,-0.00444082310423255,-0.00336516904644668,0.00574199808761477,0.00362867303192616
679,0.00202673790045083,-0.000424252531956881,-0.0032667878549546,-0.00674228370189667,0.00315966759808362,0.00588931376114488
680,-0.0015642965445295,-0.007286312058568,-0.00317938788793981,-0.0135003691539168,-0.000821274879854172,0.00113489804789424
681,-0.00307794590480626,-0.0127411093562841,-0.00318869226612151,-0.0179316215217113,-0.00319164432585239,-0.00489164050668478
682,-0.00115950300823897,-0.0135890524834394,-0.00232494645752013,-0.0167011972516775,-0.00244855228811502,-0.006115747615695
683,0.00374444341287017,-0.00966467149555683,-0.000586924084927887,-0.0101994564756751,0.000970456865616143,-0.00191623507998884
684,0.00882886257022619,-0.00259195291437209,0.00050704984460026,-0.00219162739813328,0.00366931059397757,0.00454043783247471
685,0.0112253315746784,0.00399492029100657,0.000251364283030853,0.00296360091306269,0.00203437218442559,0.0102125788107514
686,0.010767063125968,0.0069390176795423,0.000747626356314868,0.00427018944174051,-0.00334906065836549,0.0133822346106172
687,0.009186084382236,0.00655983574688435,0.00361648947000504,0.00345057644881308,-0.0086494367569685,0.0137836467474699
688,0.00750647950917482,0.00419811485335231,0.00648175412788987,0.0015100211603567,-0.0115704517811537,0.0116992453113198
689,0.00603829743340611,0.000607189023867249,0.00724391872063279,-0.00106459332164377,-0.0122910030186176,0.00829739589244127
690,0.00537157477810979,-0.00307026179507375,0.0067010885104537,-0.00373289873823524,-0.0112449480220675,0.00546725234016776
691,0.0051353326998651,-0.00508884433656931,0.00515424273908138,-0.00686954194679856,-0.00943182781338692,0.00416371691972017
692,0.00378199643455446,-0.00399004062637687,0.00273997103795409,-0.0100476155057549,-0.00848290417343378,0.00445610284805298
693,0.0013076375471428,-0.00152447447180748,0.000660492107272148,-0.011351159773767,-0.00801998842507601,0.00410227430984378
694,-0.000666424806695431,-0.000543965958058834,-0.000844044203404337,-0.00927327200770378,-0.00677777687087655,-4.66499950562138E-05
695,-0.00101603579241782,0.000445054116426036,-0.00169255270157009,-0.00396493030712008,-0.00514591159299016,-0.00620079878717661
696,9.37926015467383E-05,0.00417455984279513,-0.000714241003151983,0.0013543451204896,-0.00369631312787533,-0.00907362438738346
697,0.000733838358428329,0.0079564256593585,0.00156881031580269,0.00242062751203775,-0.00345106027089059,-0.00601574312895536
698,-0.000318241392960772,0.00731415441259742,0.00336304539814591,0.000511593767441809,-0.00534379994496703,0.00151811970863491
699,-0.00171343726105988,0.00241025653667748,0.0049133962020278,0.000893122400157154,-0.00826529040932655,0.00841532554477453
700,-0.00201016198843718,-0.00333843962289393,0.00746196415275335,0.00434231990948319,-0.0111817689612508,0.009385053999722
701,-0.000467296136775985,-0.00649529509246349,0.0102217895910144,0.00717309443280101,-0.0145426280796528,0.00525732012465596
702,0.00354313640855253,-0.00647982629016042,0.0109009379521012,0.00783312227576971,-0.0171881709247828,0.00183879816904664
703,0.00893836375325918,-0.00470215640962124,0.00916587468236685,0.00749474251642823,-0.0157317649573088,0.00229457672685385
704,0.0132153360173106,-0.00094914750661701,0.00714908167719841,0.00680681969970465,-0.010486320592463,0.00540365558117628
705,0.0144135160371661,0.00432738102972507,0.00544308358803391,0.00487539684399962,-0.00658121006563306,0.00860200636088848
706,0.0123572088778019,0.00789663102477789,0.00253421673551202,0.000740969437174499,-0.00677996408194304,0.00979040935635567
707,0.00888918153941631,0.0075140162371099,-0.00147489714436233,-0.00366516155190766,-0.00872510205954313,0.00873394776135683
708,0.00585440313443542,0.00343565875664353,-0.00508267618715763,-0.00565063999965787,-0.00990364421159029,0.0055140433833003
709,0.00368690909817815,-0.00261673680506647,-0.00699301157146692,-0.00514985015615821,-0.0104060955345631,-0.000126958882901818
710,0.00164807529654354,-0.00810791552066803,-0.00763086043298244,-0.00387725420296192,-0.0110418722033501,-0.00598040549084544
711,-7.24262426956557E-05,-0.0110991932451725,-0.00863896310329437,-0.00317567866295576,-0.0103572886437178,-0.00847504753619432
712,0.000243617978412658,-0.0112189296633005,-0.00918421987444162,-0.00278626661747694,-0.00485292868688703,-0.00713982945308089
713,0.0028454523999244,-0.00919991079717875,-0.00777661614120007,-0.00207876623608172,0.00501184817403555,-0.0041305348277092
714,0.00613243319094181,-0.00592347467318177,-0.00492923706769943,-0.000706566555891186,0.0140698049217463,-0.000109807377157267
715,0.00866556819528341,-0.00308250496163964,-0.00183638196904212,0.00168642250355333,0.019218809902668,0.00453613139688969
716,0.00969686545431614,-0.00111501896753907,0.000222724323975854,0.00458942260593176,0.0200499501079321,0.00700043328106403
717,0.00922472309321165,0.0017720244359225,0.00150324404239655,0.00706639559939504,0.0164410416036844,0.00454324577003717
718,0.00747527228668332,0.00412072241306305,0.00411055469885468,0.00778323505073786,0.0110922213643789,-0.0036437117960304
719,0.00449065025895834,0.0032100121024996,0.0083234990015626,0.00534621439874172,0.00775152491405606,-0.0146079529076815
720,0.000807702133897692,0.000719017756637186,0.0114638032391667,0.000573133060242981,0.00562738021835685,-0.0203804429620504
721,-0.00297273881733418,-0.00174167123623192,0.0103256832808256,-0.00514161260798573,0.00138776970561594,-0.0157311912626028
722,-0.00621183449402452,-0.00452417461201549,0.00486919516697526,-0.0102788982912898,-0.00474035227671266,-0.00393040897324681
723,-0.00785520765930414,-0.00639958214014769,-0.00111427088268101,-0.0123771214857697,-0.00988865457475185,0.00841159746050835
724,-0.00751898624002934,-0.00593644473701715,-0.00508806249126792,-0.0115866139531136,-0.0128526259213686,0.0168636869639158
725,-0.00565742840990424,-0.00389980431646109,-0.007153888233006,-0.0100204534828663,-0.0135063901543617,0.0204280372709036
726,-0.00301718083210289,-0.00228891940787435,-0.00763647304847836,-0.00834452454000711,-0.011733990162611,0.020434619858861
727,-0.000417754316003993,-0.00171360839158297,-0.00656606815755367,-0.00642297184094787,-0.00852441973984241,0.0185815468430519
728,0.00131528556812555,-0.0013308118795976,-0.00370198767632246,-0.00441956706345081,-0.00529604684561491,0.0154853668063879
729,0.00153583427891135,-0.000799780653323978,0.000436765956692398,-0.00246891076676548,-0.00190267048310488,0.0112389661371708
730,0.000749396975152195,-0.000329084956320003,0.0039575956761837,-0.000626379856839776,0.00263745058327913,0.00670326501131058
731,-5.13376180606429E-05,-0.000605360779445618,0.00476035522297025,0.000191706043551676,0.0079519972205162,0.00295354845002294
732,-0.000925163622014225,-0.00173825735691935,0.00234881974756718,-0.000895062054041773,0.0122750075533986,0.00146545073948801
733,-0.00238505145534873,-0.00237743859179318,-0.0018499547149986,-0.00288372882641852,0.0136140678077936,0.0032807111274451
734,-0.00465350644662976,-0.00189304910600185,-0.00571136409416795,-0.00386916007846594,0.0111738331615925,0.00694204494357109
735,-0.00676872441545129,-0.00163486669771373,-0.00672292802482843,-0.00315463775768876,0.00683448323979974,0.0089348005130887
736,-0.00723893800750375,-0.0035914103500545,-0.00369091215543449,-0.00120820384472609,0.00238669128157198,0.00564206717535853
737,-0.00623383140191436,-0.00631300872191787,0.00267920014448464,0.00356757012195885,-0.00176156195811927,-0.00221770699135959
738,-0.00479849288240075,-0.00526374997571111,0.0106661757454276,0.0113188838586211,-0.00455033080652356,-0.0107225235551596
739,-0.00446298345923424,-0.000672300986479968,0.0156727451831102,0.0143452296033502,-0.00765306549146771,-0.0184520445764065
740,-0.00712832435965538,0.00296306470409036,0.0125266704708338,0.0065909125842154,-0.0137023087590933,-0.0246703308075666
741,-0.0116161657497287,0.00446372199803591,0.00176593370269984,-0.00641202228143811,-0.0197442919015884,-0.0271750018000603
742,-0.0145276952534914,0.00604484742507339,-0.0102071342989802,-0.0153697375208139,-0.0214351136237383,-0.024129094555974
743,-0.0147858522832394,0.00890672113746405,-0.0180702898651361,-0.0178612489253283,-0.0187035519629717,-0.014628472737968
744,-0.0131602138280869,0.0114946803078055,-0.0197245515882969,-0.0173133388161659,-0.0133751127868891,0.0004490363644436
745,-0.0105169853195548,0.0118273692205548,-0.014248569495976,-0.0160776376724243,-0.00762426434084773,0.0166477654129267
746,-0.00733816716820002,0.0105394292622805,-0.00455132406204939,-0.0130402566865087,-0.0040515367873013,0.0282601919025183
747,-0.004123002756387,0.00924720335751772,0.00328859896399081,-0.00720059778541327,-0.00350036425516009,0.0320862382650375
748,-0.00146483932621777,0.00847282726317644,0.00667152740061283,-3.19885839417111E-05,-0.00317823188379407,0.0287576224654913
749,0.00106652965769172,0.00886266492307186,0.00755720492452383,0.00628233561292291,0.000716722861398011,0.022291062399745
750,0.00329268886707723,0.0102886045351624,0.00683991238474846,0.00849547609686852,0.00764188123866916,0.0156501103192568
751,0.00355111225508153,0.0114868935197592,0.00371528603136539,0.00424286955967546,0.013203096576035,0.00932147260755301
752,0.00103629170916975,0.0117641072720289,-0.0011545077431947,-0.00385556276887655,0.0139203816652298,0.00421731919050217
753,-0.00273218215443194,0.0108081549406052,-0.00555226858705282,-0.0108625777065754,0.0103915277868509,0.000851279648486525
754,-0.00555854942649603,0.00874428171664476,-0.00724493572488427,-0.0131017230451107,0.00636678421869874,-0.000735251640435308
755,-0.00742570729926229,0.00611059600487351,-0.00516554014757276,-0.00846930965781212,0.00376047356985509,8.82125241332687E-05
756,-0.00958340242505074,0.00317662907764316,0.000964642502367496,0.00243822019547224,0.0010530489962548,0.00163738720584661
757,-0.0112746432423592,-0.000374286959413439,0.0108436178416014,0.0152876824140549,-0.00208661146461964,-0.000323681626468897
758,-0.0102388439700007,-0.00368286063894629,0.0213215760886669,0.0230198092758656,-0.00273851514793932,-0.00825667660683393
759,-0.00610685488209128,-0.00412081275135279,0.0260703805834055,0.0209716018289328,0.000304429850075394,-0.0197775922715664
760,-0.00113431562203914,-0.00145403179340065,0.0211013406515121,0.0117629375308752,0.00380618241615593,-0.0283171813935041
761,0.00177691632416099,0.000975193397607654,0.00914358999580145,0.000946241139899939,0.00505876261740923,-0.0300425738096237
762,0.00160172302275896,0.000505182077176869,-0.00270098843611777,-0.00797053519636393,0.00467820139601827,-0.028104254975915
763,0.000478452944662422,-0.0013007924426347,-0.00809236709028482,-0.0134725421667099,0.00467153824865818,-0.026592530310154
764,0.00117244734428823,-0.00112099037505686,-0.00614275317639112,-0.0159038193523884,0.00588694773614407,-0.025552824139595
765,0.00359359313733876,0.00130534300114959,-0.00185917841736227,-0.0156698580831289,0.00636059232056141,-0.0228727608919144
766,0.00582797359675169,0.00331060588359833,0.000448222039267421,-0.0135864233598113,0.00505015067756176,-0.0184133220463991
767,0.00722898216918111,0.00202903733588755,0.000861126696690917,-0.0122140841558576,0.00415920000523329,-0.0147321820259094
768,0.00807580724358559,-0.00327984872274101,0.000257067556958646,-0.0127633977681398,0.0039056995883584,-0.0134830363094807
769,0.00830003432929516,-0.00959882698953152,-0.00122077390551567,-0.0132162282243371,0.00185116892680526,-0.0135878529399633
770,0.00799182895570993,-0.0127691449597478,-0.00299153150990605,-0.010893021710217,-0.000230832083616406,-0.0137083781883121
771,0.00757041852921247,-0.0123186251148582,-0.00387982814572752,-0.00543930986896157,0.00253931758925319,-0.0145298289135098
772,0.00749138928949833,-0.0106475669890642,-0.00268355989828706,0.000729797116946429,0.011108286678791,-0.017099330201745
773,0.0077826832421124,-0.00906616356223822,-0.000927993911318481,0.00410997541621327,0.0210345890372992,-0.0203652232885361
774,0.0078991474583745,-0.00726999947801232,-0.00169757148250937,0.00347241852432489,0.0269378013908863,-0.0214690715074539
775,0.00731874350458384,-0.00510820327326655,-0.00402613170444965,0.00126522977370769,0.0275804214179516,-0.0191552601754665
776,0.00539614725857973,-0.00337925879284739,-0.00462484359741211,0.000237119078519754,0.024424584582448,-0.0162758938968182
777,0.00233139330521226,-0.00295418244786561,-0.00242325314320624,0.000436980335507542,0.0195350050926209,-0.016621507704258
778,-0.00024259791825898,-0.00412269402295351,0.00113212689757347,0.000316354387905449,0.015384585596621,-0.0204213857650757
779,-0.00135504070203751,-0.00606232509016991,0.00370449223555624,-0.000192460865946487,0.0126023469492793,-0.0241122450679541
780,-0.000705606595147401,-0.00745745049789548,0.00525699974969029,0.000444815232185647,0.0109422756358981,-0.0247364696115255
781,0.00123875495046377,-0.00824605487287045,0.00694525521248579,0.00368726765736938,0.0103952744975686,-0.0226892102509737
782,0.00298554776236415,-0.00766906514763832,0.00778737384825945,0.00951394718140364,0.0102326357737184,-0.0194840878248215
783,0.0044675674289465,-0.005883714184165,0.00681089656427503,0.0143573805689812,0.0107942866161466,-0.0171423703432083
784,0.00575788179412484,-0.0062458822503686,0.00489672273397446,0.014185069128871,0.0120223890990019,-0.016564667224884
785,0.00574439344927669,-0.00828523468226194,0.00351473060436547,0.0111995050683618,0.0114849004894495,-0.0152586884796619
786,0.00395403709262609,-0.00784979946911335,0.00212015770375729,0.0102315470576286,0.00754710892215371,-0.0116505790501833
787,0.000931951100938022,-0.00330712832510471,-0.00137607892975211,0.0110263135284185,0.000786119955591857,-0.00710130482912064
788,-0.00225280201993883,0.0047232354991138,-0.00553755462169647,0.0108838388696313,-0.00743312574923038,-0.00348730478435755
789,-0.00491130817681551,0.0122900670394301,-0.00675137620419264,0.00884699635207653,-0.0155697334557772,-0.00382023141719401
790,-0.00589484302327037,0.0143237039446831,-0.00508940080180764,0.00572662195190787,-0.0190361086279154,-0.00947853177785873
791,-0.00431421538814902,0.0122285773977637,-0.00367375882342458,0.00337975262664258,-0.0135880578309298,-0.0154972895979881
792,-0.00180741143412888,0.0110306115821004,-0.00401973677799106,0.00329846329987049,-0.00290211196988821,-0.0160255003720522
793,-0.000165950244991109,0.0116530749946833,-0.00468693999573588,0.00546611612662673,0.00724582793191075,-0.0118168834596872
794,0.000879199302289635,0.0116052124649286,-0.00320193194784224,0.00845387671142817,0.0157085321843624,-0.00882930587977171
795,0.00210852338932455,0.00871700886636972,0.00124806736130267,0.0105896908789873,0.0224477536976337,-0.0122142070904374
796,0.00292858434841037,0.00297466921620071,0.00631499662995338,0.0103446180000901,0.0255839098244905,-0.0217824466526508
797,0.0023569636978209,-0.00283166696317494,0.0089026028290391,0.00822669826447964,0.0231497380882502,-0.0312936082482338
798,0.000779798603616655,-0.00535561330616474,0.00842140149325132,0.00678774481639266,0.0168891977518797,-0.0326475538313389
799,-0.00111031113192439,-0.00472773285582662,0.00588227901607752,0.00655731977894902,0.0114386109635234,-0.0243461281061172
800,-0.00314308702945709,-0.00328689510934055,0.00187340728007257,0.00736376643180847,0.00837654341012239,-0.0123472204431891
801,-0.0045283418148756,-0.00231868517585099,-0.0022009655367583,0.00982944201678038,0.0059914356097579,-0.00236034346744418
802,-0.00435072649270296,-0.00232530548237264,-0.00362984859384596,0.0132683143019676,0.0038992662448436,0.00280820764601231
803,-0.00311257457360625,-0.00217353808693588,-0.00121303834021091,0.0175287332385778,0.00347491609863937,0.00164665351621807
804,-0.00257367873564363,-0.000246619456447661,0.00236982991918921,0.0210694167762995,0.00367587711662054,-0.00596129707992077
805,-0.00486099766567349,0.00113351107574999,0.00303576188161969,0.0192120429128408,-0.00065457378514111,-0.0166493244469166
806,-0.00964821688830853,0.000670366804115474,0.000342665298376232,0.0124087929725647,-0.0115653071552515,-0.0228193961083889
807,-0.0133324284106493,0.00194838154129684,-0.00265738414600492,0.00647046556696296,-0.0230766348540783,-0.0194431710988283
808,-0.0135376779362559,0.00547907967120409,-0.00326666841283441,0.00345978094264865,-0.0285181403160095,-0.0102193737402558
809,-0.01162248570472,0.00776176434010267,-0.00144771975465119,0.00168403959833086,-0.0266364254057407,-0.00180938083212823
810,-0.00977920275181532,0.00798111874610186,0.00116635079029948,0.000938045268412679,-0.0186316203325987,0.00335556687787175
811,-0.00825681257992983,0.00747015746310353,0.00256012822501361,0.00159335462376475,-0.00730730593204498,0.00586691964417696
812,-0.00587795814499259,0.00556840328499675,0.000388202781323344,0.00211791065521538,0.0024574960116297,0.00547634111717343
813,-0.00188183016143739,0.00154927338007838,-0.00431379675865173,0.00179279374424368,0.00866827182471752,0.00164982909336686
814,0.00279849162325263,-0.00294340797699988,-0.00642282934859395,0.00214138976298273,0.0120375491678715,-0.00411318242549896
815,0.00632923468947411,-0.00658482359722257,-0.00333631969988346,0.00436716666445136,0.0120385820046067,-0.0104585913941264
816,0.00747671583667398,-0.00971492007374763,0.00227515865117311,0.00772222457453609,0.00811026338487864,-0.0179283563047647
817,0.00614549871534109,-0.0115787843242288,0.00614516716450453,0.0101637681946158,0.000808943121228367,-0.0251305606216192
818,0.00396659411489964,-0.00936433579772711,0.00665752403438091,0.0107358545064926,-0.00678018806502223,-0.0269584022462368
819,0.00251845270395279,-0.00409083720296621,0.00494744069874287,0.00918855145573616,-0.0104130245745182,-0.0216770209372044
820,0.00223915837705135,-0.000815891078673303,0.00294340052641928,0.00573926791548729,-0.00884787738323212,-0.0134665258228779
821,0.00398889044299722,-0.000294151774141937,0.00253347004763782,0.00333707639947534,-0.00350412866100669,-0.00547822192311287
822,0.00728347199037671,0.000718548952136189,0.00377372093498707,0.00471006380394101,0.00196362612769008,0.000813902996014804
823,0.00863082148134708,0.00145084818359464,0.00490409415215254,0.0086070392280817,0.00232483097352088,0.00240421085618436
824,0.0053757899440825,-0.00183179345913231,0.00473789731040597,0.0117962202057242,-0.00375549611635506,-0.00204229797236621
825,-0.000652125105261803,-0.00789169315248728,0.00357632432132959,0.0120525136590004,-0.0108328126370907,-0.00890787038952112
826,-0.00572500983253121,-0.0123330149799585,0.00257310853339732,0.00929544772952795,-0.0131453033536673,-0.0126115912571549
827,-0.00750301871448755,-0.0124861318618059,0.00306882313452661,0.00584558118134737,-0.00968859903514385,-0.00964348390698433
828,-0.00612028688192368,-0.00883644074201584,0.00479699671268463,0.00391380814835429,-0.0032014069147408,-0.00110032106749713
829,-0.00338741042651236,-0.00410001212731004,0.00655342871323228,0.00307473912835121,0.0031906203366816,0.00793003477156162
830,-0.000952757662162185,-0.000268612726358697,0.00751998508349061,0.00106517586391419,0.00771390134468675,0.0123441116884351
831,2.07569519261597E-06,0.00191687664482743,0.00649233115836978,-0.00261324271559715,0.00872090272605419,0.0112247848883271
832,-5.93005315749906E-05,0.00414044223725796,0.00477556977421045,-0.00405190140008926,0.00765726156532764,0.00889016129076481
833,-0.000117062998469919,0.00829904526472092,0.0046833916567266,0.000254554091952741,0.00735763134434819,0.00908130593597889
834,-0.00083869940135628,0.0113778281956911,0.00484531931579113,0.00796179380267859,0.00625875871628523,0.0105335954576731
835,-0.0025722049176693,0.00982733350247145,0.00442028045654297,0.0152777079492807,0.00203265738673508,0.0110520031303167
836,-0.00473253568634391,0.0051844697445631,0.00457192165777087,0.0214535184204578,-0.00466003036126494,0.0107985949143767
837,-0.0072581684216857,0.00116493995301425,0.00487026991322637,0.0264022424817085,-0.0122924130409956,0.0104965697973967
838,-0.009721664711833,-0.00056509772548452,0.00621917424723506,0.0291947685182095,-0.0192603431642056,0.00876743718981743
839,-0.0101156970486045,-0.00111846323125064,0.010721911676228,0.0285492222756147,-0.0230087991803885,0.0032276043202728
840,-0.00750314584001899,-0.00179573090281338,0.0164344068616629,0.0239922031760216,-0.0229083858430386,-0.00427004927769303
841,-0.0046558016911149,-0.002150485990569,0.0202997680753469,0.0175799820572138,-0.0217168312519789,-0.00756389647722244
842,-0.00428194692358375,-0.00121429562568665,0.0226564481854439,0.0125460596755147,-0.0197198260575533,-0.00337517098523676
843,-0.00552876712754369,-1.99390251509612E-05,0.0239686723798513,0.00911563914269209,-0.0148026347160339,0.00348674389533699
844,-0.00587375927716494,-0.000496735970955342,0.0236094743013382,0.00522090075537562,-0.00661025941371918,0.00562284188345075
845,-0.00443353410810232,-0.00115017755888402,0.0224024914205074,0.00147052376996726,0.00394578650593758,0.00212462665513158
846,-0.00341217941604555,0.000423680758103728,0.0207055509090424,-0.00064308854052797,0.0122942375019193,-0.00284996698610485
847,-0.00439012469723821,0.00302272685803473,0.0182470269501209,-0.00173451646696776,0.0142743028700352,-0.00463899644091725
848,-0.00540658598765731,0.00690255779772997,0.0164132323116064,-0.00116358185186982,0.0123483901843429,0.00122511584777385
849,-0.00577287981286645,0.0140908183529973,0.0150550995022058,0.00110317941289395,0.00908929854631424,0.0136015964671969
850,-0.00683266064152122,0.0219118613749743,0.0126873534172773,0.00249343505129218,0.00438082171604037,0.0240711271762848
851,-0.00852115917950869,0.0245907753705978,0.010223482735455,0.00192918651737273,-0.00160457007586956,0.0258951596915722
852,-0.0108499377965927,0.0191324576735497,0.00918488577008247,-0.000676733674481511,-0.00990961212664843,0.0191658306866884
853,-0.0137302307412028,0.00902339350432158,0.0101588945835829,-0.00492717092856765,-0.0208316333591938,0.00821015238761902
854,-0.0157579574733973,0.000628109846729785,0.0133392550051212,-0.00717348325997591,-0.0302916616201401,-0.00191812077537179
855,-0.0154583221301436,-0.00425678165629506,0.0166617147624493,-0.00438450649380684,-0.0328690931200981,-0.00805878173559904
856,-0.0118190897628665,-0.00744853261858225,0.0166772175580263,0.000948862987570465,-0.0264001674950123,-0.0105355391278863
857,-0.00582370022311807,-0.0102102747187018,0.012926546856761,0.00479933572933078,-0.0142223304137588,-0.0118341464549303
858,-0.000787358498200774,-0.0130844414234161,0.00823330506682396,0.00692548556253314,-0.0030911189969629,-0.0128701133653522
859,0.00162611529231071,-0.015545915812254,0.00576619012281299,0.00980545673519373,0.00388164538890123,-0.0127519834786654
860,0.0021551726385951,-0.0163723547011614,0.00540783023461699,0.0130293471738696,0.00810499954968691,-0.0122500052675605
861,0.00133032409939915,-0.0145923560485244,0.00371883506886661,0.0138496765866876,0.0104407351464033,-0.0121672935783863
862,0.000464945536805317,-0.0102881165221334,0.000176147645106539,0.0121536031365395,0.0116776749491692,-0.0111122420057654
863,0.00150712428148836,-0.00560753978788853,-0.00132520915940404,0.00977425463497639,0.0130040878430009,-0.00865281838923693
864,0.00376569177024066,-0.00192958186380565,0.00110766594298184,0.00841991137713194,0.0133919725194573,-0.00644140830263495
865,0.00515931705012918,0.00129705609288067,0.00511539680883288,0.00755431735888124,0.0117398984730244,-0.00650018872693181
866,0.00511597655713558,0.00374653446488082,0.00711150281131268,0.00514856167137623,0.00873713660985231,-0.00796579197049141
867,0.00399329699575901,0.00614832667633891,0.00570502504706383,0.00196567107923329,0.005099693313241,-0.00624279351904988
868,0.00221253419294953,0.0107922367751598,0.00290752621367574,0.00043934045243077,0.000806026277132332,0.000736295187380165
869,2.2625408746535E-06,0.0162038505077362,0.00080444198101759,0.00061832123901695,-0.00423426274210215,0.00841676630079746
870,-0.00207294244319201,0.0177070163190365,-0.000365195650374517,0.000984478858299553,-0.00723471399396658,0.0106473285704851
871,-0.00312652974389493,0.0143164554610848,-0.000617541430983692,0.00138105044607073,-0.00517584756016731,0.00717191584408283
872,-0.00285645364783704,0.00945986341685057,-0.000175892331753857,0.00208570063114166,-0.0011871246388182,0.00320944632403553
873,-0.00179468200076371,0.00553730595856905,0.000670104927849025,0.00310259591788054,-0.000348476809449494,0.00290724216029048
874,-0.00109516375232488,0.0032192540820688,0.00261810654774308,0.0044279177673161,-0.00241890759207308,0.00554503407329321
875,-0.00151271361391991,0.00306045357137918,0.00595064600929618,0.00523609993979335,-0.00447322987020016,0.00679941615089774
876,-0.00242510787211359,0.00437297951430082,0.00982668530195951,0.00525251822546124,-0.00579110346734524,0.00523606687784195
877,-0.00248985807411373,0.0056761116720736,0.0123913865536451,0.00515932403504848,-0.00665509607642889,0.00425391783937812
878,-0.00117377075366676,0.00672775274142623,0.0123632997274399,0.00571713037788868,-0.0068531553260982,0.00555621506646276
879,0.000648722751066089,0.00816776882857084,0.0109056010842323,0.00679776864126325,-0.00637321313843131,0.00676656514406204
880,0.00106714840512723,0.00991973001509905,0.00897605810314417,0.00817536562681198,-0.00606878008693457,0.0070653879083693
881,-0.000929250731132925,0.010006183758378,0.00587084889411926,0.0107823582366109,-0.00635418202728033,0.0089458841830492
882,-0.0038983216509223,0.00724763423204422,0.00197627581655979,0.0143281742930412,-0.00621683616191149,0.012704161927104
883,-0.0057917614467442,0.00453824922442436,-0.000103599217254668,0.0172404572367668,-0.00546825677156448,0.015102431178093
884,-0.00598934199661016,0.00462541123852134,0.00117356586270034,0.0180741436779499,-0.00567191001027822,0.0139097198843956
885,-0.00492695719003677,0.00789843872189522,0.00480423402041197,0.0168531034141779,-0.00792519375681877,0.0112716164439917
886,-0.00307708163745701,0.014736951328814,0.0081983907148242,0.015039810910821,-0.0110684307292104,0.0107813645154238
887,-0.0013894063886255,0.0215831324458122,0.00746514229103923,0.0111046982929111,-0.0123788751661778,0.0112027991563082
888,-0.00131420651450753,0.0221813842654228,0.0016261616256088,0.00328960572369397,-0.0107081960886717,0.00857209507375956
889,-0.00231434521265328,0.0174598824232817,-0.00475570280104876,-0.00414999155327678,-0.00682015251368284,0.00368080753833056
890,-0.00208507082425058,0.0126547329127789,-0.00711919507011771,-0.00601272378116846,-0.00121779867913574,0.000226632721023634
891,-0.000242975787841715,0.00904269237071276,-0.00534596340730786,-0.00297737587243319,0.00418637692928314,-0.000754173030145466
892,0.00110093876719475,0.00541474903002381,-0.00220180372707546,0.000564832414966077,0.00628452515229583,-0.000659201527014375
893,0.00107080221641809,0.00230543501675129,5.36636252945755E-05,0.00288676097989082,0.00497816409915686,-0.000393278460251167
894,0.000581609609071165,0.00107479910366237,0.000833020603749901,0.00551325362175703,0.0024799476377666,0.000416764843976125
895,0.000406338309403509,0.00128771655727178,0.000721593620255589,0.00886975415050983,0.000762451498303562,0.00167493161279708
896,0.0014486878644675,0.00316766137257218,0.00108226842712611,0.0117955030873418,0.00202143704518676,0.00328465597704053
897,0.00287084956653416,0.00747017562389374,0.00211576372385025,0.0128461718559265,0.00539674609899521,0.0057370513677597
898,0.00235733715817332,0.0113572273403406,0.00267578614875674,0.0114686442539096,0.00643496820703149,0.00828342325985432
899,-0.000259779626503587,0.0109458714723587,0.00173052889294922,0.00798430200666189,0.00361470016650856,0.00900293700397015
900,-0.00325132487341762,0.00658195186406374,-0.00106948998291045,0.00283532426692545,-0.000454357505077496,0.00734552880749106
901,-0.00520967831835151,0.00131142314057797,-0.00433953851461411,-0.00187203148379922,-0.00332466955296695,0.00479792337864637
902,-0.00560323754325509,-0.00308918696828187,-0.00567218475043774,-0.00418426282703877,-0.00471429759636521,0.0023250246886164
903,-0.0047276709228754,-0.00611352873966098,-0.00416634883731604,-0.00525047769770026,-0.0063418922945857,-0.000174775021150708
904,-0.00378533080220222,-0.00686327274888754,-0.00144376477692276,-0.00692362012341619,-0.0105413347482681,-0.00196486851200461
905,-0.00350234238430858,-0.00536726554855704,0.000310076080495492,-0.0081770857796073,-0.0160673204809427,-0.00257732230238616
906,-0.00255998782813549,-0.00194931612350047,0.00134464271832258,-0.00605606148019433,-0.0174685791134834,-0.00249492237344384
907,-0.000350927439285442,0.00379236857406795,0.00202439166605473,-0.000832303368952125,-0.0135138425976038,-0.00251800590194762
908,0.000880228471942246,0.00942923128604889,0.000549964897800237,0.0030627737287432,-0.00778727512806654,-0.00409759534522891
909,0.000296076672384515,0.0110814478248358,-0.00314263231121004,0.00260448595508933,-0.00131425238214433,-0.00708009256049991
910,-0.000435923575423658,0.00765768950805068,-0.00676561053842306,-0.00107660866342485,0.00421742349863052,-0.00976622570306063
911,-0.000618282938376069,0.000629746238701046,-0.00874721072614193,-0.00565602304413915,0.00589806539937854,-0.0124746114015579
912,-0.000739289331249893,-0.00748525513336062,-0.00901255197823048,-0.00897484645247459,0.00468355743214488,-0.0153564997017384
913,-0.00136267626658082,-0.0141602251678705,-0.00775003340095282,-0.00947547610849142,0.00278903893195093,-0.0159865878522396
914,-0.00201096036471426,-0.017907777801156,-0.00529356114566326,-0.00846943259239197,0.00102790677919984,-0.0133711360394955
915,-0.00142324494663626,-0.018595315515995,-0.0028018441516906,-0.00797380227595568,0.000374983181245625,-0.00913062412291765
916,0.000470199796836823,-0.0166485998779535,-0.00106892792973667,-0.00767433689907193,0.00191519502550364,-0.00506640272215009
917,0.00182369432877749,-0.012999183498323,-0.000829871802125126,-0.00776672828942537,0.00375414523296058,-0.0032830354757607
918,0.00101693067699671,-0.00933765899389982,-0.00263799307867885,-0.00923814158886671,0.00289246090687811,-0.00469554588198662
919,-0.000409911735914648,-0.00610384298488498,-0.00474424427375197,-0.00998994149267673,0.000694331887643784,-0.00650642160326242
920,-0.000235791536397301,-0.00277625187300146,-0.00498243048787117,-0.00757258711382747,-0.000255872117122635,-0.00655138632282615
921,0.00114019587635994,-0.000417202565586194,-0.0033000698313117,-0.00341134867630899,-0.00057068991009146,-0.00665531121194363
922,0.00206158054061234,-0.000349442416336387,-0.00057265639770776,-0.000233204948017374,-0.001042733900249,-0.00899724848568439
923,0.00163013662677258,-0.00141825585160404,0.0029956940561533,0.0011128633050248,-0.000837821571622044,-0.0129390181973577
924,0.000746743811760098,-0.00168329279404134,0.00725329061970115,0.000895091332495213,0.000364897743565962,-0.0162700936198235
925,0.00161236978601664,-0.00154391850810498,0.011010417714715,0.000975222967099398,0.00242239632643759,-0.0175826475024223
926,0.00453702919185162,-0.0024811050388962,0.0127644436433911,0.00433260248973966,0.00509867817163467,-0.0162131823599339
927,0.00696309749037027,-0.0054397052153945,0.0122135244309902,0.00960042513906956,0.00617917999625206,-0.0127406381070614
928,0.00710620731115341,-0.00951328221708536,0.0102555314078927,0.0125146536156535,0.00384282250888646,-0.00856902915984392
929,0.00559416320174932,-0.0111490404233336,0.00763245904818177,0.0131115512922406,-0.000221687500015832,-0.00345145910978317
930,0.00374022522009909,-0.0087623605504632,0.00478784693405032,0.0139534920454025,-0.00428349524736404,0.00364434975199401
931,0.00253338413313031,-0.00457772286608815,0.00207172171212733,0.0138925667852163,-0.00790003687143326,0.0113387443125248
932,0.00276299985125661,-0.000711132248397917,-0.000386672851163894,0.00994230527430773,-0.00927240960299969,0.0165198221802711
933,0.00384560064412653,0.000936818367335945,-0.00308795925229788,0.00234589306637645,-0.0075597888790071,0.0171835403889418
934,0.00494977319613099,0.000119182332127821,-0.00556705566123128,-0.00465548550710082,-0.00367015413939953,0.0144382566213608
935,0.00667853094637394,-0.000430915970355272,-0.00563206383958459,-0.00687714060768485,0.00152388063725084,0.0113181862980127
936,0.00890584010630846,0.00148250500205904,-0.0029012041632086,-0.0048141828738153,0.00604512542486191,0.00916256476193666
937,0.0106940809637308,0.00582785625010729,9.39336605370045E-05,-0.00212464691139758,0.00780655909329653,0.00753314839676023
938,0.0119784222915769,0.0103582376614213,0.000369785790098831,-0.00128615938592702,0.00619928911328316,0.00692596612498164
939,0.0130466893315315,0.0122923105955124,-0.0023845115210861,-0.00209376239217818,0.00238077249377966,0.00907059106975794
940,0.0133824152871966,0.0112545732408762,-0.00548935774713755,-0.00341713707894087,-0.00156126613728702,0.0131546044722199
941,0.0124349612742662,0.0104793719947338,-0.00712455436587334,-0.00443739630281925,-0.00463986583054066,0.0154381189495325
942,0.0110550262033939,0.012495351023972,-0.00701871421188116,-0.00410017371177673,-0.00611482374370098,0.0143878124654293
943,0.0105146402493119,0.0147592118009925,-0.0050576813519001,-0.00200041872449219,-0.00548169109970331,0.0121192885562778
944,0.0112682841718197,0.0144911017268896,-0.00178524432703853,0.00152902072295547,-0.00376123050227761,0.0117222359403968
945,0.0127674294635654,0.0121710719540715,0.00180514343082905,0.00604531588032842,-0.00184615224134177,0.013943025842309
946,0.0129259033128619,0.00842766836285591,0.00426359055563807,0.00918334815651178,-0.00134007853921503,0.015754371881485
947,0.010417303070426,0.0039458004757762,0.00509697338566184,0.0087958462536335,-0.00381368002854288,0.0143682500347495
948,0.0064753363840282,-0.000450116960564628,0.00586704257875681,0.00575275905430317,-0.00774886319413781,0.00909330602735281
949,0.00378282112069428,-0.00464687403291464,0.00884532183408737,0.00217204517684877,-0.00900550466030836,0.000660783902276307
950,0.00464935041964054,-0.0084402859210968,0.0151348505169153,0.000525015930179507,-0.00412913085892797,-0.0071655809879303
951,0.00825556460767984,-0.0100869694724679,0.0230207704007626,0.00273325946182013,0.00499028479680419,-0.010112140327692
952,0.0114529626443982,-0.00733633991330862,0.0286264177411795,0.00828283187001944,0.0126138115301728,-0.00706096598878503
953,0.012299214489758,-0.00160062219947577,0.0281990710645914,0.0133709879592061,0.0142973838374019,0.000873892626259476
954,0.0115152709186077,0.00356788164936006,0.0205329284071922,0.0130669055506587,0.00998292770236731,0.0106051238253713
955,0.010454828850925,0.00546527421101928,0.00770975928753614,0.0060094459913671,0.00333330011926591,0.0174458548426628
956,0.00934483483433723,0.00370923592709005,-0.00530757009983063,-0.00387914665043354,-0.00295491982251406,0.0194307994097471
957,0.00822725053876638,0.00157746614422649,-0.0128470389172435,-0.0114910053089261,-0.0074653634801507,0.0189873967319727
958,0.00703895092010498,0.00211399141699076,-0.0129468608647585,-0.0144533952698112,-0.00842997711151838,0.0188450533896685
959,0.00549710495397449,0.00561828352510929,-0.0087882075458765,-0.0131210554391146,-0.00705744791775942,0.0187874771654606
960,0.00344263995066285,0.0116582876071334,-0.00541370641440153,-0.00935535971075296,-0.00813192315399647,0.0175310224294662
961,0.000952046713791788,0.018803782761097,-0.00436902139335871,-0.00545038096606731,-0.0135853122919798,0.0155493095517159
962,-0.0010664570145309,0.0240420140326023,-0.00310098589397967,-0.00327128474600613,-0.0195295512676239,0.0144458692520857
963,-0.00196899473667145,0.0250051990151405,-0.000135726761072874,-0.00374526879750192,-0.02259860932827,0.0156274270266294
