,AF3,AF4,Fp1,Fp2,AF7,AF8
0,-0.00057147623738274,-0.0118903527036309,0.000392552756238729,-0.00756442546844482,-0.00622582761570811,-0.00348119507543743
1,-0.000975940609350801,-0.0101710697636008,0.00502839405089617,-0.00166032055858523,-0.00684962421655655,-0.000406804727390409
2,-0.00227266526781023,-0.00973682757467031,0.00705587863922119,0.00347076077014208,-0.01020263787359,0.0038980352692306
3,-0.00308095337823033,-0.00953797344118357,0.00770052103325725,0.00644017849117517,-0.0129957078024745,0.0067388154566288
4,-0.00314177456311882,-0.00845890585333109,0.00751032261177897,0.00648694578558207,-0.0136287342756987,0.00765310460701585
5,-0.00328436959534884,-0.00687952106818557,0.0056192371994257,0.00325000658631325,-0.0134008591994643,0.00705828610807657
6,-0.00321203400380909,-0.00621238723397255,0.00278371549211442,-0.00284240022301674,-0.0129739185795188,0.00446349522098899
7,-0.0023593888618052,-0.0060227932408452,0.00173961371183395,-0.00898992642760277,-0.0121362563222647,0.00149004394188523
8,-0.00167162274010479,-0.00473320344462991,0.00333466590382159,-0.0121895829215646,-0.0116401128470898,0.000814140832517296
9,-0.00207827496342361,-0.00283699855208397,0.00531780486926436,-0.0120131736621261,-0.0109786540269852,0.00334653607569635
10,-0.00355241331271827,-0.00130101945251226,0.00491036800667644,-0.00933962035924196,-0.00980334635823965,0.00874739605933428
11,-0.00617087911814451,0.000361853133654222,0.00129883585032076,-0.00593246333301067,-0.0101557718589902,0.0149446371942759
12,-0.00929316692054272,0.00258480617776513,-0.00343637936748564,-0.00385215110145509,-0.0115406680852175,0.0187972523272038
13,-0.0119460066780448,0.00408578012138605,-0.0068043670617044,-0.00405423250049353,-0.011493437923491,0.0187837090343237
14,-0.0145403230562806,0.00387634080834687,-0.0084133567288518,-0.00629697786644101,-0.0106084058061242,0.0155977411195636
15,-0.0171053241938353,0.00342644727788866,-0.0085990596562624,-0.00899986922740936,-0.0105461915954947,0.010928644798696
16,-0.017782298848033,0.00297394837252796,-0.00778104038909078,-0.0105608291924,-0.01150091458112,0.00599104724824429
17,-0.0147836888208985,0.000711321365088224,-0.00596737209707499,-0.00942443404346704,-0.011669659987092,0.00241810036823154
18,-0.00888398569077253,-0.00242797122336924,-0.00240664160810411,-0.00372921884991229,-0.00793648231774569,0.00187961768824607
19,-0.00353151792660356,-0.00341532356105745,0.00142232631333172,0.00482460949569941,-0.00145996862556785,0.00274830218404531
20,-0.00153362448327243,-0.00251688086427748,0.00292013119906187,0.0104643329977989,0.00256645050831139,0.00271317921578884
21,-0.00284491921775043,-0.00189557671546936,0.00233856332488358,0.0103407865390182,0.00178850989323109,0.00398658728227019
22,-0.00584337720647454,-0.00144362088758498,0.00182332354597747,0.00690734060481191,-0.00208997749723494,0.0102644274011254
23,-0.00851656589657068,-0.000219173103687353,0.0024035379756242,0.00274124764837325,-0.00601136591285467,0.0203645806759596
24,-0.00950699020177126,0.00222536874935031,0.00360237737186253,-0.000791025697253644,-0.00823552627116442,0.0291952285915613
25,-0.00910238828510046,0.00505390530452132,0.00447486154735088,-0.00282371137291193,-0.00907356105744839,0.0324857570230961
26,-0.00841299258172512,0.00618464639410377,0.00415894715115428,-0.00442356988787651,-0.00997340306639671,0.0297895409166813
27,-0.00788615271449089,0.00417927885428071,0.00260578561574221,-0.00790792796760798,-0.0116228433325887,0.023270670324564
28,-0.00718404538929462,-4.74556654808111E-05,0.000506018521264195,-0.0127306347712874,-0.0129798017442226,0.015148394741118
29,-0.00498555367812514,-0.00304972566664219,-0.000527541211340576,-0.0143515188246965,-0.0118771865963936,0.0081524820998311
30,-0.00107078300788999,-0.00339210731908679,0.000757148314733058,-0.0104086073115468,-0.00792197976261377,0.00387530890293419
31,0.000854163547046483,-0.00357912154868245,0.0020136465318501,-0.00411255797371268,-0.00644226558506489,0.00196880381554365
32,-0.00169936148449779,-0.00481231696903706,-0.000653436291031539,-0.000201984701561742,-0.0128800654783845,0.00142675335519016
33,-0.00600526761263609,-0.00531429890543222,-0.00777767645195127,-0.00168780935928226,-0.0246918369084597,-8.4874736785423E-05
34,-0.00955028831958771,-0.00500050932168961,-0.0172726437449455,-0.00893376674503088,-0.0362982004880905,-0.00430437736213207
35,-0.0123087409883738,-0.00496041355654597,-0.0260831527411938,-0.0186283756047487,-0.0454978197813034,-0.00914367847144604
36,-0.0137127069756389,-0.00408000871539116,-0.0296951401978731,-0.0256651397794485,-0.0493322946131229,-0.0107454154640436
37,-0.0126373060047627,-0.000309168477542698,-0.0251316744834185,-0.0268482882529497,-0.0442896522581577,-0.00632884865626693
38,-0.00925026088953018,0.00781373959034681,-0.0143701322376728,-0.0215491559356451,-0.0332707352936268,0.00474642124027014
39,-0.00487893726676703,0.018719419836998,-0.00297357491217554,-0.0116127254441381,-0.0225598607212305,0.0186164192855358
40,-0.00117205106653273,0.0255869869142771,0.00334701337851584,-0.00257444730959833,-0.0154339885339141,0.0286571998149157
41,0.000312709540594369,0.0227550491690636,0.00171171827241778,-0.00117351463995874,-0.0120393196120858,0.0313637629151344
42,0.000322957668686286,0.0138041619211435,-0.00469772657379508,-0.00820204149931669,-0.00960551854223013,0.0286872275173664
43,0.000680718570947647,0.00588987302035093,-0.00981230940669775,-0.0172695424407721,-0.00615676585584879,0.0244394112378359
44,0.00113034073729068,0.001782909152098,-0.0114459348842502,-0.0223024245351553,-0.00365347182378173,0.0215725135058165
45,0.00147066754288971,0.000966532854363322,-0.0109924823045731,-0.0235882438719273,-0.00375956692732871,0.021008774638176
46,0.00236793304793537,0.00141792721115053,-0.0108700031414628,-0.025875287130475,-0.00596863450482488,0.0199225600808859
47,0.00361048080958426,0.0016985508846119,-0.0127319814637303,-0.0306125283241272,-0.00918272230774164,0.016053756698966
48,0.00472323270514607,0.00217571971006691,-0.0160549972206354,-0.0342899300158024,-0.012054955586791,0.0110859200358391
49,0.00567521899938583,0.00266664451919496,-0.0188809968531132,-0.0338446535170078,-0.0134501084685326,0.00755707500502467
50,0.00607898226007819,0.00221707881428301,-0.019679382443428,-0.0294894054532051,-0.0126432981342077,0.0061490130610764
51,0.00546948798000813,0.00101947062648833,-0.0178887508809567,-0.0243881065398455,-0.00983671378344297,0.0047163488343358
52,0.00411063758656383,-0.000274392368737608,-0.0138120241463184,-0.0213848166167736,-0.00740446103736758,0.0013867758680135
53,0.0024836661759764,-0.00169639382511377,-0.00916757062077522,-0.0205235425382853,-0.00812635663896799,-0.00215242593549192
54,0.00141428934875876,-0.00267870351672173,-0.00568572245538235,-0.0201384499669075,-0.0118086449801922,-0.00286573660559952
55,0.00227772048674524,-0.00263822637498379,-0.00370735512115061,-0.0188111141324043,-0.0150175429880619,0.000461827294202521
56,0.00531785702332854,-0.00219275918789208,-0.00270183477550745,-0.0172913055866957,-0.0140330204740167,0.00565550336614251
57,0.00811954960227013,-0.00175403140019625,-0.00224050646647811,-0.0169948153197765,-0.00951567105948925,0.00924772396683693
58,0.00814395397901535,-0.00105875951703638,-0.00223629060201347,-0.0176809076219797,-0.0055120144970715,0.0106773423030972
59,0.00607048580422997,0.000302325031952932,-0.00243070907890797,-0.0182129573076963,-0.00360345188528299,0.0118394959717989
60,0.00438361102715135,0.0022743868175894,-0.00232607731595635,-0.0165779422968626,-0.00278743519447744,0.0136877857148647
61,0.00455574924126267,0.00401162449270487,-0.00156048068311065,-0.0119839496910572,-0.0020855434704572,0.0147929964587092
62,0.00662064040079713,0.00538705568760633,-0.000699679949320853,-0.00731106195598841,-0.00077733100624755,0.0136405350640416
63,0.00936639960855246,0.00625202618539333,-0.000938934797886759,-0.00580476084724069,0.00127608014736325,0.0103944651782513
64,0.0112760020419955,0.00608694506809115,-0.00154199241660535,-0.00757321529090405,0.00354408309794962,0.0069337161257863
65,0.0115274777635932,0.00610521482303739,-0.00066166534088552,-0.0106336902827024,0.004977036267519,0.00584873929619789
66,0.0100855454802513,0.00627319840714335,0.00158602732699364,-0.0133038191124797,0.00526909017935395,0.00606871489435434
67,0.00781014608219266,0.00452875252813101,0.00365721923299134,-0.0145532507449389,0.00570359406992793,0.00450970465317369
68,0.005600331351161,0.000620128179434687,0.00354107329621911,-0.0150808021426201,0.00653020897880197,0.00135254918131977
69,0.00363352079875767,-0.00345711596310139,0.000646306376438588,-0.0161962006241083,0.00529298698529601,-0.000235713014262728
70,0.00144851114600897,-0.00569896399974823,-0.0032006255351007,-0.0172251351177692,-0.000312238815240562,0.0024055524263531
71,-0.000890553463250399,-0.00582348741590977,-0.00594783294945955,-0.017777482047677,-0.00747341336682439,0.0076380455866456
72,-0.00196083961054683,-0.00394819816574454,-0.0059073818847537,-0.0181838069111109,-0.010891473852098,0.0115354228764772
73,-0.000346832704963163,-0.000264706672169268,-0.00336261140182614,-0.018062686547637,-0.00998839642852545,0.0121329734101892
74,0.00332357082515955,0.00310141569934785,-0.00139316823333502,-0.01758155785501,-0.0080501725897193,0.00961863435804844
75,0.00634311698377132,0.00376394228078425,-0.0018035985995084,-0.0178657993674278,-0.00775055820122361,0.00516385491937399
76,0.00677524553611875,0.0024448074400425,-0.00318897678516805,-0.0186030641198158,-0.00944160111248493,0.000769797887187451
77,0.00569636467844248,0.00174292421434075,-0.00338197639212012,-0.0172784309834242,-0.0120763583108783,-0.000149823856190778
78,0.00513453129678965,0.00183264969382435,-0.00271925237029791,-0.0137493442744017,-0.0148090040311217,0.00370912440121174
79,0.00511631881818175,0.000658657401800156,-0.00353634194470942,-0.0110974907875061,-0.017640944570303,0.00925275962799788
80,0.00520481402054429,-0.00185649818740785,-0.00537477899342775,-0.00992909073829651,-0.0199832394719124,0.0137549797073007
81,0.00662916945293546,-0.00232495414093137,-0.00505188619717956,-0.00852626841515303,-0.0190898105502129,0.0165577623993158
82,0.0104487026110291,0.000556706625502557,-0.00123752106446773,-0.00689735217019916,-0.0122310556471348,0.0166527219116688
83,0.0159822851419449,0.00378348026424646,0.00477589294314384,-0.00495958048850298,-0.000182511794264428,0.0139892585575581
84,0.0210041310638189,0.00537252426147461,0.0101852770894766,-0.00219328538514674,0.0115307038649917,0.00966272689402103
85,0.0226120874285698,0.00501470686867833,0.0124220885336399,0.000513596751261503,0.0174926500767469,0.00380360754206777
86,0.0203317236155272,0.00324804382398725,0.0117571810260415,0.00288893538527191,0.0178661271929741,-0.00219932221807539
87,0.0160738304257393,0.00198439671657979,0.0101628703996539,0.00518463412299752,0.014979156665504,-0.00555757852271199
88,0.0105676492676139,0.00351965497247875,0.00789356604218483,0.00593390921130776,0.00958594400435686,-0.00661289738491178
89,0.00406735530123115,0.00775231840088964,0.0043393918313086,0.00320826470851898,0.00285544479265809,-0.00859334692358971
90,-0.00241198018193245,0.0104432990774512,0.000383305072318763,-0.00267953495495021,-0.00413491064682603,-0.0132133737206459
91,-0.00700053991749883,0.00937625672668219,-0.00172814587131143,-0.00821361690759659,-0.00992359686642885,-0.0185245648026466
92,-0.00720779923722148,0.0079452758654952,-0.000373399205273017,-0.00947470869868994,-0.0121878767386079,-0.019646167755127
93,-0.00367442495189607,0.0078926645219326,0.00214463868178427,-0.00733623234555125,-0.0114713339135051,-0.013913145288825
94,-0.000326529203448445,0.00684026349335909,0.00125257833860815,-0.0065506543032825,-0.00981444865465164,-0.00503798387944698
95,0.000208383135031909,0.00404512695968151,-0.00400754390284419,-0.0089524332433939,-0.00829069688916206,0.00160268717445433
96,-0.00133538933005184,0.00100440823007375,-0.00978956185281277,-0.0124360388144851,-0.00699881836771965,0.00338413962163031
97,-0.00276091555133462,-0.00103622826281935,-0.0117963887751102,-0.0143930772319436,-0.00577855948358774,0.000965282728429884
98,-0.00336342537775636,-0.00151765707414597,-0.00970869604498148,-0.0133581385016441,-0.00523239374160767,-0.0019903676584363
99,-0.00364813720807433,-0.00104692624881864,-0.006518863607198,-0.0105078993365169,-0.00465134298428893,-0.00258821249008179
100,-0.00402015168219805,-0.000729882274754345,-0.00414966698735952,-0.00851867906749249,-0.00251383753493428,-0.000848877185489982
101,-0.00419416092336178,0.000469937745947391,-0.00151281268335879,-0.00738610979169607,0.000842555658891797,0.00197120406664908
102,-0.00341936084441841,0.00594715122133493,0.00316164665855467,-0.00430324394255877,0.00374978571198881,0.0050261546857655
103,-0.00243687350302935,0.0141416816040874,0.00862145330756903,0.000717874034307897,0.0041527790017426,0.00740438373759389
104,-0.00194995396304876,0.0177572574466467,0.0116159208118916,0.00417167227715254,0.00147938507143408,0.00777711160480976
105,-0.00119155319407582,0.0144082279875875,0.0115794902667403,0.00483292900025845,-0.00215729605406523,0.0058992151170969
106,0.00015115860151127,0.00874764658510685,0.0111799454316497,0.00460408255457878,-0.00422347150743008,0.00305033894255757
107,0.00180661457125098,0.00495699094608426,0.0120112299919128,0.0038382806815207,-0.00374115887098014,0.000702048128005117
108,0.00294953840784729,0.0024465611204505,0.0121025275439024,0.000764762167818844,-0.00117679825052619,-0.00152576284017414
109,0.00301494426093996,-0.000512665486894548,0.00926654506474733,-0.00384404580108821,0.00255871005356312,-0.0043213446624577
110,0.00257346732541919,-0.00360423722304404,0.00393562205135822,-0.00719890929758549,0.00605325354263186,-0.00670399470254779
111,0.00203098589554429,-0.00651590432971716,-0.00190618040505797,-0.00885868910700083,0.00757914036512375,-0.00837017968297005
112,0.00118982442654669,-0.00878405943512917,-0.00629852199926972,-0.00947913620620966,0.00634885393083096,-0.00969629641622305
113,-0.000667206710204482,-0.00893415603786707,-0.00896771624684334,-0.00932472199201584,0.00242000003345311,-0.0113524040207267
114,-0.00313276005908847,-0.0068593486212194,-0.00980138592422009,-0.00854362174868584,-0.00182752101682127,-0.0142669342458248
115,-0.00402291025966406,-0.00456904340535402,-0.00746935000643134,-0.00629925960674882,-0.00230345921590924,-0.0177182350307703
116,-0.00307195843197405,-0.00335882673971355,-0.00260285777039826,-0.00216529378667474,0.000461230461951345,-0.0196335315704346
117,-0.00212416565045714,-0.00236523477360606,0.00219056522473693,0.00336343701928854,0.00188736768905073,-0.0162915885448456
118,-0.00235619908198714,-0.00196848413906991,0.00482827704399824,0.00850601308047771,-0.000375516450731084,-0.00629592454060912
119,-0.00414113886654377,-0.00470612337812781,0.00516685238108039,0.0105640711262822,-0.00502106128260493,0.00437279744073749
120,-0.00666997907683253,-0.00943608488887548,0.00522157130762935,0.0102209774777293,-0.00912868324667215,0.00960437208414078
121,-0.00836334191262722,-0.0117495553568006,0.00589146465063095,0.00957672297954559,-0.0108460476621985,0.00975904520601034
122,-0.00832752697169781,-0.0100559825077653,0.00610996130853891,0.00803002435714006,-0.00940134841948748,0.0087584750726819
123,-0.00666813459247351,-0.00450481381267309,0.00604591565206647,0.0058442484587431,-0.0048140985891223,0.010226134210825
124,-0.00406779488548636,0.00520099001005292,0.00721236178651452,0.00491455895826221,0.00120658834930509,0.0137497428804636
125,-0.00134167214855552,0.0158542785793543,0.0101158637553453,0.0052878400310874,0.00609347876161337,0.0153561690822244
126,0.000770559534430504,0.0217181723564863,0.0133103122934699,0.00612443452700973,0.0079774921759963,0.0125455828383565
127,0.00239258003421128,0.0210691392421722,0.0150065217167139,0.00737032992765307,0.00738828349858522,0.00702701555565
128,0.00463237892836332,0.0152416853234172,0.0144955962896347,0.00753903016448021,0.00683277938514948,0.000821148918475956
129,0.00718285795301199,0.00586896948516369,0.0117229744791985,0.00439381413161755,0.00684677949175239,-0.00645456649363041
130,0.00762489810585976,-0.00430515548214316,0.00797807332128286,-0.00110547966323793,0.00560210971161723,-0.0133323287591338
131,0.00596585404127836,-0.0122707886621356,0.00578326638787985,-0.0056899287737906,0.00297514582052827,-0.01774637773633
132,0.00438624108210206,-0.0161210335791111,0.00603335304185748,-0.00709618581458926,-0.000607960449997336,-0.0197205971926451
133,0.00303577375598252,-0.0154937990009785,0.00745421461760998,-0.00505694234743714,-0.00513624772429466,-0.0189767777919769
134,0.00119807512965053,-0.0119026713073254,0.00853134412318468,-0.00136206904426217,-0.00887364894151688,-0.0153276855126023
135,-0.0012796224327758,-0.00683934427797794,0.00821621529757977,0.00175630673766136,-0.01078094355762,-0.00976122356951237
136,-0.00432471511885524,8.0003883340396E-06,0.00666449824348092,0.00392516981810331,-0.0116269923746586,-0.00357329868711531
137,-0.00799032114446163,0.00646158400923014,0.00419462565332651,0.00453448062762618,-0.0121946549043059,0.0013470221310854
138,-0.0116179063916206,0.00884982198476791,0.000938284327276051,0.00294785015285015,-0.0124343847855926,0.004011538811028
139,-0.0134929921478033,0.00835075601935387,-0.00168032513465732,0.00117922516074032,-0.0118567030876875,0.00519688799977303
140,-0.012838264927268,0.00755477277562022,-0.0023294051643461,0.00094688031822443,-0.010550512932241,0.00450592907145619
141,-0.00979614350944757,0.00659120175987482,-0.000582682783715427,0.0019767580088228,-0.00758118368685246,0.000944272032938898
142,-0.00522610964253545,0.00553454924374819,0.00290784589014947,0.00374566041864455,-0.00247929384931922,-0.00424613524228334
143,-0.000928761612158269,0.00427090097218752,0.00604384019970894,0.0062882611528039,0.00190517934970558,-0.00932198669761419
144,0.00262259249575436,0.00165647454559803,0.00812970753759146,0.01005844399333,0.00386081775650382,-0.0133440960198641
145,0.00590923754498363,-0.00243412237614393,0.00999914761632681,0.0138755012303591,0.00392006943002343,-0.0151025783270597
146,0.0082973912358284,-0.00536479754373431,0.0109663112089038,0.014576499350369,0.00195972481742501,-0.0147607130929828
147,0.00914460327476263,-0.00522624002769589,0.00937594287097454,0.0101639851927757,-0.000589627423323691,-0.0138713708147407
148,0.00908177439123392,-0.0027108364738524,0.00480998167768121,0.00257297558709979,-0.0014039920642972,-0.0119107319042087
149,0.00920905079692602,0.00153052469249815,-0.000315614539431408,-0.00305268564261496,-0.000344750180374831,-0.00682060979306698
150,0.0101911518722773,0.00590997189283371,-0.0027368541341275,-0.00346118840388954,0.00190073857083917,0.000987843261100352
151,0.0126055488362908,0.00894542783498764,-0.00184905366040766,0.000277947139693424,0.00546965980902314,0.00838792696595192
152,0.0157453361898661,0.0098987789824605,0.000869299692567438,0.00450544431805611,0.00970626715570688,0.0112887192517519
153,0.0166907105594873,0.00796234048902988,0.00375637458637357,0.00618269247934222,0.0117140058428049,0.00849427655339241
154,0.0139142917469144,0.00402642320841551,0.00599893368780613,0.00565725145861506,0.00909275934100151,0.00329172657802701
155,0.00980117544531822,4.91807695652824E-05,0.00704870512709022,0.00502186687663198,0.00275471457280219,-0.00123174756299704
156,0.00780230667442083,-0.00222507305443287,0.00653181271627545,0.00574237899854779,-0.0030671029817313,-0.00324017042294145
157,0.00864726770669222,-0.00249145948328078,0.00560886692255735,0.00737407291308045,-0.00399492774158716,-0.00302904332056642
158,0.00926060229539871,-0.00210139085538685,0.00513603212311864,0.00777527084574103,-0.00110967305954546,-0.00377118494361639
159,0.0066477544605732,-0.00159680191427469,0.00407641427591443,0.00594768021255732,0.000582382548600435,-0.00623918231576681
160,0.00291395373642445,-0.000224952964344993,0.00157334527466446,0.00326583813875914,-0.000118893985927571,-0.00805225502699614
161,0.00232122116722167,0.00223382818512619,-0.000775398279074579,0.00213315687142313,0.000447328813606873,-0.00699698645621538
162,0.00548512488603592,0.00484581151977181,-0.000984441488981247,0.00319668301381171,0.00457479665055871,-0.00277285953052342
163,0.0100895371288061,0.00639580516144633,0.00023475571651943,0.00438784155994654,0.0101867951452732,0.00135332019999623
164,0.0138469282537699,0.0074282567948103,0.00156316126231104,0.004378707613796,0.0141918668523431,0.00147696689236909
165,0.0148040745407343,0.00883805099874735,0.00171072967350483,0.00384545954875648,0.0142455166205764,-0.00263447081670165
166,0.012530080974102,0.00862635485827923,0.000497942382935435,0.00429883878678083,0.0110052861273289,-0.00748105905950069
167,0.00925583764910698,0.00702648749575019,0.000506769691128284,0.00673969741910696,0.0082403440028429,-0.00894834380596876
168,0.00644186465069652,0.00796251464635134,0.0019071550341323,0.00937797501683235,0.00542027363553643,-0.00691395858302712
169,0.00422904547303915,0.0114166615530849,0.00239368085749447,0.00972235854715109,0.000191334373084828,-0.00430791405960917
170,0.00338817923329771,0.0138586331158876,0.00176040723454207,0.00729451328516006,-0.00415280368179083,-0.002771359635517
171,0.00336870970204473,0.0127212386578321,0.000333805364789441,0.00295077660121024,-0.00373430596664548,-0.00294255465269089
172,0.00262940465472639,0.00792573019862175,-0.00126667087897658,-0.000936541648115963,0.000672370253596455,-0.00456616235896945
173,0.000753303524106741,0.0018409836338833,-0.00193429680075496,-0.00240922649390996,0.00567650515586138,-0.00628026155754924
174,-0.00128962611779571,-0.00275249499827623,-0.00305193080566823,-0.00239804969169199,0.00841336511075497,-0.00738127389922738
175,-0.00211356463842094,-0.00447593163698912,-0.00601458735764027,-0.00194347137585282,0.00869787856936455,-0.0079062432050705
176,-0.00137945089954883,-0.00446706311777234,-0.00865088310092688,-0.00137662305496633,0.00854257121682167,-0.0090002678334713
177,-2.84640300378669E-05,-0.00415271800011396,-0.00896930508315563,-0.00142148323357105,0.00862100347876549,-0.0118549754843116
178,0.000741674972232431,-0.00268646003678441,-0.00727825053036213,-0.000740944291464984,0.00767706241458654,-0.0151279168203473
179,0.00131862773559988,0.000627679342869669,-0.00407207338139415,0.00233384221792221,0.00583350658416748,-0.0169242359697819
180,0.00263254554010928,0.00370902614668012,-0.000667502346914262,0.00587313668802381,0.0038341439794749,-0.0173903685063124
181,0.00398759357631207,0.00405596382915974,0.000953288981691003,0.00693274894729257,0.00123057211749256,-0.017266359180212
182,0.00449784891679883,0.00150011805817485,0.000311634677927941,0.00539428321644664,-0.00195764331147075,-0.0166544187813997
183,0.00453555444255471,-0.00244345609098673,-0.00237843417562544,0.00327681284397841,-0.00517645478248596,-0.0158341396600008
184,0.00529644126072526,-0.00492947595193982,-0.00617756461724639,0.00218086969107389,-0.00858368910849094,-0.0155812501907349
185,0.00814487040042877,-0.00301660574041307,-0.0075337290763855,0.0027037353720516,-0.0106280511245131,-0.0153989596292377
186,0.0121080875396729,0.00250010169111192,-0.00426035327836871,0.00393582182005048,-0.00875651650130749,-0.0138928107917309
187,0.0132913002744317,0.00715447356924415,0.000978987198323011,0.00463550724089146,-0.00434886990115047,-0.0100472923368216
188,0.0101415636017919,0.00917563214898109,0.00430098501965404,0.005360365845263,-0.0016345412004739,-0.00304138800129294
189,0.00587587244808674,0.0100152939558029,0.00487151090055704,0.00685170851647854,-0.00228149956092238,0.00450943177565932
190,0.0037432974204421,0.00883808080106974,0.00459612952545285,0.00866385083645582,-0.00426913565024734,0.00733280275017023
191,0.00411673448979855,0.00506476406008005,0.00498188193887472,0.00981808174401522,-0.00532334530726075,0.0043763411231339
192,0.00557154370471835,0.000645638268906623,0.00546753080561757,0.00958134513348341,-0.00536272162571549,-0.000617674377281219
193,0.00610999157652259,-0.00346493115648627,0.00375779229216278,0.00674673030152917,-0.0056065870448947,-0.00541234761476517
194,0.00557196279987693,-0.00658566551283002,-0.000364771578460932,0.000989462248980999,-0.00559034757316113,-0.0108139514923096
195,0.00484506925567985,-0.0083648981526494,-0.00449099997058511,-0.00592451728880405,-0.00509106228128076,-0.0185745935887098
196,0.00382467685267329,-0.0101898843422532,-0.00678926054388285,-0.0126773919910192,-0.00562020530924201,-0.0302747078239918
197,0.00246360199525952,-0.0117700202390552,-0.00672131823375821,-0.0180104337632656,-0.00799785554409027,-0.0428810380399227
198,0.0015079261502251,-0.0113558629527688,-0.0056083332747221,-0.0207768920809031,-0.0120126651600003,-0.0509141199290752
199,0.00128568336367607,-0.0093446671962738,-0.00566218793392181,-0.0222012009471655,-0.0167798493057489,-0.0536706298589706
200,0.000668464403133839,-0.00690387282520533,-0.0077462331391871,-0.0239479318261147,-0.0219081193208694,-0.0536807775497437
201,-0.000490570266265422,-0.00426093768328428,-0.010455115698278,-0.0255648456513882,-0.0270107537508011,-0.0532099045813084
202,-0.000375617615645751,-0.00195546029135585,-0.0119058154523373,-0.026425639167428,-0.0310740564018488,-0.0536533482372761
203,0.00215890468098223,-0.0013088759733364,-0.0122088762000203,-0.02786560729146,-0.0336611121892929,-0.0553137771785259
204,0.00602763425558805,-0.00223854184150696,-0.0125441029667854,-0.0297829862684011,-0.0357974469661713,-0.0562821663916111
205,0.00890626013278961,-0.00278344796970487,-0.0137668112292886,-0.0297035221010447,-0.0392491929233074,-0.0541849918663502
206,0.00940623786300421,-0.00181359041016549,-0.0164584144949913,-0.0282042156904936,-0.0446525141596794,-0.0506952218711376
207,0.00708128651604056,-3.15863653668202E-05,-0.021333945915103,-0.0295305568724871,-0.0529729388654232,-0.0500093922019005
208,0.00233186525292695,0.00118773966096342,-0.0284682046622038,-0.0359806157648563,-0.0650781542062759,-0.0544139333069324
209,-0.00297993910498917,0.00159302691463381,-0.0361447930335999,-0.045300267636776,-0.0792827755212784,-0.0626992434263229
210,-0.0072297565639019,0.00203283573500812,-0.0422427095472813,-0.0536898523569107,-0.0931188464164734,-0.0713984295725822
211,-0.00978226959705353,0.00276332581415772,-0.046051412820816,-0.0591492690145969,-0.104604281485081,-0.0776146724820137
212,-0.0109538892284036,0.00330668338574469,-0.0491146668791771,-0.0619945265352726,-0.113689735531807,-0.0809077024459839
213,-0.0118674160912633,0.00336648873053491,-0.0527128353714943,-0.0627262219786644,-0.121906831860542,-0.082401342689991
214,-0.0133657725527883,0.00261953147128224,-0.0556040443480015,-0.0613552257418633,-0.128669396042824,-0.0831217989325523
215,-0.0155598782002926,0.000352772156475112,-0.0565817952156067,-0.0593471266329288,-0.132653102278709,-0.0848680734634399
216,-0.0171850770711899,-0.0027577793225646,-0.0564893484115601,-0.0596097186207771,-0.135391265153885,-0.0895931124687195
217,-0.0167314689606428,-0.00484542082995176,-0.0573576986789703,-0.0648516714572906,-0.139239877462387,-0.0977471396327019
218,-0.014367712661624,-0.00565766496583819,-0.0603491887450218,-0.0757777020335197,-0.144436612725258,-0.108962751924992
219,-0.0109011456370354,-0.00650338875129819,-0.0650079548358917,-0.0899737253785133,-0.149654686450958,-0.121703825891018
220,-0.00678057502955198,-0.00736385304480791,-0.070075735449791,-0.102903418242931,-0.152994841337204,-0.132937982678413
221,-0.00309663731604815,-0.00524964323267341,-0.0752546638250351,-0.111839808523655,-0.154622256755829,-0.140706121921539
222,-0.00118116952944547,-0.000136314178234898,-0.0808239504694939,-0.118008054792881,-0.15695495903492,-0.146349877119064
223,-0.000949882029090077,0.00274051260203123,-0.0852194130420685,-0.122696325182915,-0.160507440567017,-0.152197524905205
224,-0.00218449858948588,0.00107869529165328,-0.0876912623643875,-0.126800686120987,-0.165414705872536,-0.158885881304741
225,-0.00528176268562675,-0.00410769646987319,-0.0905333831906319,-0.132976576685905,-0.173079788684845,-0.167771905660629
226,-0.00881791394203901,-0.0120690939947963,-0.0946868732571602,-0.14201332628727,-0.181381836533546,-0.181617394089699
227,-0.0107360351830721,-0.0206550899893045,-0.0984621793031693,-0.150266349315643,-0.186851382255554,-0.198630779981613
228,-0.0106656868010759,-0.0272296350449324,-0.100578844547272,-0.153816998004913,-0.189919710159302,-0.211706548929214
229,-0.00877358671277761,-0.0310621093958616,-0.100100561976433,-0.153061732649803,-0.190800130367279,-0.216848731040955
230,-0.00595245929434896,-0.0325996093451977,-0.0972003936767578,-0.150957301259041,-0.188589975237846,-0.215362250804901
231,-0.00345982401631773,-0.0316245630383492,-0.0942289307713509,-0.149142533540726,-0.184286773204803,-0.209165036678314
232,-0.00159540597815067,-0.0277555491775274,-0.0931619629263878,-0.147606134414673,-0.179094135761261,-0.200493082404137
233,-0.000531048106495291,-0.0223247613757849,-0.0937594473361969,-0.146031633019447,-0.173910796642303,-0.192142739892006
234,-0.000490814913064241,-0.017170300707221,-0.0933600962162018,-0.143599346280098,-0.168613433837891,-0.18460251390934
235,-0.000608111615292728,-0.0127966739237309,-0.0896932855248451,-0.139775693416595,-0.161671489477158,-0.176701188087463
236,0.000944686122238636,-0.0104549713432789,-0.0841218754649162,-0.135202035307884,-0.153139054775238,-0.168715238571167
237,0.00487904110923409,-0.0112908072769642,-0.0791319459676743,-0.128956079483032,-0.144584596157074,-0.161584615707397
238,0.0089271729812026,-0.0142281707376242,-0.0765492841601372,-0.121134951710701,-0.13711966574192,-0.157067865133286
239,0.00998347438871861,-0.0175383146852255,-0.0770276263356209,-0.11513464897871,-0.13059027493,-0.157738283276558
240,0.00817591324448586,-0.0193805620074272,-0.0782949700951576,-0.112111873924732,-0.124348074197769,-0.161971688270569
241,0.00632436107844114,-0.0183003395795822,-0.0773392617702484,-0.110055863857269,-0.119057536125183,-0.162717774510384
242,0.00574086653068662,-0.0149607313796878,-0.0734886229038239,-0.107187435030937,-0.116076476871967,-0.154730632901192
243,0.00485419668257236,-0.0120329642668366,-0.0682179480791092,-0.103640213608742,-0.116380847990513,-0.140650764107704
244,0.00298530422151089,-0.0112918987870216,-0.0628859326243401,-0.100948661565781,-0.118027217686176,-0.127403900027275
245,0.00145299138966948,-0.0125037021934986,-0.0580945871770382,-0.0995682924985886,-0.116648070514202,-0.118804521858692
246,0.000350804446497932,-0.0153715750202537,-0.0547357574105263,-0.0979104340076447,-0.111650444567204,-0.114022448658943
247,-0.00118747749365866,-0.0201096758246422,-0.0529030747711658,-0.0941454991698265,-0.10542993247509,-0.110868707299232
248,-0.00157913309521973,-0.0254228450357914,-0.0504913181066513,-0.0874904841184616,-0.0966631025075912,-0.107200622558594
249,0.00209635542705655,-0.028108287602663,-0.0457534231245518,-0.0775414630770683,-0.0825661569833755,-0.100510187447071
250,0.00844938028603792,-0.0262817572802305,-0.0407471694052219,-0.0649823620915413,-0.0663694068789482,-0.0896577760577202
251,0.0129137765616179,-0.0205099117010832,-0.0385358147323132,-0.0524728000164032,-0.0531850233674049,-0.0758815333247185
252,0.0133786890655756,-0.0123751098290086,-0.0385122187435627,-0.0425542891025543,-0.0423800013959408,-0.0619111396372318
253,0.0109458724036813,-0.00428972486406565,-0.0380581170320511,-0.0357079282402992,-0.0321833230555058,-0.0512669943273067
254,0.00832704827189446,0.00137966603506356,-0.0359075628221035,-0.0312198791652918,-0.0238506104797125,-0.0452813617885113
255,0.00696389749646187,0.00377140287309885,-0.0323593020439148,-0.0280872639268637,-0.0179523564875126,-0.0398664921522141
256,0.00624198466539383,0.00416585523635149,-0.0279392004013062,-0.024010905995965,-0.013702193275094,-0.0285871494561434
257,0.00533974030986428,0.00644703488796949,-0.0236143097281456,-0.018329780548811,-0.0114884795621037,-0.0120782935991883
258,0.00373302702791989,0.0123737435787916,-0.0202216040343046,-0.0138231590390205,-0.0108980983495712,0.000978115131147206
259,0.00189108634367585,0.0174923073500395,-0.0169481057673693,-0.0118728028610349,-0.00899210199713707,0.00584552809596062
260,0.000234211911447346,0.0178543999791145,-0.0136643135920167,-0.0115078138187528,-0.00554162450134754,0.00562891270965338
261,-0.00150370982009918,0.0141325267031789,-0.0110503267496824,-0.0114487539976835,-0.00320788845419884,0.00452918978407979
262,-0.00304281432181597,0.00881663803011179,-0.00913928914815187,-0.00942637305706739,-0.0019551448058337,0.00573529303073883
263,-0.0036881142295897,0.00472522992640734,-0.00793951004743576,-0.00329119968228042,0.00135720311664045,0.0107395444065332
264,-0.003080083290115,0.0023982273414731,-0.00710494490340352,0.00484780175611377,0.00911402422934771,0.016639219596982
265,-0.00235392688773572,4.35809924965724E-05,-0.00644352473318577,0.0105302780866623,0.0184859316796064,0.0193306729197502
266,-0.00233347527682781,-0.00223250151611865,-0.00530667928978801,0.0136414300650358,0.0256383549422026,0.0193617306649685
267,-0.0022236465010792,-0.00300605222582817,-0.00281111989170313,0.0162194203585386,0.0310415364801884,0.0203962121158838
268,-0.00257769925519824,-0.00259522185660899,-0.000204569500056095,0.0181094966828823,0.0353223048150539,0.0244380198419094
269,-0.00392779568210244,-0.00088703294750303,0.00182376068551093,0.020865935832262,0.0384791344404221,0.0315440036356449
270,-0.00466762017458677,0.00314375618472695,0.00492907036095858,0.0271562095731497,0.0411443375051022,0.0410507656633854
271,-0.00443053245544434,0.00779813481494784,0.008763681165874,0.0350193716585636,0.0415933020412922,0.0507197342813015
272,-0.00423665065318346,0.0109670711681247,0.0119331758469343,0.041158139705658,0.0383950062096119,0.0588234141469002
273,-0.00362601433880627,0.0140514774248004,0.0157650616019964,0.0458766631782055,0.0357686430215836,0.0668929442763329
274,-0.00168324226979166,0.0187427848577499,0.0217228718101978,0.0510605722665787,0.0401538386940956,0.0769347622990608
275,0.000733338878490031,0.0227607414126396,0.0285299699753523,0.0567955560982227,0.0524008832871914,0.0871973112225533
276,0.00164083333220333,0.0217304266989231,0.0326653011143208,0.0606018528342247,0.0657744258642197,0.0913505107164383
277,0.00113288860302418,0.0156668480485678,0.0329827852547169,0.0619899816811085,0.0740669816732407,0.0865078642964363
278,0.00106054346542805,0.00947151146829128,0.0321625657379627,0.0641814097762108,0.0781165733933449,0.0786584690213203
279,0.00144348153844476,0.00806711241602898,0.0316271036863327,0.067383661866188,0.0806979537010193,0.0749218314886093
280,0.000717282469850034,0.0123957069590688,0.03112424723804,0.0678689107298851,0.081096313893795,0.077210396528244
281,-0.00162134750280529,0.0175500232726336,0.0310766603797674,0.0645447671413422,0.077288843691349,0.0823934078216553
282,-0.00345957954414189,0.0185476876795292,0.0323846414685249,0.0608775801956654,0.0724153593182564,0.0860660299658775
283,-0.00296156737022102,0.015644459053874,0.0344608351588249,0.0605143904685974,0.0718947425484657,0.0874342545866966
284,-0.00121719995513558,0.0123092588037252,0.0355088338255882,0.0635497197508812,0.0745491608977318,0.0887970253825188
285,-0.000500652473419905,0.0102952774614096,0.0348861627280712,0.0676191672682762,0.0759409368038177,0.0915228724479675
286,-0.00236900267191231,0.00768816471099854,0.0331947356462479,0.0707882568240166,0.0753123015165329,0.0951099097728729
287,-0.00557650532573462,0.00293001043610275,0.0315494537353516,0.0727493315935135,0.074856661260128,0.0985278859734535
288,-0.00744719663634896,-0.00208319048397243,0.0309071857482195,0.0742645189166069,0.0757100954651833,0.0999603271484375
289,-0.00714934105053544,-0.0045802341774106,0.0321074537932873,0.0765253379940987,0.0769419893622398,0.0983709022402763
290,-0.00520662683993578,-0.00421924144029617,0.0357310324907303,0.07979616522789,0.0772847980260849,0.0962247923016548
291,-0.00208777328953147,-0.00196965783834457,0.0416115708649158,0.0826395377516747,0.0774106681346893,0.0970326587557793
292,0.00141190690919757,0.00155658030416816,0.0480616502463818,0.0838440582156181,0.0795812904834747,0.101492613554001
293,0.00426820386201143,0.00623625377193093,0.0522197671234608,0.0841539204120636,0.0840473398566246,0.108154430985451
294,0.0067714718170464,0.0116191413253546,0.0531313680112362,0.0847810432314873,0.0895815044641495,0.11448560655117
295,0.00898940302431583,0.0152582796290517,0.0511599034070969,0.0845315009355545,0.0935522392392159,0.116931952536106
296,0.0094743836671114,0.015287765301764,0.0462858229875565,0.0823168903589249,0.0934060513973236,0.114577546715736
297,0.00813486892729998,0.0136449001729488,0.0406608618795872,0.0809083878993988,0.0927082896232605,0.110347270965576
298,0.00658428203314543,0.0122595829889178,0.0378331430256367,0.0817202851176262,0.0957423523068428,0.105646401643753
299,0.00550538720563054,0.0107245314866304,0.038839764893055,0.0829545184969902,0.0994852855801582,0.100144028663635
300,0.00456828530877829,0.0105669321492314,0.0417844019830227,0.0838465616106987,0.0997835248708725,0.0950682610273361
301,0.00398558238521218,0.0131975105032325,0.0442026853561401,0.0838488042354584,0.0978807881474495,0.0914274528622627
302,0.00355888274498284,0.015630416572094,0.0450249463319778,0.0839172229170799,0.0961223617196083,0.0904762595891953
303,0.00305142300203443,0.0159710627049208,0.0454066060483456,0.0857268422842026,0.095393493771553,0.0927774459123611
304,0.00359527138061821,0.0158313829451799,0.0473827831447124,0.087784469127655,0.0968519747257233,0.0952801927924156
305,0.00474785733968019,0.0152174634858966,0.0502899698913097,0.0882040858268738,0.0992480292916298,0.0953290387988091
306,0.00374152744188905,0.0113375056535006,0.0506284013390541,0.0862824842333794,0.0987143963575363,0.0928554907441139
307,-0.000392636546166614,0.00385169917717576,0.0474063977599144,0.0830595418810844,0.0938863605260849,0.089464083313942
308,-0.00566132040694356,-0.00331559800542891,0.0441195070743561,0.0820413008332253,0.0875141099095345,0.0885441675782204
309,-0.00956342089921236,-0.00658276863396168,0.0441405102610588,0.0843527019023895,0.0831201747059822,0.0920608192682266
310,-0.0104402871802449,-0.00501520000398159,0.0478032790124416,0.0877892225980759,0.0825459659099579,0.098137654364109
311,-0.00888320989906788,0.0003151654091198,0.0527447983622551,0.0904349610209465,0.0838473662734032,0.103285312652588
312,-0.00723853427916765,0.00681700836867094,0.0563006959855556,0.0908340886235237,0.0837995707988739,0.10514509677887
313,-0.00609638169407845,0.0109728882089257,0.0580548346042633,0.0882345885038376,0.0847873091697693,0.104112662374973
314,-0.00381242902949452,0.0107079772278667,0.0582044310867786,0.0840199887752533,0.0903370156884193,0.10340416431427
315,-0.000206608790904284,0.00691773602738976,0.056023333221674,0.0798946395516396,0.0967961102724075,0.104240745306015
316,0.00286030676215887,0.00222937762737274,0.0526459515094757,0.0766615271568298,0.0991532281041145,0.103678621351719
317,0.0046099778264761,-0.000762565876357257,0.0516830757260323,0.0758064687252045,0.0985096767544746,0.100751958787441
318,0.00475323898717761,-0.00106186140328646,0.0541670955717564,0.0784051567316055,0.0974623113870621,0.0976888388395309
319,0.00310330488719046,0.00123917625751346,0.0573438107967377,0.0835878178477287,0.0959921330213547,0.0950454100966454
320,0.000881450949236751,0.00432632118463516,0.0590450763702393,0.0893390625715256,0.0944080054759979,0.091722808778286
321,-0.000561386463232338,0.00645537488162518,0.0594849698245525,0.0942410677671433,0.0940721854567528,0.0883179754018784
322,-0.00166482792701572,0.00901654548943043,0.0587898530066013,0.0965387374162674,0.094395749270916,0.085643395781517
323,-0.00359374517574906,0.0114630311727524,0.056193433701992,0.0938216149806976,0.0940051972866058,0.0826939344406128
324,-0.00596280861645937,0.0105783957988024,0.0522831603884697,0.086695171892643,0.0936672687530518,0.0798390284180641
325,-0.00754299433901906,0.00595302041620016,0.0486458502709866,0.0786451399326324,0.0948490649461746,0.0783280208706856
326,-0.00799022521823645,0.000275676109595224,0.0461556613445282,0.0729192718863487,0.0972751975059509,0.0779175162315369
327,-0.00792602449655533,-0.00357752735726535,0.0447728969156742,0.0701393261551857,0.0986174196004868,0.0783487781882286
328,-0.00821585301309824,-0.0052214958705008,0.0433225966989994,0.0676759630441666,0.09755789488554,0.0794592499732971
329,-0.00937746372073889,-0.0056148748844862,0.0410336218774319,0.0641723498702049,0.0957431346178055,0.0812855809926987
330,-0.0113385068252683,-0.004563023801893,0.0385790877044201,0.0614237748086452,0.093906581401825,0.0840048566460609
331,-0.0137489875778556,-0.00198463792912662,0.0361944548785686,0.0601276904344559,0.0903022065758705,0.0856614857912064
332,-0.0147967310622334,0.00143480964470655,0.0352626964449883,0.0605226755142212,0.0861444249749184,0.0843841731548309
333,-0.0125846462324262,0.00419859169051051,0.0381836034357548,0.063690572977066,0.0850960537791252,0.0816239193081856
334,-0.0085457805544138,0.00346514210104942,0.0437281988561153,0.0674775838851929,0.0871288403868675,0.0783661752939224
335,-0.00483296252787113,-0.000752485124394298,0.0484628602862358,0.0691554248332977,0.0901079177856445,0.0733705908060074
336,-0.00161379936616868,-0.00452183838933706,0.0513439178466797,0.0705390423536301,0.0928946286439896,0.0672436729073524
337,0.0011784746311605,-0.00592279899865389,0.0533579587936401,0.0731973275542259,0.0935316756367683,0.0630064755678177
338,0.00335533381439745,-0.00485964445397258,0.0544886738061905,0.0745740011334419,0.0900512039661407,0.0625693202018738
339,0.00471980636939406,-0.00126518704928458,0.0536115728318691,0.0734239518642426,0.0835483446717262,0.0654777958989143
340,0.00442995270714164,0.00323002156801522,0.0509310960769653,0.0717913135886192,0.0765303522348404,0.0695895627140999
341,0.00238964380696416,0.00610355939716101,0.0476807877421379,0.069987490773201,0.0701530650258064,0.0720076486468315
342,-0.000192527179024182,0.00558692310005426,0.0443403832614422,0.0668508484959602,0.0651430711150169,0.0719354301691055
343,-0.00284914229996502,0.00232020299881697,0.0408630296587944,0.0619985908269882,0.0620068944990635,0.0707343593239784
344,-0.00514484895393252,-0.0013973560417071,0.0374517887830734,0.0557097569108009,0.0604900754988194,0.0694532170891762
345,-0.00566629227250814,-0.00413919426500797,0.0348836071789265,0.0496847443282604,0.0604135319590569,0.0678992494940758
346,-0.00399768631905317,-0.00576254772022367,0.0340057350695133,0.0464831478893757,0.0626101270318031,0.0658955872058868
347,-0.0020303693599999,-0.00674067577347159,0.0345405153930187,0.0471651069819927,0.066801592707634,0.0647733956575394
348,-0.0019566435366869,-0.00794109050184488,0.0353784970939159,0.0492022484540939,0.0697331503033638,0.0638837218284607
349,-0.00296988990157843,-0.0090828649699688,0.0364392809569836,0.0502701550722122,0.0701047033071518,0.0598418302834034
350,-0.00264259823597968,-0.0079560773447156,0.0383155904710293,0.0516807585954666,0.0691241472959518,0.0524370670318604
351,-0.000526366173289716,-0.00385992042720318,0.0404101200401783,0.0541732162237167,0.0670740529894829,0.0456388667225838
352,0.00176999601535499,-7.38175003789365E-05,0.0413935817778111,0.0562495440244675,0.0659941285848618,0.0428589135408401
353,0.00247017061337829,-0.00025970910792239,0.0412589050829411,0.0569186434149742,0.0676139295101166,0.044945452362299
354,0.00134761782828718,-0.00441632000729442,0.0408899374306202,0.0565154701471329,0.0693092942237854,0.0490545630455017
355,0.000174330765730701,-0.00923784077167511,0.0406313315033913,0.0568655543029308,0.0686574131250381,0.0497432537376881
356,0.000291082018520683,-0.00992110464721918,0.0405862517654896,0.0587502829730511,0.0664376616477966,0.0445528253912926
357,0.00067792076151818,-0.00575847877189517,0.0395413562655449,0.0588335506618023,0.0630589872598648,0.0353377647697926
358,0.000849111238494515,-0.00175522104837,0.0361825153231621,0.0540876612067223,0.0577291995286942,0.0263066384941339
359,0.00107582029886544,-0.000737939728423953,0.0311726257205009,0.0455506220459938,0.0513486377894878,0.021474489942193
360,0.000478504312923178,-7.6375734352041E-05,0.0258450452238321,0.0371781513094902,0.0459254905581474,0.0226168129593134
361,-0.000632105278782547,0.0027653134893626,0.0217090789228678,0.0328724309802055,0.0427629612386227,0.0289936400949955
362,-0.00161641358863562,0.00540235638618469,0.0193598140031099,0.0316046960651875,0.0411823727190495,0.0368860922753811
363,-0.00255356170237064,0.0054862848483026,0.0186361279338598,0.0300623122602701,0.039202593266964,0.0433556959033012
364,-0.00258583179675043,0.00438051111996174,0.0203431099653244,0.0290252137929201,0.0379989072680473,0.0481334403157234
365,-0.00123626179993153,0.00314108817838132,0.0246850233525038,0.0313960313796997,0.0405886471271515,0.0510338880121708
366,0.000607832975219935,0.00226019276306033,0.0299963019788265,0.0374124497175217,0.0452423207461834,0.0530970059335232
367,0.0014861790696159,0.00155291683040559,0.0332947969436646,0.0432316660881042,0.0471099130809307,0.0553201623260975
368,0.000125897175166756,-0.000836309685837477,0.032821960747242,0.0450319424271584,0.044878214597702,0.0557208396494389
369,-0.00312621961347759,-0.00402362737804651,0.0305444952100515,0.0435076504945755,0.0411112308502197,0.0523037426173687
370,-0.00590078951790929,-0.00394254690036178,0.0291509348899126,0.0405676960945129,0.0377741605043411,0.0463792867958546
371,-0.0060987425968051,-0.00015760883979965,0.0288174692541361,0.0368691496551037,0.0347669459879398,0.0412563383579254
372,-0.00364764267578721,0.00281936349347234,0.0280784983187914,0.0341143757104874,0.0330737978219986,0.0387386009097099
373,-0.000153246859554201,0.00142659095581621,0.0260997414588928,0.03391994535923,0.0340563915669918,0.0370863117277622
374,0.0027075195685029,-0.00376309431158006,0.024277213960886,0.0367187149822712,0.0363207794725895,0.0335037000477314
375,0.00438761664554477,-0.00862345471978188,0.0244237557053566,0.0420919507741928,0.0374571867287159,0.0285803750157356
376,0.00496467063203454,-0.0100136930122972,0.0257891863584518,0.0458141341805458,0.0359228104352951,0.0244984570890665
377,0.00480499537661672,-0.0100663173943758,0.0265740882605314,0.0428524240851402,0.031744871288538,0.0218722596764565
378,0.00470322137698531,-0.0106310248374939,0.0266592707484961,0.0350341536104679,0.0276971943676472,0.021782211959362
379,0.00524718593806028,-0.00974071584641933,0.0262889433652163,0.0279473159462214,0.0272236336022615,0.025782871991396
380,0.00598002783954144,-0.00612065196037292,0.0248028449714184,0.0232090596109629,0.030585715547204,0.0323790088295937
381,0.00648024585098028,-0.00164433440659195,0.0227957274764776,0.020037654787302,0.0359066091477871,0.0380207933485508
382,0.00693795923143625,0.000673749076668173,0.0214753672480583,0.0188455786556005,0.0414971150457859,0.0412332341074944
383,0.00649917079135776,-0.000485351483803242,0.0198727753013372,0.0193194951862097,0.0449898801743984,0.0417470708489418
384,0.00540136778727174,-0.00347857130691409,0.0183841437101364,0.021276181563735,0.0463723242282867,0.0405997261404991
385,0.00567459780722857,-0.00543520739302039,0.0201716180890799,0.0255750138312578,0.0484156124293804,0.0405528396368027
386,0.00732145085930824,-0.00500184297561646,0.0257669668644667,0.0313646532595158,0.0508204586803913,0.0422891415655613
387,0.00908079650253057,-0.00289493356831372,0.0318477749824524,0.0358455255627632,0.0508034564554691,0.0433472357690334
388,0.0101239690557122,-0.00109727261587977,0.0353400819003582,0.0370156541466713,0.0470052622258663,0.0411841720342636
389,0.00968276243656874,7.63074713177048E-05,0.0361542329192162,0.0355851016938686,0.0402925312519073,0.0362608656287193
390,0.00750025827437639,0.00119862065184861,0.0349808819591999,0.0325872786343098,0.0323266126215458,0.0297950226813555
391,0.0043445467017591,0.00174813193734735,0.031314555555582,0.0293788518756628,0.024097366258502,0.0231735464185476
392,0.00207861629314721,0.00241773948073387,0.0254282746464014,0.028653247281909,0.0170765146613121,0.0202187020331621
393,0.0021006481256336,0.00455674342811108,0.0196235403418541,0.0313465036451817,0.0139253437519073,0.0232672747224569
394,0.00414957525208592,0.00755901681259274,0.0168453883379698,0.0355858393013477,0.0165786985307932,0.0299892872571945
395,0.00693136034533381,0.00935923028737307,0.0179653279483318,0.0388240329921246,0.0230538882315159,0.0359549559652805
396,0.00880315154790878,0.00972408521920443,0.0206364840269089,0.0396880358457565,0.0282117500901222,0.0368173979222775
397,0.00926043931394815,0.00897455308586359,0.0222889222204685,0.0378191433846951,0.0298123806715012,0.0301503017544746
398,0.00917681306600571,0.00480941031128168,0.0227641463279724,0.0337203443050385,0.0300953444093466,0.0188167244195938
399,0.00858382508158684,-0.00169405364431441,0.0226348321884871,0.0296092722564936,0.0310309510678053,0.0106189250946045
400,0.00711394194513559,-0.0045876489020884,0.0215741209685802,0.0279494170099497,0.0320207849144936,0.0108882812783122
401,0.00580698344856501,-0.00149768078699708,0.0191830657422543,0.0278228055685759,0.0315708667039871,0.0169491656124592
402,0.00523327803239226,0.00480912253260612,0.0158092938363552,0.0260857082903385,0.0298496559262276,0.0227183923125267
403,0.00385939935222268,0.0106825781986117,0.0124646872282028,0.0228196606040001,0.0279686339199543,0.0247009769082069
404,0.000778960587922484,0.0126932049170136,0.0104870414361358,0.0210570022463799,0.0252605304121971,0.0224602185189724
405,-0.00229499628767371,0.00940668024122715,0.0112190674990416,0.0227403622120619,0.0212329346686602,0.0182249080389738
406,-0.00315331947058439,0.00395527435466647,0.0144239095970988,0.0275938417762518,0.0174981188029051,0.0157747883349657
407,-0.0023642301093787,-0.000176043453393504,0.0174377448856831,0.0323198959231377,0.015138921327889,0.0172647424042225
408,-0.00213558226823807,-0.00294484244659543,0.0180860683321953,0.0329005308449268,0.0146569730713964,0.0220321603119373
409,-0.00304188299924135,-0.00517871417105198,0.0156318433582783,0.028409680351615,0.0157440975308418,0.0271955337375402
410,-0.00586149748414755,-0.00766691332682967,0.00929404143244028,0.0201812889426947,0.0144211361184716,0.0289967581629753
411,-0.0103944223374128,-0.0102817714214325,0.00126358319539577,0.0115588447079062,0.008999596349895,0.0260267164558172
412,-0.0136476950719953,-0.0117628769949079,-0.00387817248702049,0.0070737898349762,0.00303812138736248,0.0205901861190796
413,-0.0139944329857826,-0.0126588549464941,-0.00431621540337801,0.00787300523370504,-0.000588982366025448,0.0156036000698805
414,-0.0116676529869437,-0.012892727740109,-0.00073264044476673,0.0113246366381645,-0.000530106131918728,0.0132196648046374
415,-0.00815844070166349,-0.0104265082627535,0.00471666641533375,0.0149378888309002,0.00161431566812098,0.01464669033885
416,-0.00538442563265562,-0.00415855553001165,0.0089114848524332,0.0169978495687246,0.00339841633103788,0.0175688285380602
417,-0.00341628235764802,0.00381461391225457,0.00982284266501665,0.0156054673716426,0.00578391598537564,0.0172259211540222
418,-0.00182746595237404,0.0079836267977953,0.00776852574199438,0.0107495412230492,0.00904819928109646,0.010840724222362
419,-0.00107343157287687,0.00618837820366025,0.00532442145049572,0.00621917005628347,0.0118286805227399,0.000764164666179568
420,-0.00127972499467433,0.00175182824023068,0.00514501333236694,0.00581862824037671,0.0140140177682042,-0.00766308093443513
421,-0.00190613209269941,-0.00195675063878298,0.00692036608234048,0.00813709292560816,0.0155295887961984,-0.0112065458670259
422,-0.0026156750973314,-0.00215291185304523,0.00763418665155768,0.00911510363221169,0.0153145464137197,-0.00923613086342812
423,-0.00354493502527475,0.00221177306957543,0.0056812958791852,0.00667983945459127,0.012688335031271,-0.00338532542809844
424,-0.00452695554122329,0.00746950507164001,0.00365958735346794,0.00156645756214857,0.00971227325499058,0.00275498395785689
425,-0.00460407882928848,0.00979492161422968,0.00464985659345984,-0.00262179225683212,0.00892447773367167,0.0073986598290503
426,-0.00423132535070181,0.00989127438515425,0.00755539769306779,-0.00149753433652222,0.00728649739176035,0.0126298181712627
427,-0.00487058702856302,0.00900431256741285,0.00952970236539841,0.00524775916710496,0.00177573971450329,0.0200105272233486
428,-0.00615102890878916,0.00582340685650706,0.00864494405686855,0.012703069485724,-0.00382411549799144,0.0269700326025486
429,-0.00757219176739454,0.000379005534341559,0.00485502788797021,0.0165926646441221,-0.00552307767793536,0.0314349383115768
430,-0.0102112134918571,-0.00532812159508467,-0.000283473113086075,0.0149059910327196,-0.00449989037588239,0.0331792905926704
431,-0.0132901277393103,-0.00979278422892094,-0.00529429735615849,0.00701950024813414,-0.00274745258502662,0.0300988480448723
432,-0.0131606906652451,-0.0117685236036778,-0.00791989732533693,-0.00299622444435954,0.000849519507028162,0.021681347861886
433,-0.00868462026119232,-0.0107887033373117,-0.00709703611209989,-0.00885235890746117,0.00608609430491924,0.0119033334776759
434,-0.00368586578406394,-0.00730161694809794,-0.00499831652268767,-0.00924697518348694,0.00894990656524897,0.00316391163505614
435,-0.00187326571904123,-0.00390035123564303,-0.00349186803214252,-0.00846999697387218,0.00735744973644614,-0.00635856622830033
436,-0.00229101674631238,-0.00418029120191932,-0.00145214493386447,-0.00923762749880552,0.00404908414930105,-0.017144026234746
437,-0.00284987641498446,-0.00743709923699498,0.00262813223525882,-0.00969978235661983,0.0021049058996141,-0.0264459010213614
438,-0.00351343210786581,-0.00982675701379776,0.0076573477126658,-0.00776829849928617,0.00151129707228392,-0.0308039505034685
439,-0.00443584145978093,-0.00962362345308065,0.0107335485517979,-0.00437319977208972,-0.000391749577829614,-0.0281619802117348
440,-0.00602362304925919,-0.00778385391458869,0.00925537198781967,-0.00212865974754095,-0.00582760432735085,-0.0194028615951538
441,-0.0081363907083869,-0.00449902471154928,0.00357572571374476,-0.00118118885438889,-0.0130737675353885,-0.00801220629364252
442,-0.00879016146063805,7.75513399275951E-05,-0.00229855324141681,0.000566696864552796,-0.017136100679636,0.000917145516723394
443,-0.00746624125167727,0.00309078954160213,-0.00497736316174269,0.00254691950976849,-0.0150407925248146,0.00361269665881991
444,-0.00651023490354419,0.00302626611664891,-0.00525262020528317,0.00195815181359649,-0.0103059336543083,0.000708261970430613
445,-0.00686825672164559,0.00197561923414469,-0.00492359418421984,-0.000642655533738434,-0.00683585461229086,-0.00322089064866304
446,-0.00711977062746882,0.000623182626441121,-0.00440258579328656,-0.00278865988366306,-0.00345744821242988,-0.00434665242210031
447,-0.00686875218525529,-0.00235248706303537,-0.0049167750403285,-0.0041908985003829,-0.000318759499350563,-0.0027014771476388
448,-0.00723473774269223,-0.00691722240298986,-0.00752672459930182,-0.00521655613556504,-0.000158584036398679,0.000181489798706025
449,-0.00888305436819792,-0.0124202817678452,-0.0112177776172757,-0.00740536022931337,-0.00278512202203274,0.00136575161013752
450,-0.0113915279507637,-0.0166033897548914,-0.0140515211969614,-0.0117504503577948,-0.00632783304899931,-0.00118164380546659
451,-0.0137131828814745,-0.0160118918865919,-0.0146713368594646,-0.0156288966536522,-0.00936296302825212,-0.0049534821882844
452,-0.0145401284098625,-0.011753236874938,-0.0132306721061468,-0.0171621479094028,-0.0101014757528901,-0.00740494672209024
453,-0.0130385356023908,-0.00758545845746994,-0.0106597151607275,-0.0163582526147366,-0.00755244866013527,-0.00875389203429222
454,-0.0102387387305498,-0.00409165257588029,-0.00811922829598188,-0.0142865041270852,-0.00316798849962652,-0.0100921783596277
455,-0.0084497919306159,-0.00094789732247591,-0.00684045860543847,-0.0128385685384274,-0.000638026453088969,-0.0108326394110918
456,-0.00851004384458065,0.000102277794212569,-0.00647390028461814,-0.0119150187820196,-0.00192166503984481,-0.00937072187662125
457,-0.00923782400786877,-0.00190012902021408,-0.0051937336102128,-0.00973484292626381,-0.00545487925410271,-0.00624925689771771
458,-0.00855597387999296,-0.0045482381246984,-0.00206655077636242,-0.00539590278640389,-0.00913496408611536,-0.00302891666069627
459,-0.0059066410176456,-0.0054461732506752,0.00140206515789032,-0.000787753087934107,-0.0118376091122627,-0.00141609541606158
460,-0.00318640470504761,-0.00459343288093805,0.00258058146573603,0.00151663180440664,-0.0132820317521691,-0.0035255562979728
461,-0.00129053299315274,-0.00182467279955745,0.00130969751626253,0.00225069420412183,-0.0125172417610884,-0.0102705117315054
462,0.000884582055732608,0.00239805807359517,0.000982994097284973,0.00385430455207825,-0.00763251120224595,-0.0193807426840067
463,0.00340944598428905,0.00543750310316682,0.00302680185995996,0.00554313976317644,-0.000385045743314549,-0.0263123139739037
464,0.00427338154986501,0.00561286276206374,0.00400891294702888,0.0039675566367805,0.00355942151509225,-0.027217973023653
465,0.00198006699793041,0.00318040139973164,0.00121259537991136,-0.00216080015525222,0.00127783860079944,-0.021321265026927
466,-0.00258905533701181,-0.000895889475941658,-0.00413926877081394,-0.00989909563213587,-0.00531330425292253,-0.0115927727892995
467,-0.00811957102268934,-0.00530508486554027,-0.00939854141324759,-0.0148494653403759,-0.0130544137209654,-0.00202515535056591
468,-0.0134983211755753,-0.00890745967626572,-0.0132718374952674,-0.0155905829742551,-0.0197525713592768,0.0038611413910985
469,-0.0160321909934282,-0.0104367453604937,-0.0148446885868907,-0.0131013104692101,-0.0225994773209095,0.00413120677694678
470,-0.0136013468727469,-0.00915077421814203,-0.0122720198705792,-0.00856401678174734,-0.0184631999582052,0.00116677989717573
471,-0.00793442595750093,-0.00592718319967389,-0.00627347687259316,-0.00364981708116829,-0.00889489520341158,-0.00134649989195168
472,-0.00191149453166872,-0.0018179037142545,-8.78212740644813E-05,0.00118830590508878,0.00091979606077075,-0.00172538857441396
473,0.00333227217197418,0.00398486899212003,0.00421278923749924,0.00677259359508753,0.00746600003913045,0.000249114353209734
474,0.00643355958163738,0.011521334759891,0.00525654060766101,0.0107579119503498,0.00809431727975607,0.00213478086516261
475,0.00562334386631846,0.0163526032119989,0.00285907788202167,0.00952191464602947,0.00175118434708565,0.000574738311115652
476,0.00211416138336062,0.0154479024931788,0.000324182561598718,0.00444613117724657,-0.00727342022582889,-0.00332188862375915
477,-0.000620356295257807,0.0113605977967381,0.000591335643548518,-0.0014170603826642,-0.0128245195373893,-0.00543460343033075
478,-0.00122597767040133,0.00708333496004343,0.00154568662401289,-0.00816366262733936,-0.0133448457345366,-0.00474376045167446
479,-0.00116100371815264,0.00429741945117712,0.000109584092570003,-0.0149742932990193,-0.0119673488661647,-0.00351297715678811
480,-0.00224880944006145,0.00352031551301479,-0.00338312052190304,-0.0192285422235727,-0.0129324300214648,-0.00440787617117167
481,-0.00450620334595442,0.00461674854159355,-0.00647758506238461,-0.0193280354142189,-0.0175331197679043,-0.007277543656528
482,-0.00626524444669485,0.00810163002461195,-0.00768058886751533,-0.0158503130078316,-0.0228854138404131,-0.0104586966335773
483,-0.00564644811674953,0.0131277441978455,-0.00718404911458492,-0.0120346415787935,-0.024894006550312,-0.0140284867957234
484,-0.00305313616991043,0.0161695741117001,-0.00587899005040526,-0.010639950633049,-0.0233759563416243,-0.0159818045794964
485,-0.000976740382611752,0.0142756821587682,-0.00495622586458921,-0.0114816576242447,-0.0220546312630177,-0.0140797216445208
486,-9.52525369939394E-05,0.00850531738251448,-0.00431121094152331,-0.0121088614687324,-0.0221034344285727,-0.0108514204621315
487,0.000222309434320778,0.00183560256846249,-0.00349001260474324,-0.010503675788641,-0.0225789025425911,-0.00944293383508921
488,-0.000814529194030911,-0.00388390873558819,-0.00394283747300506,-0.00818109512329102,-0.0246705841273069,-0.0107873491942883
489,-0.00380440801382065,-0.0077602039091289,-0.00677653681486845,-0.00794539880007505,-0.0290111787617207,-0.0146094858646393
490,-0.00714434497058392,-0.00933458097279072,-0.010246398858726,-0.0107300169765949,-0.0327517539262772,-0.019863236695528
491,-0.00886373780667782,-0.00799316260963678,-0.0123465647920966,-0.0154221216216683,-0.032713558524847,-0.0246954280883074
492,-0.00813968759030104,-0.00369212334044278,-0.0130140744149685,-0.0189273878931999,-0.0276765692979097,-0.0270103588700294
493,-0.00578632159158587,0.00100082054268569,-0.0133487060666084,-0.0192064139991999,-0.0191551484167576,-0.0267184507101774
494,-0.00346898846328259,0.00359279871918261,-0.014149940572679,-0.0172441899776459,-0.011034382507205,-0.0247458573430777
495,-0.000904868880752474,0.00489492015913129,-0.0142003670334816,-0.0146779604256153,-0.0046323542483151,-0.0212452430278063
496,0.00238565122708678,0.00687055801972747,-0.012714546173811,-0.0129786217585206,0.000217946639168076,-0.0170763973146677
497,0.00481574842706323,0.00965388957411051,-0.0110966991633177,-0.0131959049031138,0.00104986887890846,-0.0138789275661111
498,0.00551618542522192,0.0104479901492596,-0.00975011754781008,-0.0137906651943922,-0.00235160463489592,-0.0122190332040191
499,0.00431332690641284,0.00742977624759078,-0.00810079835355282,-0.0122868502512574,-0.00734290387481451,-0.0117257041856647
500,0.000850614451337606,0.00360891665332019,-0.00613965652883053,-0.00909116771072149,-0.0133425341919065,-0.012295494787395
501,-0.00359444972127676,0.00333907781168818,-0.00387914408929646,-0.00635116035118699,-0.0203299149870873,-0.0135664287954569
502,-0.00759557168930769,0.00706426473334432,-0.00244581862352788,-0.00603982852771878,-0.027191573753953,-0.0149084664881229
503,-0.0109157292172313,0.0108161382377148,-0.00342146353796124,-0.00865845568478107,-0.0326912440359592,-0.0154956616461277
504,-0.0125774946063757,0.0110927000641823,-0.00582838989794254,-0.0126356966793537,-0.0357509590685368,-0.0154879717156291
505,-0.0112578766420484,0.00814308505505323,-0.00716958474367857,-0.0163696706295013,-0.0359323360025883,-0.0172416530549526
506,-0.00768841383978724,0.0040684761479497,-0.00678702257573605,-0.0180608108639717,-0.0338854938745499,-0.0210628658533096
507,-0.00451021082699299,0.000153087923536077,-0.0061027193441987,-0.0166655965149403,-0.0307992082089186,-0.0247718393802643
508,-0.00352406082674861,-0.00300601287744939,-0.00615604035556316,-0.0132196303457022,-0.027975982055068,-0.0266261901706457
509,-0.0044865170493722,-0.00476819323375821,-0.00660792458802462,-0.00934790633618832,-0.0264343544840813,-0.0246186871081591
510,-0.00608109682798386,-0.00466592656448483,-0.00705907633528113,-0.00635246373713017,-0.025928221642971,-0.0179155115038157
511,-0.00718167843297124,-0.00253224815241992,-0.00784750282764435,-0.00458912225440145,-0.0260809659957886,-0.00951301027089357
512,-0.00808876007795334,0.000214448373299092,-0.0092170238494873,-0.00524974707514048,-0.0272516645491123,-0.00539765693247318
513,-0.00856887083500624,0.00190666713751853,-0.0104084154590964,-0.00941171962767839,-0.0282456316053867,-0.00837918650358915
514,-0.00748840719461441,0.00260828156024218,-0.010926952585578,-0.0147323329001665,-0.0273758117109537,-0.0144585575908422
515,-0.00517662055790424,0.00282401568256319,-0.0112582631409168,-0.0179752428084612,-0.0251370891928673,-0.0178222227841616
516,-0.00226954650133848,0.00292632402852178,-0.011430392973125,-0.0178621225059032,-0.0220783576369286,-0.0158969070762396
517,0.00139504065737128,0.00290507916361094,-0.0103885289281607,-0.0145870093256235,-0.0168478172272444,-0.0101480763405561
518,0.00515421433374286,0.00303199421614408,-0.00750049948692322,-0.0101961381733418,-0.00957992766052485,-0.00476964749395847
519,0.00701297074556351,0.00418468983843923,-0.00375053519383073,-0.00789828784763813,-0.00455452781170607,-0.00283947749994695
520,0.00645415205508471,0.00550528708845377,-0.000301571126328781,-0.00813882146030664,-0.00515806069597602,-0.00313470140099525
521,0.00480960449203849,0.00563651788979769,0.00161950301844627,-0.00889888778328896,-0.00958999525755644,-0.00304164877161384
522,0.00270997942425311,0.00478913076221943,0.000911604438442737,-0.00948226824402809,-0.0146967489272356,-0.00269089173525572
523,0.000394404720282182,0.00376547826454043,-0.0011879492085427,-0.00980429910123348,-0.0195736326277256,-0.00394768221303821
524,-0.000993490102700889,0.00422818632796407,-0.00270111998543143,-0.00927181821316481,-0.0234615188091993,-0.00859772600233555
525,-0.000262383749941364,0.00656480947509408,-0.00349111249670386,-0.00751575781032443,-0.0251748412847519,-0.0176741629838943
526,0.00209780596196651,0.00672095036134124,-0.00439678411930799,-0.00495100533589721,-0.0247318148612976,-0.0300178248435259
527,0.00479870196431875,0.00175510859116912,-0.00536946626380086,-0.00301852845586836,-0.0222674459218979,-0.0418391861021519
528,0.00726599246263504,-0.0045548165217042,-0.00600265711545944,-0.00297372951172292,-0.0181535761803389,-0.0481866635382175
529,0.00883603189140558,-0.007405458483845,-0.00733504863455892,-0.00515829958021641,-0.0148312607780099,-0.0463887974619865
530,0.00898288656026125,-0.00726948259398341,-0.0102626048028469,-0.0100182397291064,-0.0148649951443076,-0.0399043262004852
531,0.00817576050758362,-0.0074136471375823,-0.013791642151773,-0.0174988396465778,-0.0178599450737238,-0.0343584381043911
532,0.00726598268374801,-0.0088163185864687,-0.0162829123437405,-0.0249260030686855,-0.0207409635186195,-0.0305125173181295
533,0.00656228326261044,-0.0103695783764124,-0.0171668156981468,-0.0291281249374151,-0.0213268715888262,-0.0268395282328129
534,0.00532445264980197,-0.01134461350739,-0.017546197399497,-0.0297253374010324,-0.0215122401714325,-0.023246169090271
535,0.00265071541070938,-0.0117586590349674,-0.0190472975373268,-0.0284100268036127,-0.024416783824563,-0.0204511303454638
536,-0.000731064705178142,-0.0112727787345648,-0.0218260865658522,-0.0265046022832394,-0.0295889526605606,-0.0192093439400196
537,-0.00255324668250978,-0.00865571480244398,-0.0236676409840584,-0.0233730152249336,-0.0326317548751831,-0.0188126657158136
538,-0.0012772202026099,-0.00391853367909789,-0.0223080553114414,-0.01813337020576,-0.0300587359815836,-0.0173379518091679
539,0.00270597054623067,0.00121627445332706,-0.0177647396922112,-0.011297544464469,-0.0231941975653172,-0.0140338279306889
540,0.00774798868224025,0.00619944976642728,-0.0125428577885032,-0.00523279048502445,-0.0160149168223143,-0.0110790189355612
541,0.0119324568659067,0.00918487645685673,-0.00980101060122252,-0.00380006479099393,-0.0115877632051706,-0.0121077867224813
542,0.014289646409452,0.00671180710196495,-0.00932531990110874,-0.00736453430727124,-0.0100019806995988,-0.0174843668937683
543,0.0155683420598507,0.00083780667046085,-0.00805002357810736,-0.0116684110835195,-0.00927350856363773,-0.0228608381003141
544,0.0168040506541729,-0.00316177564673126,-0.005013442132622,-0.0143374633044004,-0.00828716810792685,-0.0249200388789177
545,0.0172989368438721,-0.00224573072046041,-0.00258780713193119,-0.0163589064031839,-0.00752922147512436,-0.0257137380540371
546,0.0160141848027706,0.00280211213976145,-0.00282882177270949,-0.0178757086396217,-0.00870239827781916,-0.0287656188011169
547,0.0137988552451134,0.00632436014711857,-0.00475113419815898,-0.0184162668883801,-0.0126182055100799,-0.0342712812125683
548,0.011986194178462,0.00407937588170171,-0.00666520930826664,-0.0180545318871737,-0.0166900847107172,-0.0388042815029621
549,0.0112057393416762,-0.0014466067077592,-0.00834559928625822,-0.0163044016808271,-0.0176554080098867,-0.038127638399601
550,0.0112710939720273,-0.00552059756591916,-0.00977063830941916,-0.0138325234875083,-0.0160338114947081,-0.0312997177243233
551,0.010456002317369,-0.0071149836294353,-0.0115448571741581,-0.013459088280797,-0.016055116429925,-0.0220673326402903
552,0.00761407474055886,-0.00813769176602364,-0.0145244682207704,-0.0163698047399521,-0.0197299774736166,-0.0153187103569508
553,0.00379400141537189,-0.00904229842126369,-0.0180687382817268,-0.0195988155901432,-0.0242605786770582,-0.0130450548604131
554,0.000718573632184416,-0.0083418432623148,-0.0205483827739954,-0.01988335698843,-0.0273103825747967,-0.0145858954638243
555,-0.000205830583581701,-0.00552692217752337,-0.0201901402324438,-0.0168980602174997,-0.0287583339959383,-0.0180852487683296
556,0.000806817377451807,-0.00317446957342327,-0.0174911022186279,-0.0135087901726365,-0.0286132600158453,-0.0226253736764193
557,0.00122674275189638,-0.00462210969999433,-0.0154335405677557,-0.0131742982193828,-0.0279550645500422,-0.0277426522225142
558,-0.00050185585860163,-0.00926909036934376,-0.0153493555262685,-0.0153642501682043,-0.0283734537661076,-0.0306928288191557
559,-0.00253690266981721,-0.0133460778743029,-0.015828849747777,-0.0170256141573191,-0.0292419046163559,-0.0304828267544508
560,-0.00208123098127544,-0.0137641644105315,-0.0144609641283751,-0.0155104165896773,-0.0282044019550085,-0.028974050655961
561,0.00109651405364275,-0.00998601503670216,-0.0101039344444871,-0.0103248283267021,-0.0240554679185152,-0.0272809974849224
562,0.00428753485903144,-0.00332101457752287,-0.00522936880588531,-0.00510099902749062,-0.019158273935318,-0.0264501459896564
563,0.00528861489146948,0.00283826142549515,-0.00326931569725275,-0.00392043218016624,-0.0169720612466335,-0.0277698952704668
564,0.00472329370677471,0.00444919941946864,-0.0039558601565659,-0.00588866276666522,-0.0169642306864262,-0.0312825441360474
565,0.00510895205661654,0.00168126635253429,-0.00437326356768608,-0.00697353575378656,-0.0156634412705898,-0.0355860330164433
566,0.00747258123010397,-0.00231262389570475,-0.00344131700694561,-0.0056166835129261,-0.0126587953418493,-0.0395852476358414
567,0.00939063262194395,-0.00475347321480513,-0.00320953503251076,-0.00367420772090554,-0.0120509508997202,-0.042705275118351
568,0.00879634544253349,-0.00475929118692875,-0.00550145097076893,-0.00343096419237554,-0.0163853913545609,-0.0433241650462151
569,0.00654873019084334,-0.00343192555010319,-0.00948969461023808,-0.00559476995840669,-0.0236779134720564,-0.0394317507743835
570,0.00427882559597492,-0.000837536004837602,-0.0135695245116949,-0.00943272095173597,-0.0306900292634964,-0.0309337396174669
571,0.00243628979660571,0.00407643197104335,-0.017064455896616,-0.0133742969483137,-0.0354687087237835,-0.0207990873605013
572,0.000751567538827658,0.0099836653098464,-0.018829271197319,-0.014780999161303,-0.0380177535116673,-0.012709685601294
573,-0.000781472539529204,0.0124967377632856,-0.0180901810526848,-0.0122517282143235,-0.0386290997266769,-0.00984080228954554
574,-0.00211156997829676,0.00958068016916513,-0.016151636838913,-0.00842374376952648,-0.0362342707812786,-0.0145436003804207
575,-0.00329463789239526,0.00461178505793214,-0.0145795019343495,-0.00695113930851221,-0.0308602321892977,-0.0245863236486912
576,-0.00418997369706631,0.00113917945418507,-0.0144101250916719,-0.00864531844854355,-0.025278003886342,-0.0338719710707664
577,-0.00426106853410602,-0.000512837548740208,-0.0159951578825712,-0.0120736695826054,-0.0219773575663567,-0.038187637925148
578,-0.0035448286216706,-0.00167183007579297,-0.0191050060093403,-0.0160364359617233,-0.0211857594549656,-0.0379677414894104
579,-0.0028325873427093,-0.00381181971170008,-0.0226701367646456,-0.0197898112237453,-0.0216913819313049,-0.0364251770079136
580,-0.00218049646355212,-0.00598798086866736,-0.0239754654467106,-0.0211386680603027,-0.021960349753499,-0.0347825922071934
581,-0.000880342966411263,-0.00486267963424325,-0.0214763097465038,-0.0181006714701653,-0.021727254614234,-0.0310812685638666
582,0.000898930185940117,-0.00109689205419272,-0.0170678775757551,-0.0131725147366524,-0.0217802319675684,-0.0257885716855526
583,0.00227173138409853,0.00143535900861025,-0.0138631155714393,-0.0107796993106604,-0.0221507549285889,-0.0230056345462799
584,0.00345941027626395,0.00207957439124584,-0.0127937514334917,-0.0114237004891038,-0.0226847622543573,-0.02477060072124
585,0.00454395962879062,0.0011872979812324,-0.0128963459283113,-0.0128492582589388,-0.0238786991685629,-0.0291240122169256
586,0.00518176006153226,-0.000466825353214517,-0.0129196643829346,-0.0133584067225456,-0.0252962000668049,-0.0317440703511238
587,0.00584404729306698,-0.00121853651944548,-0.0116887921467423,-0.012941300868988,-0.0265005920082331,-0.0295240413397551
588,0.00615695910528302,-0.00122200790792704,-0.0101146977394819,-0.0130481868982315,-0.0288928244262934,-0.0241545792669058
589,0.00546439178287983,-0.000574252044316381,-0.00994678121060133,-0.0136023173108697,-0.0329063646495342,-0.0190074034035206
590,0.00387525884434581,0.00118766457308084,-0.011408518999815,-0.0139113869518042,-0.0368777364492416,-0.0145534044131637
591,0.00176820869091898,0.00360302906483412,-0.0137037653476,-0.0147357815876603,-0.0383548587560654,-0.01049795281142
592,0.000550213328097016,0.0060317968018353,-0.0141254803165793,-0.0143647184595466,-0.0352639518678188,-0.00895578972995281
593,0.00133179652038962,0.00801770854741335,-0.00991904083639383,-0.00966436788439751,-0.0288404300808907,-0.0118269072845578
594,0.00307068321853876,0.00945805292576551,-0.00303231156431139,-0.00182550027966499,-0.0221533756703138,-0.0180372893810272
595,0.00415070541203022,0.0101170539855957,0.00134788255672902,0.00464508775621653,-0.0169293265789747,-0.0254598241299391
596,0.00418257061392069,0.00882593356072903,0.00130520260427147,0.00645636999979615,-0.0139289796352386,-0.0325520522892475
597,0.0032073084730655,0.00448644114658237,-0.00131122581660748,0.00327778421342373,-0.01238505076617,-0.038206335157156
598,0.00148710596840829,-0.00135025009512901,-0.00477619282901287,-0.00319753237999976,-0.0112478686496615,-0.041168037801981
599,-0.000169510676641949,-0.00433070538565516,-0.00792410224676132,-0.0100216520950198,-0.011449764482677,-0.0395176224410534
600,-0.00167627772316337,-0.00321971531957388,-0.009863356128335,-0.0145782586187124,-0.014084629714489,-0.0341137647628784
601,-0.00276190578006208,-0.00125457451213151,-0.0100254192948341,-0.0170570034533739,-0.0183706507086754,-0.029148917645216
602,-0.00307953497394919,-0.000637627323158085,-0.00925439596176147,-0.0193353928625584,-0.0236111395061016,-0.0265367198735476
603,-0.00326834246516228,-0.00164853932801634,-0.0096771651878953,-0.0221389178186655,-0.0290760863572359,-0.0269051901996136
604,-0.00300403567962348,-0.00353842088952661,-0.0112425098195672,-0.0239802673459053,-0.0329588539898396,-0.0314333662390709
605,-0.00254626199603081,-0.00540458271279931,-0.012390810996294,-0.0231492407619953,-0.0362528301775455,-0.0391729660332203
606,-0.00303434673696756,-0.00798408966511488,-0.0122370310127735,-0.0217112861573696,-0.0409176349639893,-0.0493863746523857
607,-0.00351748149842024,-0.0106264548376203,-0.0106920730322599,-0.022486874833703,-0.0464977137744427,-0.0604056902229786
608,-0.00256278342567384,-0.0102958446368575,-0.00914409942924976,-0.0240517873317003,-0.0521361082792282,-0.0672378242015839
609,-0.000365307816537097,-0.00655140681192279,-0.0095377042889595,-0.0252524074167013,-0.0577414073050022,-0.0687146410346031
610,0.0012658144114539,-0.00203326740302145,-0.0132263964042068,-0.0274527240544558,-0.0655094236135483,-0.0688953697681427
611,0.000459406204754487,0.00120225630234927,-0.019869664683938,-0.0306094270199537,-0.0777534171938896,-0.0707270577549934
612,-0.00223419070243835,0.00245689670555294,-0.0268448460847139,-0.0342083685100079,-0.0924156606197357,-0.0756474360823631
613,-0.0048234392888844,0.00168230046983808,-0.0322793275117874,-0.0396309234201908,-0.105794131755829,-0.0847005695104599
614,-0.00725174602121115,-0.000541904126293957,-0.0375474579632282,-0.0467891991138458,-0.118398614227772,-0.095536045730114
615,-0.0100475372746587,-0.0018321261741221,-0.0439869724214077,-0.0523276254534721,-0.132012784481049,-0.103325918316841
616,-0.0114349415525794,0.000178068352397531,-0.0508135072886944,-0.0569817833602428,-0.145281046628952,-0.108845219016075
617,-0.0100285671651363,0.00250330357812345,-0.0579103566706181,-0.0670111104846001,-0.156984448432922,-0.118785247206688
618,-0.00676959566771984,0.000574525038246065,-0.0651598051190376,-0.0840460658073425,-0.16677214205265,-0.136418625712395
619,-0.00321085704490542,-0.00562753761187196,-0.0721140205860138,-0.104625016450882,-0.174011707305908,-0.159495130181313
620,-0.000142053118906915,-0.0139859076589346,-0.0798919349908829,-0.127064481377602,-0.178989753127098,-0.183948993682861
621,0.00275300396606326,-0.0202261563390493,-0.0885749161243439,-0.14923882484436,-0.183683887124062,-0.205316588282585
622,0.00618561636656523,-0.0195053461939096,-0.0965509489178658,-0.16652800142765,-0.190749660134315,-0.221450820565224
623,0.00991462636739016,-0.0136965038254857,-0.104751817882061,-0.178601011633873,-0.201120868325233,-0.234843373298645
624,0.0129450550302863,-0.00885475892573595,-0.115443721413612,-0.190829858183861,-0.213965460658073,-0.249003365635872
625,0.0142824556678534,-0.00790345761924982,-0.128099948167801,-0.206193402409554,-0.228383004665375,-0.263795852661133
626,0.0130512630566955,-0.0110990963876247,-0.140467911958694,-0.222171396017075,-0.24365171790123,-0.276773363351822
627,0.0105495629832149,-0.016558526083827,-0.150413885712624,-0.23441855609417,-0.257854461669922,-0.286229640245438
628,0.00927727669477463,-0.0211547706276178,-0.156951636075974,-0.240928664803505,-0.269216597080231,-0.291633784770966
629,0.00899533182382584,-0.024149589240551,-0.160323187708855,-0.24275441467762,-0.278648614883423,-0.293237745761871
630,0.00820998568087816,-0.0257575772702694,-0.16123765707016,-0.241194620728493,-0.288159638643265,-0.291576832532883
631,0.00663229264318943,-0.0252764616161585,-0.161709040403366,-0.237523972988129,-0.298398733139038,-0.2877596616745
632,0.0035894385073334,-0.0239988192915916,-0.164424359798431,-0.234241560101509,-0.308401674032211,-0.28364560008049
633,-0.00109450926538557,-0.0233122501522303,-0.169177666306496,-0.233675196766853,-0.315820962190628,-0.281684696674347
634,-0.0054984507150948,-0.0222810804843903,-0.172948956489563,-0.23593744635582,-0.31864333152771,-0.283418357372284
635,-0.00839426554739475,-0.0216832030564547,-0.174301311373711,-0.239389017224312,-0.317173331975937,-0.287464708089828
636,-0.00989567115902901,-0.0212190933525562,-0.173147201538086,-0.241741225123405,-0.312171012163162,-0.289664745330811
637,-0.0105354292318225,-0.0176967717707157,-0.169156134128571,-0.240272358059883,-0.304035156965256,-0.285640507936478
638,-0.0118172718212008,-0.0119712827727199,-0.163302943110466,-0.234141677618027,-0.29408523440361,-0.274559944868088
639,-0.0139179620891809,-0.00890554208308458,-0.156374290585518,-0.225085154175758,-0.282699823379517,-0.259003490209579
640,-0.0148472944274545,-0.0110778314992785,-0.148167937994003,-0.214863419532776,-0.269188195466995,-0.242771327495575
641,-0.0137700503692031,-0.0162236075848341,-0.139475896954536,-0.204412519931793,-0.255027651786804,-0.229614719748497
642,-0.0123869469389319,-0.0202013459056616,-0.131711646914482,-0.193311735987663,-0.24443393945694,-0.219810232520103
643,-0.0128249209374189,-0.0208716709166765,-0.125424385070801,-0.179941415786743,-0.239881828427315,-0.209667041897774
644,-0.0155945783481002,-0.0195726323872805,-0.12019656598568,-0.164173975586891,-0.238781899213791,-0.196321949362755
645,-0.0190773475915194,-0.0194437075406313,-0.115767396986485,-0.147222474217415,-0.237044185400009,-0.180133789777756
646,-0.0207479503005743,-0.0207555554807186,-0.11177071928978,-0.130511239171028,-0.231820493936539,-0.164905145764351
647,-0.0195158161222935,-0.0211125146597624,-0.107423886656761,-0.117254048585892,-0.221337929368019,-0.155900150537491
648,-0.0167354382574558,-0.0205392763018608,-0.102589935064316,-0.110355742275715,-0.206665262579918,-0.154595538973808
649,-0.0150886010378599,-0.0215814840048552,-0.0971254035830498,-0.10904847830534,-0.191022783517838,-0.157342940568924
650,-0.0160444658249617,-0.0241314638406038,-0.0904600694775581,-0.109348058700562,-0.177363410592079,-0.158048003911972
651,-0.0183438751846552,-0.0235074255615473,-0.0833907723426819,-0.107158340513706,-0.166724190115929,-0.152316972613335
652,-0.0192217752337456,-0.016270074993372,-0.0771027430891991,-0.101076893508434,-0.156115114688873,-0.139164656400681
653,-0.0177202150225639,-0.00507244886830449,-0.0716955587267876,-0.0920127257704735,-0.142835259437561,-0.11905312538147
654,-0.0157416127622128,0.00393994571641088,-0.0683064311742783,-0.083090178668499,-0.129134371876717,-0.0949093252420425
655,-0.0152863152325153,0.00639648735523224,-0.0682500675320625,-0.0771191045641899,-0.11872810125351,-0.0712314248085022
656,-0.0159898027777672,0.0036752438172698,-0.0687583312392235,-0.0714285671710968,-0.111066490411758,-0.0488401092588902
657,-0.0157538987696171,8.094243821688E-05,-0.0645677670836449,-0.0614299811422825,-0.100180678069592,-0.0274441838264465
658,-0.0134609695523977,-0.00273618684150279,-0.0547307431697845,-0.0481541343033314,-0.081674613058567,-0.0114850755780935
659,-0.00999409332871437,-0.00527228973805904,-0.0435796640813351,-0.0361739210784435,-0.0585291683673859,-0.00488984817638993
660,-0.0070726815611124,-0.00790606625378132,-0.0349691696465015,-0.0276009310036898,-0.0377246886491776,-0.00434888293966651
661,-0.00571029353886843,-0.010459516197443,-0.0288651399314404,-0.0211937967687845,-0.0233792029321194,-0.00265796598978341
662,-0.00559299532324076,-0.0124962935224175,-0.0236344505101442,-0.0148532502353191,-0.0145296100527048,0.0039975312538445
663,-0.00568016059696674,-0.0132212238386273,-0.0185658819973469,-0.00765824131667614,-0.00804466474801302,0.0134968822821975
664,-0.00510227959603071,-0.0114469910040498,-0.0134109118953347,-0.000228923963732086,-0.00132585258688778,0.0219848547130823
665,-0.00406308146193624,-0.00738729769363999,-0.00880121253430843,0.00543380901217461,0.00650110514834523,0.0282951314002275
666,-0.00364069873467088,-0.00301364506594837,-0.0057666003704071,0.00891520734876394,0.0144793707877398,0.0344620272517204
667,-0.00384678365662694,0.000248178199399263,-0.00300509459339082,0.0128845814615488,0.0217575300484896,0.0437130630016327
668,-0.00314346374943852,0.00271715503185987,0.00135478901211172,0.0190263632684946,0.0284062139689922,0.0571941994130611
669,-0.000677688920404762,0.00501665426418185,0.00635689031332731,0.0261746626347303,0.0346817784011364,0.0726947635412216
670,0.0029372179415077,0.00671214191243052,0.0106032323092222,0.0331176444888115,0.0423270165920258,0.0867571979761124
671,0.00708782440051436,0.00928931869566441,0.0145854633301497,0.0397160835564137,0.0536709055304527,0.0964227244257927
672,0.0101947607472539,0.0137746846303344,0.0176443513482809,0.0435432083904743,0.066946804523468,0.0995067209005356
673,0.011081887409091,0.0155314337462187,0.0191588699817657,0.0437932722270489,0.0790502652525902,0.0985864549875259
674,0.0108590144664049,0.0100225452333689,0.0210858304053545,0.0447531379759312,0.0899627953767776,0.0999054908752441
675,0.0102432426065207,0.000576946069486439,0.0249284114688635,0.0494265854358673,0.0995863452553749,0.105699762701988
676,0.0096353879198432,-0.00436171190813184,0.0309747625142336,0.0583451986312866,0.106947936117649,0.114278770983219
677,0.00989221315830946,-0.00196034228429198,0.0388591326773167,0.0693481788039207,0.111883871257305,0.122588068246841
678,0.0116937244310975,0.00330182537436485,0.0470223054289818,0.077792726457119,0.11525559425354,0.127656057476997
679,0.0146460216492414,0.00669818557798862,0.0532639212906361,0.0815886110067368,0.118414998054504,0.129020035266876
680,0.0172192603349686,0.00642021279782057,0.0565681308507919,0.0821651294827461,0.12301504611969,0.128421261906624
681,0.0186668019741774,0.00377533305436373,0.0577606931328774,0.0818983539938927,0.130443871021271,0.128546983003616
682,0.0192920695990324,0.00201021204702556,0.0581570342183113,0.0826620906591415,0.139442801475525,0.131466567516327
683,0.0194813907146454,0.00300425547175109,0.0585660710930824,0.0845620632171631,0.146596521139145,0.136220067739487
684,0.0188290756195784,0.00543940905481577,0.0589276365935802,0.0862297490239143,0.149477615952492,0.140510395169258
685,0.0162209011614323,0.00726940622553229,0.0586259104311466,0.0872466862201691,0.148636668920517,0.14405170083046
686,0.0118275750428438,0.00820131693035364,0.0581122227013111,0.0882840752601624,0.14627443253994,0.147232487797737
687,0.00744480919092894,0.00887188035994768,0.0590468123555183,0.0897998884320259,0.143453344702721,0.150031641125679
688,0.00435887882485986,0.00948718283325434,0.0611284710466862,0.0914014279842377,0.139984667301178,0.152815029025078
689,0.00310858758166432,0.0107033904641867,0.0628019645810127,0.0932187810540199,0.136829763650894,0.155633360147476
690,0.00370221864432096,0.0137517638504505,0.0638403221964836,0.0971713066101074,0.136318638920784,0.158752843737602
691,0.00474795466288924,0.0180609673261642,0.063719630241394,0.103246986865997,0.138741046190262,0.162636950612068
692,0.00520270131528378,0.0216854773461819,0.0626275539398193,0.107552222907543,0.143245786428452,0.165944367647171
693,0.00503607979044318,0.0219444613903761,0.0624080970883369,0.107569187879562,0.14955647289753,0.166645035147667
694,0.00434146309271455,0.0168889090418816,0.0637619718909264,0.105761870741844,0.156546652317047,0.164877384901047
695,0.00325801246799529,0.0113249272108078,0.0653507113456726,0.105968855321407,0.161431044340134,0.162832677364349
696,0.00174912181682885,0.0109146665781736,0.0663187429308891,0.109269753098488,0.162034064531326,0.161630243062973
697,0.000927073240745813,0.0131223518401384,0.0679842233657837,0.113086998462677,0.161039665341377,0.159478738903999
698,0.00217233132570982,0.0139970788732171,0.0709916353225708,0.114291593432426,0.1620754301548,0.15477828681469
699,0.00454814778640866,0.0126863904297352,0.0740408003330231,0.11350029706955,0.163690954446793,0.149199634790421
700,0.00652397470548749,0.00909154862165451,0.0765124186873436,0.112641640007496,0.163800999522209,0.145790219306946
701,0.00725871510803699,0.00394671270623803,0.0777603760361671,0.111196890473366,0.162828207015991,0.145505234599113
702,0.00582049414515495,-0.00130717770662159,0.0757797732949257,0.107906922698021,0.160844027996063,0.145598322153091
703,0.00304088671691716,-0.0048626996576786,0.0710659250617027,0.104027323424816,0.158530533313751,0.143553704023361
704,0.000955959956627339,-0.00548670487478375,0.0671668946743011,0.102462828159332,0.157049223780632,0.14179527759552
705,0.000227095108130015,-0.00341785931959748,0.0665338933467865,0.104417406022549,0.155999273061752,0.143601760268211
706,0.000568883551750332,0.000611396098975092,0.0695644021034241,0.10939671844244,0.154402479529381,0.147822380065918
707,0.0018406129674986,0.00602930784225464,0.0752983763813972,0.115869916975498,0.152833014726639,0.1510871052742
708,0.00428567314520478,0.0118662007153034,0.0816241949796677,0.120901308953762,0.153814345598221,0.152233585715294
709,0.00742342043668032,0.0165377520024776,0.0867930501699448,0.121874548494816,0.157544389367104,0.153035029768944
710,0.00921859964728355,0.0187177509069443,0.0900261625647545,0.118440218269825,0.160339206457138,0.154547691345215
711,0.00829620193690062,0.019056499004364,0.0900814384222031,0.112354889512062,0.159995600581169,0.155591160058975
712,0.00534067023545504,0.0192982330918312,0.0864893570542336,0.106137491762638,0.157907038927078,0.155281811952591
713,0.00198626355268061,0.0195695850998163,0.0821238979697227,0.102345287799835,0.156918451189995,0.154430016875267
714,-0.000243642265559174,0.0191849265247583,0.0802632421255112,0.102660067379475,0.158682197332382,0.155041620135307
715,-0.000379886041628197,0.018807539716363,0.080957256257534,0.105887934565544,0.162089452147484,0.156705796718597
716,0.00139613857027143,0.0209868010133505,0.0830345004796982,0.10952078551054,0.164916902780533,0.156743362545967
717,0.00363358994945884,0.0252374932169914,0.0854505747556686,0.112178593873978,0.166005924344063,0.153850510716438
718,0.00547687150537968,0.0259826350957155,0.0869238898158073,0.112137481570244,0.165699020028114,0.147308602929115
719,0.00635676458477974,0.0206996630877256,0.0865787342190742,0.108240745961666,0.163682669401169,0.137663125991821
720,0.00567850656807423,0.0122824655845761,0.0842040032148361,0.10221965610981,0.159229189157486,0.127477616071701
721,0.00433007907122374,0.00454408768564463,0.0803681090474129,0.0966243222355843,0.154074132442474,0.119675233960152
722,0.00267679709941149,-0.000937371805775911,0.075141653418541,0.0924086719751358,0.14998534321785,0.115165874361992
723,0.00081588770262897,-0.00416622124612331,0.0697975158691406,0.0903474390506744,0.147607818245888,0.112796738743782
724,0.000682049372699112,-0.00348263559862971,0.0683340430259705,0.0917096063494682,0.14812932908535,0.11341480910778
725,0.0033648747485131,0.00214417721144855,0.0715018957853317,0.0951915010809898,0.150731101632118,0.118490591645241
726,0.00749747361987829,0.00933065451681614,0.074830561876297,0.097030907869339,0.152674525976181,0.125707358121872
727,0.0110483234748244,0.01376011967659,0.074395015835762,0.0957440584897995,0.15259462594986,0.131067916750908
728,0.0127019118517637,0.0146498875692487,0.0705469846725464,0.0931287556886673,0.150424093008041,0.132536187767982
729,0.0124853672459722,0.0137050813063979,0.0663367435336113,0.0907052606344223,0.147056877613068,0.130337551236153
730,0.0108686331659555,0.0125411907210946,0.0641005337238312,0.0883559510111809,0.143801763653755,0.126283928751946
731,0.00742154708132148,0.0112724350765347,0.0637421384453774,0.0857730731368065,0.139167934656143,0.122827030718327
732,0.00247806031256914,0.00918558146804571,0.063205786049366,0.0831397920846939,0.131214767694473,0.120975963771343
733,-0.00182403717190027,0.00683192536234856,0.0610544458031654,0.0813865885138512,0.122515335679054,0.12047366052866
734,-0.00387440994381905,0.00597850605845451,0.0584617219865322,0.0814984664320946,0.117196895182133,0.121569365262985
735,-0.00410199956968427,0.00719608878716826,0.0569502785801888,0.0824470818042755,0.115714259445667,0.123045898973942
736,-0.00370208267122507,0.00955262873321772,0.0553111284971237,0.0823729112744331,0.115368448197842,0.121542669832706
737,-0.00249678734689951,0.0122174425050616,0.0526718683540821,0.0816963687539101,0.115710146725178,0.115159183740616
738,-0.000389121589250863,0.0137534951791167,0.0505146868526936,0.0810715928673744,0.117454253137112,0.105232439935207
739,0.000980391167104244,0.0126062883064151,0.0493963360786438,0.0795298665761948,0.117724783718586,0.0952501595020294
740,0.00114287564065307,0.0103254299610853,0.0497083254158497,0.0783985927700996,0.114799320697784,0.088441826403141
741,0.00104421027936041,0.00877113733440638,0.0519680678844452,0.0795080587267876,0.110706366598606,0.0847968906164169
742,0.000548520474694669,0.00678287772461772,0.0537388399243355,0.0802621096372604,0.106441549956799,0.0824192836880684
743,-0.000798127905000001,0.0037287687882781,0.0523571148514748,0.0776753649115562,0.10197851806879,0.0805991291999817
744,-0.00266270968131721,0.000632232171483338,0.0494933575391769,0.0733100771903992,0.0990862101316452,0.0798575058579445
745,-0.00373900355771184,-0.00101136392913759,0.0486922860145569,0.0708553716540337,0.0996101349592209,0.0825392603874207
746,-0.00257220631465316,-0.00011813407036243,0.0505918748676777,0.0710558146238327,0.102431803941727,0.0904227793216705
747,-0.00033302788506262,0.00168688117992133,0.0525562688708305,0.070873536169529,0.103680938482285,0.099212184548378
748,0.000537553045433015,0.00151694391388446,0.0519815757870674,0.0673267096281052,0.100987270474434,0.101116307079792
749,5.08578068547649E-06,-0.000385514664230868,0.0490981116890907,0.0613237805664539,0.0967489555478096,0.0944015681743622
750,-0.000973609101492912,-0.00118426443077624,0.045258741825819,0.0572011843323708,0.0934838503599167,0.0861465483903885
751,-0.00156201422214508,0.000429519830504432,0.0415899530053139,0.0578070171177387,0.0914898961782455,0.0835315808653831
752,-0.000372748269001022,0.00333564472384751,0.0400969237089157,0.0617616400122643,0.092019610106945,0.0866154506802559
753,0.00276509136892855,0.00604569911956787,0.0414761528372765,0.0655386969447136,0.0953492224216461,0.0908572226762772
754,0.00628336705267429,0.00757630169391632,0.0441829711198807,0.0660371780395508,0.0993562564253807,0.0915674418210983
755,0.00864689331501722,0.00737273972481489,0.0471399836242199,0.0629765689373016,0.101510353386402,0.0871507599949837
756,0.00945983361452818,0.00674229115247726,0.0498460941016674,0.0593179352581501,0.10016917437315,0.08013516664505
757,0.00917653366923332,0.00830892473459244,0.0511971712112427,0.0584792830049992,0.0951765924692154,0.0746966153383255
758,0.00801417045295238,0.0115621807053685,0.0505854375660419,0.0603826567530632,0.0883078277111053,0.0724978893995285
759,0.00564541667699814,0.012615879997611,0.0484626032412052,0.0602061524987221,0.0825298652052879,0.0707674250006676
760,0.00275272573344409,0.0108542935922742,0.0457704439759254,0.0551351830363274,0.0789929628372192,0.0674699023365974
761,0.000359016936272383,0.00973633490502834,0.0429149493575096,0.0483087003231049,0.0760364606976509,0.0640002489089966
762,-0.00173307151999325,0.00992512423545122,0.0399335697293282,0.0442752316594124,0.0724581182003021,0.0615432932972908
763,-0.00290158088319004,0.00979514326900244,0.0380069091916084,0.0440123751759529,0.069633349776268,0.0590080767869949
764,-0.00243523670360446,0.0100990161299706,0.0375716090202332,0.0436912290751934,0.0682855397462845,0.0546244159340858
765,-0.00176838145125657,0.0116706090047956,0.0368709601461887,0.0413096807897091,0.0670160055160522,0.0492520816624165
766,-0.00180684344377369,0.0128212990239263,0.0348819755017757,0.0387043505907059,0.0657826066017151,0.0442634373903275
767,-0.0013695223024115,0.0112865082919598,0.0324196666479111,0.0366954542696476,0.0659006163477898,0.0394328534603119
768,0.00020690901146736,0.0070858420804143,0.0303773395717144,0.0363128744065762,0.0673256143927574,0.0359479822218418
769,0.00210023950785398,0.0022588656283915,0.0294532123953104,0.0389035232365131,0.0688292905688286,0.0360282212495804
770,0.0031478232704103,-0.00121624756138772,0.0298144537955523,0.0424755699932575,0.0694437697529793,0.040309976786375
771,0.0023690601810813,-0.00259932805784047,0.0302757080644369,0.0424710400402546,0.0690370351076126,0.0462797880172729
772,-0.000129951600683853,-0.00274827657267451,0.0299241654574871,0.0372589267790318,0.0679473057389259,0.0490089841187
773,-0.00221392838284373,-0.00200552400201559,0.0303201656788588,0.0313308835029602,0.066763736307621,0.0460957437753677
774,-0.00171051698271185,0.000388284068321809,0.0332444049417973,0.0294360723346472,0.0659738928079605,0.0392892621457577
775,0.00119262817315757,0.00449494551867247,0.0376852564513683,0.0315431915223598,0.06568992882967,0.0324792377650738
776,0.00503224367275834,0.00952133722603321,0.0416048988699913,0.0360051356256008,0.0649807751178741,0.0301954597234726
777,0.00783898215740919,0.0133423516526818,0.0433702915906906,0.0398952253162861,0.0616375431418419,0.0329932868480682
778,0.00832543056458235,0.013979334384203,0.0426474958658218,0.0396309643983841,0.0564512312412262,0.0362361967563629
779,0.00759950885549188,0.0127194179221988,0.0410415269434452,0.0358972102403641,0.0535601712763309,0.0366059504449368
780,0.0065214866772294,0.0119394762441516,0.0392956025898457,0.0318816713988781,0.0536636561155319,0.03537942096591
781,0.00503681367263198,0.0117583591490984,0.0373886786401272,0.0285444129258394,0.0545408986508846,0.0345617346465588
782,0.00433654943481088,0.0114685408771038,0.0364051796495914,0.0253689475357533,0.0554860383272171,0.0345647856593132
783,0.00519063090905547,0.0115039795637131,0.0366822071373463,0.0232022888958454,0.0561886690557003,0.0359169468283653
784,0.00620966451242566,0.0134654911234975,0.03731519728899,0.024483397603035,0.0550621300935745,0.0398405194282532
785,0.00573468627408147,0.0190288368612528,0.0378066189587116,0.0292584020644426,0.0511948876082897,0.0459695756435394
786,0.00421953247860074,0.0256003141403198,0.0382039248943329,0.0333345495164394,0.0473769307136536,0.0502691119909287
787,0.00298077729530633,0.0273673385381699,0.0381980054080486,0.0334954522550106,0.0466813482344151,0.0490082576870918
788,0.00227643991820514,0.023657301440835,0.0372475869953632,0.0312623493373394,0.0480489544570446,0.0445696413516998
789,0.00169421045575291,0.0176856610924006,0.0349782966077328,0.0288145504891872,0.0494070686399937,0.0410498157143593
790,0.00105088448617607,0.011469897814095,0.0316017009317875,0.0259971339255571,0.0510395243763924,0.0379186719655991
791,0.000375933479517698,0.00636804010719061,0.0282734651118517,0.0232790112495422,0.0536637380719185,0.0332893505692482
792,-0.00108861026819795,0.00225333916023374,0.0258988756686449,0.0222628153860569,0.0561859719455242,0.027195492759347
793,-0.00400869268923998,-0.00230456097051501,0.0246413592249155,0.0224031787365675,0.0568243414163589,0.0194105710834265
794,-0.00768420984968543,-0.00726598361507058,0.0241067986935377,0.0211168974637985,0.0551793128252029,0.00966062676161528
795,-0.01087302621454,-0.0113658932968974,0.0229754466563463,0.0170739572495222,0.0520004965364933,-0.00023117390810512
796,-0.0133897280320525,-0.0137438336387277,0.0202574823051691,0.0119834579527378,0.0470585860311985,-0.00699360342696309
797,-0.0155118647962809,-0.0140204485505819,0.0166974868625402,0.00808482524007559,0.0406528599560261,-0.00803508795797825
798,-0.0160820726305246,-0.0121700121089816,0.0137462876737118,0.00512295635417104,0.0359648242592812,-0.00388776161707938
799,-0.0144337210804224,-0.00797619856894016,0.0127419857308269,0.0026874968316406,0.0350041352212429,0.00254939333535731
800,-0.0122266765683889,-0.00233541242778301,0.014174179174006,0.00157041614875197,0.0356544144451618,0.008899942971766
801,-0.0108497003093362,0.00168418872635812,0.0165707170963287,0.00231392541900277,0.0350806079804897,0.0143347466364503
802,-0.010340771637857,0.00187189993448555,0.0177599620074034,0.00488019222393632,0.0323741398751736,0.0183461606502533
803,-0.0100447256118059,-0.000522786052897573,0.0174143593758345,0.00800618436187506,0.0289698056876659,0.0194389931857586
804,-0.00887687411159277,-0.00314865214750171,0.0174116399139166,0.00984636228531599,0.0271121226251125,0.0169806480407715
805,-0.00684501696377993,-0.00540743628516793,0.0194867458194494,0.0104524604976177,0.027073772624135,0.0133901294320822
806,-0.00557434326037765,-0.00754506513476372,0.0219380706548691,0.0108591858297586,0.0268301144242287,0.012583420611918
807,-0.00659294985234737,-0.00782112218439579,0.0214368086308241,0.0113401217386127,0.0247823093086481,0.0159200988709927
808,-0.00967518892139196,-0.00300766644068062,0.0180455986410379,0.0112498942762613,0.021738251671195,0.0204194094985724
809,-0.013375710695982,0.00439669191837311,0.0134845795109868,0.00845642946660519,0.0186247155070305,0.0220617689192295
810,-0.0157820302993059,0.00754292076453567,0.00877465028315783,0.00304947816766799,0.0155571438372135,0.0204004850238562
811,-0.0153795043006539,0.00481983833014965,0.00479004113003612,-0.00208648736588657,0.0135642969980836,0.0168727524578571
812,-0.0124282743781805,-0.000777317676693201,0.00228357617743313,-0.00546769611537457,0.0138249471783638,0.0114555461332202
813,-0.00866155512630939,-0.00618328107520938,0.00155092577915639,-0.00718896882608533,0.0156658887863159,0.00477218488231301
814,-0.00607701344415545,-0.00983882416039705,0.00174201687332243,-0.00764138903468847,0.0164495948702097,-0.000174849948962219
815,-0.00551572861149907,-0.0117347184568644,0.00224700127728283,-0.00700929062440991,0.015212737955153,-0.000359222845872864
816,-0.00648009451106191,-0.0125152552500367,0.00287159439176321,-0.00636400794610381,0.0139249851927161,0.00335113401524723
817,-0.0079870792105794,-0.0126182734966278,0.0037849904038012,-0.00620599929243326,0.0136937890201807,0.00710012950003147
818,-0.00895535107702017,-0.0121250124648213,0.00561962928622961,-0.00527769420295954,0.0142388381063938,0.00784469209611416
819,-0.00989101734012365,-0.0127796093001962,0.00696521392092109,-0.00460935616865754,0.0145641677081585,0.00338247907347977
820,-0.0122528914362192,-0.0155666340142488,0.00611509568989277,-0.00537903932854533,0.0133853824809194,-0.00561428675428033
821,-0.0146751180291176,-0.0166065152734518,0.00489361071959138,-0.00434477021917701,0.0114777628332376,-0.0133755598217249
822,-0.0146776288747787,-0.013000370003283,0.00577066885307431,-0.000129700783872977,0.00997537281364203,-0.0161825697869062
823,-0.0126752248033881,-0.0081391017884016,0.00869140028953552,0.00329041061922908,0.00792562216520309,-0.0165101159363985
824,-0.0100712003186345,-0.00609301682561636,0.0119600631296635,0.00287890154868364,0.00449449243023992,-0.0159339141100645
825,-0.00747030787169933,-0.00610734615474939,0.0129819978028536,-0.000286625989247113,0.000332849333062768,-0.0122678177431226
826,-0.00544719863682985,-0.00483316462486982,0.010755417868495,-0.00261213909834623,-0.00261170626617968,-0.00480759469792247
827,-0.00403679721057415,-0.00120311218779534,0.00684366980567575,-0.00251930369995534,-0.0024978865403682,0.00314116571098566
828,-0.00278248335234821,0.00276368740014732,0.003399329027161,-0.00133877212647349,7.85560914664529E-05,0.00855613965541124
829,-0.00161530345212668,0.00594942132011056,0.00220977095887065,0.000879164086654782,0.00353798433206975,0.0124439178034663
830,-0.00104210525751114,0.010081784799695,0.00281068799085915,0.00276191881857812,0.00686881272122264,0.0156130297109485
831,-0.00114372430834919,0.0155877247452736,0.00297983386553824,0.000243641305132769,0.00909857638180256,0.0160142164677382
832,-0.00132082391064614,0.0199206676334143,0.00212161289528012,-0.00670104334130883,0.00953273940831423,0.0140626449137926
833,-0.00140765390824527,0.0199881959706545,0.00116117473226041,-0.0142402788624167,0.00773393223062158,0.0124218938872218
834,-0.000790394668001682,0.0146600231528282,0.0013353677932173,-0.0187227856367826,0.00425888877362013,0.0119282398372889
835,0.00150673394091427,0.00652325060218573,0.00329869985580444,-0.0178064908832312,0.00130071549210697,0.0115035204216838
836,0.00482187420129776,-0.000605065724812448,0.00618976540863514,-0.0123532544821501,0.000617947429418564,0.00881135743111372
837,0.00773561513051391,-0.00475606182590127,0.00864770729094744,-0.00566150434315205,0.00131812016479671,0.00296227587386966
838,0.00926372315734625,-0.006200454197824,0.00968768354505301,-0.000862972403410822,0.00125457660760731,-0.00419513136148453
839,0.00850573740899563,-0.00694700656458735,0.00852857809513807,0.00060119281988591,-0.000325600442010909,-0.0105590969324112
840,0.00542289949953556,-0.00889478158205748,0.00521996337920427,-0.000962513033300638,-0.00244967732578516,-0.015284625813365
841,0.00136783497873694,-0.0118733514100313,0.00190172344446182,-0.00404046988114715,-0.00339754787273705,-0.018041567876935
842,-0.00170967204030603,-0.0137501629069448,0.000877817685250193,-0.00664358446374536,-0.0021464976016432,-0.0180286783725023
843,-0.00229668756946921,-0.0125394342467189,0.00119878526311368,-0.00810389686375856,0.000500824360642582,-0.0154689159244299
844,-0.000921495782677084,-0.00882595032453537,0.000475827313493937,-0.00974129233509302,0.00223028403706849,-0.012827530503273
845,0.000110565910290461,-0.00538197718560696,-0.0015435639070347,-0.0128256184980273,0.00131968792993575,-0.0124239670112729
846,-6.76143026794307E-05,-0.00359415099956095,-0.00313500850461423,-0.0158454049378634,-0.00186626904178411,-0.0145051842555404
847,-0.000423433404648677,-0.00305376993492246,-0.00303871929645538,-0.0163972452282906,-0.00549785047769547,-0.0177424158900976
848,-0.000612300762441009,-0.00422739656642079,-0.00230047898367047,-0.0155358733609319,-0.00757420714944601,-0.0206235330551863
849,-0.000155471920152195,-0.00634682551026344,-0.00220278068445623,-0.015479352325201,-0.00731745455414057,-0.0218150094151497
850,0.001733343815431,-0.0065138041973114,-0.00238983565941453,-0.0157819129526615,-0.00554638728499413,-0.0202610921114683
851,0.00416874000802636,-0.0039802105166018,-0.00194461655337363,-0.0144027350470424,-0.00348257971927524,-0.0153471231460571
852,0.00568153150379658,0.000438290153397247,-0.000356997858034447,-0.0103826960548759,-0.00218437076546252,-0.00689218519255519
853,0.00549867004156113,0.00702234357595444,0.00132645422127098,-0.00619000848382711,-0.00269281934015453,0.00250177481211722
854,0.00335492938756943,0.0143207143992186,0.000799180415924639,-0.00575645687058568,-0.00596038997173309,0.00842367485165596
855,-0.000351703987689689,0.0187351144850254,-0.00217656046152115,-0.00887118652462959,-0.0118695059791207,0.00969186145812273
856,-0.00382623006589711,0.0182267129421234,-0.00481567718088627,-0.0116624571382999,-0.0179388597607613,0.00734727457165718
857,-0.00537097454071045,0.0133714266121387,-0.00533411186188459,-0.012662866152823,-0.0215156469494104,0.00169059145264328
858,-0.00529285660013556,0.0065469522960484,-0.00442251516506076,-0.0134230805560946,-0.02224544249475,-0.00631508184596896
859,-0.00506817828863859,-0.000337149074766785,-0.00326886144466698,-0.0158207658678293,-0.021052734926343,-0.0158702209591866
860,-0.00523893255740404,-0.00605355203151703,-0.00216497364453971,-0.0197658520191908,-0.0183255039155483,-0.0252752751111984
861,-0.0051458110101521,-0.00908167846500874,-0.000707446073647588,-0.022710882127285,-0.0144049040973186,-0.0298119951039553
862,-0.00376471690833569,-0.00920537952333689,0.00154093839228153,-0.0229055285453796,-0.00996857974678278,-0.0273119360208511
863,-0.00053425325313583,-0.00746929133310914,0.00440400885418057,-0.0205735620111227,-0.00662197964265943,-0.0208733454346657
864,0.00225027464330196,-0.00563737936317921,0.00596430012956262,-0.0176026206463575,-0.00773682631552219,-0.0151359792798758
865,0.00145453063305467,-0.00533450534567237,0.00433542346581817,-0.016522629186511,-0.0148110138252378,-0.0134292328730226
866,-0.0019247115124017,-0.00559758068993688,0.000717019836883992,-0.0180759932845831,-0.0248724911361933,-0.0159099567681551
867,-0.00445422530174255,-0.00429074652493,-0.00254733976908028,-0.0213119573891163,-0.0329681262373924,-0.0203348770737648
868,-0.00530935823917389,-0.00167701637838036,-0.00569932162761688,-0.0244876835495234,-0.0362599343061447,-0.0237870868295431
869,-0.0061476263217628,-0.000581403612159193,-0.00930919963866472,-0.0263900458812714,-0.0352321900427341,-0.0246709417551756
870,-0.00774680823087692,-0.00307497172616422,-0.0118353990837932,-0.0272429492324591,-0.0320292375981808,-0.0240978412330151
871,-0.00953727029263973,-0.00744192907586694,-0.0124499630182981,-0.0265552084892988,-0.0291304849088192,-0.0225564260035753
872,-0.0100298523902893,-0.0103353299200535,-0.0118801947683096,-0.0228506997227669,-0.0274869054555893,-0.0188435297459364
873,-0.00730564305558801,-0.00879076309502125,-0.0100380918011069,-0.0155290020629764,-0.0262564066797495,-0.0125241177156568
874,-0.00264370813965797,-0.00290702050551772,-0.00722823943942785,-0.00843162927776575,-0.0255300216376781,-0.00634773029014468
875,0.000734292203560472,0.0036554429680109,-0.00538745056837797,-0.00743350340053439,-0.025213185697794,-0.00441557681187987
876,0.00197788770310581,0.00970331579446793,-0.00645205657929182,-0.0116145387291908,-0.0244859047234058,-0.00656739482656121
877,0.0011337191099301,0.0146714299917221,-0.0107225570827723,-0.0160302817821503,-0.0245872586965561,-0.0103969937190413
878,-0.00112686457578093,0.0158519241958857,-0.0151938581839204,-0.019181439653039,-0.0250108819454908,-0.0152765782549977
879,-0.0024834971409291,0.0128987720236182,-0.0161276292055845,-0.0219613891094923,-0.0222653541713953,-0.0202214010059834
880,-0.00250960793346167,0.00735740642994642,-0.0145175261422992,-0.0250985845923424,-0.0174978747963905,-0.0231271851807833
881,-0.00292498315684497,0.00145823392085731,-0.0136299887672067,-0.0274947620928288,-0.0150983920320868,-0.0225287340581417
882,-0.00387592450715601,-0.0019796877168119,-0.0137043660506606,-0.0275088716298342,-0.015634547919035,-0.0199195630848408
883,-0.00473927659913898,-0.00281451153568923,-0.0131601011380553,-0.0255524236708879,-0.017685629427433,-0.0187272131443024
884,-0.00495404843240976,-0.00262817088514566,-0.0111246556043625,-0.0223199184983969,-0.0195769518613815,-0.0194671452045441
885,-0.00417731609195471,-0.00246769515797496,-0.00844771973788738,-0.0189347751438618,-0.0196792241185904,-0.0207023937255144
886,-0.00302500696852803,-0.00256353500299156,-0.00585871143266559,-0.0163759756833315,-0.0178702604025602,-0.0209562107920647
887,-0.00159507768694311,-0.00269235437735915,-0.00322160637006164,-0.0139141958206892,-0.0148881049826741,-0.0192044656723738
888,0.000470771134132519,-0.00223397579975426,-0.00140102137811482,-0.0117152528837323,-0.0123534305021167,-0.0159150995314121
889,0.00257297535426915,0.000223266775719821,-0.00180263619404286,-0.0113622443750501,-0.0117876306176186,-0.0118517093360424
890,0.00359976314939559,0.00361210014671087,-0.00475617917254567,-0.0131776081398129,-0.0128680653870106,-0.00794716645032167
891,0.00311778415925801,0.00436205370351672,-0.00862809363752604,-0.0165436640381813,-0.0146553330123425,-0.00618412159383297
892,0.00177703949157149,0.00175608904100955,-0.010656451806426,-0.0214940998703241,-0.0171595513820648,-0.00938829779624939
893,0.000362516904715449,-0.0024748258292675,-0.00904039945453405,-0.0267087165266275,-0.0206444151699543,-0.0182379484176636
894,-0.0010082193184644,-0.00543301412835717,-0.00506995897740126,-0.0299709253013134,-0.0238968152552843,-0.0294790044426918
895,-0.00154754507821053,-0.00381135917268693,-0.000898053403943777,-0.0304673723876476,-0.0239677093923092,-0.0387895777821541
896,3.14464086841326E-05,0.000874684716109186,0.00368238054215908,-0.0281593427062035,-0.0196920800954103,-0.0434423163533211
897,0.00290481373667717,0.00421301228925586,0.0076612327247858,-0.0248308926820755,-0.0140441516414285,-0.0435947962105274
898,0.00530318729579449,0.00482796225696802,0.00834373943507671,-0.0228078197687864,-0.0101783769205213,-0.0411223582923412
899,0.00697990925982594,0.00340473023243248,0.00607174588367343,-0.0210749991238117,-0.00886081531643867,-0.0369431748986244
900,0.00793685670942068,-0.000509277975652367,0.00308663141913712,-0.0180481635034084,-0.0100045623257756,-0.032753374427557
901,0.00786093063652515,-0.00742778461426497,0.0002447753213346,-0.0145767210051417,-0.0130321104079485,-0.0314794629812241
902,0.00723502645269036,-0.015774292871356,-0.00218158727511764,-0.011500645428896,-0.0168390534818172,-0.0336377136409283
903,0.0068572130985558,-0.0223946664482355,-0.00345684518106282,-0.00821410678327084,-0.019316652789712,-0.036006536334753
904,0.00623909989371896,-0.0248901303857565,-0.00377925345674157,-0.00487326877191663,-0.0190714746713638,-0.0344923101365566
905,0.00420868396759033,-0.0229927785694599,-0.00466524949297309,-0.00356395496055484,-0.0177978184074163,-0.0278645493090153
906,0.00100898568052799,-0.0183840282261372,-0.00686524016782641,-0.00598706398159266,-0.0171029921621084,-0.0184047520160675
907,-0.00233614817261696,-0.0142374765127897,-0.00965995620936155,-0.0125979771837592,-0.0165031086653471,-0.0104022063314915
908,-0.00514726201072335,-0.0108417309820652,-0.0119000533595681,-0.02129484154284,-0.0160670820623636,-0.00608234480023384
909,-0.00670299446210265,-0.00466249231249094,-0.0119004473090172,-0.0267693903297186,-0.0167535319924355,-0.00310542550869286
910,-0.00691541144624352,0.00297190714627504,-0.00925561971962452,-0.0273719355463982,-0.0190280694514513,-0.00111303059384227
911,-0.0064144185744226,0.00563666550442576,-0.00667248107492924,-0.0270572956651449,-0.0224644802510738,-0.00384804070927203
912,-0.00523695861920714,0.00192731514107436,-0.00594335934147239,-0.027321457862854,-0.0252360850572586,-0.0111821405589581
913,-0.00311720464378595,-0.00323751242831349,-0.00558868469670415,-0.0260529648512602,-0.0249920040369034,-0.0187560878694057
914,-0.00105253956280649,-0.00435668788850307,-0.0049927313812077,-0.0240164995193481,-0.0216043721884489,-0.0238263141363859
915,-0.00168584031052887,-0.000404574966523796,-0.00612773466855288,-0.0237472802400589,-0.0193432793021202,-0.0266813784837723
916,-0.00660459091886878,0.00439499830827117,-0.00974979810416698,-0.0248043034225702,-0.0223053563386202,-0.028750816360116
917,-0.012701322324574,0.00628478033468127,-0.0138694336637855,-0.0257900822907686,-0.0281345136463642,-0.0311514977365732
918,-0.0150239635258913,0.00536216190084815,-0.0163807366043329,-0.02568125911057,-0.0321166105568409,-0.033299881964922
919,-0.0127400970086455,0.00287597579881549,-0.016725841909647,-0.0234676524996758,-0.0330495499074459,-0.0338225811719894
920,-0.00807618163526058,-0.000110497217974626,-0.0152851883322001,-0.0190584026277065,-0.0313495472073555,-0.0332458354532719
921,-0.00287311268039048,-0.00257497397251427,-0.0122238518670201,-0.0138774961233139,-0.0273175612092018,-0.0324287712574005
922,0.00115420308429748,-0.00470413267612457,-0.00829394813627005,-0.0110102966427803,-0.0231680534780025,-0.0310153625905514
923,0.00288083520717919,-0.00621555931866169,-0.00594490440562367,-0.0117212356999516,-0.0214780066162348,-0.0281475838273764
924,0.00240399595350027,-0.00657402537763119,-0.00737456977367401,-0.0146100642159581,-0.0222735572606325,-0.0243250075727701
925,0.000936280644964427,-0.00721054431051016,-0.0111851328983903,-0.0183415450155735,-0.0227751228958368,-0.0222861468791962
926,0.00043539478792809,-0.00838320981711149,-0.013467088341713,-0.0211994722485542,-0.0202988181263208,-0.0235638730227947
927,0.00101550633553416,-0.00813369546085596,-0.0130143901333213,-0.0217915829271078,-0.0173426903784275,-0.0266080033034086
928,0.000993816764093935,-0.00618965458124876,-0.0122353518381715,-0.0209118314087391,-0.0174923241138458,-0.0294143687933683
929,-3.99387363358983E-06,-0.00416866177693009,-0.0122771263122559,-0.0200673509389162,-0.0185063201934099,-0.0309461355209351
930,-0.00148240628186613,-0.0029832124710083,-0.0117267444729805,-0.0204111840575933,-0.0180252976715565,-0.030819134786725
931,-0.00331498053856194,-0.00196611019782722,-0.0105632971972227,-0.0219894517213106,-0.0182932056486607,-0.0289059691131115
932,-0.00420756172388792,-0.000212866041692905,-0.0093793673440814,-0.0219397414475679,-0.019940173253417,-0.0252862628549337
933,-0.00296874484047294,0.00159784278366715,-0.00740493042394519,-0.0175947584211826,-0.0200729444622993,-0.0216965619474649
934,-0.000681791570968926,0.0022621345706284,-0.00539233023300767,-0.0100484667345881,-0.0180289838463068,-0.0197022967040539
935,0.0013133134925738,0.00290496274828911,-0.00533082010224462,-0.00252771866507828,-0.0159220341593027,-0.0183247923851013
936,0.00307272095233202,0.00534526724368334,-0.00623317714780569,0.00208850647322834,-0.0147935412824154,-0.0167381726205349
937,0.00409662676975131,0.00716129085049033,-0.0056364587508142,0.00183946965262294,-0.0162576492875814,-0.0164309460669756
938,0.0028351719956845,0.00530240125954151,-0.00397746777161956,-0.00333125074394047,-0.0219629295170307,-0.018934078514576
939,-0.000510899815708399,0.00262410193681717,-0.00327023188583553,-0.00977298896759748,-0.0294118542224169,-0.0228160619735718
940,-0.00347579619847238,0.00421467842534184,-0.00448854127898812,-0.0128147387877107,-0.0345207564532757,-0.0248809698969126
941,-0.00459473906084895,0.00920573901385069,-0.00777763966470957,-0.0126620475202799,-0.0358893014490604,-0.0242992211133242
942,-0.00455824611708522,0.0116558391600847,-0.0112333251163363,-0.0122558809816837,-0.03495117649436,-0.0222370978444815
943,-0.00380059913732111,0.00888718198984861,-0.0108296731486917,-0.0116200279444456,-0.032545730471611,-0.0197539608925581
944,-0.00220798212103546,0.00324350968003273,-0.00655054347589612,-0.0107164848595858,-0.028755309060216,-0.018012635409832
945,6.26275723334402E-05,-0.00229497300460935,-0.0033248218242079,-0.010878118686378,-0.0249569043517113,-0.0168813597410917
946,0.00326712010428309,-0.00597713189199567,-0.0030136073473841,-0.0114432713016868,-0.020855363458395,-0.015004719607532
947,0.00665213307365775,-0.00778555311262608,-0.00366227375343442,-0.011259931139648,-0.0156134935095906,-0.0127560533583164
948,0.00740478979423642,-0.0102064153179526,-0.00500674033537507,-0.011587587185204,-0.0115318242460489,-0.012645429931581
949,0.0052664615213871,-0.0141770392656326,-0.00667224684730172,-0.0129063269123435,-0.00950649380683899,-0.0141876004636288
950,0.0033581352327019,-0.0166136864572763,-0.0069336905144155,-0.0130681646987796,-0.00804026424884796,-0.0132213272154331
951,0.00289588887244463,-0.0150884492322803,-0.00648179417476058,-0.0112813301384449,-0.00812053121626377,-0.00790310185402632
952,0.0035588510800153,-0.00998331140726805,-0.00668266974389553,-0.00868379976600409,-0.010949089191854,0.000597739010117948
953,0.00544934859499335,-0.00363666121847928,-0.00703460071235895,-0.00632208213210106,-0.0148363290354609,0.00920789875090122
954,0.00700934464111924,0.000257448147749528,-0.0073049683123827,-0.0052775340154767,-0.0183462891727686,0.0132134919986129
955,0.00598258199170232,-0.000276871345704421,-0.00815520156174898,-0.00637232000008225,-0.0219267383217812,0.00989222154021263
956,0.00358080537989736,-0.00419139862060547,-0.00854971539229155,-0.00800146348774433,-0.024948613718152,0.00128495879471302
957,0.00260401144623756,-0.00834586285054684,-0.00665211258456111,-0.00749617721885443,-0.0262042116373777,-0.00780555466189981
958,0.0029755630530417,-0.0089415181428194,-0.00411259848624468,-0.00548509182408452,-0.0255763810127974,-0.014116108417511
959,0.00335665326565504,-0.0049434881657362,-0.00348986661992967,-0.00471929740160704,-0.0228659883141518,-0.0171613600105047
960,0.00317313359118998,0.000789484241977334,-0.0047181393019855,-0.00754917412996292,-0.0191759020090103,-0.0192340444773436
961,0.00165484403260052,0.00416418258100748,-0.00751200504601002,-0.0138769606128335,-0.0171157363802195,-0.0228145942091942
962,-0.000961351266596466,0.00452559487894177,-0.011133230291307,-0.01885125041008,-0.0180391725152731,-0.026146661490202
963,-0.0023088192101568,0.00343789882026613,-0.0139920888468623,-0.0193617027252913,-0.0208673719316721,-0.0276860017329454
964,-0.00108033209107816,0.000375406089005992,-0.015389321371913,-0.0182401165366173,-0.0229778178036213,-0.0289689674973488
965,0.00168698350898921,-0.00471326056867838,-0.0142321512103081,-0.0164331551641226,-0.0223447363823652,-0.0292685125023127
966,0.00455283280462027,-0.0110224271193147,-0.0102490140125155,-0.0119731901213527,-0.0200770813971758,-0.0276274383068085
967,0.00666780443862081,-0.0177290979772806,-0.0058948858641088,-0.00528576038777828,-0.0193101409822702,-0.0270253904163837
968,0.00866009388118982,-0.0222194604575634,-0.0024355158675462,0.00166266260202974,-0.0198340602219105,-0.0301160868257284
969,0.0110488282516599,-0.022693132981658,0.000849345000460744,0.00640527997165918,-0.0194685105234385,-0.034800361841917
970,0.0129075217992067,-0.019533533602953,0.00378065137192607,0.00676879938691854,-0.0182958953082561,-0.0366371124982834
971,0.0136685175821185,-0.0141970869153738,0.00464983750134707,0.00289114005863667,-0.0165071059018373,-0.0338850058615208
972,0.0144379604607821,-0.00850935839116573,0.00190325314179063,-0.00240500620566309,-0.0128528187051415,-0.0277113243937492
973,0.0160535667091608,-0.00412024743855,-0.00367903616279364,-0.00608785217627883,-0.00761741539463401,-0.0207008458673954
