,AF3,AF4,Fp1,Fp2,AF7,AF8
0,-0.00742601044476032,0.00849385745823383,0.00928115472197533,0.0244281254708767,-0.00951386708766222,0.0451195724308491
1,-0.0100765405222774,0.0106951612979174,0.00736341020092368,0.0158951729536057,-0.0186363067477942,0.0442425757646561
2,-0.00944760907441378,0.0137438597157598,0.00719474582001567,0.0101287411525846,-0.0239324606955051,0.0420539081096649
3,-0.00500151375308633,0.0182755999267101,0.00854302011430264,0.00727253872901201,-0.020519845187664,0.038744855672121
4,-9.79268152150325E-05,0.0218189135193825,0.00750003894791007,0.00338463787920773,-0.0123165128752589,0.034087173640728
5,0.00199575209990144,0.0226979292929173,0.00296596135012805,-0.00143758836202323,-0.00522735761478543,0.0313160195946693
6,0.00070735375629738,0.0215074773877859,-0.0021114822011441,-0.00422029150649905,-0.00293898163363338,0.0339245609939098
7,-0.00168019463308156,0.0184897184371948,-0.004777857568115,-0.004332578741014,-0.0048528597690165,0.0405650213360786
8,-0.00350203132256866,0.0135978097096086,-0.00537589890882373,-0.00390277500264347,-0.00796994846314192,0.0457259900867939
9,-0.00542248738929629,0.00963050033897161,-0.00591033650562167,-0.0041556297801435,-0.0109808566048741,0.0461109541356564
10,-0.00801787432283163,0.0102502629160881,-0.00739547749981284,-0.00442372541874647,-0.0135446386411786,0.0426146984100342
11,-0.0109223611652851,0.0135973775759339,-0.00890663545578718,-0.00353818922303617,-0.014757813885808,0.0386171229183674
12,-0.0144776655361056,0.0136693539097905,-0.0097804581746459,-0.00245746038854122,-0.015503860078752,0.0365199856460094
13,-0.0191063117235899,0.00778701668605208,-0.0110757723450661,-0.0046592908911407,-0.0182743687182665,0.0345104672014713
14,-0.0224278345704079,0.00146643060725182,-0.012242516502738,-0.00880522932857275,-0.0223148688673973,0.0324057228863239
15,-0.0215465985238552,0.00137296062894166,-0.0111984731629491,-0.0103824408724904,-0.0238080751150846,0.0328644961118698
16,-0.0175386313349009,0.00550749013200402,-0.00861294381320477,-0.0103883650153875,-0.0213087610900402,0.0351332873106003
17,-0.0133975548669696,0.00848670676350594,-0.00699389632791281,-0.0112532852217555,-0.0166943985968828,0.0372409448027611
18,-0.0103820683434606,0.00898355711251497,-0.00673614209517837,-0.0117834759876132,-0.0116767957806587,0.0387411192059517
19,-0.00783373694866896,0.00756545085459948,-0.00644386373460293,-0.0113707976415753,-0.00636342400684953,0.0373882725834847
20,-0.00499726831912994,0.00488476315513253,-0.00563559634611011,-0.0116247087717056,-0.00206937710754573,0.0313327349722385
21,-0.00269729667343199,0.00297953002154827,-0.00478926068171859,-0.0130162313580513,-0.00294436071999371,0.0238624140620232
22,-0.00244718766771257,0.0031557590700686,-0.0035744090564549,-0.0137860560789704,-0.0106129245832562,0.019741352647543
23,-0.00439021969214082,0.00518803019076586,-0.000891922332812101,-0.0111586200073361,-0.0206472612917423,0.021119249984622
24,-0.00665477616712451,0.01072380784899,0.00285528763197362,-0.00570058776065707,-0.0277177207171917,0.02793906070292
25,-0.00752913579344749,0.019235648214817,0.00490990234538913,-0.00272554461844265,-0.0294587295502424,0.0374583825469017
26,-0.00754949636757374,0.0249579101800919,0.00298812729306519,-0.00488940672948956,-0.0270680263638496,0.0459655001759529
27,-0.00777270505204797,0.0258013494312763,-0.00150669296272099,-0.0088559165596962,-0.0238423999398947,0.0526387467980385
28,-0.0084114158526063,0.0265843067318201,-0.00495671015232801,-0.0108469342812896,-0.0213865675032139,0.0592018961906433
29,-0.00957284029573202,0.0298511069267988,-0.0059468662366271,-0.0105149457231164,-0.0188343375921249,0.0648631155490875
30,-0.0102379955351353,0.0309523623436689,-0.00588432420045137,-0.00986311119049788,-0.014530872926116,0.0646290332078934
31,-0.00914056971669197,0.0265196468681097,-0.00730565981939435,-0.0106359021738172,-0.00979087222367525,0.0573804415762424
32,-0.00804417580366135,0.0191471129655838,-0.0117484396323562,-0.0126249985769391,-0.0089686531573534,0.0496420115232468
33,-0.00847149174660444,0.0131258694455028,-0.0161169562488794,-0.0141778131946921,-0.011922518722713,0.0474504642188549
34,-0.00899871531873941,0.011513221077621,-0.016298646107316,-0.0140844555571675,-0.0143005987629294,0.0509636551141739
35,-0.00844768900424242,0.0137451365590096,-0.0125850830227137,-0.0128209572285414,-0.0136047285050154,0.0564826726913452
36,-0.00755165610462427,0.0163478963077068,-0.00752735370770097,-0.0116633409634233,-0.0108233578503132,0.0602076277136803
37,-0.00801817514002323,0.015841918066144,-0.00375391868874431,-0.0118316207081079,-0.00999266281723976,0.059475976973772
38,-0.0100717227905989,0.0115784425288439,-0.00193817692343146,-0.0137428920716047,-0.0131659470498562,0.0528832376003265
39,-0.012207169085741,0.00667260307818651,0.000312534393742681,-0.014432699419558,-0.0179500300437212,0.0433905348181725
40,-0.0134074930101633,0.00417192932218313,0.00431691017001867,-0.0105994930490851,-0.022208584472537,0.0367554277181625
41,-0.013056930154562,0.00463607953861356,0.0083366958424449,-0.0043091056868434,-0.0241925995796919,0.0357729606330395
42,-0.0109267700463533,0.00727295782417059,0.0099928630515933,-0.000382832455215976,-0.0221958570182323,0.039405319839716
43,-0.00865661818534136,0.0102861663326621,0.00865956954658031,-0.00135123112704605,-0.0169949661940336,0.0445938818156719
44,-0.00747685553506017,0.0125430002808571,0.00662241596728563,-0.00514897052198648,-0.0098468204960227,0.0500141754746437
45,-0.00670198304578662,0.0155974216759205,0.00626751873642206,-0.00647458201274276,-0.00253786286339164,0.0569439195096493
46,-0.00604621227830648,0.0215573813766241,0.00698515120893717,-0.00336130708456039,0.00295548164285719,0.0639174282550812
47,-0.00654785474762321,0.0277660563588142,0.00631178077310324,0.000308911228785291,0.00548028014600277,0.0662801787257195
48,-0.00890130922198296,0.0285515859723091,0.0033405814319849,0.00107165914960206,0.00421576714143157,0.062485046684742
49,-0.011546453461051,0.0238107945770025,0.000317716476274654,-9.10621020011604E-05,0.000883800094015896,0.0560299716889858
50,-0.0125372968614101,0.0184951424598694,-0.000454479159088805,-0.00132205476984382,-0.00193516293074936,0.0518096834421158
51,-0.0119492281228304,0.0168202221393585,0.000361134152626619,-0.00347718107514083,-0.00388622027821839,0.0517960600554943
52,-0.0108435358852148,0.0197426564991474,0.00108633120544255,-0.00692137889564037,-0.00548832770437002,0.0537404827773571
53,-0.0103515163064003,0.0240166075527668,0.00139468081761152,-0.00921723432838917,-0.00701938243582845,0.0551567412912846
54,-0.0104305734857917,0.0259022451937199,0.00204619951546192,-0.00882591679692268,-0.0081817964091897,0.0565659329295158
55,-0.0101170605048537,0.0250993203371763,0.0035670455545187,-0.00667642150074244,-0.0091387452557683,0.0589604601264
56,-0.00896997563540936,0.0231481399387121,0.00573310628533363,-0.00406867498531938,-0.0103261144831777,0.0610152296721935
57,-0.00728737050667405,0.0200439672917128,0.00730326911434531,-0.00215794472023845,-0.0117532657459378,0.0597714111208916
58,-0.006769098341465,0.0153909036889672,0.00674073584377766,-0.00152519659604877,-0.0152069982141256,0.0551075711846352
59,-0.00887942500412464,0.0109415575861931,0.00415815738961101,-0.00189311185386032,-0.0224430859088898,0.0502179525792599
60,-0.0130084361881018,0.00872112438082695,0.000466056080767885,-0.00432131206616759,-0.030927387997508,0.0453350357711315
61,-0.0167442969977856,0.0104952529072762,-0.00252002547495067,-0.00789418909698725,-0.0345107316970825,0.0407621972262859
62,-0.0178836490958929,0.0166064258664846,-0.00253162370063365,-0.00894658360630274,-0.0295727886259556,0.0407781004905701
63,-0.0164914354681969,0.0239409431815147,-2.98905997624388E-05,-0.0077073136344552,-0.0188587848097086,0.0471004135906696
64,-0.0141471149399877,0.028732668608427,0.00323801720514894,-0.00659687491133809,-0.00792882312089205,0.0566028952598572
65,-0.0123356599360704,0.0301099736243486,0.00668721785768867,-0.00552817480638623,-0.000699480064213276,0.0651698410511017
66,-0.0119712362065911,0.0298940390348434,0.00960766896605492,-0.00370732485316694,0.00245740008540452,0.0705753639340401
67,-0.0129707222804427,0.0302412342280149,0.0109878620132804,-0.000770046666730195,0.00298503087833524,0.0739842131733894
68,-0.0145939569920301,0.0304167736321688,0.00921186711639166,0.00200260244309902,0.000404007907491177,0.0763424709439278
69,-0.015700176358223,0.0284385178238153,0.00353293190710247,0.00261921552009881,-0.00513067049905658,0.0772063285112381
70,-0.0153397060930729,0.0251553691923618,-0.0029079036321491,0.00232200161553919,-0.0104557499289513,0.0781145989894867
71,-0.0141049446538091,0.0224781557917595,-0.00615224428474903,0.00263241957873106,-0.0134595092386007,0.0784428715705872
72,-0.0128012243658304,0.0203449279069901,-0.00564011139795184,0.00234572123736143,-0.0145726529881358,0.0739926621317863
73,-0.0115694114938378,0.0167645532637835,-0.00338938971981406,0.000490916194394231,-0.0146498307585716,0.0636183097958565
74,-0.0106868771836162,0.0134193617850542,-0.00169582560192794,-0.0020089338067919,-0.0151032097637653,0.0521217882633209
75,-0.0101431915536523,0.0149660212919116,-0.00159331609029323,-0.00434864452108741,-0.0166647452861071,0.046352993696928
76,-0.00985974352806807,0.0202169138938189,-0.00192069471813738,-0.0065094786696136,-0.0172158684581518,0.0493648089468479
77,-0.0106542408466339,0.0239439643919468,-0.0018383061978966,-0.00827942322939634,-0.0157335828989744,0.0584505125880241
78,-0.0129138808697462,0.0248961299657822,-0.00261085713282228,-0.00983111932873726,-0.0149420388042927,0.0682985708117485
79,-0.0157534945756197,0.0248906742781401,-0.00524155702441931,-0.0115825589746237,-0.0175422560423613,0.0749462619423866
80,-0.0182695612311363,0.0246705040335655,-0.0080421594902873,-0.0125020937994123,-0.0216882731765509,0.078168548643589
81,-0.0201636906713247,0.0240334924310446,-0.00820665713399649,-0.0115632694214582,-0.0227932501584291,0.0793403312563896
82,-0.0216388888657093,0.0218832548707724,-0.00634482968598604,-0.0107835959643126,-0.0204508379101753,0.0772302448749542
83,-0.0224884692579508,0.0176027845591307,-0.00579647300764918,-0.0124371638521552,-0.018603915348649,0.0705421790480614
84,-0.0222264938056469,0.0132683264091611,-0.00748822931200266,-0.0148951318114996,-0.0197894386947155,0.0614859126508236
85,-0.0211171749979258,0.0117370206862688,-0.00906762667000294,-0.0144491493701935,-0.023559121415019,0.0543736070394516
86,-0.0195283200591803,0.0139638008549809,-0.0086646256968379,-0.0105630159378052,-0.0278608873486519,0.0526693128049374
87,-0.0175601858645678,0.0186748169362545,-0.006533476524055,-0.00669228378683329,-0.0287888962775469,0.0559678338468075
88,-0.0153692485764623,0.0236837193369865,-0.00378672941587865,-0.00592841533944011,-0.0237188227474689,0.060055997222662
89,-0.0141919031739235,0.027560455724597,-0.00176780507899821,-0.00800622254610062,-0.0181261952966452,0.061975434422493
90,-0.0149384727701545,0.0297739580273628,-0.000652246759273112,-0.0102232974022627,-0.0192559044808149,0.0619854852557182
91,-0.0154758216813207,0.0299342386424541,0.000993027002550662,-0.0106286974623799,-0.0242530275136232,0.0601460002362728
92,-0.0146060669794679,0.0267554223537445,0.00290887989103794,-0.0102706952020526,-0.0271795652806759,0.0548610650002956
93,-0.0134177636355162,0.0196557696908712,0.00346569158136845,-0.0111188050359488,-0.0271717961877584,0.0459122024476528
94,-0.0108770718798041,0.0123035199940205,0.00306370342150331,-0.0119422413408756,-0.0234763212502003,0.0378930456936359
95,-0.00650695618242025,0.00945395976305008,0.00219376175664365,-0.0119482539594173,-0.0156865492463112,0.03532724827528
96,-0.0033291548024863,0.0102605763822794,-0.000262210320215672,-0.0142236845567822,-0.00798935908824205,0.0373895317316055
97,-0.00316231697797775,0.0109978877007961,-0.00347105856053531,-0.0184602532535791,-0.00329407211393118,0.0419720485806465
98,-0.00484161823987961,0.0114936968311667,-0.00467193452641368,-0.0206889230757952,0.000354637624695897,0.0474113449454308
99,-0.00759514328092337,0.0131405694410205,-0.00431901216506958,-0.0211765542626381,0.00219684885814786,0.0498302727937698
100,-0.0117128333076835,0.0160449873656034,-0.00474469410255551,-0.0221465304493904,-0.000782935880124569,0.046394407749176
101,-0.0171954501420259,0.0183037333190441,-0.00615158025175333,-0.0232518035918474,-0.0083523178473115,0.0391354560852051
102,-0.0223788488656282,0.0173883978277445,-0.00725381309166551,-0.0231975018978119,-0.0172248482704163,0.0321950167417526
103,-0.0242140963673592,0.0137817244976759,-0.00647138431668282,-0.0205269828438759,-0.022265899926424,0.0284260977059603
104,-0.0225674174726009,0.00875754747539759,-0.00382131547667086,-0.0154466507956386,-0.02138133905828,0.0275179110467434
105,-0.0192869901657104,0.00336053059436381,-0.000665157684125006,-0.0110965082421899,-0.0165851451456547,0.0276831444352865
106,-0.0145191950723529,1.09411548692151E-05,0.00182845548260957,-0.0104251010343432,-0.0103727439418435,0.028887240216136
107,-0.00914822518825531,-0.000164767145179212,0.00317559437826276,-0.0133644500747323,-0.00626647146418691,0.0317369401454926
108,-0.00573445903137326,0.00150147452950478,0.0033701523207128,-0.0176757760345936,-0.00722155719995499,0.0355403274297714
109,-0.00595888448879123,0.00325091858394444,0.00129318900872022,-0.0216135047376156,-0.0115579320117831,0.0383807942271233
110,-0.00841197650879622,0.00454086204990745,-0.00256343092769384,-0.0236997026950121,-0.0137746026739478,0.0393172092735767
111,-0.00981981866061687,0.00613552331924438,-0.00499444548040628,-0.0229179542511702,-0.0100621161982417,0.0397627465426922
112,-0.00898848194628954,0.00915536563843489,-0.00565542932599783,-0.0211202576756477,-0.00332518084906042,0.0405559726059437
113,-0.00707941828295588,0.0142327547073364,-0.00591263500973582,-0.0203352980315685,0.000868025585077703,0.0412593148648739
114,-0.00501866638660431,0.0208027716726065,-0.00398366153240204,-0.0191955920308828,0.00204874412156641,0.0434390865266323
115,-0.00345886312425137,0.0257739089429379,0.00073355482891202,-0.0158355925232172,0.00201773084700108,0.0481624528765678
116,-0.00299155013635755,0.0248405784368515,0.00568973552435637,-0.0101471841335297,0.00137198052834719,0.0524199828505516
117,-0.0027686869725585,0.0187126267701387,0.0100031718611717,-0.00352913863025606,0.00258887629024684,0.0528070889413357
118,-0.00185699039138854,0.0124189853668213,0.0134924612939358,0.000105556486232672,0.00757734337821603,0.0485045686364174
119,-0.00144935806747526,0.00810751132667065,0.0141630936414003,-0.00221952982246876,0.0122313173487782,0.0415970422327518
120,-0.00310911890119314,0.00595294171944261,0.0113730914890766,-0.00779209565371275,0.0109712248668075,0.0368165597319603
121,-0.00580137874931097,0.00668097753077745,0.00815302785485983,-0.0114765353500843,0.00387249351479113,0.037268590182066
122,-0.00765834841877222,0.00976481661200523,0.0069806594401598,-0.0119056031107903,-0.00517185963690281,0.0413693971931934
123,-0.00875004380941391,0.0142564391717315,0.00719666387885809,-0.0110793421044946,-0.0118697704747319,0.0453971289098263
124,-0.0101013956591487,0.0194981191307306,0.00738466857001185,-0.0102707548066974,-0.0151461660861969,0.0466880723834038
125,-0.0119092669337988,0.022817874327302,0.00638168770819902,-0.0094136418774724,-0.0170147661119699,0.044127032160759
126,-0.0126026319339871,0.0218436233699322,0.00470191286876798,-0.00798177905380726,-0.0161697063595057,0.0389547534286976
127,-0.0109913432970643,0.0187824610620737,0.0039857286028564,-0.00532679120078683,-0.010456751100719,0.0357465408742428
128,-0.00862706080079079,0.0170434042811394,0.0041749244555831,-0.00159979611635208,-0.00262222578749061,0.0380634367465973
129,-0.00789268966764212,0.0161429159343243,0.00324375228956342,0.000942092039622366,0.00213327025994658,0.0436368845403194
130,-0.00956843513995409,0.0136690195649862,-0.000436005793744698,-0.0014321660855785,0.00107934605330229,0.0470692031085491
131,-0.0124817853793502,0.0105317896232009,-0.00534129049628973,-0.00923962332308292,-0.00377438659779727,0.0467457845807076
132,-0.0151713043451309,0.0103134158998728,-0.0093305604532361,-0.0181699227541685,-0.00917322840541601,0.0457367561757565
133,-0.0166080854833126,0.0134391523897648,-0.0115883620455861,-0.0237583592534065,-0.0130738625302911,0.0457755960524082
134,-0.0157102271914482,0.0159704554826021,-0.0105102108791471,-0.0243889130651951,-0.0133330002427101,0.0454507619142532
135,-0.0125760938972235,0.0146912420168519,-0.00568823562934995,-0.0213276445865631,-0.0102067990228534,0.0430596433579922
136,-0.00896235927939415,0.0103112366050482,0.000446641206508502,-0.0171768926084042,-0.00777879171073437,0.0376953966915607
137,-0.00660596042871475,0.004967185202986,0.00595067674294114,-0.0135892760008574,-0.00900378823280334,0.029579684138298
138,-0.00587635766714811,-0.000493815517984331,0.0103286607190967,-0.0113944886252284,-0.0127676092088223,0.0212557259947062
139,-0.00611865660175681,-0.00372030260041356,0.0124442996457219,-0.009531837888062,-0.0159217398613691,0.0183830559253693
140,-0.00700187589973211,-0.00171493331436068,0.0105061074718833,-0.00661219144240022,-0.016412265598774,0.024337325245142
141,-0.00828643795102835,0.00314875319600105,0.00472558615729213,-0.00428938074037433,-0.0149370674043894,0.0349183268845081
142,-0.00927172601222992,0.00721045630052686,-0.00120464328210801,-0.00357334990985692,-0.0136925522238016,0.0440513454377651
143,-0.00989046785980463,0.0100164096802473,-0.00403526425361633,-0.00420414330437779,-0.0141307367011905,0.0480037517845631
144,-0.00992900598794222,0.0110772736370564,-0.00350342853926122,-0.00665618712082505,-0.015255656093359,0.0445092245936394
145,-0.00912819057703018,0.00984725449234247,-0.000810649886261672,-0.00992838479578495,-0.0152174681425095,0.0351677536964417
146,-0.00840394385159016,0.00772859109565616,0.00159082072786987,-0.0121670458465815,-0.0138025572523475,0.0257593169808388
147,-0.00753808254376054,0.00833627954125404,0.00225154007785022,-0.0128429559990764,-0.0118351159617305,0.0217167418450117
148,-0.00494327303022146,0.0128089729696512,0.0030242947395891,-0.0134187750518322,-0.00927517656236887,0.022807914763689
149,-0.00133681495208293,0.0171179939061403,0.00602484401315451,-0.0150488717481494,-0.00578746385872364,0.0255172662436962
150,0.000921323895454407,0.0185548178851604,0.0101798325777054,-0.0156534593552351,-0.00286180339753628,0.0290496181696653
151,0.000891535135451704,0.0170117188245058,0.0116260312497616,-0.014262555167079,-0.00269318604841828,0.0324714779853821
152,-0.0014889856101945,0.0126561569049954,0.00805971585214138,-0.0128420712426305,-0.00592918274924159,0.0329125300049782
153,-0.00527696311473846,0.00762570975348353,0.00169819954317063,-0.011913294903934,-0.0105672981590033,0.0295548737049103
154,-0.00855763256549835,0.00385419488884509,-0.00414985325187445,-0.0116366976872087,-0.0136648481711745,0.0242692232131958
155,-0.0104041267186403,0.00158668495714664,-0.00780738005414605,-0.0124847525730729,-0.0146399782970548,0.0203591361641884
156,-0.0109863206744194,0.000959645258262753,-0.00835973676294088,-0.013235024176538,-0.0154185220599175,0.020199004560709
157,-0.0107044922187924,0.00148030708078295,-0.00590539816766977,-0.0131157170981169,-0.0172961428761482,0.0218958668410778
158,-0.00994862895458937,0.00302985380403697,-0.0021872092038393,-0.0126036349684,-0.0200135372579098,0.0227567981928587
159,-0.00863941200077534,0.00665813032537699,0.00142200710251927,-0.0115559035912156,-0.02244021743536,0.0247655790299177
160,-0.00604449957609177,0.0114824865013361,0.00500574056059122,-0.00986092258244753,-0.022442726418376,0.0305617451667786
161,-0.00218058680184186,0.014462573453784,0.00753888627514243,-0.00897624436765909,-0.0198554340749979,0.03862564265728
162,0.00198465073481202,0.0145253902301192,0.00747835543006659,-0.00947085116058588,-0.0168306417763233,0.0459966324269772
163,0.00601499574258924,0.0140077471733093,0.0062374877743423,-0.00852417293936014,-0.0131053766235709,0.050124529749155
164,0.00947810243815184,0.0146557427942753,0.00639833370223641,-0.00443669222295284,-0.00741800758987665,0.0492609143257141
165,0.0112040536478162,0.0143668735399842,0.00756173906847835,-0.000191262006410398,-0.00281448964960873,0.0446812435984612
166,0.0104374224320054,0.0109722120687366,0.00806344579905272,0.000398080213926733,-0.00316917919553816,0.0388408228754997
167,0.00810172967612743,0.00566634349524975,0.00840502418577671,-0.00288665154948831,-0.00705501344054937,0.0322226621210575
168,0.00617314456030726,0.000866665679495782,0.00995719619095325,-0.00755310943350196,-0.0097039919346571,0.0251182895153761
169,0.00530821643769741,-0.00169200624804944,0.0120660280808806,-0.0111471982672811,-0.00998046342283487,0.0198871605098248
170,0.00470416713505983,-0.0013611811446026,0.0125197041779757,-0.0120123205706477,-0.0103901773691177,0.0182600636035204
171,0.00417951541021466,0.00129915587604046,0.0111445859074593,-0.0102257914841175,-0.0117180980741978,0.0188337285071611
172,0.00457674590870738,0.00504606543108821,0.0100255087018013,-0.00800792127847672,-0.0123420115560293,0.0199200566858053
173,0.00601219153031707,0.0083846403285861,0.0102362604811788,-0.00793401151895523,-0.0106073515489697,0.0209689252078533
174,0.00734782684594393,0.0117569267749786,0.0114945350214839,-0.00984041299670935,-0.00711036566644907,0.0220954511314631
175,0.0076016285456717,0.0158465951681137,0.0124609712511301,-0.0121271591633558,-0.00490386877208948,0.0230576395988464
176,0.00596512807533145,0.0178326386958361,0.0113021358847618,-0.0144358295947313,-0.00709999352693558,0.0226480010896921
177,0.00282156839966774,0.0160423405468464,0.00837307423353195,-0.0157126057893038,-0.012951610609889,0.0207130070775747
178,0.000783609168138355,0.0122477663680911,0.00679645035415888,-0.0149172870442271,-0.0180433839559555,0.0175793897360563
179,0.00141932559199631,0.00844175647944212,0.00896158628165722,-0.0130525259301066,-0.0193617437034845,0.0139893880113959
180,0.00373851205222309,0.00615517096593976,0.0132299214601517,-0.0110369455069304,-0.0165536683052778,0.0123589839786291
181,0.00646053720265627,0.00531911151483655,0.0161481779068708,-0.00925481133162975,-0.0107479030266404,0.0134153040125966
182,0.0090718986466527,0.00458611361682415,0.0168901383876801,-0.00814006105065346,-0.00456942990422249,0.0142762111499906
183,0.0119490027427673,0.00413801241666079,0.0179077479988337,-0.00697813648730516,8.56829574331641E-05,0.013425013050437
184,0.0148667888715863,0.00408752774819732,0.0199444126337767,-0.00625030836090446,0.00286351656541228,0.0124294115230441
185,0.0162135250866413,0.00379977631382644,0.0201261788606644,-0.0067607257515192,0.00380969303660095,0.0134686846286058
186,0.0156012559309602,0.00514279073104262,0.0176297053694725,-0.00628348486497998,0.00332961184903979,0.0172550808638334
187,0.014194986782968,0.00780569901689887,0.0152716934680939,-0.00463763438165188,0.00238133990205824,0.0198995191603899
188,0.0127011658623815,0.0068285739980638,0.0148182967677712,-0.00602757465094328,0.00254278094507754,0.0168459303677082
189,0.0110730035230517,0.00312193413265049,0.0144448336213827,-0.0107574481517076,0.00235159299336374,0.0113742602989078
190,0.00956858973950148,0.00327067798934877,0.0121040092781186,-0.0138378199189901,-0.00111798092257231,0.0103020425885916
191,0.00897231232374907,0.00750258192420006,0.00934847258031368,-0.013245340436697,-0.00469439942389727,0.0135546335950494
192,0.00898811127990484,0.0107508385553956,0.00877327565103769,-0.0105938063934445,-0.00466014398261905,0.017422566190362
193,0.00823930650949478,0.0107095083221793,0.00995297450572252,-0.00822283234447241,-0.00394573621451855,0.0203743819147348
194,0.00691934768110514,0.00884731393307447,0.0116106644272804,-0.00733331684023142,-0.00472597451880574,0.0227193478494883
195,0.00634800083935261,0.00700835790485144,0.0139332721009851,-0.00669629219919443,-0.0050167003646493,0.0258524026721716
196,0.00645882124081254,0.00529491528868675,0.0156576316803694,-0.00627644127234817,-0.00532735930755734,0.0285373665392399
197,0.00617704493924975,0.00365160033106804,0.0149778444319963,-0.00720182387158275,-0.00781869608908892,0.0271861124783754
198,0.00503436243161559,0.00224129622802138,0.0126105416566134,-0.00848603155463934,-0.0108432453125715,0.0207109060138464
199,0.0038287453353405,0.00132245977874845,0.0102629996836185,-0.00880146026611328,-0.0112798670306802,0.0115172099322081
200,0.00344803743064404,0.00246575893834233,0.00930069852620363,-0.00818569213151932,-0.00854116957634687,0.00361828715540469
201,0.00362216145731509,0.00568865379318595,0.0100006619468331,-0.00769926235079765,-0.00356650468893349,-4.47649726993404E-05
202,0.00304348790086806,0.00771391578018665,0.0117299435660243,-0.00846687611192465,0.00171865208540112,0.00122321338858455
203,0.000814693397842348,0.00621452555060387,0.0128490850329399,-0.0107338353991508,0.00346839078702033,0.00472576590254903
204,-0.00201710523106158,0.0029300102032721,0.0113918371498585,-0.0133651979267597,-0.000145116704516113,0.00605253921821713
205,-0.0032646507024765,0.00138902326580137,0.00964659638702869,-0.0132911605760455,-0.00512172561138868,0.0049192076548934
206,-0.00174277334008366,0.00219900696538389,0.0114669930189848,-0.0097724748775363,-0.00622427696362138,0.00435000145807862
207,0.00145886349491775,0.00286686141043901,0.0153538743034005,-0.00668603088706732,-0.0033677804749459,0.00519310450181365
208,0.00491578038781881,0.00233575934544206,0.0178347509354353,-0.0061069568619132,0.000915768439881504,0.00605728989467025
209,0.00806097500026226,0.00225350889377296,0.019270358607173,-0.00513286422938108,0.00556178810074925,0.00724524725228548
210,0.0100722089409828,0.00357031007297337,0.0216557923704386,-0.00132737075909972,0.00958196818828583,0.0101153375580907
211,0.0107349064201117,0.00506862346082926,0.0245522670447826,0.00377459917217493,0.0113554345443845,0.0137798506766558
212,0.0108873136341572,0.00564180593937635,0.0262464769184589,0.00808364804834127,0.0106301475316286,0.0167709030210972
213,0.0109170870855451,0.00675416272133589,0.0263160094618797,0.0113834654912353,0.00892694946378469,0.0192233733832836
214,0.00999617297202349,0.00969972833991051,0.0241998825222254,0.0122875431552529,0.00702623557299376,0.0204721633344889
215,0.00796318519860506,0.0120210153982043,0.0192105695605278,0.00837453547865152,0.00540655013173819,0.0190665442496538
216,0.00615074997767806,0.0114816855639219,0.0132030872628093,0.000586128211580217,0.00483636697754264,0.0161949638277292
217,0.00602599047124386,0.00905832089483738,0.0103370361030102,-0.00688640959560871,0.00601708376780152,0.013889784924686
218,0.00810007471591234,0.00634331861510873,0.0127170514315367,-0.0111273275688291,0.00932725984603167,0.0113117359578609
219,0.0113376956433058,0.00428894907236099,0.0170989278703928,-0.0120372008532286,0.0129089923575521,0.00698258262127638
220,0.0138987982645631,0.00334357167594135,0.0187601782381535,-0.0102251600474119,0.0142999542877078,0.0022483803331852
221,0.0142424032092094,0.00282984087243676,0.0163184273988009,-0.00727471569553018,0.0133652118965983,-0.000593040371313691
222,0.0125055154785514,0.00185024342499673,0.0121462754905224,-0.00495890760794282,0.0116498954594135,-0.000475644454127178
223,0.0101398332044482,0.000161407806444913,0.00997004471719265,-0.00357068190351129,0.0101384753361344,0.00227472465485334
224,0.00796104595065117,-0.00234027300029993,0.0104268789291382,-0.00354321114718914,0.00877451151609421,0.00572306429967284
225,0.00660047261044383,-0.00498859724029899,0.0113424630835652,-0.00516901258379221,0.00811370275914669,0.00805540941655636
226,0.00652877241373062,-0.00674138264730573,0.0121391639113426,-0.00731129944324493,0.00876130349934101,0.00892508029937744
227,0.00656740134581923,-0.00726275099441409,0.0124719273298979,-0.0100137665867805,0.00885800551623106,0.00745643116533756
228,0.0057615889236331,-0.00550380535423756,0.0117097422480583,-0.013729584403336,0.00697068637236953,0.00322335050441325
229,0.0051267659291625,-0.00157229253090918,0.0113079277798533,-0.0160306319594383,0.00491300411522388,-0.000449234416009858
230,0.00523152574896812,0.000821637862827629,0.0122862718999386,-0.0149526624009013,0.00426931772381067,-0.000410023465519771
231,0.00550898723304272,-0.000691267603542656,0.0137932626530528,-0.0122777568176389,0.00444535305723548,0.0017329475376755
232,0.00540189212188125,-0.00375684327445924,0.0146249169483781,-0.0106295831501484,0.0037017569411546,0.00307577406056225
233,0.00479501904919744,-0.00493571255356073,0.0145524619147182,-0.00965579226613045,0.00233827484771609,0.00363039365038276
234,0.0048521663993597,-0.00392298959195614,0.0143006201833487,-0.00799751374870539,0.00332571915350854,0.00483982963487506
235,0.00669980933889747,-0.00310151232406497,0.0143077280372381,-0.00654713064432144,0.00680016167461872,0.00723456684499979
236,0.00966966804116964,-0.00269311061128974,0.0149937113747001,-0.00573176145553589,0.00922323018312454,0.0104435840621591
237,0.0125400852411985,-0.00116585602518171,0.0156266167759895,-0.00478562526404858,0.00860894937068224,0.0126170888543129
238,0.0148215778172016,-0.000454499328043312,0.0145145757123828,-0.0031676257494837,0.00656477827578783,0.0117008583620191
239,0.0160368233919144,-0.00357275712303817,0.0120687512680888,-0.000193460509763099,0.0055458121933043,0.00682671461254358
240,0.0153360180556774,-0.0103300726041198,0.00937704741954803,0.0024331237655133,0.00590965431183577,-0.00219010282307863
241,0.0127236507833004,-0.0181520413607359,0.00633549364283681,0.00193019350990653,0.006648825481534,-0.0136000579223037
242,0.00943776406347752,-0.0241789445281029,0.0032742926850915,-0.00196545757353306,0.0078219985589385,-0.0241710506379604
243,0.00636532017961144,-0.0271506663411856,0.000160875060828403,-0.00808467902243137,0.00886859744787216,-0.0312940962612629
244,0.00388449593447149,-0.0271120481193066,-0.00272611947730184,-0.0141145139932632,0.00800703652203083,-0.0342539511620998
245,0.00245104962959886,-0.0248458459973335,-0.00347728980705142,-0.0179505739361048,0.00574407307431102,-0.0341644138097763
246,0.0018504693871364,-0.021904269233346,-0.00241522886790335,-0.0201608240604401,0.003400519490242,-0.0319084785878658
247,0.0013491390272975,-0.0192303378134966,-0.00170139037072659,-0.022180138155818,0.000280343636404723,-0.027026729658246
248,0.00036582094617188,-0.0164333675056696,-0.00135055952705443,-0.0237204879522324,-0.00380298984237015,-0.018513347953558
249,-0.000940276600886136,-0.0131768155843019,-0.000648195622488856,-0.0236407872289419,-0.0065565318800509,-0.0070040849968791
250,-0.00212751585058868,-0.0103718508034945,-0.000422785786213353,-0.0223101805895567,-0.00581872370094061,0.00381040922366083
251,-0.00365779106505215,-0.00932191126048565,-0.00177283899392933,-0.0218517873436213,-0.00186166306957603,0.0095253111794591
252,-0.00525896809995174,-0.0096039529889822,-0.00378700718283653,-0.023196954280138,0.00369022018276155,0.00917887687683105
253,-0.00524947326630354,-0.00910760089755058,-0.00430866377428174,-0.0247147977352142,0.00908156298100948,0.00535522168502212
254,-0.00444407854229212,-0.00732215074822307,-0.00351467193104327,-0.025555144995451,0.0117880720645189,-0.00028958564507775
255,-0.00464438740164042,-0.00488811917603016,-0.00245347549207509,-0.0258149392902851,0.0110885072499514,-0.00661388598382473
256,-0.00449288915842772,-0.00198670453391969,-0.000697690702509135,-0.0247327238321304,0.00972764100879431,-0.0112674292176962
257,-0.0023537699598819,3.45233784173615E-05,0.00130841857753694,-0.022059453651309,0.0103735141456127,-0.0138426590710878
258,0.00109074136707932,-0.00059861020417884,0.00230090250261128,-0.0185023490339518,0.0132442703470588,-0.01561389118433
259,0.00350523879751563,-0.00477009592577815,0.00167551694903523,-0.0156662371009588,0.0148907322436571,-0.0181647911667824
260,0.0038218901026994,-0.0104400478303432,0.000562039436772466,-0.013970791362226,0.0122576244175434,-0.0215474404394627
261,0.00321908388286829,-0.0138536989688873,0.00100644759368151,-0.0121218953281641,0.00727601628750563,-0.0228164196014404
262,0.00304022594355047,-0.01440838444978,0.00421985285356641,-0.00889539811760187,0.00420588068664074,-0.0197817273437977
263,0.00374149670824409,-0.0132884224876761,0.0095434719696641,-0.00455752108246088,0.00505781406536698,-0.0146796340122819
264,0.00445349235087633,-0.0121498918160796,0.0133732613176107,-0.00223110569640994,0.00638835644349456,-0.0124566117301583
265,0.00423037959262729,-0.0129758985713124,0.012907630763948,-0.00244720419868827,0.00374663411639631,-0.013980227522552
266,0.00373572949320078,-0.0147744407877326,0.00981060322374105,-0.00130300701130182,-0.000409531727200374,-0.015758765861392
267,0.00429508928209543,-0.0154786761850119,0.00697140861302614,0.00145446509122849,-0.00103759171906859,-0.0170595273375511
268,0.00546742230653763,-0.0149636203423142,0.00489860400557518,0.00210454151965678,0.00157955591566861,-0.0195350591093302
269,0.00631608255207539,-0.0136436289176345,0.00361835467629135,-0.000617368030361831,0.00567012466490269,-0.0224982276558876
270,0.00708647212013602,-0.0118413586169481,0.00407295115292072,-0.00499816471710801,0.0113675938919187,-0.0232885256409645
271,0.00785211194306612,-0.0103308530524373,0.00598385464400053,-0.00889883749186993,0.0175443943589926,-0.0197588074952364
272,0.00762513373047113,-0.0105763738974929,0.00688658002763987,-0.0114773502573371,0.0209568124264479,-0.0129789402708411
273,0.00677503738552332,-0.0113780852407217,0.00719170505180955,-0.0108470749109983,0.0211386810988188,-0.00573092931881547
274,0.00765951536595821,-0.00939629226922989,0.0110929552465677,-0.00517968041822314,0.0219312384724617,0.000211877661058679
275,0.00962347257882357,-0.00509830377995968,0.0171861127018929,0.00137664622161537,0.0225680489093065,0.00315281469374895
276,0.00992107577621937,-0.00117164116818458,0.0201978664845228,0.00377115444280207,0.0175425186753273,0.00255231116898358
277,0.00914832297712564,0.00140846497379243,0.0202006530016661,0.0030700524803251,0.00779388006776571,-0.000617609301116318
278,0.00874163303524256,0.0022360656876117,0.0202337149530649,0.00251649157144129,-0.000358741526724771,-0.00607283040881157
279,0.00753946974873543,0.000106026192952413,0.0204843897372484,0.0017517936648801,-0.00358342565596104,-0.0146119361743331
280,0.00485287653282285,-0.0053184162825346,0.0185730885714293,-0.000545940885785967,-0.00310436286963522,-0.0254656802862883
281,0.00203650631010532,-0.0116271022707224,0.014200808480382,-0.00171459815464914,-0.00233394000679255,-0.0344035252928734
282,7.54948268877342E-05,-0.0158812664449215,0.00964298844337463,-0.000178906266228296,-0.0026098620146513,-0.0370846651494503
283,-0.00115523359272629,-0.0164753627032042,0.00585735496133566,0.00118477153591812,-0.00212259241379797,-0.032871387898922
284,-0.00142379745375365,-0.0125287678092718,0.00280470750294626,0.00142903998494148,0.000792719831224531,-0.0238525550812483
285,0.000110687178676017,-0.00602395832538605,0.00144015299156308,0.00300334440544248,0.00692203873768449,-0.013143572025001
286,0.0032671419903636,-0.00216083135455847,0.00255309673957527,0.00630148639902473,0.0161867067217827,-0.00599622540175915
287,0.00653606886044145,-0.00431973300874233,0.00533008947968483,0.00857698917388916,0.0253158062696457,-0.00760188372805715
288,0.00902214460074902,-0.00927521102130413,0.00844423286616802,0.00787752587348223,0.0309499613940716,-0.0168592669069767
289,0.0105154076591134,-0.0109302494674921,0.0100634824484587,0.00450016371905804,0.0328282192349434,-0.0260718930512667
290,0.0108563136309385,-0.0084789264947176,0.00873417221009731,0.000470962171675637,0.0312888398766518,-0.0282323602586985
291,0.00971985422074795,-0.00451389607042074,0.00588295981287956,-0.00236263079568744,0.0260675307363272,-0.0235908813774586
292,0.00640063919126987,-0.000699668016750366,0.00391876511275768,-0.00377139984630048,0.0166446436196566,-0.017041502520442
293,0.00190914934501052,0.00110287847928703,0.00483205961063504,-0.00301952776499093,0.00560645619407296,-0.0117765469476581
294,-0.00177925964817405,-0.00024433943326585,0.00957905035465956,0.000234263410675339,-0.00281990668736398,-0.00922985840588808
295,-0.00476664677262306,-0.00463502062484622,0.0143974274396896,0.00263976119458675,-0.00978630501776934,-0.0106939282268286
296,-0.00736556388437748,-0.0107455272227526,0.0139843197539449,0.000257779698586091,-0.0175498314201832,-0.0154272066429257
297,-0.00895369332283735,-0.0153997233137488,0.00860490370541811,-0.00564349256455898,-0.023615051060915,-0.0201160423457623
298,-0.00983474869281054,-0.0168029442429543,0.00171319115906954,-0.0103197125717998,-0.025194626301527,-0.0233263559639454
299,-0.00950882863253355,-0.0157754123210907,-0.00389372860081494,-0.0109311491250992,-0.021480331197381,-0.0269589200615883
300,-0.00663618138059974,-0.0132104400545359,-0.00640310952439904,-0.00805318262428045,-0.0127925537526608,-0.0314775891602039
301,-0.00193152402061969,-0.010227907449007,-0.00628591049462557,-0.0041855201125145,-0.00067355646751821,-0.0343712121248245
302,0.00266980961896479,-0.00885161571204662,-0.00529104145243764,-0.0014542288845405,0.0123811438679695,-0.0341404937207699
303,0.00586535083130002,-0.00975717790424824,-0.00471697188913822,-0.000270907854428515,0.0220594480633736,-0.031830295920372
304,0.00722622917965055,-0.0117645030841231,-0.00491559132933617,0.000110466236947104,0.0250161085277796,-0.0297947973012924
305,0.00708039617165923,-0.0140982400625944,-0.00488125300034881,0.000186826291610487,0.0230398941785097,-0.0307974144816399
306,0.00586688239127398,-0.0169834941625595,-0.00378691288642585,-0.000539535540156066,0.0191174540668726,-0.0359098464250565
307,0.00382098974660039,-0.0202403422445059,-0.00213553034700453,-0.00276290834881365,0.0138721326366067,-0.0432884059846401
308,0.000996473012492061,-0.0220978353172541,-0.00051287974929437,-0.00565471546724439,0.00742706470191479,-0.0495763048529625
309,-0.00186156097333878,-0.0203711967915297,0.00209171557798982,-0.00624173693358898,0.000719066418241709,-0.0518819838762283
310,-0.00229703076183796,-0.0148675544187427,0.00769633334130049,-0.00212751561775804,-0.0043523688800633,-0.0493103638291359
311,0.00057247665245086,-0.00849824771285057,0.0150965265929699,0.00535884452983737,-0.00753721315413713,-0.0441944152116776
312,0.00474795466288924,-0.00382940168492496,0.0192669164389372,0.0122505463659763,-0.0093543715775013,-0.039687767624855
313,0.0089042317122221,0.000188892532605678,0.0170503240078688,0.0143441157415509,-0.00819946359843016,-0.0361336022615433
314,0.0127872927114367,0.00392223428934813,0.0104452017694712,0.0101413438096642,-0.00198883167468011,-0.031514149159193
315,0.016282569617033,0.00522011099383235,0.00434549152851105,0.00309978704899549,0.00930361356586218,-0.0235957093536854
316,0.0193929970264435,0.00454819854348898,0.00179304042831063,-0.00155497167725116,0.0215521454811096,-0.0132678104564548
317,0.0214616134762764,0.00444065360352397,0.00175159168429673,-0.00254837842658162,0.0292446482926607,-0.00556738208979368
318,0.022220304235816,0.00482397247105837,0.00254262029193342,-0.00178185198456049,0.0305236782878637,-0.00340131507255137
319,0.0225638877600431,0.00406723003834486,0.00406345073133707,-0.000686222047079355,0.0271033030003309,-0.00494380854070187
320,0.0224474798887968,0.00146580603905022,0.00559737579897046,-0.000925064843613654,0.0211768914014101,-0.00792517978698015
321,0.0214181914925575,-0.00280137918889523,0.00667795771732926,-0.00260029453784227,0.0156474057585001,-0.0103902816772461
322,0.0196977630257607,-0.00773716066032648,0.00766029115766287,-0.00243495078757405,0.0141772152855992,-0.0109440572559834
323,0.0170170478522778,-0.0112655982375145,0.00788489542901516,0.00204481696709991,0.0158553868532181,-0.0102188214659691
324,0.0139317298308015,-0.0115469200536609,0.00736201647669077,0.00920705869793892,0.0166435856372118,-0.0106189055368304
325,0.0116415182128549,-0.00938486028462648,0.00669186562299728,0.0151753481477499,0.0155944433063269,-0.015144445002079
326,0.0100021231919527,-0.00728575605899096,0.00521918665617704,0.0168032962828875,0.0127530787140131,-0.023301437497139
327,0.00923962332308292,-0.00631397590041161,0.00321343331597745,0.0134257944300771,0.00889532640576363,-0.0298032779246569
328,0.010110910050571,-0.00531411217525601,0.00316359498538077,0.00786127988249063,0.00650860788300633,-0.0296217761933804
329,0.0111388033255935,-0.00348080997355282,0.00616734428331256,0.00355541286990047,0.00475985370576382,-0.0228974632918835
330,0.0111167943105102,-0.00159342575352639,0.0104230241850019,0.0017130768392235,0.00199648994021118,-0.0148264830932021
331,0.0105892177671194,-0.00122957397252321,0.0128597170114517,0.00159744883421808,-0.000707920815329999,-0.0111672012135386
332,0.00904962327331305,-0.00407332601025701,0.0116998171433806,0.0013764287577942,-0.00294281216338277,-0.0145043879747391
333,0.00609856704249978,-0.00901904702186584,0.00849898345768452,0.00118898565415293,-0.00423960480839014,-0.0232578776776791
334,0.00302577414549887,-0.0124861691147089,0.00596713600680232,0.0035037521738559,-0.00332794571295381,-0.0329959206283093
335,0.00199324614368379,-0.012632854282856,0.00620136456564069,0.0084883663803339,0.000889756018295884,-0.0388908572494984
336,0.00412002112716436,-0.01075195427984,0.00870657619088888,0.0126587254926562,0.00784297753125429,-0.038298387080431
337,0.00822455994784832,-0.00934585742652416,0.00990096386522055,0.0129171274602413,0.0133045744150877,-0.0326191186904907
338,0.0125957727432251,-0.00926032289862633,0.00857794005423784,0.010361896827817,0.0145318815484643,-0.0258408263325691
339,0.0168806221336126,-0.00891865510493517,0.00827622041106224,0.00902601052075624,0.0138263124972582,-0.020887853577733
340,0.0205617789179087,-0.00693763000890613,0.0115847904235125,0.00994724221527576,0.0136870797723532,-0.0195228196680546
341,0.0219209510833025,-0.00450155325233936,0.0162840075790882,0.0098652234300971,0.0140644060447812,-0.0223308876156807
342,0.0203754622489214,-0.00276117748580873,0.0189282912760973,0.00700027588754892,0.0133196925744414,-0.0252506621181965
343,0.0163804404437542,-0.00112359528429806,0.0179154686629772,0.00335119687952101,0.00941217504441738,-0.0235992837697268
344,0.010768205858767,-0.000371406727936119,0.0139132123440504,0.00173059396911412,0.00313082127831876,-0.0187667105346918
345,0.00659616896882653,-0.00136129860766232,0.0090032359585166,0.00299058435484767,-0.000791869882959872,-0.0148688070476055
346,0.00602329382672906,-0.00187521276529878,0.00455052871257067,0.00537842838093638,-0.000263588211964816,-0.0138492807745934
347,0.00682823499664664,-0.000823589158244431,0.00197777315042913,0.0070234932936728,0.00249751098453999,-0.0150691727176309
348,0.00672664819285274,-0.000647134205792099,0.00261673098430038,0.00784122664481401,0.00634927535429597,-0.0165408439934254
349,0.00610960647463799,-0.00298947328701615,0.00504352059215307,0.0078740818426013,0.00936535466462374,-0.0167140066623688
350,0.00556455785408616,-0.00701716402545571,0.0062990072183311,0.00636414811015129,0.00864027254283428,-0.0152701130136848
351,0.00498261908069253,-0.01041663531214,0.00520131876692176,0.0031213394831866,0.00525768985971808,-0.0124286096543074
352,0.00404230644926429,-0.0115654617547989,0.00268573453649879,-0.000786361400969327,0.00208946224302053,-0.00924068503081799
353,0.00233592558652163,-0.0115595990791917,0.000367369269952178,-0.00379194808192551,-0.000243654314544983,-0.00777083169668913
354,-0.000626981433015317,-0.0125172901898623,-0.000786073855124414,-0.00463995477184653,-0.00272861355915666,-0.00919049326330423
355,-0.00431413855403662,-0.0145051199942827,-0.000837784260511398,-0.00284734414890409,-0.00545958476141095,-0.0130571285262704
356,-0.00648079439997673,-0.0156297013163567,5.35225308340159E-06,0.000775457010604441,-0.00574145466089249,-0.0183049440383911
357,-0.00556191988289356,-0.0144810257479548,0.00182665139436722,0.00488278269767761,-0.0022429907694459,-0.0225404240190983
358,-0.00261597381904721,-0.0116437682881951,0.00422746362164617,0.0092319818213582,0.00141398620326072,-0.0225881449878216
359,0.000600846658926457,-0.00899537932127714,0.00665316870436072,0.0137969069182873,0.00232901377603412,-0.0188863854855299
360,0.00403827987611294,-0.00712106935679913,0.00950412638485432,0.0168590471148491,0.00167728180531412,-0.0149548733606935
361,0.00748288724571466,-0.0057918825186789,0.0126459421589971,0.0161190684884787,0.00158893363550305,-0.0128220915794373
362,0.00928458664566278,-0.0052776844240725,0.014238690957427,0.0115516018122435,0.00327876978553832,-0.0120034161955118
363,0.00909224804490805,-0.00450668390840292,0.0135965095832944,0.00685485871508718,0.00703585799783468,-0.00971042178571224
364,0.0079035609960556,-0.002239431720227,0.0120669156312943,0.00560845993459225,0.0113959815353155,-0.00365879968740046
365,0.00613946001976728,0.000250884506385773,0.0105940736830235,0.00716314511373639,0.014104581438005,0.00387353240512311
366,0.00460872240364552,0.00220679980702698,0.0102522205561399,0.0100008901208639,0.015064830891788,0.00881166942417622
367,0.0039087813347578,0.00482093170285225,0.0107421791180968,0.0133498338982463,0.0150720532983541,0.00993105582892895
368,0.00269585475325584,0.00791331939399242,0.00938527844846249,0.0154924271628261,0.0147348763421178,0.00842715241014957
369,3.59247424057685E-05,0.00994783360511065,0.00567592028528452,0.0159502513706684,0.0154468109831214,0.00693053612485528
370,-0.00242651370353997,0.0118524357676506,0.0020541325211525,0.0159911066293716,0.017547070980072,0.0076604369096458
371,-0.00321084656752646,0.0144529342651367,0.000783245719503611,0.0151647245511413,0.0193264614790678,0.00868092384189367
372,-0.00368266762234271,0.0132509395480156,0.00175495713483542,0.0118536204099655,0.0175600908696651,0.00631614215672016
373,-0.00512616382911801,0.00547480909153819,0.00301864487119019,0.00747782271355391,0.0117361964657903,0.00138989964034408
374,-0.00611167540773749,-0.00497223809361458,0.00367181072942913,0.00525601860135794,0.00767699349671602,-0.00264986464753747
375,-0.00579194165766239,-0.0138478633016348,0.00355355557985604,0.00548372743651271,0.00908266101032496,-0.00519300950691104
376,-0.00519618578255177,-0.0190869085490704,0.00229930644854903,0.00576390791684389,0.0129428151994944,-0.00755376555025578
377,-0.00527967559173703,-0.0200221259146929,0.000887126312591136,0.00510546658188105,0.0158284101635218,-0.0100481640547514
378,-0.00627187266945839,-0.0178646855056286,0.000804235460236669,0.00430116755887866,0.0166243799030781,-0.0118754534050822
379,-0.00739924935624003,-0.0144050978124142,0.00180250697303563,0.00295747490599751,0.0153483133763075,-0.0118797859176993
380,-0.0080977575853467,-0.0106385359540582,0.00325799966230989,0.00113136298023164,0.0130340475589037,-0.00868555344641209
381,-0.00854554492980242,-0.00750631932169199,0.00508812395855784,0.000453363347332925,0.0117563540115952,-0.00302857370115817
382,-0.0086827389895916,-0.00604619923979044,0.00590675976127386,0.00133593683131039,0.0116444332525134,0.000501687463838607
383,-0.00797209423035383,-0.00589805096387863,0.00557737518101931,0.00316724483855069,0.0116023849695921,-0.0017847508424893
384,-0.0063195307739079,-0.00593007588759065,0.00589386094361544,0.00535263633355498,0.0116144753992558,-0.00848664995282888
385,-0.00479582417756319,-0.00645696651190519,0.0060625271871686,0.00740314228460193,0.0115130115300417,-0.0158118866384029
386,-0.00440090615302324,-0.00843087211251259,0.0042299316264689,0.0088098831474781,0.0117574399337173,-0.0211957171559334
387,-0.00409912690520287,-0.0109574655070901,0.00214494438841939,0.0095666004344821,0.0142145119607449,-0.0231616031378508
388,-0.00197378639131784,-0.0122987376525998,0.00276553723961115,0.00980540923774242,0.0201181042939425,-0.0214651972055435
389,0.00157154921907932,-0.012603803537786,0.00644485093653202,0.00904346350580454,0.0276793297380209,-0.0177401695400476
390,0.0043088449165225,-0.0131675489246845,0.0115857822820544,0.0073562590405345,0.0328174419701099,-0.0134926401078701
391,0.00439207861199975,-0.014083381742239,0.0159599799662828,0.00629000412300229,0.0332494787871838,-0.00853372924029827
392,0.00147134426515549,-0.0143751539289951,0.0182975791394711,0.00833242665976286,0.0306500922888517,-0.00284890900366008
393,-0.00190785224549472,-0.0124452831223607,0.0180012881755829,0.0131290527060628,0.0281470082700253,0.00152113800868392
394,-0.00269130314700305,-0.00724829826503992,0.0148439733311534,0.0162822380661964,0.0280679557472467,0.00277824490331113
395,-0.00157960818614811,-0.000605632842052728,0.00980731565505266,0.0145561769604683,0.0302940346300602,0.001871193991974
396,-0.000636041804682463,0.00537870544940233,0.00479721836745739,0.00999276898801327,0.0316112004220486,0.00187422521412373
397,-0.0004144654085394,0.0105619998648763,0.00243341224268079,0.00612644990906119,0.030216371640563,0.00384313380345702
398,-0.00131876370869577,0.0134561704471707,0.00330969924107194,0.00290864775888622,0.0275748148560524,0.00414751283824444
399,-0.00276046502403915,0.0116706341505051,0.00528469868004322,0.000501356262248009,0.0253389421850443,2.15620711969677E-05
400,-0.00353204435668886,0.00589942885562778,0.00642976677045226,0.00096218369435519,0.0237686298787594,-0.0059340838342905
401,-0.00426918128505349,-0.000766658689826727,0.00528672290965915,0.00329673755913973,0.0214749369770288,-0.00967236328870058
402,-0.00585544016212225,-0.00506383739411831,0.00204020761884749,0.00514295417815447,0.0172042995691299,-0.00937569327652454
403,-0.0071488106623292,-0.00585534470155835,-0.000360212638042867,0.00655744457617402,0.0125025510787964,-0.00646898709237576
404,-0.0066020549274981,-0.00600343011319637,-0.000179266702616587,0.00722759729251266,0.0105696758255363,-0.00587973883375525
405,-0.00531438644975424,-0.00907911546528339,0.000703930971212685,0.00571829546242952,0.0108930617570877,-0.0120314201340079
406,-0.00525867845863104,-0.0150307379662991,0.000409560743719339,0.00308594084344804,0.0105934664607048,-0.0237164795398712
407,-0.00530334934592247,-0.0206978507339954,0.000420605589170009,0.00235790945589542,0.0111239952966571,-0.0350215844810009
408,-0.00447197817265987,-0.0236816331744194,0.00238104909658432,0.00388487940654159,0.0129259554669261,-0.0412994585931301
409,-0.00415922654792666,-0.0237636677920818,0.00478275027126074,0.00529710482805967,0.0125448629260063,-0.040900532156229
410,-0.00514340633526444,-0.0224654786288738,0.00495677767321467,0.00423936871811748,0.00960129406303167,-0.0350553058087826
411,-0.00687519460916519,-0.0206035133451223,0.00223477580584586,0.000153297281940468,0.00666225096210837,-0.0275225583463907
412,-0.00756833935156465,-0.016668327152729,-0.00109151087235659,-0.00408076355233788,0.00583190936595201,-0.0207695979624987
413,-0.00663965102285147,-0.0107141667976975,-0.00284791248850524,-0.00499510439112782,0.00588913913816214,-0.015481723472476
414,-0.00547059439122677,-0.00406194571405649,-0.00253308890387416,-0.00176548876333982,0.00475955614820123,-0.0115142585709691
415,-0.00438182987272739,0.0027074224781245,-5.82290485908743E-05,0.00340948067605495,0.00510495435446501,-0.0083293654024601
416,-0.00280426256358624,0.00823838636279106,0.0034508821554482,0.00635021552443504,0.00949677731841803,-0.00619892682880163
417,-0.00109513057395816,0.0118991900235415,0.0056614768691361,0.0052723465487361,0.0152325965464115,-0.00478595495223999
418,-0.000486504519358277,0.0138289965689182,0.00611902074888349,0.00288710254244506,0.0188932362943888,-0.00246995128691196
419,-0.00158483942504972,0.0144693050533533,0.00690835807472467,0.00295267906039953,0.020198242738843,0.00154642632696778
420,-0.00416438281536102,0.0152030810713768,0.00850053783506155,0.00552634662017226,0.0197812970727682,0.00506285112351179
421,-0.00709984125569463,0.0152959451079369,0.00935240648686886,0.00814885832369328,0.0173984710127115,0.00537644233554602
422,-0.00850603450089693,0.013114663772285,0.00923511665314436,0.010410176590085,0.0137820243835449,0.00390180293470621
423,-0.00837545376271009,0.00881119258701801,0.00791715644299984,0.011222074739635,0.0103506185114384,0.00227944343350828
424,-0.00781561899930239,0.00288191111758351,0.00486766500398517,0.00906266644597054,0.00734351808205247,-0.000364406703738496
425,-0.00649732071906328,-0.00452136620879173,0.00132743001449853,0.00505061680451036,0.00553198391571641,-0.00528777157887816
426,-0.00517038628458977,-0.0126815298572183,-0.00143424305133522,0.00019126727420371,0.00427524419501424,-0.0136297270655632
427,-0.00596862472593784,-0.0181991811841726,-0.00308014545589685,-0.00337515957653522,0.000413613888667896,-0.0223725661635399
428,-0.00852485094219446,-0.0182757209986448,-0.00310330605134368,-0.00233567366376519,-0.00562706170603633,-0.0257436148822308
429,-0.00997608248144388,-0.0148543389514089,-0.000946351967286319,0.00290412455797195,-0.00957688316702843,-0.0225837323814631
430,-0.00791380181908607,-0.0109136654064059,0.0027514030225575,0.00863194558769464,-0.00743859587237239,-0.0167452283203602
431,-0.00285639427602291,-0.0070703187957406,0.0053984122350812,0.0122304586693645,0.000642863800749183,-0.0118706040084362
432,0.00248947809450328,-0.00341939344070852,0.00521394005045295,0.0135988164693117,0.00956204254180193,-0.00794961862266064
433,0.00589949823915958,-0.00106876471545547,0.00306156021542847,0.0131622357293963,0.0149815948680043,-0.00365953030996025
434,0.00616612657904625,-0.000950886169448495,0.000362275692168623,0.0106497779488564,0.0162502974271774,-0.000299248320516199
435,0.00343068595975637,-0.00253889081068337,-0.0018263733945787,0.00701274443417788,0.0150681305676699,2.83207755273907E-05
436,-0.000503470830153674,-0.00439603161066771,-0.00260318070650101,0.00491253100335598,0.0142887094989419,-0.00232872948981822
437,-0.00417180033400655,-0.00532395904883742,-0.00194414355792105,0.00544817093759775,0.0151940630748868,-0.00579314026981592
438,-0.00754259014502168,-0.00380998593755066,1.29548407130642E-05,0.00820352323353291,0.0168454926460981,-0.00784335285425186
439,-0.0102461157366633,0.000431858090450987,0.00358486082404852,0.0122443791478872,0.0187425781041384,-0.0071129291318357
440,-0.0119129940867424,0.00473573291674256,0.00780628900974989,0.0154935736209154,0.0187681335955858,-0.00562190031632781
441,-0.0128168081864715,0.00618057791143656,0.0105109652504325,0.0164852384477854,0.0150319272652268,-0.00493201008066535
442,-0.0122627131640911,0.00452920841053128,0.0102075422182679,0.0153463054448366,0.0114722531288862,-0.00512809352949262
443,-0.0102944085374475,0.00219834386371076,0.00754460413008928,0.0133769558742642,0.0112453941255808,-0.00574969314038754
444,-0.00912425201386213,0.00082130404189229,0.00497235730290413,0.0118657480925322,0.0121171334758401,-0.00552935944870114
445,-0.00928935874253511,0.000234466162510216,0.00459162006154656,0.0114357117563486,0.0127324042841792,-0.00552692217752337
446,-0.00958027504384518,0.00211376161314547,0.0055674547329545,0.0117409601807594,0.0117924148216844,-0.00831150729209185
447,-0.0103538427501917,0.00698571093380451,0.00560263264924288,0.0114876888692379,0.00643072510138154,-0.0125461714342237
448,-0.0116770109161735,0.0108980508521199,0.00495050707831979,0.0112943490967155,-0.00152270123362541,-0.0139646995812655
449,-0.0123562440276146,0.0106981229037046,0.004699497949332,0.0112325046211481,-0.00662441411986947,-0.0121184689924121
450,-0.0121841998770833,0.00790495704859495,0.00434254575520754,0.00874495971947908,-0.00757749704644084,-0.00971510540693998
451,-0.0121983010321856,0.00690567027777433,0.00383129809051752,0.00513946078717709,-0.00744193606078625,-0.00567890051752329
452,-0.0134270368143916,0.00844166614115238,0.00444628112018108,0.00455798674374819,-0.00763136427849531,0.00218856893479824
453,-0.0143603542819619,0.00899261888116598,0.00487654469907284,0.00640511931851506,-0.00641824910417199,0.0118121113628149
454,-0.0128973955288529,0.00828447006642818,0.00242197443731129,0.00763679668307304,-0.00270979548804462,0.0207451041787863
455,-0.0105750877410173,0.00857864506542683,-0.00147813162766397,0.00778770446777344,0.00219363789074123,0.0282131992280483
456,-0.00941631197929382,0.00886762049049139,-0.00421033054590225,0.00669008027762175,0.00632775528356433,0.0313073582947254
457,-0.00922709424048662,0.00796213652938604,-0.00595671124756336,0.00439813267439604,0.00834990106523037,0.0280140731483698
458,-0.00944493897259235,0.00766392331570387,-0.00706331571564078,0.00342168030329049,0.00811327807605267,0.0215671304613352
459,-0.0100768180564046,0.00912264361977577,-0.00620113732293248,0.00568875856697559,0.0067835939116776,0.0162451192736626
460,-0.0103384852409363,0.0107129896059632,-0.00262854271568358,0.00907709077000618,0.00710034975782037,0.0121266953647137
461,-0.00996246561408043,0.00988757517188787,0.00134317681659013,0.0102696679532528,0.00931011419743299,0.00665228301659226
462,-0.0112103009596467,0.00598236732184887,0.00296361325308681,0.0100424215197563,0.00905899610370398,-0.000963242666330189
463,-0.0140138445422053,0.000848644645884633,0.0027526889462024,0.011199570260942,0.00503193214535713,-0.0104449903592467
464,-0.014848293736577,-0.00359636172652245,0.00145692995283753,0.0134383756667376,-0.000435543217463419,-0.0209988243877888
465,-0.0130139272660017,-0.00690888473764062,-0.00134406099095941,0.0149053521454334,-0.00755237694829702,-0.0291038155555725
466,-0.00985537469387054,-0.00845242384821177,-0.00313719641417265,0.0159810706973076,-0.0148771712556481,-0.0305655617266893
467,-0.0053949267603457,-0.00738242734223604,-0.00164442765526474,0.0169881097972393,-0.0174727737903595,-0.0249763783067465
468,-0.00192969478666782,-0.00498079182580113,-0.000432676752097905,0.0148553466424346,-0.0175601206719875,-0.016446303576231
469,-0.00254592741839588,-0.00265517109073699,-0.00226013688370585,0.00947193615138531,-0.0210733376443386,-0.00872551649808884
470,-0.00550915440544486,0.00136691075749695,-0.00388655555434525,0.00483724055811763,-0.0250294413417578,-0.0031694748904556
471,-0.00746500212699175,0.00712714018300176,-0.00355433416552842,0.00127730658277869,-0.0238151680678129,-0.000761360803153366
472,-0.00794426910579205,0.0107228560373187,-0.00310589838773012,-0.00122092815581709,-0.0182278193533421,0.000660611724015325
473,-0.00764252990484238,0.0102793546393514,-0.00329941906966269,-0.00161572883371264,-0.0111130550503731,0.00370996911078691
474,-0.00737851392477751,0.00691871391609311,-0.00444744853302836,-0.00147389096673578,-0.0043877586722374,0.00634590676054358
475,-0.00799001846462488,0.00206931517459452,-0.00609955750405788,-0.000693697191309184,-0.00023519407841377,0.00634395051747561
476,-0.00896343030035496,-0.00315141724422574,-0.00623776763677597,0.00305483117699623,0.00107894965913147,0.00458118226379156
477,-0.00953508820384741,-0.00731584103778005,-0.00441463012248278,0.00883401930332184,-0.000213318839087151,0.00306040653958917
478,-0.00993102230131626,-0.00997245498001575,-0.00157555274199694,0.0118205975741148,-0.00445141084492207,0.0012574550928548
479,-0.010209932923317,-0.0117165129631758,0.00193037535063922,0.00993334129452705,-0.00985303800553083,-0.00248961616307497
480,-0.00996136199682951,-0.0116425817832351,0.0043462342582643,0.00657753180712461,-0.014907562173903,-0.00685963500291109
481,-0.00866060145199299,-0.00851123128086329,0.00401527574285865,0.00524944765493274,-0.0179510992020369,-0.0104068238288164
482,-0.0059219659306109,-0.0024285048712045,0.00301225297152996,0.00668045599013567,-0.0157010462135077,-0.0126079916954041
483,-0.00291053229011595,0.00468697724863887,0.00288350926712155,0.00934865511953831,-0.00925645977258682,-0.0116710076108575
484,-0.00143518426921219,0.00943776499480009,0.00243396079167724,0.0105015179142356,-0.00450803712010384,-0.00752939004451036
485,-0.00176123122218996,0.00953737739473581,0.00144552148412913,0.00849438179284334,-0.00509472331032157,-0.00399266369640827
486,-0.003583894809708,0.00584924407303333,0.000922039791475981,0.00597645388916135,-0.0105042466893792,-0.00283896666951478
487,-0.00637190835550427,0.000486365985125303,0.000962166290264577,0.00709207868203521,-0.0168996285647154,-0.00278417835943401
488,-0.0084467688575387,-0.0068552428856492,0.000607320922426879,0.0101057700812817,-0.0180516093969345,-0.00599841773509979
489,-0.00928561855107546,-0.0148800006136298,-0.000972817011643201,0.0122412499040365,-0.013460136950016,-0.0124048124998808
490,-0.010357323102653,-0.0174122899770737,-0.0037988277617842,0.0151830455288291,-0.0104990629479289,-0.014904048293829
491,-0.0122855808585882,-0.0118192778900266,-0.00730216735973954,0.0176758617162704,-0.0136118372902274,-0.00997723545879126
492,-0.0136155700311065,-0.00292437220923603,-0.00975328218191862,0.0164528638124466,-0.0186946075409651,-0.00166865473147482
493,-0.0128460433334112,0.00386704970151186,-0.00874260626733303,0.0134096322581172,-0.0201975852251053,0.0056823892518878
494,-0.0109511408954859,0.00658641150221229,-0.00564947724342346,0.010759892873466,-0.0197926592081785,0.0104766963049769
495,-0.00963247939944267,0.00538113480433822,-0.00428067333996296,0.00776002928614616,-0.0204681660979986,0.0130089139565825
496,-0.00982372369617224,0.00337496260181069,-0.0050270021893084,0.00496536307036877,-0.0213007889688015,0.0158151462674141
497,-0.0111300982534885,0.0039946474134922,-0.0053375530987978,0.00399669073522091,-0.0218214262276888,0.0205624848604202
498,-0.0120786232873797,0.00519045442342758,-0.00383314467035234,0.0043754861690104,-0.0228374060243368,0.0247685797512531
499,-0.0129314446821809,0.00443635042756796,-0.00242100027389824,0.00344713195227087,-0.0257601607590914,0.0243243128061295
500,-0.0139347612857819,0.00380410510115325,-0.00278406543657184,0.00050528539577499,-0.02946712449193,0.0185944307595491
501,-0.0133875524625182,0.004773267544806,-0.00386649277061224,-0.00126271182671189,-0.0301053803414106,0.0116472132503986
502,-0.00962899439036846,0.00508899940177798,-0.00442496640607715,-0.000189599450095557,-0.0249636042863131,0.00635054521262646
503,-0.00378022459335625,0.00349025754258037,-0.00470642745494843,0.00217366893775761,-0.015299404039979,0.00279056560248137
504,0.000416046823374927,0.00319012394174933,-0.00569012993946671,0.00456493394449353,-0.00663807196542621,0.00131732365116477
505,0.00125406286679208,0.00601010676473379,-0.00732167670503259,0.0056755063124001,-0.00326266069896519,0.000741657509934157
506,0.00101681763771921,0.00778408534824848,-0.00784304272383451,0.00472894497215748,-0.00378057523630559,-0.000722672964911908
507,0.00217428198084235,0.00477904034778476,-0.00579381128773093,0.00323055940680206,-0.00425267685204744,-0.00263272598385811
508,0.0041512306779623,-0.00146047992166132,-0.00238522584550083,0.00295915035530925,-0.00328277354128659,-0.0047869342379272
509,0.0052412822842598,-0.00712066097185016,-0.000481653754832223,0.00427709287032485,-0.00286831497214735,-0.00749199464917183
510,0.00505378842353821,-0.0103860981762409,-0.001354735577479,0.00651632202789187,-0.00529560958966613,-0.00996183231472969
511,0.00470769684761763,-0.0118421334773302,-0.00416749715805054,0.00814755354076624,-0.00878026988357306,-0.0119418175891042
512,0.00532262399792671,-0.0114619983360171,-0.00753019424155355,0.0085380282253027,-0.00998050440102816,-0.0130204567685723
513,0.00620251335203648,-0.00898656342178583,-0.0101229613646865,0.00861873105168343,-0.00979609321802855,-0.0129744838923216
514,0.00626070005819201,-0.00532411644235253,-0.0117470668628812,0.00822305679321289,-0.0106676258146763,-0.0118762440979481
515,0.00645576184615493,-0.00159420981071889,-0.0119306603446603,0.00611919071525335,-0.0111386785283685,-0.0096913268789649
516,0.00844993814826012,0.00174867815803736,-0.00898937880992889,0.00286487326957285,-0.00811972934752703,-0.00768127758055925
517,0.0114823635667562,0.00461125839501619,-0.00433559017255902,-0.000490713573526591,-0.00338519574142993,-0.00678662583231926
518,0.0140569070354104,0.00619318010285497,-0.000785043812356889,-0.00364069477654994,-0.000753382861148566,-0.00685558328405023
519,0.0161663442850113,0.00562713900581002,0.00227227341383696,-0.00387066439725459,0.000356061093043536,-0.00591638125479221
520,0.0181675665080547,0.00415402976796031,0.00563859520480037,0.00208487152121961,0.00172535772435367,-0.00195365096442401
521,0.0195869207382202,0.00472556008026004,0.00694653578102589,0.0111751649528742,0.00316411606036127,0.00314838369376957
522,0.0187567435204983,0.00775967910885811,0.00385871902108192,0.0151137337088585,0.00379349756985903,0.00610801950097084
523,0.0155091229826212,0.0117845693603158,-0.00169365468900651,0.0110903019085526,0.00280264392495155,0.00741135748103261
524,0.0124236028641462,0.0161690823733807,-0.00586054660379887,0.0045803221873939,-3.02400967484573E-05,0.00979404896497726
525,0.0118742790073156,0.0183099694550037,-0.00760884117335081,0.000102948775747791,-0.00309794116765261,0.0114996312186122
526,0.0129378596320748,0.0149235483258963,-0.00766200525686145,-0.00273778988048434,-0.00382853578776121,0.00798034202307463
527,0.0126110846176744,0.0074454196728766,-0.00613412633538246,-0.00417953170835972,-0.00219229073263705,0.00111807021312416
528,0.0102984802797437,0.000754726177547127,-0.00371483224444091,-0.00351220346055925,-0.00068110425490886,-0.00300697796046734
529,0.00762794353067875,-0.00320602208375931,-0.00093700602883473,-0.00262150703929365,3.07498994516209E-05,-0.00254018069244921
530,0.0058181113563478,-0.00512571167200804,0.00254436582326889,-0.00265992479398847,0.00298264413140714,0.00105081219226122
531,0.00470527168363333,-0.00534622929990292,0.00508641637861729,-0.00201744539663196,0.00890847854316235,0.0041955285705626
532,0.00323642091825604,-0.00472057610750198,0.00402445066720247,-0.000667241110932082,0.0131985116750002,0.00276878941804171
533,0.00156421982683241,-0.00359259801916778,-0.000121413628221489,0.000313119147904217,0.0143890986219049,-0.00241785706020892
534,0.000467874575406313,-0.00107716396450996,-0.00409409543499351,0.00171921972651035,0.0158476307988167,-0.00573250278830528
535,-0.000829205964691937,0.00406298600137234,-0.00598479807376862,0.00448859203606844,0.01714051887393,-0.00303558865562081
536,-0.0024578848388046,0.00983509141951799,-0.00564557267352939,0.00743316346779466,0.0162300337105989,0.00209829723462462
537,-0.00176413415465504,0.0103630358353257,-0.00341777550056577,0.00805104058235884,0.0153263621032238,0.00178399297874421
538,0.00241677439771593,0.00389707880094647,-0.000116489158244804,0.00529933674260974,0.0164997242391109,-0.0051393429748714
539,0.00751105882227421,-0.00479087326675653,0.00334053207188845,0.00160625693388283,0.018841253593564,-0.0116633903235197
540,0.0112429196015,-0.0109113743528724,0.00578203704208136,0.00053868442773819,0.0212614852935076,-0.0120178200304508
541,0.013028347864747,-0.0126079134643078,0.00613526254892349,0.00259506911970675,0.023137666285038,-0.00773828150704503
542,0.01271578297019,-0.0106389606371522,0.00433825654909015,0.00540982512757182,0.0229039881378412,-0.00400196854025126
543,0.0109334262087941,-0.00825185608118773,0.00233501824550331,0.00782963912934065,0.0197627302259207,-0.00344207207672298
544,0.00917429476976395,-0.00734836794435978,0.00201458018273115,0.0099982563406229,0.0160168670117855,-0.00475697545334697
545,0.00844917632639408,-0.00710745388641953,0.00192618719302118,0.0101381056010723,0.0137123009189963,-0.00591600220650434
546,0.00772081175819039,-0.00721386773511767,-0.000104176710010506,0.00611872272565961,0.0119192684069276,-0.00802464131265879
547,0.0053446595557034,-0.00537472823634744,-0.00300744455307722,0.000537933025043458,0.00919937342405319,-0.00974259432405233
548,0.00224587344564497,0.000730256550014019,-0.00431526405736804,-0.00231354148127139,0.00572836166247725,-0.00810698885470629
549,0.000724281126167625,0.00726404087617993,-0.00336489360779524,-0.00289753032848239,0.00389829557389021,-0.0064101773314178
550,0.00138124322984368,0.0108574405312538,-0.00180074374657124,-0.00388666661456227,0.00542396306991577,-0.00667704641819
551,0.00306450785137713,0.0132976742461324,-0.00197785999625921,-0.0058466293849051,0.00857867673039436,-0.00653684558346868
552,0.00462500052526593,0.0161522217094898,-0.00387041550129652,-0.00626903539523482,0.0107417507097125,-0.00404105149209499
553,0.00621580146253109,0.0179515797644854,-0.005082115996629,-0.00261180941015482,0.0120809338986874,0.000611696334090084
554,0.00858539622277021,0.0160899385809898,-0.00385118601843715,0.00457544205710292,0.0149223208427429,0.00374968815594912
555,0.0118666365742683,0.0103722615167499,-0.000144234873005189,0.0126348352059722,0.0196279641240835,0.00260742125101388
556,0.0150085324421525,0.00377656309865415,0.00462345266714692,0.0179100073873997,0.0236990582197905,-0.00160226540174335
557,0.0167043823748827,-0.000943773426115513,0.00803024228662252,0.0179469268769026,0.0246310103684664,-0.00721970992162824
558,0.0164353977888823,-0.00336725800298154,0.00780128175392747,0.0138032380491495,0.0212835036218166,-0.012684010900557
559,0.0146117405965924,-0.0043533337302506,0.00366020482033491,0.00841855071485043,0.0148675264790654,-0.0153963603079319
560,0.0128703694790602,-0.00469997990876436,-0.00162068870849907,0.00417595217004418,0.00916128046810627,-0.0143311349675059
561,0.0120692765340209,-0.00532993255183101,-0.00508355395868421,0.00174494064413011,0.00640070717781782,-0.0121577484533191
562,0.0115766301751137,-0.00726528465747833,-0.00534281972795725,0.000489131023641676,0.00685306685045362,-0.012313480488956
563,0.0109078288078308,-0.00751333357766271,-0.00256187561899424,0.00100495887454599,0.00857078935950994,-0.0130729777738452
564,0.00884857401251793,-0.00287925009615719,-0.000233885599300265,0.00395665457472205,0.00636303098872304,-0.010662280023098
565,0.0047136745415628,0.00244133407250047,-0.00113764859270304,0.00732244597747922,-0.000240732915699482,-0.00656119454652071
566,0.000863730791024864,0.00405256543308496,-0.00332847493700683,0.00871765986084938,-0.0056045763194561,-0.00410992046818137
567,-0.000619732600171119,0.00300673581659794,-0.00473797228187323,0.00784820970147848,-0.0075341509655118,-0.00393147021532059
568,-0.000549041549675167,0.00251056207343936,-0.00536258798092604,0.00640194723382592,-0.00853238813579082,-0.00390865607187152
569,-0.0004794844717253,0.00405521411448717,-0.00547879748046398,0.00512068811804056,-0.0086797596886754,-0.001770980656147
570,-0.000987074919976294,0.0064043658785522,-0.00602737860754132,0.00266312225721776,-0.0063965548761189,0.00226344540715218
571,-0.00152114348020405,0.00896631274372339,-0.00788369402289391,-0.000849933363497257,-0.00293319020420313,0.00643804483115673
572,-0.00236877519637346,0.0117672141641378,-0.0111568132415414,-0.00338290096260607,-0.00164551916532218,0.0084109827876091
573,-0.00456752767786384,0.0135959126055241,-0.0145493196323514,-0.00295901182107627,-0.00414956640452147,0.00756075978279114
574,-0.0070573310367763,0.0119567736983299,-0.0140381874516606,9.94715592241846E-05,-0.00628273095935583,0.00500573962926865
575,-0.00792046263813972,0.00552246300503612,-0.00720447767525911,0.00376513390801847,-0.00350652309134603,0.00106874259654433
576,-0.00541009567677975,-0.00329612172208726,0.00267008179798722,0.00784206949174404,0.00248426059260964,-0.00490728253498673
577,0.0011975095840171,-0.0107780368998647,0.0107750529423356,0.0135439122095704,0.00735526904463768,-0.0129781514406204
578,0.00897867511957884,-0.0150487264618278,0.0146161429584026,0.0200130380690098,0.00906152557581663,-0.0211089830845594
579,0.0145811531692743,-0.0161261036992073,0.0140797439962626,0.0236489120870829,0.0079566789790988,-0.0269603300839663
580,0.0170358698815107,-0.014899174682796,0.0110805798321962,0.0223639123141766,0.00474360305815935,-0.028888501226902
581,0.0164735540747643,-0.012790315784514,0.00728991674259305,0.0175244882702827,9.64290302363224E-05,-0.0255702212452888
582,0.0143332537263632,-0.0111959408968687,0.00346300285309553,0.0108228093013167,-0.0039501846767962,-0.0189523622393608
583,0.0118350004777312,-0.0101058408617973,0.000696204137057066,0.00351252406835556,-0.00657345727086067,-0.0134052066132426
584,0.00872169528156519,-0.00877037085592747,1.11759945866652E-05,-0.00200723437592387,-0.00954057741910219,-0.0107893440872431
585,0.00545384595170617,-0.00600617798045278,0.0010117469355464,-0.00368438335135579,-0.0123255848884583,-0.0105673568323255
586,0.00233759731054306,-0.00227395445108414,0.000726668979041278,-0.00327213108539581,-0.0142924068495631,-0.0128650171682239
587,-0.00144142343197018,-0.00168939877767116,-0.0028514142613858,-0.00405203364789486,-0.0173220951110125,-0.0175529662519693
588,-0.00521822599694133,-0.00602453947067261,-0.00754775339737535,-0.00689648697152734,-0.0215505305677652,-0.023024708032608
589,-0.00752826267853379,-0.0120904836803675,-0.0107081057503819,-0.01105488371104,-0.0252017881721258,-0.0283568985760212
590,-0.00823197327554226,-0.0148925324901938,-0.0117741245776415,-0.0137952184304595,-0.0264498014003038,-0.0312556587159634
591,-0.00813204515725374,-0.0111633911728859,-0.0114612318575382,-0.0118057634681463,-0.0251039694994688,-0.0275158453732729
592,-0.00758650619536638,-0.00445672264322639,-0.0107199586927891,-0.00555527349933982,-0.0221415404230356,-0.0176360607147217
593,-0.00609333766624331,-0.000851251999847591,-0.00944529566913843,0.00222728960216045,-0.0178894829005003,-0.00699236476793885
594,-0.00315029826015234,-0.000365482381312177,-0.00687286304309964,0.00973938126116991,-0.0127311497926712,-0.000825055118184537
595,0.00108926475513726,-0.001497981720604,-0.00357078481465578,0.0143329845741391,-0.00749094132333994,-0.00217178626917303
596,0.00504720816388726,-0.00488407304510474,-0.00157896953169256,0.0138709647580981,-0.00369366141967475,-0.00849807634949684
597,0.00721203908324242,-0.00860276166349649,-0.00239590182900429,0.00923614576458931,-0.00170891650486737,-0.0133121069520712
598,0.00790273770689964,-0.0100940968841314,-0.00507683539763093,0.00325516075827181,-0.000156043344759382,-0.0139356069266796
599,0.00762398866936564,-0.00887881126254797,-0.00721971830353141,-0.000926608394365758,0.00104003108572215,-0.0119390655308962
600,0.00582053512334824,-0.00599682051688433,-0.00834767986088991,-0.00295742624439299,0.00105808873195201,-0.00940347369760275
601,0.0023683428298682,-0.00433592172339559,-0.00923454854637384,-0.00417753029614687,0.000559124338906258,-0.00789526756852865
602,-0.000627839763183147,-0.00390076544135809,-0.00944158900529146,-0.00445334520190954,0.000208271318115294,-0.00742586934939027
603,-0.00134732213336974,-0.00209476496092975,-0.01113813649863,-0.00492288358509541,-0.0017367807449773,-0.0072672450914979
604,-0.000975939445197582,-0.00219475454650819,-0.0211459901183844,-0.0088090505450964,-0.00805543176829815,-0.00838309433311224
605,-0.00117701792623848,-0.009153519757092,-0.0408878102898598,-0.0157302543520927,-0.0191279482096434,-0.0122205726802349
606,-0.00163958757184446,-0.0197593495249748,-0.0582081563770771,-0.0197511874139309,-0.0310821775346994,-0.017303304746747
607,-0.00165237707551569,-0.0273437071591616,-0.0576508529484272,-0.0167287830263376,-0.038131270557642,-0.0210079569369555
608,-0.00193672778550535,-0.0292783565819263,-0.037713747471571,-0.00942458957433701,-0.0372136048972607,-0.0236909128725529
609,-0.00286916340701282,-0.0265045743435621,-0.0112523306161165,-0.00236038607545197,-0.0304661225527525,-0.0274853464215994
610,-0.00127390783745795,-0.0215312764048576,0.0103231146931648,0.00266073667444289,-0.0214603506028652,-0.032287061214447
611,0.0057489313185215,-0.0155026344582438,0.0236518550664186,0.00513864355161786,-0.0113093992695212,-0.0346220023930073
612,0.0137124275788665,-0.00724616460502148,0.0287927277386189,0.00559796812012792,-0.00151550117880106,-0.0303785800933838
613,0.0157009307295084,0.00423099705949426,0.0280951391905546,0.00517434207722545,0.00474357977509499,-0.0185650270432234
614,0.0106692221015692,0.0176132582128048,0.0252391938120127,0.00391531176865101,0.00460888305678964,-0.00302570941857994
615,0.00293799163773656,0.0273174662142992,0.0228327624499798,0.0019503670046106,-0.00145262817386538,0.00993145909160376
616,-0.00284429732710123,0.0273252800107002,0.0203804448246956,-0.000483807583805174,-0.00803803559392691,0.0156277436763048
617,-0.00621598213911057,0.0179771948605776,0.0141850914806128,-0.00237876689061522,-0.011962940916419,0.0130555396899581
618,-0.00891946349292994,0.00391953438520432,0.00138591194991022,-0.00201865611597896,-0.016070419922471,0.00355872651562095
619,-0.0106345908716321,-0.0112902522087097,-0.0187171455472708,-0.00258294399827719,-0.022190909832716,-0.0111108627170324
620,-0.0103382561355829,-0.024431923404336,-0.0434466041624546,-0.00812070816755295,-0.0285872239619493,-0.0265603959560394
621,-0.00857089925557375,-0.0322090797126293,-0.0621661134064198,-0.0158271249383688,-0.0329400710761547,-0.0364232659339905
622,-0.00625671399757266,-0.0342301689088345,-0.0616761744022369,-0.0214707423001528,-0.0338401310145855,-0.0387741588056087
623,-0.00467580230906606,-0.030671963468194,-0.0397823601961136,-0.0243449490517378,-0.0316743440926075,-0.0362801216542721
624,-0.00427416479215026,-0.0196332465857267,-0.00952528044581413,-0.0248514525592327,-0.0274529401212931,-0.0306210089474916
625,-0.00260743754915893,-0.00269643240608275,0.0125004183501005,-0.0226832590997219,-0.0225189868360758,-0.0226664897054434
626,0.00182435859460384,0.0127445003017783,0.0204931851476431,-0.018629802390933,-0.0195996165275574,-0.0157491508871317
627,0.00702652940526605,0.0209215842187405,0.0188321489840746,-0.0151696698740125,-0.0206123162060976,-0.0128909889608622
628,0.0101357009261847,0.0217041056603193,0.0120020182803273,-0.0150350360199809,-0.0265273582190275,-0.0146209262311459
629,0.00980822090059519,0.0174200776964426,0.00192352524027228,-0.0191117152571678,-0.036982350051403,-0.0207135435193777
630,0.00756049202755094,0.0128710651770234,-0.00843331310898066,-0.0228889957070351,-0.0485232807695866,-0.0287813730537891
631,0.00586317619308829,0.00985388737171888,-0.0188769288361073,-0.0243416298180819,-0.0615466013550758,-0.0371299646794796
632,0.00595529656857252,0.0025734172668308,-0.0340304300189018,-0.0300921052694321,-0.0806023478507996,-0.0482765138149261
633,0.00510217016562819,-0.0115689616650343,-0.055720429867506,-0.04331374168396,-0.105184838175774,-0.0632805898785591
634,-0.00366831920109689,-0.029771288856864,-0.0816032886505127,-0.0606119371950626,-0.132040783762932,-0.0808233544230461
635,-0.0188264213502407,-0.0467113517224789,-0.106645099818707,-0.0771708711981773,-0.156121045351028,-0.0992725118994713
636,-0.0281118825078011,-0.0531555414199829,-0.121825359761715,-0.0862303301692009,-0.169003680348396,-0.113387644290924
637,-0.0265173558145761,-0.045057088136673,-0.119804456830025,-0.085844025015831,-0.168698415160179,-0.118406482040882
638,-0.0205575488507748,-0.0302664581686258,-0.101358890533447,-0.0822934880852699,-0.162227764725685,-0.11724941432476
639,-0.0160495173186064,-0.0194422155618668,-0.0757470205426216,-0.0806328728795052,-0.15577045083046,-0.114934518933296
640,-0.0135099589824677,-0.0118254134431481,-0.0562258139252663,-0.0786152929067612,-0.150509864091873,-0.109400168061256
641,-0.0120087722316384,0.00181260844692588,-0.0509649217128754,-0.0741792917251587,-0.146438255906105,-0.0975740402936935
642,-0.0100205829367042,0.0223486199975014,-0.0562721602618694,-0.0713059604167938,-0.142827257514,-0.0846772491931915
643,-0.00611325772479177,0.0391948334872723,-0.059573657810688,-0.072687603533268,-0.137321844696999,-0.0785860419273376
644,-0.0015321959508583,0.0440307557582855,-0.0538778901100159,-0.0769228339195251,-0.131603732705116,-0.0810515657067299
645,0.00241509219631553,0.038035124540329,-0.0464848428964615,-0.0837337225675583,-0.131818786263466,-0.0889714956283569
646,0.0059274910017848,0.0260652285069227,-0.0482250303030014,-0.0928064584732056,-0.141055330634117,-0.0994189158082008
647,0.00740194832906127,0.013315194286406,-0.0627753362059593,-0.102288112044334,-0.157280325889587,-0.111246258020401
648,0.00525663048028946,0.00226595625281334,-0.0896866247057915,-0.112435504794121,-0.176239937543869,-0.123864069581032
649,0.00205047498457134,-0.00897546578198671,-0.123456805944443,-0.121563300490379,-0.193015471100807,-0.133897587656975
650,0.000786567514296621,-0.0194061752408743,-0.14772692322731,-0.125027924776077,-0.202618137001991,-0.138914480805397
651,0.00163963495288044,-0.0251043830066919,-0.14609406888485,-0.125858828425407,-0.20465937256813,-0.143460974097252
652,0.00183860817924142,-0.0272027626633644,-0.11860053986311,-0.13068787753582,-0.205117613077164,-0.151478007435799
653,-0.00219665700569749,-0.026542330160737,-0.0814098119735718,-0.13569413125515,-0.205557510256767,-0.158275946974754
654,-0.00724435318261385,-0.0195402782410383,-0.0524612367153168,-0.131165072321892,-0.199734404683113,-0.156725004315376
655,-0.00156930845696479,-0.00826029106974602,-0.0393383614718914,-0.115376360714436,-0.184519723057747,-0.146304726600647
656,0.0215324778109789,0.0012653055600822,-0.0374699905514717,-0.0957680121064186,-0.162659361958504,-0.131230562925339
657,0.0468281134963036,0.00771559774875641,-0.0379092842340469,-0.0798513814806938,-0.140886947512627,-0.114741452038288
658,0.0519182458519936,0.0115866521373391,-0.0394469872117043,-0.0716645866632462,-0.127472162246704,-0.100079253315926
659,0.0358089432120323,0.0141853727400303,-0.0474629662930965,-0.0730955824255943,-0.124813698232174,-0.0903020799160004
660,0.0129691176116467,0.016241330653429,-0.0621019154787064,-0.0830852836370468,-0.127839282155037,-0.0861046761274338
661,-0.00598655408248305,0.0141404243186116,-0.0763324722647667,-0.0974428355693817,-0.128580585122108,-0.0875681564211845
662,-0.0189055651426315,0.00699200481176376,-0.0838881507515907,-0.109082885086536,-0.124666914343834,-0.0926543474197388
663,-0.0281870365142822,-0.00116141373291612,-0.0844695568084717,-0.11252249777317,-0.120627336204052,-0.0952928513288498
664,-0.0349822603166103,-0.00816970784217119,-0.0809058323502541,-0.108516439795494,-0.118142873048782,-0.090959407389164
665,-0.0369486808776855,-0.0133915347978473,-0.0749926194548607,-0.0995506346225739,-0.114705324172974,-0.0804512351751328
666,-0.031925555318594,-0.0143928211182356,-0.0669508874416351,-0.0863772183656693,-0.108369253575802,-0.0674657225608826
667,-0.0201179962605238,-0.0104391127824783,-0.058014765381813,-0.0719256401062012,-0.0994920283555985,-0.0560632981359959
668,-0.00444746576249599,-0.00447700265794992,-0.0517736114561558,-0.0608289390802383,-0.0902498587965965,-0.0485287718474865
669,0.00813786592334509,0.00350896990858018,-0.0496153868734837,-0.0542556196451187,-0.0822712108492851,-0.0443703606724739
670,0.011864522472024,0.0149600179865956,-0.0481852479279041,-0.0491054393351078,-0.0748833566904068,-0.0413936860859394
671,0.00776276085525751,0.0256364513188601,-0.0439419895410538,-0.041566826403141,-0.0654400512576103,-0.036554392427206
672,0.0013335527619347,0.0300225075334311,-0.0374269783496857,-0.0319272503256798,-0.0523030012845993,-0.0286071263253689
673,-0.00262986682355404,0.0268510915338993,-0.0314914472401142,-0.0234368816018105,-0.0364087112247944,-0.0199832748621702
674,-0.00330135668627918,0.0178939551115036,-0.0278691165149212,-0.0185129903256893,-0.020906375721097,-0.0139517448842525
675,-0.00265300995670259,0.00750694517046213,-0.0262467097491026,-0.0166589170694351,-0.0108695030212402,-0.0100356452167034
676,-0.00210036220960319,0.000354512187186629,-0.0245917495340109,-0.0143789909780025,-0.00890204589813948,-0.00460044853389263
677,-0.00100600137375295,-0.00225855340249836,-0.021188173443079,-0.00986409373581409,-0.0108040133491158,0.00426888233050704
678,0.00122018635738641,-0.00190403324086219,-0.0165460854768753,-0.00469570141285658,-0.0104064894840121,0.0151534210890532
679,0.00238595833070576,-0.00189357437193394,-0.0118685187771916,-0.00144052121322602,-0.00618941336870193,0.0235152244567871
680,-2.19484172703233E-05,-0.0034451331011951,-0.00543987331911922,0.00021411081252154,-0.0007884242804721,0.0269077699631453
681,-0.00413883337751031,-0.0042561050504446,0.0040684281848371,0.00330847827717662,0.00286831124685705,0.0278650876134634
682,-0.00490230042487383,-0.00401535397395492,0.0117728626355529,0.00739280832931399,0.00482670357450843,0.0267142038792372
683,-0.00121702393516898,-0.0038921379018575,0.0127441575750709,0.0109767429530621,0.00739585142582655,0.0228253304958344
684,0.00275754579342902,-0.00328743457794189,0.0092659080401063,0.0151182729750872,0.0119047984480858,0.0197969954460859
685,0.00415629241615534,-0.00193540006875992,0.00669469451531768,0.0186778325587511,0.0182078089565039,0.020712535828352
686,0.00354421208612621,-2.1279536667862E-05,0.00763444416224957,0.0221303906291723,0.0262651778757572,0.0269460417330265
687,0.00214257603511214,0.00271208095364273,0.0108847497031093,0.0295946449041367,0.0358241461217403,0.0379321686923504
688,0.0012817393289879,0.00559548428282142,0.0147804925218225,0.0406493470072746,0.0458826944231987,0.0484858155250549
689,0.00199392810463905,0.00739106489345431,0.019146665930748,0.0506047084927559,0.055886797606945,0.0538329444825649
690,0.00285795331001282,0.00794429983943701,0.0225186459720135,0.0564290173351765,0.0642294585704803,0.0549615919589996
691,0.00236530904658139,0.00704625342041254,0.0196627210825682,0.056686919182539,0.0669897347688675,0.0551795475184917
692,0.00314632011577487,0.00304484716616571,0.00530740059912205,0.0498889982700348,0.0619369372725487,0.0541776865720749
693,0.00656672986224294,-0.00417630141600966,-0.014348678290844,0.0396017655730248,0.0517993122339249,0.0502645410597324
694,0.00764879072085023,-0.00972912181168795,-0.0217625685036182,0.0347827598452568,0.0430081635713577,0.0455256663262844
695,0.00339456438086927,-0.00861493777483702,-0.00644982140511274,0.039265938103199,0.0412907600402832,0.0447001941502094
696,-0.00259273499250412,-0.00175668764859438,0.0233066827058792,0.0495616309344769,0.0473000817000866,0.05131471529603
697,-0.00660265283659101,0.00690478552132845,0.0505772903561592,0.0616750977933407,0.0569831728935242,0.0655974745750427
698,-0.00910411309450865,0.0132226627320051,0.0652394667267799,0.0717395693063736,0.0655458122491837,0.0831298157572746
699,-0.011970167979598,0.0152494069188833,0.0671167299151421,0.0763840600848198,0.0720349550247192,0.0968169495463371
700,-0.0140382628887892,0.0157169289886951,0.0623437874019146,0.0770714581012726,0.0785081014037132,0.103444963693619
701,-0.0126137277111411,0.0178709905594587,0.0568884462118149,0.0778110027313232,0.0847023352980614,0.105451643466949
702,-0.00789415743201971,0.0222777538001537,0.0523755475878716,0.0803950652480125,0.0878582000732422,0.106896109879017
703,-0.00312192994169891,0.0267011616379023,0.0478183776140213,0.0831436365842819,0.0865541324019432,0.108792655169964
704,-0.000995783717371523,0.028279259800911,0.0423695631325245,0.0835660323500633,0.0826523527503014,0.108431205153465
705,-0.00153842614963651,0.0276603884994984,0.0364992171525955,0.0812763199210167,0.079054206609726,0.104218646883965
706,-0.00390620576217771,0.0248627196997404,0.0315229557454586,0.0765284895896912,0.0771004110574722,0.0966759398579597
707,-0.00782418716698885,0.0182998683303595,0.0300453919917345,0.0702349692583084,0.0759547650814056,0.0870455130934715
708,-0.012537619099021,0.0099249230697751,0.0347902476787567,0.0637119188904762,0.0737486705183983,0.0777931213378906
709,-0.0164327193051577,0.00147043680772185,0.0441266708076,0.0581068396568298,0.0700567290186882,0.0709024518728256
710,-0.0153115326538682,-0.00688027590513229,0.051226794719696,0.0563333444297314,0.0666986629366875,0.0664477199316025
711,-0.00547373108565807,-0.0136563209816813,0.0501141250133514,0.0603391639888287,0.0661474615335464,0.0626007840037346
712,0.00757783744484186,-0.0173015147447586,0.0409936793148518,0.0669387504458427,0.0675641149282455,0.0570828430354595
713,0.0145483091473579,-0.0180984977632761,0.0301326680928469,0.0717949643731117,0.0684125795960426,0.0493898764252663
714,0.0138735957443714,-0.0186063814908266,0.0244081299751997,0.0747398436069489,0.0696405321359634,0.0413094647228718
715,0.00982652418315411,-0.0204410273581743,0.0255763754248619,0.076844796538353,0.0737683102488518,0.0360557548701763
716,0.00469912402331829,-0.0216962695121765,0.0299465525895357,0.0770554766058922,0.07963877171278,0.0359674841165543
717,-0.00175977509934455,-0.0191018581390381,0.0328849032521248,0.075409896671772,0.0835179015994072,0.0407823622226715
718,-0.00746536068618298,-0.0121496142819524,0.0348075404763222,0.0731024593114853,0.0856666192412376,0.0491133704781532
719,-0.00892089866101742,-0.0050385189242661,0.0401448756456375,0.072198286652565,0.0901061072945595,0.0609918832778931
720,-0.00645003467798233,-0.000540156208444387,0.0499892421066761,0.0764997899532318,0.0952524691820145,0.0758257657289505
721,-0.00395423453301191,0.0039790403097868,0.0594098456203938,0.0834729447960854,0.0937933325767517,0.0886221081018448
722,-0.00131884205620736,0.00972380582243204,0.0634397491812706,0.085315965116024,0.0854137539863586,0.0951890870928764
723,0.00497004482895136,0.0145241525024176,0.0630597695708275,0.0814896300435066,0.0771937742829323,0.097549632191658
724,0.0117707522585988,0.0177401676774025,0.0611842572689056,0.0770189836621284,0.0742715448141098,0.0981411412358284
725,0.0134774520993233,0.0232951976358891,0.0580547377467155,0.0739787817001343,0.07682815939188,0.0959120914340019
726,0.0101967677474022,0.0319607555866241,0.0540328957140446,0.0722115784883499,0.0797056406736374,0.0894463285803795
727,0.00403374480083585,0.0340662375092506,0.0504588186740875,0.0706760808825493,0.0781552046537399,0.0789652094244957
728,-0.00259180762805045,0.0233161710202694,0.0477233491837978,0.0685087889432907,0.0743057727813721,0.0675755217671394
729,-0.00667973421514034,0.0067880186252296,0.0444830767810345,0.0651520937681198,0.0718694627285004,0.059751994907856
730,-0.00675260694697499,-0.00418355315923691,0.0397861152887344,0.0599018186330795,0.0714177936315537,0.0576016940176487
731,-0.0033641227055341,-0.00590482307597995,0.0361462458968163,0.0572917349636555,0.0735928192734718,0.060985192656517
732,0.00215596472844481,-0.00434030219912529,0.0375937409698963,0.062835268676281,0.0793623030185699,0.0677450075745583
733,0.00820649601519108,-0.00565718486905098,0.0436383485794067,0.0726339370012283,0.0863824784755707,0.072354219853878
734,0.0129477297887206,-0.00999835878610611,0.0489713847637177,0.0781780406832695,0.0914459973573685,0.0694116353988647
735,0.0168323814868927,-0.0133054805919528,0.0509047619998455,0.0766976177692413,0.0950695052742958,0.0600015819072723
736,0.0192246045917273,-0.0123875513672829,0.048678457736969,0.0691745355725288,0.0961066707968712,0.0492864027619362
737,0.0154522927477956,-0.00885975547134876,0.0404685959219933,0.0565741881728172,0.0895069316029549,0.040687270462513
738,0.00537079339846969,-0.00418242532759905,0.0300832185894251,0.0453478470444679,0.0761672481894493,0.0381697416305542
739,-0.00506800832226872,0.00488483859226108,0.0261742416769266,0.0423801764845848,0.0633575394749641,0.0446721911430359
740,-0.0110018383711576,0.0175749193876982,0.0337179340422153,0.0469062626361847,0.0556049346923828,0.0561420172452927
741,-0.010923339985311,0.0278044398874044,0.050607793033123,0.0559164322912693,0.0543618686497211,0.0660103783011436
742,-0.00639230944216251,0.0321056619286537,0.0688424110412598,0.0650675520300865,0.0594301111996174,0.0722141563892365
743,-0.000225639494601637,0.0285448897629976,0.0810208544135094,0.0705355033278465,0.0679090097546577,0.076153039932251
744,0.00547423167154193,0.0173511952161789,0.0844112113118172,0.0727862492203712,0.0763579607009888,0.077121838927269
745,0.00954222586005926,0.00306774000637233,0.0785166993737221,0.0727392584085464,0.082547165453434,0.0729622840881348
746,0.011387593112886,-0.00860344432294369,0.0649009495973587,0.0707605257630348,0.0837795957922935,0.0658402219414711
747,0.0107664205133915,-0.0148252295330167,0.0480545870959759,0.0664109438657761,0.0778353586792946,0.0597303435206413
748,0.00903911329805851,-0.0174342226237059,0.0329736322164536,0.0588151216506958,0.068643145263195,0.0544587224721909
749,0.00803654454648495,-0.0194369480013847,0.02242835983634,0.0499743893742561,0.0618607439100742,0.0479438565671444
750,0.00749708013609052,-0.0203794557601213,0.0167877934873104,0.0433936566114426,0.0581370778381824,0.0412065461277962
751,0.0080135865136981,-0.018441854044795,0.0156208369880915,0.0403728000819683,0.0574399046599865,0.0363729670643806
752,0.0115751279518008,-0.0161105711013079,0.0174875743687153,0.0389020331203938,0.0588212981820107,0.0334880128502846
753,0.0154734142124653,-0.0158933904021978,0.0209278631955385,0.0386686585843563,0.05996248498559,0.0340021587908268
754,0.0136450342833996,-0.0122542595490813,0.0260577611625195,0.0441255755722523,0.0602227933704853,0.0414237715303898
755,0.00598076591268182,-0.00223628897219896,0.032163318246603,0.0547322183847427,0.0593014322221279,0.0519608147442341
756,-0.00112749368418008,0.00741832749918103,0.0372955165803432,0.0624183043837547,0.0579036921262741,0.0548570938408375
757,-0.00333360489457846,0.0129662621766329,0.0402070879936218,0.061805248260498,0.0577185340225697,0.0468687526881695
758,-0.00149313150905073,0.0145799163728952,0.0409959852695465,0.0539903454482555,0.0592105202376843,0.0353470407426357
759,0.00141443079337478,0.0127129480242729,0.039792038500309,0.042297787964344,0.0606861487030983,0.0281043089926243
760,0.00294695701450109,0.0105248931795359,0.0365292988717556,0.030519587919116,0.0605698823928833,0.0270330887287855
761,0.00153761962428689,0.00911351107060909,0.0336744785308838,0.0242907907813787,0.0587499178946018,0.0293958988040686
762,-0.00363296899013221,0.00696307932958007,0.0350233688950539,0.0261580962687731,0.0539430566132069,0.0314424782991409
763,-0.00979528203606606,0.0052920482121408,0.0404461361467838,0.0312910117208958,0.0481086708605289,0.0312875285744667
764,-0.0124625600874424,0.00461418926715851,0.0446214564144611,0.033191055059433,0.0467790327966213,0.0307640489190817
765,-0.0105864005163312,0.00242485362105072,0.0438499785959721,0.0303394924849272,0.051393773406744,0.0329690724611282
766,-0.00573574332520366,-0.00103667215444148,0.039977602660656,0.0260180663317442,0.0590802952647209,0.0371155999600887
767,-4.07985316996928E-05,-0.00246211444027722,0.0356361195445061,0.0245810654014349,0.0652610585093498,0.0402293652296066
768,0.00517108198255301,-0.000165387507877313,0.0317960120737553,0.0271391905844212,0.0675568208098412,0.0425419360399246
769,0.00938678532838821,0.00317668844945729,0.0288929808884859,0.0301590040326118,0.0685194209218025,0.0461698211729527
770,0.0116120241582394,0.00563501380383968,0.0271054711192846,0.031802449375391,0.0701518729329109,0.050914466381073
771,0.0115720555186272,0.0099500548094511,0.0265772864222527,0.0348283462226391,0.07032211124897,0.053516823798418
772,0.0104671129956841,0.0137002840638161,0.0271984729915857,0.0394764579832554,0.067822277545929,0.0498436726629734
773,0.00899015367031097,0.00941114872694016,0.0289980415254831,0.042507715523243,0.0637688189744949,0.0392041802406311
774,0.00722669903188944,-0.00129362836014479,0.0326576083898544,0.0425991825759411,0.0575646720826626,0.0253375545144081
775,0.00683982251212001,-0.0100767975673079,0.0367818064987659,0.0390037782490253,0.0474641509354115,0.0116043165326118
776,0.00829491671174765,-0.0135165899991989,0.0379929281771183,0.0317982658743858,0.0352382250130177,-0.000657032069284469
777,0.0076232491992414,-0.0142203951254487,0.0353627093136311,0.0250845067203045,0.0273485574871302,-0.00874906778335571
778,0.00283523206599057,-0.0141926985234022,0.0312093049287796,0.0224231518805027,0.0284637715667486,-0.00907488539814949
779,-0.00192273373249918,-0.0112847313284874,0.028352290391922,0.0234268233180046,0.0356293730437756,-0.00162623333744705
780,-0.00307786837220192,-0.00386042194440961,0.0268999803811312,0.0260388925671577,0.0421579703688622,0.00901362393051386
781,-0.00110883382149041,0.00411664647981524,0.0261421091854572,0.028896177187562,0.0462166890501976,0.0170428771525621
782,0.00227583292871714,0.00491104181855917,0.0263372827321291,0.0307901836931705,0.0503323078155518,0.0196014847606421
783,0.00422144727781415,-0.00277462671510875,0.0252449847757816,0.029108427464962,0.0522123463451862,0.0191892925649881
784,0.00323230004869401,-0.0105498898774385,0.0218646097928286,0.0232034157961607,0.04924526065588,0.0207145754247904
785,0.00150618411134928,-0.0129088312387466,0.0184842720627785,0.015143072232604,0.0454662628471851,0.0244983155280352
786,0.00139795616269112,-0.0126822087913752,0.0158934779465199,0.00726657919585705,0.0439378879964352,0.0265027601271868
787,0.00351238995790482,-0.0137256486341357,0.0139643326401711,0.0017325330991298,0.0444389283657074,0.0249658543616533
788,0.00641434919089079,-0.0171896442770958,0.0120879421010613,-0.000852373079396784,0.0456593371927738,0.0213190913200378
789,0.00774776004254818,-0.0215296391397715,0.00969600956887007,-0.000640445097815245,0.0449537858366966,0.0181585904210806
790,0.00682179862633348,-0.0234911404550076,0.00932926312088966,0.00398846482858062,0.041411217302084,0.0188681595027447
791,0.00446403818204999,-0.0199015978723764,0.0136508829891682,0.0133631993085146,0.0360590107738972,0.0239881444722414
792,0.00129302521236241,-0.0111613254994154,0.0207559689879417,0.0235195886343718,0.0292449705302715,0.0297309122979641
793,-0.00202441937290132,-0.001476751989685,0.0269993487745523,0.0305565893650055,0.0224743783473969,0.0332983583211899
794,-0.00437546847388148,0.00630705012008548,0.0303886812180281,0.0325456447899342,0.0178943201899529,0.0351687110960484
795,-0.00493576051667333,0.0104824081063271,0.0303018409758806,0.0285210181027651,0.0159754771739244,0.036342054605484
796,-0.00321034318767488,0.00989060569554567,0.0274155158549547,0.0205569118261337,0.0178126376122236,0.0366794876754284
797,0.00104280165396631,0.0048571121878922,0.0226866714656353,0.0121272150427103,0.023962240666151,0.0341936573386192
798,0.00666447170078754,-0.00423292024061084,0.0171475689858198,0.00461215386167169,0.0316084064543247,0.0261861272156239
799,0.00997715070843697,-0.0149056361988187,0.01265081577003,-0.000908841844648123,0.0368321426212788,0.0138470828533173
800,0.00814225431531668,-0.0211161952465773,0.0102765392512083,-0.00261699710972607,0.0382517613470554,0.00222766771912575
801,0.00291504082269967,-0.0196764748543501,0.00957303959876299,0.000539821572601795,0.0377718918025494,-0.00450141821056604
802,-0.0014331639977172,-0.0154372425749898,0.0108713312074542,0.00798814371228218,0.0383536070585251,-0.0052362191490829
803,-0.00204406934790313,-0.0134551599621773,0.015058059245348,0.0162568874657154,0.0416763834655285,-0.00218924810178578
804,0.0012546448269859,-0.0135447513312101,0.0211207624524832,0.0215614028275013,0.0470502451062202,0.00164102704729885
805,0.00928996223956347,-0.0141118932515383,0.0273066759109497,0.0242141466587782,0.0526598580181599,0.00464070914313197
806,0.0216690599918365,-0.0131759978830814,0.0321729369461536,0.0250674318522215,0.0560746975243092,0.00548534747213125
807,0.0309952720999718,-0.0108285648748279,0.0347680114209652,0.0233047232031822,0.055155910551548,0.00440855976194143
808,0.0302907694131136,-0.00984090194106102,0.0356443449854851,0.0208325237035751,0.0514940358698368,0.0042225643992424
809,0.0214325450360775,-0.00917343236505985,0.0361670963466167,0.0204105842858553,0.0483040921390057,0.00799664948135614
810,0.0111019676551223,-0.00610344624146819,0.0376416333019733,0.0209239833056927,0.0462920926511288,0.0164117626845837
811,0.00317216897383332,-0.00247072358615696,0.0399950668215752,0.0192041788250208,0.0429827123880386,0.0257124304771423
812,-0.00283384788781405,-0.000285893358523026,0.0403238125145435,0.0147359194234014,0.0341488607227802,0.0307866148650646
813,-0.00708428211510181,0.000306905450997874,0.0360006131231785,0.00952981412410736,0.0206532813608646,0.0290787890553474
814,-0.0081727709621191,-0.0015535888960585,0.0291068162769079,0.00538897654041648,0.0104757947847247,0.0201725363731384
815,-0.00649013975635171,-0.00493418425321579,0.0227762348949909,0.00329819228500128,0.00933536142110825,0.00634638639166951
816,-0.00334460800513625,-0.00623617181554437,0.0174038764089346,0.00382036296650767,0.0163326822221279,-0.00585052510723472
817,0.00137840944807976,-0.00342297228053212,0.0136123718693852,0.00773057714104652,0.0284922085702419,-0.00848559103906155
818,0.0061598988249898,0.000440511241322383,0.0115214334800839,0.0133094480261207,0.0410359054803848,-0.000815680366940796
819,0.00716861244291067,-0.000258366897469386,0.0091194324195385,0.0158264935016632,0.0465652085840702,0.00877488031983376
820,0.00308306864462793,-0.00665454473346472,0.00518294889479876,0.0137525703758001,0.0418933406472206,0.013007489964366
821,-0.00301829702220857,-0.0129817565903068,0.00138647737912834,0.0107278088107705,0.0319346487522125,0.012451003305614
822,-0.00720322271808982,-0.0152226518839598,0.000753877684473991,0.0103512909263372,0.0237663947045803,0.0102941608056426
823,-0.00776394875720143,-0.0164824407547712,0.00423386739566922,0.012096680700779,0.0210508313030005,0.00609628716483712
824,-0.00547052314504981,-0.0195649359375238,0.0100311813876033,0.0132115315645933,0.0225589405745268,-0.00129296258091927
825,-0.00183470500633121,-0.0218376591801643,0.0163777507841587,0.012374272570014,0.025081641972065,-0.00880879163742065
826,0.0021675992757082,-0.0198913086205721,0.0226001422852278,0.0104876914992929,0.0271506924182177,-0.0121348984539509
827,0.00533248437568545,-0.0160308815538883,0.0277421940118074,0.00955575611442328,0.0268875397741795,-0.0106244217604399
828,0.00633061211556196,-0.014196427538991,0.0302223470062017,0.010438235476613,0.0224641263484955,-0.00627178000286222
829,0.00524291815236211,-0.013094955123961,0.0282150637358427,0.010851982049644,0.0165815092623234,-0.00170660414732993
830,0.00482135498896241,-0.00779098877683282,0.0217804759740829,0.00730667309835553,0.0145306745544076,0.000613489595707506
831,0.00877133198082447,0.00260967132635415,0.0141688641160727,0.000592849391978234,0.0186998229473829,0.000497912813443691
832,0.0160223226994276,0.0109751764684916,0.00809609983116388,-0.00411095097661018,0.0267337206751108,4.58328759123106E-05
833,0.0197213366627693,0.0120612010359764,0.00433059129863977,-0.00221491232514381,0.0336460247635841,0.00191685534082353
834,0.0159891080111265,0.00736165465787053,0.00428519025444984,0.00643181195482612,0.0365912355482578,0.0061924229376018
835,0.00793672166764736,-0.00156423775479198,0.00791406910866499,0.0151021787896752,0.0361567698419094,0.00920788198709488
836,-0.000214291285374202,-0.0125085301697254,0.0116590028628707,0.0154082048684359,0.0322813875973225,0.00861353613436222
837,-0.00632969243451953,-0.0199892353266478,0.0136128170415759,0.00739930849522352,0.0255924668163061,0.00627496093511581
838,-0.0097708823159337,-0.0207994431257248,0.0156841222196817,-0.00116588873788714,0.0197312645614147,0.00439476175233722
839,-0.0113208023831248,-0.0182254407554865,0.0183063168078661,-0.00449694646522403,0.016706969588995,0.00212771794758737
840,-0.0110239619389176,-0.0176951251924038,0.0193217340856791,-0.00305844959802926,0.0175901241600513,-0.00372403836809099
841,-0.00812026020139456,-0.0193462707102299,0.0186139754951,0.000756947847548872,0.0233767349272966,-0.0123685374855995
842,-0.0041380962356925,-0.0180980712175369,0.0172706712037325,0.00659227278083563,0.0300715398043394,-0.0154327293857932
843,-0.00080533855361864,-0.0110908532515168,0.0154624311253428,0.0141271883621812,0.0332775190472603,-0.00698208156973124
844,0.00251757632941008,-0.000953315058723092,0.0140518480911851,0.0206300970166922,0.0332888625562191,0.00802063103765249
845,0.00571907591074705,0.00588039727881551,0.0128905521705747,0.0216036513447762,0.0295180082321167,0.0194860342890024
846,0.00675199134275317,0.00521070417016745,0.0115435784682631,0.0153063032776117,0.0200877636671066,0.0225543323904276
847,0.00425497535616159,0.000345449894666672,0.0112141026183963,0.00598706444725394,0.00788523443043232,0.0187171045690775
848,-0.00121307058725506,-0.00306001817807555,0.0111228097230196,-0.00114563677925617,-0.00164189678616822,0.0106273265555501
849,-0.00721046142280102,-0.00372091284953058,0.00946935638785362,-0.00535813486203551,-0.00647769868373871,0.00242288247682154
850,-0.0104249622672796,-0.00247920327819884,0.00788957625627518,-0.00716671533882618,-0.00604037055745721,-0.00058255105977878
851,-0.00890391040593386,0.001443290268071,0.00871275272220373,-0.00487229228019714,0.000283204804873094,0.0024662574287504
852,-0.00351268867962062,0.00760623160749674,0.010685614310205,0.00106127327308059,0.0101398294791579,0.00767518067732453
853,0.00214239372871816,0.0112663386389613,0.0103409131988883,0.00497358944267035,0.019134484231472,0.0101573448628187
854,0.00435563968494534,0.00842171162366867,0.00677687069401145,0.00230005476623774,0.0231134556233883,0.00728646805509925
855,0.00262543349526823,0.00175258645322174,0.00233969348482788,-0.00420965766534209,0.0201673600822687,0.0023063775151968
856,-0.000538057123776525,-0.00352908344939351,-0.000814311730209738,-0.00850209407508373,0.013954970985651,0.000906291475985199
857,-0.00277165835723281,-0.00569307850673795,-0.00144286605063826,-0.00833289138972759,0.0102280778810382,0.00378688261844218
858,-0.00336122768931091,-0.00405206577852368,0.000729756429791451,-0.00517296278849244,0.00977194122970104,0.00720397150143981
859,-0.00211068312637508,0.000973614165559411,0.00445263925939798,0.0001638835092308,0.00973288808017969,0.00888514891266823
860,0.000397637923015282,0.00381764816120267,0.00817164033651352,0.00724565098062158,0.00909631326794624,0.00765072647482157
861,0.00301812728866935,0.0018279564101249,0.0124423615634441,0.0137998536229134,0.0110249845311046,0.00180712470319122
862,0.00497822929173708,0.000187848781934008,0.0179755240678787,0.0170631781220436,0.0170935299247503,-0.00765119912102818
863,0.00529791740700603,0.000925467640627176,0.0226799957454205,0.0168251879513264,0.0234557408839464,-0.0161954574286938
864,0.00418712897226214,-0.000237935542827472,0.0248097218573093,0.0155855296179652,0.0268603768199682,-0.0196672938764095
865,0.00317950686439872,-0.00528588192537427,0.0238212253898382,0.0133167458698154,0.0251359511166811,-0.018888870254159
866,0.00245119561441243,-0.0110294949263334,0.0201138481497765,0.00753308227285743,0.017757561057806,-0.0165844019502401
867,0.00169622781686485,-0.0133171528577805,0.0150534985587001,-0.000620773294940591,0.00912798009812832,-0.0118991006165743
868,0.00199782918207347,-0.0102183297276497,0.00740449549630284,-0.00786447897553444,0.00183719582855701,-0.004019093234092
869,0.0050717550329864,-0.00298948655836284,-0.003602578304708,-0.0128260087221861,-0.00584463775157928,0.00231210328638554
870,0.00927725527435541,0.00370800704695284,-0.0135922860354185,-0.014097323641181,-0.0147220939397812,0.00217927899211645
871,0.00839772168546915,0.00472654961049557,-0.0172660145908594,-0.0107805700972676,-0.0230535492300987,-0.00421651173382998
872,-0.000313723983708769,-0.000877670652698725,-0.0139404516667128,-0.00661618215963244,-0.0277116037905216,-0.0156537517905235
873,-0.0122280465438962,-0.0087773883715272,-0.00807285495102406,-0.00555279385298491,-0.0277083814144135,-0.0278300195932388
874,-0.0213111471384764,-0.0133276339620352,-0.00430595641955733,-0.00577089888975024,-0.0250575765967369,-0.0328693613409996
875,-0.0249448250979185,-0.0126174297183752,-0.00305302441120148,-0.00459075067192316,-0.0209486335515976,-0.029030991718173
876,-0.0234500300139189,-0.00821810122579336,-0.00216982187703252,-0.00271824770607054,-0.0152079751715064,-0.021036010235548
877,-0.0184554811567068,-0.00175455096177757,-0.000691263994667679,-0.0012034917017445,-0.00885398220270872,-0.0122816432267427
878,-0.01268604490906,0.00408505368977785,0.000108623062260449,-0.000591095245908946,-0.00335864629596472,-0.0045117880217731
879,-0.00752067659050226,0.00538014806807041,-0.000262727728113532,-0.00110655440948904,0.00140650337561965,0.000220225614611991
880,-0.00319642969407141,0.0024810906033963,-0.00062596017960459,-0.00102746556513011,0.00398814957588911,0.00137735437601805
881,-0.00149352650623769,-0.00101594813168049,-0.000389647204428911,0.000119661708595231,0.00208588433451951,-0.0010410473914817
882,-0.00248071504756808,-0.00316048786044121,0.000277129176538438,0.000563671172130853,-0.00171146937645972,-0.00718303862959147
883,-0.00427616713568568,-0.00272218696773052,0.000186023025889881,0.000150479230796918,-0.00525313755497336,-0.0140826608985662
884,-0.00636052154004574,0.000444639008492231,-0.00151107099372894,-0.00164162553846836,-0.00950701627880335,-0.0178478304296732
885,-0.00823603291064501,0.00436960672959685,-0.00336516345851123,-0.00551819941028953,-0.0122732613235712,-0.0183684267103672
886,-0.0086583411321044,0.00753271766006947,-0.00415410241112113,-0.00846096221357584,-0.0116941146552563,-0.017676355317235
887,-0.0077844294719398,0.00967082194983959,-0.00541994441300631,-0.00846573524177074,-0.0106174321845174,-0.0173967350274324
888,-0.00760493241250515,0.00956537947058678,-0.00916639063507319,-0.00851849839091301,-0.0117877433076501,-0.0173683874309063
889,-0.00926954578608274,0.00684695551171899,-0.0143961952999234,-0.0107948444783688,-0.0149399414658546,-0.0149278771132231
890,-0.0109666138887405,0.00455555366352201,-0.0164595954120159,-0.0111361872404814,-0.0170819368213415,-0.00777452671900392
891,-0.0104552954435349,0.00484728813171387,-0.0127529408782721,-0.00532888527959585,-0.0165635515004396,0.00107603566721082
892,-0.00851051602512598,0.00523426523432136,-0.00716638471931219,0.00205104984343052,-0.01584243029356,0.00333332712762058
893,-0.00625622784718871,0.00308399461209774,-0.00377750117331743,0.00475269043818116,-0.0150246862322092,-0.00487285852432251
894,-0.00314154895022511,-0.000250565208261833,-0.00260720192454755,0.00349125079810619,-0.0112529322504997,-0.017919922247529
895,0.000864438305143267,-0.00144889357034117,-0.00212673819623888,0.00218482245691121,-0.00488117709755898,-0.0269305892288685
896,0.00475202407687902,-0.000619816069956869,-0.00156768690794706,0.000888095062691718,0.000835323997307569,-0.0284771267324686
897,0.00699206395074725,-0.00145892146974802,-0.00107058638241142,-0.00367923802696168,0.0030361704993993,-0.0261703561991453
898,0.00720018660649657,-0.00370602449402213,0.000315003853756934,-0.00948120281100273,0.00164486211724579,-0.0226352885365486
899,0.00688607757911086,-0.00257287546992302,0.00386909185908735,-0.0124751450493932,-0.00111573224421591,-0.017959363758564
900,0.00874035991728306,0.00231182808056474,0.00772213703021407,-0.013773356564343,-0.00410369597375393,-0.0135208386927843
901,0.0135814258828759,0.00546450586989522,0.00797580368816853,-0.013325116597116,-0.00747621525079012,-0.0100471964105964
902,0.0169546157121658,0.00428130337968469,0.00410241959616542,-0.00907829962670803,-0.0100671853870153,-0.00686164014041424
903,0.0143981743603945,0.00168924604076892,-0.000436837348388508,-0.00298506440594792,-0.0105179445818067,-0.0029755609575659
904,0.00612235302105546,0.00153700611554086,-0.00415991153568029,-0.000518492015544325,-0.0106846317648888,0.0013843618799001
905,-0.00498839654028416,0.00466493517160416,-0.00921192765235901,-0.00380222196690738,-0.0126187345013022,0.00356832379475236
906,-0.0142620792612433,0.00969681050628424,-0.0143616059795022,-0.00678190309554338,-0.0141605222597718,0.00304515706375241
907,-0.0185657143592834,0.0145956734195352,-0.0153395039960742,-0.00398312089964747,-0.0136255770921707,0.00257900287397206
908,-0.0191660076379776,0.0151922767981887,-0.0126071190461516,0.00117051450069994,-0.0136175937950611,0.00242929952219129
909,-0.0175254251807928,0.00930526480078697,-0.0095457686111331,0.00421659927815199,-0.0147024858742952,0.00152622652240098
910,-0.0130632407963276,0.000619700527749956,-0.00758725916966796,0.00602347170934081,-0.0135721666738391,0.000913758878596127
911,-0.00622325576841831,-0.00641448423266411,-0.00661686947569251,0.00906364992260933,-0.00896537862718105,-0.000345975015079603
912,0.000543457397725433,-0.0103670032694936,-0.00520547572523355,0.0137128131464124,-0.00142124388366938,-0.00609214324504137
913,0.00464544072747231,-0.0118932360783219,-0.00221776938997209,0.0165029559284449,0.00707550393417478,-0.0159078296273947
914,0.0048140692524612,-0.0116337509825826,6.05665118200704E-05,0.0142425522208214,0.0106817577034235,-0.0221044365316629
915,0.00172449077945203,-0.0107689583674073,-0.000435454945545644,0.00868805125355721,0.00607418874278665,-0.0207458268851042
916,-0.0025323994923383,-0.0107297617942095,-0.0015160288894549,0.00347869866527617,-0.00206550932489336,-0.0177812296897173
917,-0.00640089577063918,-0.0107283536344767,-0.000995107111521065,-0.000489567464683205,-0.00701263966038823,-0.0181068331003189
918,-0.00960030034184456,-0.00932751409709454,0.000682020094245672,-0.00405238335952163,-0.00723097566515207,-0.0181708447635174
919,-0.0116053847596049,-0.00393766863271594,0.00267112464644015,-0.00624238373711705,-0.00539159495383501,-0.0129655757918954
920,-0.0124897295609117,0.00534833781421185,0.00381766026839614,-0.0066558257676661,-0.00548082729801536,-0.00525238597765565
921,-0.0138789173215628,0.0117775974795222,0.0025598534848541,-0.00697713205590844,-0.0110228834673762,1.36010266942321E-05
922,-0.0164839904755354,0.0134715167805552,-0.00145174469798803,-0.00819975882768631,-0.0206082537770271,0.00419696839526296
923,-0.0187736190855503,0.0148781137540936,-0.0066087432205677,-0.00953466072678566,-0.0281860660761595,0.00920270010828972
924,-0.0189068894833326,0.0152047015726566,-0.0103853344917297,-0.00966586824506521,-0.0286567360162735,0.0124268988147378
925,-0.0170244686305523,0.0130542945116758,-0.0118638183921576,-0.00857424736022949,-0.0216025002300739,0.0120261153206229
926,-0.0138337165117264,0.0110186003148556,-0.0110854655504227,-0.00548609439283609,-0.0102278208360076,0.00996739324182272
927,-0.00942879263311625,0.00914258044213057,-0.0078786825761199,0.00136234692763537,0.000771936553064734,0.00830663647502661
928,-0.00457290280610323,0.00533840199932456,-0.00375360087491572,0.00969307031482458,0.00768053904175758,0.00658442778512836
929,1.81373543455265E-05,-0.000255715160164982,-0.00101286452263594,0.0150948250666261,0.011641594581306,0.00439325533807278
930,0.00457343412563205,-0.00625777943059802,0.000330705486703664,0.0170368142426014,0.0163385719060898,0.00227961433120072
931,0.00873935129493475,-0.0111539829522371,0.00151234515942633,0.016478855162859,0.0207689553499222,-0.000390725967008621
932,0.0108093824237585,-0.0125876208767295,0.00229180324822664,0.0139225237071514,0.0200173351913691,-0.00348547217436135
933,0.00994427688419819,-0.0100319255143404,0.00304797315038741,0.0119269425049424,0.013627796433866,-0.00558302365243435
934,0.00702433567494154,-0.00427602557465434,0.00491809332743287,0.0121673829853535,0.00488198921084404,-0.00564085831865668
935,0.00317110191099346,0.00333742517977953,0.00667227804660797,0.0128940818831325,-0.00398554932326078,-0.00347801204770803
936,-3.01032087008934E-05,0.008586167357862,0.0068381680175662,0.0121865030378103,-0.0101263616234064,-0.000248892640229315
937,-0.00135402812156826,0.00806695874780416,0.0054589887149632,0.00878886878490448,-0.0118545787408948,0.00202636746689677
938,-0.000867529306560755,0.00238552992232144,0.00367078930139542,0.00258417963050306,-0.010062538087368,0.0010263038566336
939,0.000685792649164796,-0.00515951588749886,0.00253254268318415,-0.00379535998217762,-0.00708139268681407,-0.00272854068316519
940,0.00114977220073342,-0.0106876064091921,0.00108033162541687,-0.00832205172628164,-0.0073383953422308,-0.0050105657428503
941,-0.00115253694821149,-0.0116532454267144,-0.00162958505097777,-0.0111073767766356,-0.0113454228267074,-0.0035851129796356
942,-0.00483069475740194,-0.00842971354722977,-0.00555365206673741,-0.0112795867025852,-0.0142058413475752,-0.000164510027389042
943,-0.00572078675031662,-0.00291987042874098,-0.0102715725079179,-0.00748632848262787,-0.0141746187582612,0.00358300609514117
944,-0.000505166943185031,0.00621822476387024,-0.0143130263313651,-0.00199234276078641,-0.012776336632669,0.00672717718407512
945,0.00712220324203372,0.019968094304204,-0.016530504450202,0.00032261063461192,-0.0105108581483364,0.00847375113517046
946,0.0097951041534543,0.031640961766243,-0.0165801513940096,-0.0019816008862108,-0.00685870181769133,0.00868398137390614
947,0.00647028395906091,0.0337595492601395,-0.0141196046024561,-0.00568666402250528,-0.0019725076854229,0.00692899944260716
948,0.000860463711433113,0.0268103610724211,-0.0103086857125163,-0.00706962263211608,0.00125456438399851,0.00376570643857121
949,-0.00515651563182473,0.0151749048382044,-0.00880447309464216,-0.00647935830056667,-0.000361121725291014,0.000434422836406156
950,-0.0110769094899297,0.00326079083606601,-0.0111152213066816,-0.0065123881213367,-0.00552161643281579,-0.00274113169871271
951,-0.0163978599011898,-0.00406257761642337,-0.0136738130822778,-0.00708613730967045,-0.0100340014323592,-0.0059283385053277
952,-0.0201526340097189,-0.00610894709825516,-0.0130312629044056,-0.00796033348888159,-0.011271171271801,-0.0105731338262558
953,-0.0206609759479761,-0.00780632440000772,-0.00912994332611561,-0.00869040191173553,-0.0083334082737565,-0.0156161459162831
954,-0.0176648739725351,-0.0100722620263696,-0.00420026760548353,-0.00682451669126749,-0.00296471081674099,-0.0166280716657639
955,-0.0144899105653167,-0.0105737512931228,-0.00191092502791435,-0.00346108083613217,-0.000657090335153043,-0.0136716542765498
956,-0.0141846621409059,-0.0110507495701313,-0.00440569128841162,-0.00212292466312647,-0.00365502457134426,-0.0108257979154587
957,-0.0152924302965403,-0.0107876351103187,-0.00971643067896366,-0.00217066030018032,-0.00763170141726732,-0.00948709715157747
958,-0.0162803567945957,-0.00660571362823248,-0.0147170256823301,-0.00207201926968992,-0.0101766465231776,-0.00849163718521595
959,-0.0181019324809313,-0.00126937450841069,-0.0181623715907335,-0.00342888035811484,-0.0133499503135681,-0.00752749433740973
960,-0.0210418906062841,0.00110895186662674,-0.0197591595351696,-0.00680826185271144,-0.0190282966941595,-0.00726718688383698
961,-0.0235245991498232,0.00310776894912124,-0.0195281803607941,-0.01033850107342,-0.0263203103095293,-0.00716997403651476
962,-0.023192573338747,0.00760186556726694,-0.0184503402560949,-0.0137405628338456,-0.0304963849484921,-0.00649019470438361
963,-0.01906368881464,0.0110625047236681,-0.0177286323159933,-0.0180733762681484,-0.026988098397851,-0.00623830268159509
964,-0.0132726961746812,0.0119701586663723,-0.0178647395223379,-0.0229155551642179,-0.0175593290477991,-0.00748412916436791
965,-0.00858691614121199,0.0146298995241523,-0.0173036623746157,-0.0259909275919199,-0.00790359452366829,-0.00888893660157919
966,-0.0059339152649045,0.0187512524425983,-0.0144326565787196,-0.0253889188170433,-0.00135590194258839,-0.00940135028213263
967,-0.00576706603169441,0.0168641284108162,-0.0115635162219405,-0.0232119262218475,0.000848010880872607,-0.0123001178726554
968,-0.00812627002596855,0.00531202228739858,-0.0113595267757773,-0.0224519092589617,-0.00205043563619256,-0.0192094314843416
969,-0.0120949931442738,-0.0108426483348012,-0.0133003862574697,-0.0214210897684097,-0.00929010938853025,-0.0243725590407848
970,-0.0151842478662729,-0.022918714210391,-0.0152247250080109,-0.0174289532005787,-0.0178649760782719,-0.0233892854303122
971,-0.0141478702425957,-0.0257633980363607,-0.0159709993749857,-0.0119142513722181,-0.0234835017472506,-0.0205117501318455
