,AF3,AF4,Fp1,Fp2,AF7,AF8
0,-0.0046231527812779,-0.0152972126379609,-0.00834802724421024,-0.0118578020483255,-0.0163070056587458,-0.00604449212551117
1,-0.00164234859403223,-0.0135795501992106,-0.00611366098746657,-0.00849086418747902,-0.0139654213562608,-0.0104429004713893
2,0.00171495799440891,-0.0128596629947424,-0.00174040754791349,-0.00741255795583129,-0.0114676058292389,-0.0157898105680943
3,0.00441771745681763,-0.0137484865263104,0.00363402883522213,-0.00805719383060932,-0.0102252699434757,-0.0171560738235712
4,0.00560543918982148,-0.0136832101270556,0.00713798543438315,-0.00969764962792397,-0.0103126708418131,-0.0132007366046309
5,0.00582743808627129,-0.00999879464507103,0.00825563259422779,-0.0108814211562276,-0.00903051625937223,-0.00636001909151673
6,0.00555839901790023,-0.00329163623973727,0.00944286771118641,-0.00973323732614517,-0.00573879154399037,0.000588485796470195
7,0.00438416283577681,0.00197044457308948,0.011842867359519,-0.00702127115800977,-0.00274378666654229,0.00482957856729627
8,0.0023330613039434,0.00311264093033969,0.0139664234593511,-0.00347431702539325,-0.00175731454510242,0.00521725090220571
9,-0.00020167174807284,0.000934879179112613,0.0134235825389624,0.00116926582995802,-0.00228042411617935,0.00218453491106629
10,-0.00222014705650508,-0.00265089282765985,0.0107299964874983,0.00501826032996178,-0.00195194955449551,-0.00416505709290504
11,-0.00281114666722715,-0.00568018993362784,0.00869108084589243,0.00486920075491071,0.000463460222817957,-0.0126495594158769
12,-0.00249147741124034,-0.00674110325053334,0.00800489820539951,0.000231359445024282,0.00290302094072104,-0.0191986840218306
13,-0.00230148201808333,-0.0052153542637825,0.00751642370596528,-0.00582337658852339,0.00250596646219492,-0.0204673260450363
14,-0.0027352380566299,-0.00289290561340749,0.00661812862381339,-0.0103777842596173,-0.000831925659440458,-0.0182325225323439
15,-0.00296456553041935,-0.00249973312020302,0.00579437240958214,-0.0123656950891018,-0.00434196554124355,-0.0152224535122514
16,-0.00200251606293023,-0.00349332322366536,0.00506559107452631,-0.0114468885585666,-0.00552614964544773,-0.0104494653642178
17,-0.000499793095514178,-0.00440240884199739,0.00346461148001254,-0.00817294046282768,-0.00382538675330579,-0.00278549897484481
18,0.000627216242719442,-0.00585542293265462,0.001265550381504,-0.00336394505575299,0.00034548289841041,0.00604769075289369
19,0.00107383436989039,-0.0081044239923358,4.72808715130668E-05,0.00226820260286331,0.00569590600207448,0.0134858936071396
20,0.00119628896936774,-0.0095101110637188,0.000651101116091013,0.00754655292257667,0.0105640161782503,0.018569678068161
21,0.000929714937228709,-0.00984484795480967,0.00181581033393741,0.0103558674454689,0.0117661850526929,0.0219271630048752
22,-0.00146518205292523,-0.0102727916091681,0.00111266598105431,0.00912914238870144,0.00624307664111257,0.0230935662984848
23,-0.00628500245511532,-0.0080027487128973,-0.00187231425661594,0.00504810130223632,-0.00360256619751453,0.0200356394052505
24,-0.0113246040418744,-0.000292219076072797,-0.00481859082356095,-0.000418655195971951,-0.0121735297143459,0.0124350609257817
25,-0.0142557751387358,0.00853797793388367,-0.00570142408832908,-0.00668302085250616,-0.0155735369771719,0.00299361441284418
26,-0.0139389168471098,0.0122933024540544,-0.00477702170610428,-0.0119123077020049,-0.0137486886233091,-0.00479338737204671
27,-0.0107004679739475,0.00999243557453156,-0.00271385442465544,-0.0139338886365294,-0.00976207852363586,-0.00974994618445635
28,-0.00609163101762533,0.00485512334853411,2.05494416150032E-06,-0.0123162949457765,-0.00664979126304388,-0.012672133743763
29,-0.00233643595129251,0.000208257377380505,0.00150911579839885,-0.00793266296386719,-0.00586340995505452,-0.0130791440606117
30,-0.000552560726646334,-0.00235715042799711,0.000719144591130316,-0.00214924290776253,-0.0066822050139308,-0.0103105995804071
31,-6.55554031254724E-05,-0.00314289494417608,7.55403598304838E-05,0.00341616501100361,-0.00782730430364609,-0.00640008458867669
32,-0.000118291500257328,-0.00419282633811235,0.00257284822873771,0.00710335746407509,-0.00881718937307596,-0.00467570777982473
33,-0.00138627749402076,-0.0071582761593163,0.00654504541307688,0.00728410063311458,-0.00999637693166733,-0.0061553823761642
34,-0.0047685350291431,-0.0103592919185758,0.00763295497745276,0.00456614978611469,-0.0123402904719114,-0.00850484613329172
35,-0.00871926639229059,-0.010693266056478,0.00571293942630291,0.00258872844278812,-0.0146129569038749,-0.00931932963430882
36,-0.0102589577436447,-0.0077048814855516,0.00378282321617007,0.00364897097460926,-0.0142365423962474,-0.00792451854795218
37,-0.00952468067407608,-0.00264833169057965,0.00226292572915554,0.0062196422368288,-0.0117797879502177,-0.00435591023415327
38,-0.00896624755114317,0.00393603928387165,0.000386205705581233,0.00828698091208935,-0.00940978620201349,0.000618987949565053
39,-0.00921084545552731,0.0103627284988761,-0.00118169526103884,0.00963958352804184,-0.0084789777174592,0.00626219809055328
40,-0.00971225928515196,0.0131484167650342,-0.00204679719172418,0.0105180880054832,-0.0102146454155445,0.0109118362888694
41,-0.0101889306679368,0.0106740845367312,-0.00244058948010206,0.0103728054091334,-0.013781120069325,0.0114988349378109
42,-0.0110528124496341,0.00457956921309233,-0.0024929114151746,0.00847820844501257,-0.0168722551316023,0.00758786918595433
43,-0.0125824511051178,-0.00175545748788863,-0.00243882020004094,0.00549614988267422,-0.0183104015886784,0.00182780507020652
44,-0.0133493030443788,-0.00462615024298429,-0.00210614828392863,0.00336277741007507,-0.0174274910241365,-0.00297120818868279
45,-0.0125856194645166,-0.00302081159316003,-0.0015726643614471,0.00244185049086809,-0.0152394780889153,-0.0049577048048377
46,-0.0114118168130517,-0.000125413571367972,-0.00200432655401528,0.00097695377189666,-0.0139033673331141,-0.00328204105608165
47,-0.00954174622893333,0.000954055867623538,-0.00311015709303319,-0.000632215465884656,-0.012435027398169,0.00223106541670859
48,-0.00594002520665526,0.000567507115192711,-0.00258452165871859,0.000566115253604949,-0.00817881990224123,0.0095357857644558
49,-0.00250693922862411,0.000185217795660719,-0.000826461589895189,0.0040156333707273,-0.00245470460504293,0.0133498553186655
50,-0.0018412871286273,-0.000922619947232306,-0.000573560828343034,0.00636169593781233,0.000905890949070454,0.0103428969159722
51,-0.0033735572360456,-0.00373967713676393,-0.000978123978711665,0.0085728345438838,0.00132996088359505,0.0035676141269505
52,-0.00529287569224834,-0.0074074431322515,0.00111169216688722,0.0134649015963078,0.000361201615305617,-0.00267671165056527
53,-0.00680506322532892,-0.0103715322911739,0.00613379711285234,0.0197680536657572,-0.00232130801305175,-0.00738256610929966
54,-0.00713981967419386,-0.0103931166231632,0.0115374941378832,0.0239658690989017,-0.00707095861434937,-0.0105146346613765
55,-0.00548953982070088,-0.00704497704282403,0.0138411000370979,0.0240991786122322,-0.0107895759865642,-0.011335807852447
56,-0.00243321619927883,-0.00312356883659959,0.0114385951310396,0.0199935119599104,-0.00969555415213108,-0.00975260697305202
57,-0.000234689839999191,-0.000660821737255901,0.00528936926275492,0.0117209842428565,-0.00492549687623978,-0.00796591769903898
58,-0.000784080126322806,0.00129699497483671,-0.00270475586876273,0.000942304090131074,-0.000753380241803825,-0.00861616618931293
59,-0.00357207888737321,0.00407645059749484,-0.00944321509450674,-0.0082785515114665,0.000837946485262364,-0.0112942978739738
60,-0.0070591252297163,0.00691000185906887,-0.0124158756807446,-0.0129193095490336,-0.000506654439959675,-0.0134913418442011
61,-0.00995608419179916,0.00844608899205923,-0.0125985331833363,-0.0131927272304893,-0.00401342520490289,-0.0135257374495268
62,-0.0110550606623292,0.00806123577058315,-0.0120455399155617,-0.0109119368717074,-0.00649749860167503,-0.011633918620646
63,-0.0103247053921223,0.00489479349926114,-0.0103680742904544,-0.00784046575427055,-0.00574183138087392,-0.0103349229320884
64,-0.0088399313390255,-0.00106040539685637,-0.00682990346103907,-0.00549878645688295,-0.00287087191827595,-0.0114444876089692
65,-0.00738350441679358,-0.00736745540052652,-0.00344093656167388,-0.00453040469437838,-0.000169144695973955,-0.012536876834929
66,-0.00646126922219992,-0.0104919485747814,-0.00240266555920243,-0.00476081483066082,0.00113790400791913,-0.010807340964675
67,-0.0072358688339591,-0.00979349203407764,-0.00423589488491416,-0.00656330864876509,0.000401056400733069,-0.00819545332342386
68,-0.0100351292639971,-0.00837696436792612,-0.00810666661709547,-0.00898306537419558,-0.00216737436130643,-0.00826238188892603
69,-0.0130205675959587,-0.00832103751599789,-0.0115315141156316,-0.00876630377024412,-0.0044778548181057,-0.0109963500872254
70,-0.0143714444711804,-0.00851281732320786,-0.0123496642336249,-0.00415655924007297,-0.00434797536581755,-0.0129977390170097
71,-0.0136051932349801,-0.00688263447955251,-0.0107783218845725,0.00203154655173421,-0.00129697727970779,-0.0124363666400313
72,-0.010656451806426,-0.00432675564661622,-0.00834901258349419,0.00466434238478541,0.00367106636986136,-0.011185116134584
73,-0.00644826609641314,-0.0044647166505456,-0.0063609997741878,0.00225851126015186,0.00877798814326525,-0.0107818813994527
74,-0.00327175483107567,-0.00812300015240908,-0.00532783241942525,-0.00275323260575533,0.012675940990448,-0.0107343746349216
75,-0.00185405823867768,-0.0127058066427708,-0.0046268105506897,-0.00751497317105532,0.0149055561050773,-0.0100453309714794
76,-0.000843228597659618,-0.0151687879115343,-0.00370788248255849,-0.0100825186818838,0.0146387238055468,-0.00875639542937279
77,-0.0002768826961983,-0.0138942748308182,-0.00257703918032348,-0.0107933413237333,0.0110614644363523,-0.00849487725645304
78,-0.00140680291224271,-0.00947614759206772,-0.00109776784665883,-0.0113789848983288,0.00495316321030259,-0.00945256277918816
79,-0.00419141445308924,-0.00397176016122103,-0.00022725822054781,-0.0123897865414619,-0.00222395267337561,-0.008650709874928
80,-0.00697876233607531,0.000399262906285003,-0.000725498830433935,-0.0128158815205097,-0.00822610873728991,-0.00417380360886455
81,-0.00807771552354097,0.00202319282107055,-0.00154682924039662,-0.0119295371696353,-0.0103862304240465,0.001343785203062
82,-0.0080763241276145,8.52208759170026E-05,-0.00245357747189701,-0.0107783870771527,-0.00896432716399431,0.00343875214457512
83,-0.00863127876073122,-0.00319388159550726,-0.00375660927966237,-0.0101202903315425,-0.00605882657691836,0.00135262357071042
84,-0.00979140028357506,-0.00364705687388778,-0.00488515058532357,-0.00900821294635534,-0.00208706967532635,-0.00038434803718701
85,-0.0108819548040628,-0.00178734306246042,-0.00554686412215233,-0.00668136868625879,0.00273596378974617,0.0019002475310117
86,-0.0117684351280332,-0.00184829067438841,-0.00574423046782613,-0.00309819541871548,0.00611930759623647,0.00617626029998064
87,-0.012209995649755,-0.00491664744913578,-0.00537282088771462,0.000461740681203082,0.00695019029080868,0.00787944439798594
88,-0.0115078752860427,-0.00885129254311323,-0.00451726792380214,0.00114713294897228,0.00738507835194469,0.00409745005890727
89,-0.0091699780896306,-0.0117314569652081,-0.00375370751135051,-0.00203504902310669,0.00900363270193338,-0.00440444936975837
90,-0.00585510395467281,-0.0124969175085425,-0.00383277796208858,-0.00709605263546109,0.0103319035843015,-0.0130943153053522
91,-0.00271481415256858,-0.0108687384054065,-0.00450249202549458,-0.0116110304370523,0.0101614408195019,-0.0174216572195292
92,-0.000102291196526494,-0.00770502723753452,-0.00468738749623299,-0.0139502473175526,0.010032182559371,-0.0165619272738695
93,0.00229164259508252,-0.00399779994040728,-0.0033815645147115,-0.0131892431527376,0.0121280010789633,-0.0121323699131608
94,0.00432287156581879,-0.000677501899190247,-0.000461916322819889,-0.00939643010497093,0.0162066593766212,-0.00657940236851573
95,0.00585442222654819,0.00217209593392909,0.00368044874630868,-0.00371140288189054,0.0201485678553581,-0.00313039729371667
96,0.00726795615628362,0.00515951588749886,0.00856791716068983,0.00139282725285739,0.0223664361983538,-0.00410968810319901
97,0.00802524387836456,0.00665361201390624,0.0124503970146179,0.00304651563055813,0.0221998244524002,-0.00861185230314732
98,0.00728842383250594,0.00533202663064003,0.0141300745308399,0.00159861997235566,0.0197310317307711,-0.0122751779854298
99,0.00518451118841767,0.0031798689160496,0.0139948418363929,-0.000185546770808287,0.015146148391068,-0.0110899461433291
100,0.00315161794424057,0.00181060784962028,0.0121989492326975,-0.00175299227703363,0.0101298894733191,-0.00558890635147691
101,0.00360921886749566,0.00124175823293626,0.00955809932202101,-0.00429592002183199,0.00853300001472235,0.000147092898259871
102,0.00660922983661294,0.00204126466996968,0.00793599616736174,-0.00720216706395149,0.0118100764229894,0.0041642040014267
103,0.00876548606902361,0.00374189601279795,0.00730810360983014,-0.00910371728241444,0.0168743561953306,0.0071864752098918
104,0.00839473865926266,0.00488877901807427,0.00638562394306064,-0.00914528779685497,0.0210944153368473,0.00956038944423199
105,0.00736188096925616,0.00669290823861957,0.00544549897313118,-0.0062653268687427,0.0239759534597397,0.0109890773892403
106,0.00746652530506253,0.0106585351750255,0.0055405730381608,-0.00115119467955083,0.0253532938659191,0.00996075291186571
107,0.00913054216653109,0.0143180005252361,0.0076303337700665,0.00456747971475124,0.026077764108777,0.00666958885267377
108,0.0113424388691783,0.014061201363802,0.0109570035710931,0.00899574439972639,0.0263863708823919,0.00386103778146207
109,0.0123439831659198,0.00992454960942268,0.0134727824479342,0.00915423594415188,0.0253095366060734,0.00260012946091592
110,0.0119968261569738,0.00572080351412296,0.0150536578148603,0.00463610654696822,0.0229498669505119,0.00244965078309178
111,0.0112220225855708,0.00524260709062219,0.0162313580513,-0.000688717176672071,0.0199708919972181,0.00332351587712765
112,0.0102994749322534,0.00897898152470589,0.01626006513834,-0.00237679970450699,0.0161918103694916,0.00505184754729271
113,0.00882392935454845,0.0130188800394535,0.0142664555460215,0.000325737171806395,0.0115299550816417,0.00627541495487094
114,0.0064574726857245,0.012852986343205,0.0105318790301681,0.00446642935276031,0.00721993064507842,0.00527097890153527
115,0.00400104001164436,0.00904515013098717,0.00680423574522138,0.00761942192912102,0.00481324596330523,0.0024231297429651
116,0.0026402052026242,0.00532291037961841,0.00515690352767706,0.0101336510851979,0.00492010312154889,-2.56670336966636E-05
117,0.00309123750776052,0.00318609341047704,0.00683958036825061,0.0134482840076089,0.00725694838911295,9.60829493124038E-06
118,0.00487288739532232,0.00175104197114706,0.0107985725626349,0.0171271450817585,0.00990843586623669,0.00285456841811538
119,0.00632136501371861,0.00115030258893967,0.01325689163059,0.0183902680873871,0.0107556451112032,0.00643424224108458
120,0.00700379628688097,0.0025060111656785,0.0125482194125652,0.0163625031709671,0.0108492393046618,0.00841596163809299
121,0.00793823041021824,0.00668245507404208,0.0105691906064749,0.0130284540355206,0.0124832158908248,0.00828492268919945
122,0.00967989582568407,0.0142242228612304,0.00873570051044226,0.00959640648216009,0.0152405817061663,0.0071828686632216
123,0.011951663531363,0.0214540287852287,0.00787780154496431,0.0072530647739768,0.018141333013773,0.00715440278872848
124,0.0140020465478301,0.0228983107954264,0.00870371051132679,0.00771157816052437,0.0208838023245335,0.00878656562417746
125,0.0150387557223439,0.0186300184577703,0.0101438071578741,0.0096794106066227,0.0215003173798323,0.0104048606008291
126,0.0145563231781125,0.0117778657004237,0.0102347293868661,0.00969574134796858,0.0193036627024412,0.0104218339547515
127,0.0131859453395009,0.00517709087580442,0.00891754124313593,0.00653654988855124,0.0170377139002085,0.00765907438471913
128,0.0121720870956779,0.000701633282005787,0.00729813519865274,0.000963626313023269,0.0160677805542946,0.000319555023452267
129,0.0112976171076298,-0.00111869862303138,0.00577922957018018,-0.005455591250211,0.0142439110204577,-0.0104436138644814
130,0.0100219426676631,0.000201988412300125,0.00448492122814059,-0.00964029505848885,0.0104133859276772,-0.0176138393580914
131,0.00763234542682767,0.00305382232181728,0.00216703419573605,-0.0103772152215242,0.00495395623147488,-0.0153113137930632
132,0.00392367551103234,0.00494688330218196,-0.00184349808841944,-0.00908842217177153,-0.00112134939990938,-0.00549366697669029
133,0.000953628623392433,0.00549138570204377,-0.00568367866799235,-0.00699822837486863,-0.00482350774109364,0.00467092450708151
134,0.000518333865329623,0.00470222346484661,-0.0072862864471972,-0.00510414084419608,-0.00374152651056647,0.00925984792411327
135,0.00179833697620779,0.00209164596162736,-0.00640335399657488,-0.0049312855117023,0.000187508165254258,0.00678264489397407
136,0.00243694451637566,-0.0026280980091542,-0.00524071371182799,-0.00807240884751081,0.00230551022104919,-0.000341075443429872
137,0.00245719007216394,-0.00735673168674111,-0.00469690095633268,-0.0127167664468288,0.00257627526298165,-0.00679402146488428
138,0.00356246368028224,-0.00874713156372309,-0.00347322807647288,-0.014788830652833,0.0046106418594718,-0.00878520030528307
139,0.00553313735872507,-0.00669447332620621,-0.00164387247059494,-0.0135081158950925,0.00859019905328751,-0.00725229689851403
140,0.00730075221508741,-0.00346684269607067,-8.60229192767292E-05,-0.0109696825966239,0.0118520548567176,-0.00468484964221716
141,0.0070945848710835,-0.00116673344746232,0.000166176236234605,-0.00958092976361513,0.0117623116821051,-0.0031504281796515
142,0.00368391699157655,-0.00045929939369671,-0.00201572105288506,-0.0103753199800849,0.00739363813772798,-0.00344905932433903
143,1.52418715515523E-05,0.000442312215454876,-0.00526283029466867,-0.0108984187245369,0.00125081965234131,-0.00338215567171574
144,2.15893778658938E-05,0.00402928981930017,-0.00677962740883231,-0.00848405342549086,-0.00275895604863763,-0.00134857883676887
145,0.00280933664180338,0.00944262370467186,-0.00628693960607052,-0.00435627484694123,-0.00420041894540191,0.000698882271535695
146,0.00506834639236331,0.0122884437441826,-0.00437826570123434,-0.000142297794809565,-0.0050623812712729,0.00162864301819354
147,0.00605604937300086,0.0112580386921763,-0.000445791345555335,0.00543110258877277,-0.00490298680961132,0.00327843450941145
148,0.00657911784946918,0.00964200403541327,0.00537349656224251,0.0143100479617715,-0.00266199745237827,0.0078425221145153
149,0.00694323750212789,0.00925254821777344,0.0118057494983077,0.0243494901806116,0.00133420084603131,0.0143171846866608
150,0.00713212601840496,0.00852794386446476,0.0165719427168369,0.0287942495197058,0.00711402809247375,0.0171953868120909
151,0.00776401627808809,0.00727260485291481,0.0176451597362757,0.0248330570757389,0.0144982235506177,0.012987457215786
152,0.00935016199946404,0.00722232880070806,0.0153375435620546,0.0167560856789351,0.0211450792849064,0.00342125864699483
153,0.0110350744798779,0.00873303413391113,0.0111685246229172,0.0081220343708992,0.0241141635924578,-0.00906667858362198
154,0.0123626878485084,0.0117981284856796,0.00648303935304284,7.81917115091346E-05,0.0237656068056822,-0.0212151240557432
155,0.0135054206475616,0.0149167664349079,0.00297205662354827,-0.00480585964396596,0.0225376114249229,-0.0285907313227654
156,0.0140400854870677,0.0144159216433764,0.00232212990522385,-0.00449446775019169,0.0216289833188057,-0.0303910747170448
157,0.01364984549582,0.00910582114011049,0.00393011048436165,-0.00075256556738168,0.0213832799345255,-0.0311362743377686
158,0.0126727018505335,0.00152766634710133,0.00472012767568231,0.00236103939823806,0.0223136283457279,-0.035786509513855
159,0.0113057540729642,-0.00578363286331296,0.00251371203921735,0.00205787410959601,0.0241950545459986,-0.0444202236831188
160,0.00977647490799427,-0.0117373364046216,-0.00217781309038401,-0.000991624314337969,0.0268215890973806,-0.0530499219894409
161,0.00919574592262506,-0.0145983342081308,-0.00753838289529085,-0.00333957513794303,0.0302462968975306,-0.0576882809400558
162,0.0100842453539371,-0.0134507035836577,-0.0121254213154316,-0.00309741613455117,0.0326084345579147,-0.057686410844326
163,0.012215075083077,-0.0109884710982442,-0.0151933049783111,-0.00180120964068919,0.0328732095658779,-0.0568363331258297
164,0.0152649460360408,-0.0102485725656152,-0.0166132785379887,-0.00146832829341292,0.0318121612071991,-0.0592483319342136
165,0.0175719205290079,-0.0111774271354079,-0.0174051430076361,-0.00254650018177927,0.0284108184278011,-0.0649211928248405
166,0.0178691204637289,-0.0109471110627055,-0.0184187777340412,-0.00275432271882892,0.0216799173504114,-0.0697855278849602
167,0.0178463831543922,-0.00654537323862314,-0.0185013338923454,0.00122045329771936,0.0148665551096201,-0.0698822513222694
168,0.0198764875531197,0.000631803646683693,-0.017282584682107,0.00727293826639652,0.0136487437412143,-0.0667059868574142
169,0.0234184358268976,0.00491415709257126,-0.0166506767272949,0.00982841104269028,0.0185245350003242,-0.0647393092513084
170,0.0261906031519175,0.00387345138005912,-0.0166306495666504,0.0095462603494525,0.0243503022938967,-0.0642048120498657
171,0.0270775910466909,0.00150610052514821,-0.0154206398874521,0.0102453082799912,0.0273756235837936,-0.0625713691115379
172,0.0260556749999523,-8.06102907517925E-05,-0.0132041927427053,0.011029758490622,0.027216786518693,-0.0598673820495605
173,0.0247337631881237,-0.00125980970915407,-0.010636305436492,0.0105317663401365,0.0270933825522661,-0.056586928665638
174,0.0248274244368076,0.000663463375531137,-0.00772753125056624,0.00965878460556269,0.0300689078867435,-0.0521107688546181
175,0.0254062935709953,0.00525694061070681,-0.00596841610968113,0.00869941338896751,0.0340144634246826,-0.0475292541086674
176,0.0252388156950474,0.0069376309402287,-0.00662856362760067,0.00762543734163046,0.0357748009264469,-0.0451421178877354
177,0.0247678924351931,0.00279050227254629,-0.00851124338805676,0.00680847140029073,0.0362278260290623,-0.0460507422685623
178,0.0245420150458813,-0.00386534002609551,-0.0100454185158014,0.00690701045095921,0.0383244156837463,-0.0493994802236557
179,0.0233830008655787,-0.00839462783187628,-0.0124054988846183,0.00756429135799408,0.0408237241208553,-0.0526922382414341
180,0.0201411414891481,-0.0111322794109583,-0.0175500474870205,0.00715166889131069,0.0392200797796249,-0.0540195815265179
181,0.0159841030836105,-0.0148636344820261,-0.024079967290163,0.00548543222248554,0.0327981747686863,-0.0534524880349636
182,0.0124019887298346,-0.0190696287900209,-0.0288037229329348,0.00432410510256886,0.0244703814387321,-0.0519290044903755
183,0.0098808566108346,-0.0211293026804924,-0.0302645452320576,0.00532739190384746,0.0173282958567142,-0.0506480894982815
184,0.00827113166451454,-0.0204096902161837,-0.0290684811770916,0.0082560982555151,0.013523455709219,-0.0500807464122772
185,0.00669901492074132,-0.0184497646987438,-0.0263859797269106,0.0106640150770545,0.0128738563507795,-0.0492450073361397
186,0.00477831624448299,-0.0163155980408192,-0.0230496600270271,0.0108971195295453,0.0137563813477755,-0.046655748039484
187,0.00311679183505476,-0.0139107499271631,-0.0195100996643305,0.00999184418469667,0.0154829360544682,-0.042276207357645
188,0.00173537526279688,-0.0112880859524012,-0.0163645688444376,0.00949378032237291,0.0165850520133972,-0.0382348857820034
189,0.000403973564971238,-0.00949196144938469,-0.0145993661135435,0.00937788002192974,0.0149531494826078,-0.036437701433897
190,-0.000431959488196298,-0.0102003300562501,-0.0145426541566849,0.00889931339770556,0.01170264929533,-0.0372693277895451
191,-5.79262487008236E-05,-0.0129038393497467,-0.0153747843578458,0.00932457391172647,0.0103177381679416,-0.039427500218153
192,0.00108205783180892,-0.0149144157767296,-0.0162283610552549,0.0116473138332367,0.0110979275777936,-0.0397633388638496
193,0.000944562314543873,-0.0158065035939217,-0.0170114524662495,0.0127547811716795,0.0103728622198105,-0.0363830029964447
194,-0.000650432892143726,-0.0162245128303766,-0.0168068092316389,0.0120852775871754,0.00704441219568253,-0.0295599568635225
195,-0.00184305256698281,-0.0140664279460907,-0.0145456027239561,0.0140059636905789,0.0041822218336165,-0.0206810366362333
196,-0.00221698684617877,-0.00882161408662796,-0.011903390288353,0.0182173512876034,0.00373139628209174,-0.0136599894613028
197,-0.0027023833245039,-0.00413664244115353,-0.0111777074635029,0.0196169521659613,0.00458042044192553,-0.0123138083145022
198,-0.00371511257253587,-0.00186414446216077,-0.0121007291600108,0.0163492076098919,0.00504465354606509,-0.0159357227385044
199,-0.00465137744322419,-0.000840317516122013,-0.0132771618664265,0.0107737081125379,0.00506286649033427,-0.0206187423318625
200,-0.00527659803628922,-0.000298177357763052,-0.0144977960735559,0.00577755179256201,0.00526043493300676,-0.023693360388279
201,-0.00684537272900343,0.000697837385814637,-0.0164104402065277,0.0020747990347445,0.00432443711906672,-0.0242878701537848
202,-0.00979696959257126,0.00434768060222268,-0.0188673604279757,-0.00102626264560968,0.000756109424401075,-0.0208178218454123
203,-0.0121377743780613,0.0097517054527998,-0.0204855743795633,-0.00317911501042545,-0.00255075981840491,-0.0134752886369824
204,-0.0127122178673744,0.0117597701027989,-0.0204826928675175,-0.0036573417019099,-0.00265808473341167,-0.00631202477961779
205,-0.0124296471476555,0.00857463292777538,-0.0191278755664825,-0.00208707340061665,-0.00248227291740477,-0.00185832567512989
206,-0.0110050225630403,0.00334338471293449,-0.0160705111920834,0.00156460760626942,-0.00297219445928931,0.000605627661570907
207,-0.0081147700548172,-0.00152284454088658,-0.0116515113040805,0.00595939112827182,-0.000897207472007722,0.00104224553797394
208,-0.00523722497746348,-0.00529426289722323,-0.00731255067512393,0.00935091264545918,0.00343990325927734,-0.00122115213889629
209,-0.00334005639888346,-0.00737278489395976,-0.00315706175751984,0.0111235091462731,0.00776640139520168,-0.00572879053652287
210,-0.00297203590162098,-0.00745263230055571,0.00108309753704816,0.012877294793725,0.00990731455385685,-0.0102400286123157
211,-0.00490097096189857,-0.00606240658089519,0.00400033500045538,0.0165685880929232,0.00799308530986309,-0.0121810091659427
212,-0.00816540420055389,-0.00513219041749835,0.00430647283792496,0.0200493149459362,0.00404499424621463,-0.0126116760075092
213,-0.0103234546259046,-0.00634325109422207,0.00256258528679609,0.0197203624993563,0.00195843540132046,-0.0140276020392776
214,-0.0110184578225017,-0.00933729577809572,-0.000486357341287658,0.0158035811036825,0.0027013192884624,-0.0165422894060612
215,-0.0116787729784846,-0.011970043182373,-0.00404741754755378,0.0115072187036276,0.00482208048924804,-0.0188675746321678
216,-0.0123628247529268,-0.011859767138958,-0.00698342267423868,0.0088293282315135,0.0064062112942338,-0.0191126968711615
217,-0.0121920416131616,-0.00787873566150665,-0.00941483769565821,0.00636444101110101,0.00668323459103704,-0.0164219383150339
218,-0.0110354600474238,0.000466921832412481,-0.0117050334811211,0.0031225080601871,0.0062982882373035,-0.0114260967820883
219,-0.0100886495783925,0.0116166174411774,-0.0137469992041588,0.000372564478311688,0.00480059860274196,-0.00515691330656409
220,-0.00996964797377586,0.0196838472038507,-0.0152379842475057,-0.00146626657806337,0.00174755416810513,0.000347419700119644
221,-0.00990789663046598,0.0198321212083101,-0.0149720348417759,-0.00287485565058887,-0.00105664890725166,0.00329504674300551
222,-0.0101447505876422,0.0142834214493632,-0.0126639846712351,-0.00451894896104932,-0.00228086113929749,0.00287851458415389
223,-0.011643098667264,0.00760683789849281,-0.0102558890357614,-0.00638083089143038,-0.00261108903214335,-0.0010439915349707
224,-0.0139323137700558,0.00192249729298055,-0.00898054335266352,-0.00634117517620325,-0.00281028100289404,-0.00603738846257329
225,-0.0155282029882073,-0.00174464413430542,-0.00813427567481995,-0.00330465869046748,-0.00386499031446874,-0.00804081931710243
226,-0.0155463358387351,-0.00304395821876824,-0.00744931120425463,0.000531500671058893,-0.00644051469862461,-0.00536572653800249
227,-0.0146826058626175,-0.00214159628376365,-0.0077892541885376,0.00237592519260943,-0.0101611828431487,-0.00013339045108296
228,-0.0145096909254789,0.000287816277705133,-0.00884728599339724,0.00238922517746687,-0.014815840870142,0.00477275066077709
229,-0.0156603921204805,0.00195851433090866,-0.00882269814610481,0.0034532118588686,-0.019579516723752,0.00867292657494545
230,-0.0168493408709764,0.00103477400261909,-0.00715942727401853,0.0069534070789814,-0.0226024705916643,0.0121673969551921
231,-0.0157439336180687,-0.00058779597748071,-0.00471043400466442,0.0116702867671847,-0.021644214168191,0.0155747588723898
232,-0.0119019262492657,0.000329310219967738,-0.00213617598637939,0.014983699657023,-0.0157803632318974,0.0179488509893417
233,-0.00766861019656062,0.00422651879489422,-0.000202753770281561,0.0145845282822847,-0.00840050354599953,0.0178167000412941
234,-0.0055207391269505,0.00897407159209251,-0.000179251626832411,0.0111299324780703,-0.00474191550165415,0.0160883888602257
235,-0.0064679435454309,0.0119565883651376,-0.0030484227463603,0.00606808112934232,-0.00608618184924126,0.013820881024003
236,-0.00960758794099092,0.0120421713218093,-0.00777172297239304,0.00031567265978083,-0.00992543902248144,0.00997687224298716
237,-0.0122497044503689,0.0103146899491549,-0.0108793033286929,-0.00370024959556758,-0.0130259152501822,0.00552716758102179
238,-0.0136781744658947,0.007235003169626,-0.0118021629750729,-0.00553351268172264,-0.0145858470350504,0.00118788972031325
239,-0.0150414044037461,0.00199486967176199,-0.0130074042826891,-0.00723292492330074,-0.015838360413909,-0.00573407718911767
240,-0.0151456650346518,-0.00329258106648922,-0.0136166317388415,-0.00791027024388313,-0.0162559151649475,-0.0139443939551711
241,-0.0124498130753636,-0.00262105837464333,-0.0116426656022668,-0.00609781127423048,-0.0145741505548358,-0.0161256343126297
242,-0.00895638018846512,0.0057074292562902,-0.00813004281371832,-0.00399110140278935,-0.0124240517616272,-0.00866797007620335
243,-0.00729994010180235,0.0154264057055116,-0.00531003717333078,-0.00353510538116097,-0.0127086965367198,0.00464094150811434
244,-0.00642374902963638,0.021142516285181,-0.00388074712827802,-0.0036818184889853,-0.0143981287255883,0.0186386164277792
245,-0.00479165185242891,0.0212153382599354,-0.0021652311552316,-0.00298556173220277,-0.0143924364820123,0.0306748654693365
246,-0.00321541214361787,0.0158837791532278,0.00109419028740376,-0.00212101149372756,-0.012406699359417,0.0394781567156315
247,-0.00302952970378101,0.00853930413722992,0.00399201549589634,-0.00254515698179603,-0.0111985523253679,0.0444813407957554
248,-0.00482733966782689,0.00357057806104422,0.00447632325813174,-0.00330515438690782,-0.0128601975739002,0.0472488030791283
249,-0.00726204318925738,0.00175378972198814,0.00402453960850835,-0.00183367123827338,-0.0149265611544251,0.0491359755396843
250,-0.00833945162594318,0.000587177870329469,0.00445713568478823,0.00233048968948424,-0.0147349340841174,0.0494830384850502
251,-0.00788372848182917,-0.00146278459578753,0.00444053020328283,0.00686878152191639,-0.0142410453408957,0.0481231287121773
252,-0.00736257992684841,-0.00428490713238716,0.00247025629505515,0.00939718168228865,-0.0168081969022751,0.0446006096899509
253,-0.00852383952587843,-0.00695840502157807,-0.000739900977350771,0.00879378709942102,-0.0232587493956089,0.0371386744081974
254,-0.0109620075672865,-0.00761399837210774,-0.00308606401085854,0.0058412910439074,-0.0294363368302584,0.0258223712444305
255,-0.0123716592788696,-0.00519629660993814,-0.00334319774992764,0.00252984324470162,-0.0296448729932308,0.0145506905391812
256,-0.0120459217578173,-0.00136647967156023,-0.00292053096927702,-0.000973322486970574,-0.0247172638773918,0.00769217405468225
257,-0.0105831744149327,0.00227155699394643,-0.0027390664909035,-0.00443948153406382,-0.0201008021831512,0.00724435690790415
258,-0.00826282147318125,0.00663312943652272,-0.00197594007477164,-0.00583499809727073,-0.0183424204587936,0.011897043325007
259,-0.00543441716581583,0.0113382982090116,-0.000926619279198349,-0.00511835841462016,-0.017719354480505,0.0164264813065529
260,-0.00202850182540715,0.0140777444466949,-0.000269938056590036,-0.00415899511426687,-0.0155817391350865,0.0167379435151815
261,0.00150068174116313,0.0148340901359916,-0.000516618543770164,-0.0048150010406971,-0.0125397341325879,0.0130883250385523
262,0.00340246176347137,0.0145294582471251,-0.00234182993881404,-0.00775899738073349,-0.0115012545138597,0.00866550486534834
263,0.0029511300381273,0.0126175386831164,-0.00460785534232855,-0.011253273114562,-0.0134119382128119,0.00660198321565986
264,0.000789678248111159,0.00930807180702686,-0.00599488522857428,-0.0140793770551682,-0.0176803674548864,0.00611192267388105
265,-0.00166762399021536,0.00686392560601234,-0.00678460393100977,-0.0159050859510899,-0.0230323746800423,0.00599098484963179
266,-0.00234645744785666,0.00665967026725411,-0.00699410727247596,-0.0159787312150002,-0.0265513770282269,0.0068264314904809
267,-0.00140696112066507,0.00702876131981611,-0.00698873866349459,-0.0159814190119505,-0.0275311414152384,0.00769074959680438
268,-0.000382681377232075,0.00650429259985685,-0.00771096954122186,-0.0185226015746593,-0.027924032881856,0.00791227724403143
269,0.00136881100479513,0.00618024775758386,-0.00921769347041845,-0.0228879414498806,-0.0269366428256035,0.00868420582264662
270,0.00448478339239955,0.00714633334428072,-0.0109665729105473,-0.0266788583248854,-0.0225546788424253,0.0108813773840666
271,0.00695296516641974,0.0079030767083168,-0.0123496847227216,-0.0289449542760849,-0.0164460577070713,0.0137821929529309
272,0.00727131264284253,0.00816807243973017,-0.0124023444950581,-0.028623029589653,-0.0123480455949903,0.0169529728591442
273,0.00698937010020018,0.00967781059443951,-0.0101029407233,-0.0248413160443306,-0.0119586158543825,0.0203966870903969
274,0.00737431226298213,0.010946593247354,-0.00559065584093332,-0.0196697562932968,-0.0149760851636529,0.0219647046178579
275,0.00737803196534514,0.0109081855043769,-4.97041583003011E-05,-0.0158784035593271,-0.0210401639342308,0.0199518650770187
276,0.0057566724717617,0.011452179402113,0.00421209307387471,-0.0146606266498566,-0.0291138365864754,0.01506491843611
277,0.00367563008330762,0.0149806402623653,0.00543510960415006,-0.0154911084100604,-0.0351522862911224,0.00912309717386961
278,0.00288997241295874,0.0202684327960014,0.00383188156411052,-0.0181108936667442,-0.0353755615651608,0.00416591577231884
279,0.00265524093993008,0.0208334270864725,0.000141464712214656,-0.0230859182775021,-0.0310437884181738,0.0018056184053421
280,0.00198838603682816,0.0154930306598544,-0.00426420103758574,-0.0291201751679182,-0.0261039584875107,0.00235412805341184
281,0.00119596335571259,0.0103935226798058,-0.00803277548402548,-0.0334547013044357,-0.0240326561033726,0.00458870735019445
282,0.000977764138951898,0.00958368834108114,-0.0105425249785185,-0.0335524901747704,-0.0260552335530519,0.00808126386255026
283,0.00117473723366857,0.0105069065466523,-0.0117918830364943,-0.0306060686707497,-0.0301652867347002,0.0115781491622329
284,1.75009026861517E-05,0.00695758173242211,-0.0135439774021506,-0.0307097490876913,-0.0337287187576294,0.0110363652929664
285,-0.00323485000990331,-0.00244623306207359,-0.0173647273331881,-0.0366812944412231,-0.0360001958906651,0.0052956067956984
286,-0.00635399622842669,-0.011837936937809,-0.0204911679029465,-0.0428436435759068,-0.0361723639070988,-0.000645559979602695
287,-0.00639054598286748,-0.0156695563346148,-0.0187658648937941,-0.0426016785204411,-0.0323487147688866,-0.00256986683234572
288,-0.00347577501088381,-0.0136823076754808,-0.013202684931457,-0.0360097251832485,-0.025888679549098,-0.00168802030384541
289,-4.77927424071822E-05,-0.00833646580576897,-0.00775104714557529,-0.0275609195232391,-0.0209084749221802,-0.000738644623197615
290,0.00267723365686834,-0.00312383216805756,-0.00389554654248059,-0.0207652822136879,-0.0191955175250769,-0.00132767506875098
291,0.00427809171378613,-0.00184935447759926,-0.00149385980330408,-0.0167886596173048,-0.0194300673902035,-0.00351405562832952
292,0.00495169078931212,-0.00353515218012035,-1.54728650159086E-06,-0.0146386250853539,-0.0185130201280117,-0.00424025021493435
293,0.00566934328526258,-0.00247918162494898,0.00172302429564297,-0.0113137122243643,-0.0152544872835279,0.00108568277209997
294,0.00649699801579118,0.00237562716938555,0.0040521384216845,-0.00663493573665619,-0.0115470103919506,0.0119660068303347
295,0.00715015176683664,0.00618015695363283,0.00658234301954508,-0.00400250218808651,-0.00855569168925285,0.022470423951745
296,0.00806253589689732,0.00736797554418445,0.00848924182355404,-0.00492519978433847,-0.00704685132950544,0.0292074214667082
297,0.0090599013492465,0.0101728951558471,0.00796577148139477,-0.00888790749013424,-0.00841901078820229,0.0327449329197407
298,0.00952475052326918,0.0172727312892675,0.00451337592676282,-0.0146328266710043,-0.0123731000348926,0.0345197692513466
299,0.0091351680457592,0.024928379803896,-0.000270339369308203,-0.0201390571892262,-0.0171046406030655,0.0359193384647369
300,0.00728288479149342,0.0282163992524147,-0.00481205154210329,-0.0243009421974421,-0.0208865255117416,0.0360628366470337
301,0.00415947707369924,0.0253733415156603,-0.00730275781825185,-0.0266730580478907,-0.0228630900382996,0.032892607152462
302,0.00113004248123616,0.0174684282392263,-0.00636409875005484,-0.0260226894170046,-0.023321969434619,0.0279970001429319
303,-7.34746936359443E-05,0.00855763629078865,-0.00304412958212197,-0.0218364652246237,-0.0218094494193792,0.0250352099537849
304,0.000873089767992496,0.00213047186844051,-4.57852547697257E-05,-0.016370752826333,-0.0172222089022398,0.0246903635561466
305,0.00194987340364605,-0.00156093155965209,0.000734974397346377,-0.0128780622035265,-0.0111285364255309,0.0252971425652504
306,0.00173293496482074,-0.00336630223318934,-0.000269653770374134,-0.0125900050625205,-0.00645766360685229,0.0246741622686386
307,0.00111829489469528,-0.00322336074896157,-0.00123284908477217,-0.0139590371400118,-0.00390198035165668,0.0222335290163755
308,0.00143295724410564,-0.00119254493620247,-0.00109334604348987,-0.0145971169695258,-0.00287009542807937,0.0202158652245998
309,0.00333165936172009,0.00182572461199015,0.000418756593717262,-0.0136241624131799,-0.00265181344002485,0.0207108408212662
310,0.0067001897841692,0.00564774172380567,0.00361765990965068,-0.0111748892813921,-0.00294600916095078,0.024236561730504
311,0.010563007555902,0.0102627659216523,0.00811037607491016,-0.00751120410859585,-0.00391674321144819,0.0299358256161213
312,0.0143171716481447,0.0143877174705267,0.0125404316931963,-0.00351079367101192,-0.0050617647357285,0.0354286059737206
313,0.0173164997249842,0.0157184023410082,0.015390882268548,-0.00102769106160849,-0.00651278253644705,0.0379350259900093
314,0.0186474602669477,0.0144798727706075,0.0162964016199112,-0.000122212601127103,-0.00940916407853365,0.0378664657473564
315,0.0179988034069538,0.0138754220679402,0.0152078699320555,0.00240215961821377,-0.0144521556794643,0.0383516848087311
316,0.0154291810467839,0.0143386675044894,0.011783042922616,0.00685612391680479,-0.0200863406062126,0.0388648249208927
317,0.0116732697933912,0.0138281462714076,0.00769835663959384,0.00880823191255331,-0.0230661779642105,0.0362698324024677
318,0.00782981887459755,0.0132375499233603,0.00579860620200634,0.00637926766648889,-0.0223612114787102,0.031612366437912
319,0.00469884648919106,0.016936581581831,0.00662731472402811,0.0018403249559924,-0.0198848247528076,0.0291262529790401
320,0.00290507380850613,0.0252675134688616,0.00839910842478275,-0.00279958336614072,-0.0175798255950212,0.031074171885848
321,0.00308164046145976,0.0316651798784733,0.00941422395408154,-0.00654365867376328,-0.0147902350872755,0.036342691630125
322,0.00517775164917111,0.0314388163387775,0.00844195671379566,-0.00972940400242805,-0.00987520441412926,0.0407862886786461
323,0.00793285202234983,0.025557016953826,0.00558034377172589,-0.0131187904626131,-0.00343367550522089,0.0415350906550884
324,0.00999720674008131,0.0173425246030092,0.0027086001355201,-0.0154020888730884,0.00223706080578268,0.0402606204152107
325,0.0110813053324819,0.00915523711591959,0.00140282954089344,-0.0152914458885789,0.00608367146924138,0.038060087710619
326,0.0110771441832185,0.00164646015036851,0.00207975902594626,-0.0134917460381985,0.00782355107367039,0.0338976569473743
327,0.00962175521999598,-0.00384247326292098,0.00450407993048429,-0.0107427826151252,0.00625016400590539,0.0289768110960722
328,0.00704028643667698,-0.00532162003219128,0.00763766281306744,-0.00745491264387965,0.0014485860010609,0.0262912511825562
329,0.00325766718015075,-0.00284859421662986,0.00859978143125772,-0.00549289351329207,-0.00480850879102945,0.0264710132032633
330,-0.00223761121742427,0.00163395318668336,0.00516742188483477,-0.00694929203018546,-0.0111485915258527,0.0281237345188856
331,-0.00818907283246517,0.00650186836719513,-0.000611423398368061,-0.0106978425756097,-0.0166447944939137,0.0311963781714439
332,-0.0123074660077691,0.0106255766004324,-0.00479554478079081,-0.0134667037054896,-0.0200405139476061,0.0358402170240879
333,-0.0135028567165136,0.0138825476169586,-0.00527412537485361,-0.0133280269801617,-0.0201664790511131,0.041035071015358
334,-0.0122709264978766,0.0160475838929415,-0.00317498133517802,-0.0103946104645729,-0.017239473760128,0.0450454019010067
335,-0.00958222709596157,0.0150331854820251,-0.000953265756834298,-0.00642717489972711,-0.0134826377034187,0.0458597019314766
336,-0.00724495481699705,0.00976597517728806,-0.000265970797045156,-0.00437481608241796,-0.0123162921518087,0.0430370196700096
337,-0.00682639656588435,0.00377776520326734,-0.00189092010259628,-0.00490167597308755,-0.0149413188919425,0.0391410142183304
338,-0.00688652694225311,0.00226997071877122,-0.00410360470414162,-0.0052153286524117,-0.0182985607534647,0.036869078874588
339,-0.00587128195911646,0.00532484753057361,-0.00441844947636127,-0.00469532608985901,-0.0190965309739113,0.035211730748415
340,-0.00440441770479083,0.00936420261859894,-0.00274636666290462,-0.00510021904483438,-0.0168758723884821,0.0330415107309818
341,-0.00274109770543873,0.0132238613441586,-0.000541615765541792,-0.00647490564733744,-0.0127411847934127,0.0321228504180908
342,-0.00114145618863404,0.0176217332482338,0.000293499557301402,-0.00794421136379242,-0.00902826525270939,0.0332189202308655
343,-0.000917592959012836,0.0208206679672003,-0.000979750184342265,-0.00844575557857752,-0.00745896436274052,0.0349522195756435
344,-0.00193947379011661,0.0204542763531208,-0.00232741492800415,-0.00660499697551131,-0.00717352703213692,0.0363713018596172
345,-0.00258592050522566,0.0171861257404089,-0.00193822244182229,-0.00392856681719422,-0.00701661221683025,0.0354752205312252
346,-0.00184441229794174,0.0131105501204729,-0.000446984864538535,-0.00310807675123215,-0.0071507696993649,0.0306406747549772
347,-0.000603152147959918,0.0105886142700911,0.000527552212588489,-0.00462324777618051,-0.00933428108692169,0.0240804068744183
348,-0.000924070307519287,0.00970482360571623,-0.000230893667321652,-0.00939741358160973,-0.0143713345751166,0.0183087065815926
349,-0.00243877037428319,0.00824489165097475,-0.00209667626768351,-0.0166954509913921,-0.0185440313071013,0.014581355266273
350,-0.00328636798076332,0.00539670838043094,-0.00322839454747736,-0.0227959956973791,-0.0178336352109909,0.0132733145728707
351,-0.00386763270944357,0.000818452797830105,-0.00299248588271439,-0.0260185804218054,-0.0142093803733587,0.0124089103192091
352,-0.00445633754134178,-0.00479428423568606,-0.00166119704954326,-0.0270295087248087,-0.0114772580564022,0.0101738497614861
353,-0.00357757415622473,-0.00879683252424002,0.000583297747652978,-0.0270079765468836,-0.00952724274247885,0.00703503657132387
354,-0.00201817788183689,-0.00982855260372162,0.00196032295934856,-0.0273736920207739,-0.00856989994645119,0.00380226457491517
355,-0.00209504761733115,-0.0081917243078351,-7.888311665738E-05,-0.0282394606620073,-0.00984482280910015,0.000985664082691073
356,-0.0037539245095104,-0.00468322169035673,-0.00492311734706163,-0.0285292509943247,-0.0116151599213481,-0.000364852836355567
357,-0.00574197201058269,-0.000962748483289033,-0.00947649497538805,-0.0273249428719282,-0.0117913810536265,0.000782644492574036
358,-0.00709554273635149,0.0014361118664965,-0.0119078094139695,-0.024745823815465,-0.00984168145805597,0.0047929584980011
359,-0.00740984035655856,0.0035816936288029,-0.0124848065897822,-0.0216880179941654,-0.00651940051466227,0.0121069634333253
360,-0.00711764208972454,0.00825996045023203,-0.0122693907469511,-0.0183497238904238,-0.00414107274264097,0.0221631526947021
361,-0.00663781352341175,0.0154736004769802,-0.0107334703207016,-0.0135606471449137,-0.00418359087780118,0.0328764542937279
362,-0.00611630128696561,0.0222007147967815,-0.00692269206047058,-0.00669735856354237,-0.00613350374624133,0.0418602414429188
363,-0.00498472154140472,0.0268424469977617,-0.00270526297390461,-0.000203920440981165,-0.00872762408107519,0.0466974563896656
364,-0.00278797722421587,0.0281522609293461,-0.000684044323861599,0.00214810413308442,-0.0107500944286585,0.0456768348813057
365,-0.000465937308035791,0.0236438419669867,-0.000765432778280228,-0.000203571951715276,-0.0113845402374864,0.0390686430037022
366,0.000707654282450676,0.0140958921983838,-0.00118954700883478,-0.00401606038212776,-0.0109883099794388,0.0298258904367685
367,0.000532115169335157,0.00310025434009731,-0.00132904411293566,-0.00639304099604487,-0.0105258096009493,0.0213436521589756
368,3.74898554582614E-05,-0.00654660165309906,-0.00187952828127891,-0.00721457041800022,-0.0102039696648717,0.0146938376128674
369,2.14431456697639E-05,-0.0133116943761706,-0.00292486790567636,-0.00752417556941509,-0.0097729004919529,0.00853140000253916
370,0.000650396279525012,-0.0171685982495546,-0.00241686054505408,-0.00799611676484346,-0.00852504186332226,0.00123164150863886
371,0.00223048822954297,-0.0185073837637901,0.00104289513546973,-0.00905188638716936,-0.00566228479146957,-0.00616411259397864
372,0.00455661816522479,-0.016820915043354,0.00505099212750793,-0.0110628381371498,-0.00196933932602406,-0.0106108048930764
373,0.0063478765077889,-0.0126539599150419,0.0059843729250133,-0.0141542237251997,0.000390998611692339,-0.0103832576423883
374,0.00676089804619551,-0.00782316084951162,0.0036398908123374,-0.0172559767961502,0.00150671147275716,-0.00510715134441853
375,0.00652575585991144,-0.00360990222543478,0.00147483369801193,-0.018479386344552,0.0037158525083214,0.00414529303088784
376,0.00585157936438918,-0.00171968946233392,0.000844566791784018,-0.0171874985098839,0.006631416734308,0.0129165798425674
377,0.00392394186928868,-0.00266394531354308,0.000425870646722615,-0.0134407402947545,0.00750997243449092,0.016849871724844
378,0.00138461496680975,-0.00349913816899061,0.000773840176407248,-0.00769288465380669,0.00527376355603337,0.0160683859139681
379,-0.000672092312015593,-0.0016403472982347,0.00234006298705935,-0.0033141546882689,0.000712097680661827,0.0128142945468426
380,-0.00202491274103522,0.00258323457092047,0.00402271142229438,-0.00295486859977245,-0.00368360057473183,0.00972552411258221
381,-0.0017382021760568,0.00903913099318743,0.00564856734126806,-0.0041399048641324,-0.00487012322992086,0.0111785409972072
382,0.000819021661300212,0.0176100097596645,0.00752090243622661,-0.00340980105102062,-0.00282972934655845,0.0191555023193359
383,0.00402307091280818,0.024894505739212,0.00921085197478533,-0.000957165670115501,0.000112880057713483,0.0287449024617672
384,0.00597979035228491,0.0269486382603645,0.00983363855630159,-0.000203250907361507,0.00216516177169979,0.0335357449948788
385,0.00644730543717742,0.0227431375533342,0.00894144736230373,-0.00331348134204745,0.00280986865982413,0.0313404761254787
386,0.00679467711597681,0.0148276500403881,0.00845055654644966,-0.00705651799216866,0.00320415757596493,0.0249776616692543
387,0.0084946071729064,0.00765224453061819,0.0102832168340683,-0.00717866839841008,0.00459577655419707,0.0188581086695194
388,0.0106902867555618,0.00274222320877016,0.0120448814705014,-0.00519122974947095,0.00551314419135451,0.0127413896843791
389,0.0114277042448521,-0.000650037603918463,0.0113012688234448,-0.00429855473339558,0.00246587791480124,0.00491023482754827
390,0.0103861810639501,-0.00214947550557554,0.00925549864768982,-0.00426764413714409,-0.00440090289339423,-0.00265345419757068
391,0.00893614254891872,-0.00129459775052965,0.00697184726595879,-0.00422633392736316,-0.00998168345540762,-0.00734918005764484
392,0.0089742187410593,0.00169254827778786,0.00498998397961259,-0.00397670175880194,-0.0101239420473576,-0.00774167384952307
393,0.0106875486671925,0.00587846338748932,0.00434496998786926,-0.00294363964349031,-0.00509810261428356,-0.00321404985152185
394,0.0121166985481977,0.00910798460245132,0.00479301763698459,-0.000818545930087566,0.00181542697828263,0.00490497006103396
395,0.0129106733947992,0.0104545308277011,0.00606881221756339,0.00221018888987601,0.00845854356884956,0.0144696366041899
396,0.0140814976766706,0.0119761908426881,0.0083665307611227,0.00581977050751448,0.0135953882709146,0.0241032913327217
397,0.0149569790810347,0.0152613744139671,0.0104888845235109,0.00966900121420622,0.0148415621370077,0.0320267342031002
398,0.0147308651357889,0.0181262250989676,0.0113866049796343,0.0122414184734225,0.0123713137581944,0.0350582413375378
399,0.0137612484395504,0.0180725958198309,0.0116920424625278,0.0110842939466238,0.0101752253249288,0.0313626155257225
400,0.0125150680541992,0.016346400603652,0.0119014568626881,0.00631029345095158,0.0108872856944799,0.0241891294717789
401,0.0115184877067804,0.0149942757561803,0.0117237623780966,0.000903132720850408,0.0134077267721295,0.0191343612968922
402,0.0110754892230034,0.0142499012872577,0.0110316593199968,-0.00282622128725052,0.0158886704593897,0.0180171467363834
403,0.0106809427961707,0.0132722742855549,0.00971813034266233,-0.00351723795756698,0.0179221369326115,0.0194091033190489
404,0.00982853304594755,0.0122285783290863,0.00775311840698123,-0.00138111098203808,0.0195535700768232,0.0225068219006062
405,0.00879978761076927,0.0120749557390809,0.00600865948945284,0.000889842805918306,0.01999182254076,0.0271587204188108
406,0.00846492219716311,0.0114719457924366,0.00633685663342476,0.0026265901979059,0.0185544304549694,0.0324751697480679
407,0.00960786174982786,0.00962915550917387,0.00925162900239229,0.00558509398251772,0.0162158329039812,0.0363297984004021
408,0.0118353590369225,0.00709041580557823,0.0125119891017675,0.00856380816549063,0.0146791050210595,0.0348579809069633
409,0.0139322206377983,0.00399469910189509,0.0142990266904235,0.008987782523036,0.0142241921275854,0.0265137236565351
410,0.0158012211322784,0.0015764303971082,0.0150707680732012,0.0072373510338366,0.0145854623988271,0.015509907156229
411,0.0175421461462975,0.000331335788359866,0.0155020421370864,0.00464275199919939,0.0163573957979679,0.00698166806250811
412,0.0176263581961393,-0.000658256467431784,0.0149379810318351,0.0015367662999779,0.0186553206294775,0.00269676954485476
413,0.0151431290432811,-0.00178625527769327,0.0131697794422507,-0.00135734840296209,0.0195695944130421,0.00166100426577032
414,0.0117728542536497,-0.00280745048075914,0.0120498863980174,-0.00292894267477095,0.0189989786595106,0.00219461717642844
415,0.00935754552483559,-0.00382533203810453,0.0124772228300571,-0.00384125392884016,0.0165987107902765,0.00273314956575632
416,0.00833697710186243,-0.00371884601190686,0.0137127246707678,-0.00409736903384328,0.0120784165337682,0.00423268368467689
417,0.0081507982686162,-0.000467851990833879,0.0143578983843327,-0.00293710548430681,0.00753601221367717,0.00829971861094236
418,0.00845710840076208,0.00544861331582069,0.0127628054469824,-0.00157637533266097,0.00555820763111115,0.0126183740794659
419,0.0098191499710083,0.0111000016331673,0.00953879673033953,-0.000390783505281433,0.00650646770372987,0.0151961669325829
420,0.0123658655211329,0.0135494638234377,0.0069017824716866,0.00113867444451898,0.00909250136464834,0.0176738519221544
421,0.0154683208093047,0.0128180589526892,0.00597821548581123,0.00254715536721051,0.0116521026939154,0.0224368497729301
422,0.0172797776758671,0.0117312856018543,0.006227714009583,0.00301774777472019,0.0118207903578877,0.0285560954362154
423,0.0162950195372105,0.0126755842939019,0.00678520835936069,0.00234302575699985,0.00923036597669125,0.031737320125103
424,0.0137416049838066,0.0152731761336327,0.0071492763236165,0.00109612650703639,0.0058369361795485,0.0291789174079895
425,0.0115226414054632,0.0170649085193872,0.00611976347863674,-0.000881787738762796,0.00241034547798336,0.021368607878685
426,0.0102864177897573,0.0153883481398225,0.00260207313112915,-0.00395683525130153,-0.000752196181565523,0.0107610523700714
427,0.0102884462103248,0.0104229729622602,-0.00157290452625602,-0.00603048922494054,-0.00252413982525468,0.000808934448286891
428,0.0112811177968979,0.00600107479840517,-0.00321857654489577,-0.00555586349219084,-0.00285253277979791,-0.00655322708189487
429,0.0129265263676643,0.00379419699311256,-0.00133635872043669,-0.00390180689282715,-0.00117209798190743,-0.0120206968858838
430,0.0144886635243893,0.00143906963057816,0.0026305306237191,-0.00183481280691922,0.00277013657614589,-0.0172574110329151
431,0.0144215514883399,-0.0031274426728487,0.00665472727268934,0.00050062092486769,0.00565710151568055,-0.0232098083943129
432,0.0135939428582788,-0.0093030882999301,0.0101567497476935,0.00217802240513265,0.00634887535125017,-0.0280100088566542
433,0.0133075583726168,-0.0149996774271131,0.0124339237809181,0.00236758147366345,0.00657453807070851,-0.0281413812190294
434,0.012362327426672,-0.0171022322028875,0.0118237221613526,0.0012433334486559,0.00610966281965375,-0.0215734895318747
435,0.00937121640890837,-0.0133226420730352,0.00795622449368238,0.000136013681185432,0.00456683896481991,-0.00894178729504347
436,0.00443430338054895,-0.00524163478985429,0.00266850646585226,0.000488857680466026,0.00347396591678262,0.0058131949044764
437,-0.000207367746043019,0.00389655865728855,-0.00107176206074655,0.00281305285170674,0.00539353862404823,0.0184732601046562
438,-0.00229434762150049,0.0102090062573552,-0.00162186520174146,0.00475658569484949,0.0116730313748121,0.0248345006257296
439,-0.00105160172097385,0.0108906989917159,0.000991766806691885,0.00262685585767031,0.0217114239931107,0.0204329248517752
440,0.00311080296523869,0.00784357823431492,0.00541644264012575,-0.00308971107006073,0.0317649245262146,0.00720320176333189
441,0.00775808142498136,0.00368654215708375,0.00766136264428496,-0.00951835233718157,0.0354000367224216,-0.008134501054883
442,0.0105007132515311,-0.00112712557893246,0.00472173513844609,-0.0153130702674389,0.0306023322045803,-0.0212038364261389
443,0.0114958751946688,-0.00461932178586721,-0.00112121913116425,-0.0195432342588902,0.0228233449161053,-0.0306957084685564
444,0.0118657518178225,-0.00522004347294569,-0.00588118843734264,-0.0219199042767286,0.0182626619935036,-0.0376713611185551
445,0.0122100496664643,-0.00461113872006536,-0.00777813512831926,-0.022247888147831,0.017833448946476,-0.0427141711115837
446,0.0127876335754991,-0.00412095850333571,-0.00703428778797388,-0.0199535079300404,0.0185329765081406,-0.0443095974624157
447,0.0134898293763399,-0.00523866713047028,-0.00502281077206135,-0.0149241788312793,0.0181581098586321,-0.0420430339872837
448,0.0137734012678266,-0.0094872647896409,-0.00398864457383752,-0.00781603623181582,0.0167968608438969,-0.0389781594276428
449,0.0128131145611405,-0.0153062846511602,-0.00525853922590613,-0.00120464258361608,0.0145706729963422,-0.0406460613012314
450,0.0106553146615624,-0.0208024047315121,-0.00713685248047113,0.00237479386851192,0.0111464792862535,-0.0498760528862476
451,0.00859640631824732,-0.0260872729122639,-0.00851625669747591,0.00185003876686096,0.00731625221669674,-0.0646775290369987
452,0.0074529554694891,-0.0319613106548786,-0.0110929263755679,-0.00262885517440736,0.00386745180003345,-0.0819955319166183
453,0.00753376074135304,-0.0377969443798065,-0.0149496616795659,-0.00791393406689167,0.000812464859336615,-0.0981891080737114
454,0.00893687829375267,-0.0413776747882366,-0.0189676638692617,-0.0109707294031978,-0.00205293041653931,-0.109022952616215
455,0.0109880650416017,-0.0397018454968929,-0.0234431903809309,-0.0118980314582586,-0.00489124469459057,-0.112499445676804
456,0.0134297050535679,-0.0304570589214563,-0.0274085532873869,-0.0107495291158557,-0.00649013230577111,-0.108497150242329
457,0.0154172852635384,-0.0181248914450407,-0.0292689483612776,-0.00767921609804034,-0.00538804149255157,-0.0989857539534569
458,0.0156232239678502,-0.0112589653581381,-0.029536159709096,-0.00464772339910269,-0.00173884863033891,-0.0888149067759514
459,0.0145980576053262,-0.0124573381617665,-0.0296835340559483,-0.0035593172069639,0.00307818525470793,-0.082939937710762
460,0.0133646782487631,-0.0187703762203455,-0.0296010356396437,-0.00419124448671937,0.00778238708153367,-0.0836214795708656
461,0.0120130982249975,-0.025775421410799,-0.0279768370091915,-0.00517122866585851,0.0120330359786749,-0.0892494916915894
462,0.010222521610558,-0.0299071371555328,-0.0253817737102509,-0.00551171181723475,0.0147624434903264,-0.0956943556666374
463,0.00795696396380663,-0.0308428686112165,-0.0241137277334929,-0.00485953642055392,0.0143727501854301,-0.101273290812969
464,0.00555526139214635,-0.0318820960819721,-0.0253555923700333,-0.0039325300604105,0.0113855050876737,-0.107791513204575
465,0.00322766602039337,-0.0363262742757797,-0.0282747000455856,-0.00345170754007995,0.00758709385991097,-0.114818595349789
466,0.00169491395354271,-0.0424850843846798,-0.0316193960607052,-0.00345655111595988,0.0042859073728323,-0.119431868195534
467,0.00268762116320431,-0.0459152609109879,-0.0344644971191883,-0.0027460278943181,0.0026988941244781,-0.121284559369087
468,0.00604552729055285,-0.045370738953352,-0.0363516956567764,0.000381895137252286,0.00247717485763133,-0.122619330883026
469,0.00861603580415249,-0.0434725135564804,-0.0378919616341591,0.00525239296257496,0.00163778522983193,-0.124510832130909
470,0.00827175565063953,-0.0427112728357315,-0.0400106012821198,0.00937167927622795,-0.000448843347840011,-0.126153975725174
471,0.00571335991844535,-0.0425064191222191,-0.042991541326046,0.0114968651905656,-0.00263616512529552,-0.126079678535461
472,0.00324013130739331,-0.0413801893591881,-0.0461553148925304,0.0119620682671666,-0.00286577176302671,-0.122896686196327
473,0.00259943911805749,-0.0389459729194641,-0.0479973629117012,0.0117284543812275,-5.24852512171492E-05,-0.116836376488209
474,0.00392060820013285,-0.0338691025972366,-0.0464733056724072,0.0125519027933478,0.00500207860022783,-0.109915442764759
475,0.00608897162601352,-0.0266412049531937,-0.0409875698387623,0.0146282156929374,0.0106966383755207,-0.105651527643204
476,0.00825913343578577,-0.0212155859917402,-0.0336060337722301,0.0166593585163355,0.0158401597291231,-0.106419570744038
477,0.0108044790104032,-0.020394230261445,-0.0269993115216494,0.0188599266111851,0.0199511870741844,-0.111094631254673
478,0.0133183002471924,-0.0245678145438433,-0.0229959022253752,0.0212769918143749,0.0224901717156172,-0.117530480027199
479,0.0148406261578202,-0.0303755402565002,-0.0223905928432941,0.0232053659856319,0.0238729529082775,-0.122971437871456
480,0.0145669188350439,-0.0327114872634411,-0.025114867836237,0.0245725233107805,0.0241334848105907,-0.124591827392578
481,0.012577086687088,-0.0308764092624187,-0.029021829366684,0.0266589112579823,0.0231874641031027,-0.121844358742237
482,0.010206202045083,-0.027142059057951,-0.0307017900049686,0.0302451606839895,0.0231326147913933,-0.118504226207733
483,0.00791943073272705,-0.0236983858048916,-0.0283148493617773,0.0331569239497185,0.024749718606472,-0.119958832859993
484,0.00521263014525175,-0.0232677701860666,-0.0224436651915312,0.0342587493360043,0.0259717535227537,-0.124972499907017
485,0.00216606445610523,-0.0263419356197119,-0.0163335409015417,0.035726360976696,0.0254118572920561,-0.126848265528679
486,-0.000224854520638473,-0.0309156365692616,-0.0133847650140524,0.0393870994448662,0.0235335174947977,-0.121383965015411
487,-0.00110583833884448,-0.0361821241676807,-0.0137883219867945,0.0436995625495911,0.0222569331526756,-0.110143043100834
488,-0.000643819512333721,-0.0419683381915092,-0.0161526631563902,0.0445961952209473,0.0228149183094502,-0.0987276434898376
489,0.00017063035920728,-0.0471441969275475,-0.019734364002943,0.04073566198349,0.0231589078903198,-0.0915564969182014
490,0.000643687322735786,-0.0500027425587177,-0.022983031347394,0.0358321964740753,0.0214976239949465,-0.0901230499148369
491,0.000538304389920086,-0.0495672672986984,-0.0242340378463268,0.0338806696236134,0.019348006695509,-0.0941804125905037
492,0.000165815174113959,-0.0459563210606575,-0.0235536471009254,0.0349828898906708,0.0190795846283436,-0.0993859842419624
493,0.00101141666527838,-0.0389381125569344,-0.021961422637105,0.0357303693890572,0.021709356456995,-0.0983656346797943
494,0.00420373119413853,-0.0293498616665602,-0.0200878120958805,0.0332187227904797,0.0263917502015829,-0.0892237648367882
495,0.00877516064792871,-0.0209568180143833,-0.0181744229048491,0.0286726746708155,0.0306817684322596,-0.0775690302252769
496,0.0125688286498189,-0.0178155452013016,-0.0166610479354858,0.0247449092566967,0.0328955017030239,-0.0693169757723808
497,0.014537108130753,-0.0204279031604528,-0.0150646446272731,0.0222709942609072,0.0335904285311699,-0.0662202760577202
498,0.0148476706817746,-0.0252035427838564,-0.0129404291510582,0.0213131383061409,0.0335181131958961,-0.0658325701951981
499,0.0135000646114349,-0.0275044590234756,-0.011546578258276,0.0217941291630268,0.0320070311427116,-0.064394511282444
500,0.0109276566654444,-0.0254042688757181,-0.0113927945494652,0.0227293893694878,0.028503542765975,-0.0616401843726635
501,0.00796352978795767,-0.0218760594725609,-0.0113214524462819,0.0233026035130024,0.0242516305297613,-0.0600955411791801
502,0.00532899191603065,-0.0203163996338844,-0.00984009727835655,0.0253107510507107,0.0211346223950386,-0.0596813857555389
503,0.00373599072918296,-0.0201987475156784,-0.00648650992661715,0.0296803768724203,0.0188176110386848,-0.0586944706737995
504,0.00282089971005917,-0.0215630698949099,-0.003170863725245,0.0331912450492382,0.0151805439963937,-0.0567215457558632
505,0.00224454351700842,-0.0243206694722176,-0.00213568890467286,0.0340884067118168,0.0106884744018316,-0.0535375960171223
506,0.00281702913343906,-0.0251452270895243,-0.00249132979661226,0.0349203497171402,0.0082129230722785,-0.0505090653896332
507,0.00516976695507765,-0.0233714301139116,-0.000748053484130651,0.0374268442392349,0.00933401752263308,-0.0506230369210243
508,0.00895712058991194,-0.0211856216192245,0.00400757696479559,0.0404563099145889,0.0132585065439343,-0.0538729690015316
509,0.012556922622025,-0.0199306719005108,0.00846822652965784,0.0420529320836067,0.0174277722835541,-0.0574250109493732
510,0.0139571418985724,-0.0208689477294683,0.0089763356372714,0.0400181710720062,0.0189294945448637,-0.0590952783823013
511,0.0136212753131986,-0.022007517516613,0.00566588016226888,0.0347984656691551,0.0178613904863596,-0.0563607960939407
512,0.0140581652522087,-0.0192966908216476,0.00192274549044669,0.0286695305258036,0.0179343931376934,-0.048338420689106
513,0.0154639193788171,-0.0143434768542647,-0.00107976328581572,0.0210996475070715,0.0210184343159199,-0.040132075548172
514,0.0162359587848186,-0.0119670489802957,-0.0040211034938693,0.0128356972709298,0.0253593120723963,-0.0366049371659756
515,0.0159428585320711,-0.0128259714692831,-0.00615326687693596,0.00782168563455343,0.0290202479809523,-0.0360810123383999
516,0.0150602338835597,-0.0134358070790768,-0.00618826830759645,0.00806652754545212,0.0314153470098972,-0.0344668924808502
517,0.014149441383779,-0.011164041236043,-0.00452772388234735,0.0118861133232713,0.0311981085687876,-0.0293664298951626
518,0.0141211552545428,-0.00744286039844155,-0.00314051657915115,0.0160865597426891,0.0279068592935801,-0.0212038494646549
519,0.0154152670875192,-0.00511653255671263,-0.00240183318965137,0.0189849324524403,0.0247089117765427,-0.0138742215931416
520,0.0168024227023125,-0.00531075289472938,-0.0011434534098953,0.0203064456582069,0.0235117357224226,-0.0122674033045769
521,0.0174931082874537,-0.00722559774294496,0.00117791420780122,0.0209885705262423,0.0238659474998713,-0.0166382696479559
522,0.0178839676082134,-0.00817121379077435,0.00384115264751017,0.0220022462308407,0.0251084547489882,-0.022869348526001
523,0.0178878623992205,-0.0072014001198113,0.0053396332077682,0.0214069299399853,0.0261272881180048,-0.0279850699007511
524,0.0169565714895725,-0.00807995349168777,0.00508758565410972,0.0174771510064602,0.0261076297610998,-0.0308271534740925
525,0.0146382702514529,-0.0126835145056248,0.00354964542202652,0.0119653157889843,0.02365343272686,-0.0299384016543627
526,0.0112355249002576,-0.0173145793378353,0.00162587722297758,0.00778501108288765,0.0181093867868185,-0.0251845866441727
527,0.00863469578325748,-0.0186521727591753,0.00111101823858917,0.00666824728250504,0.0119146192446351,-0.0196030810475349
528,0.0088258059695363,-0.0157468449324369,0.00316482386551797,0.00868311710655689,0.0078318053856492,-0.0159716363996267
529,0.0112102283164859,-0.00790263526141644,0.00655472790822387,0.0124369766563177,0.00622855871915817,-0.0145615404471755
530,0.01382134296,0.00156317465007305,0.00962810963392258,0.0163401272147894,0.0067328168079257,-0.0152973234653473
531,0.0157599020749331,0.00508585199713707,0.0115207368507981,0.019831845536828,0.00892574526369572,-0.0173272844403982
532,0.0165661592036486,0.000185731987585314,0.0111895641312003,0.0226048361510038,0.0114698065444827,-0.0182686578482389
533,0.0161997135728598,-0.0073173139244318,0.00875348970293999,0.0244054794311523,0.0136424647644162,-0.0166814364492893
534,0.015229101292789,-0.0101488791406155,0.00538455136120319,0.0243060030043125,0.0148576768115163,-0.0130270346999168
535,0.0137697411701083,-0.00658103730529547,0.00189304572995752,0.0208634827286005,0.0140658505260944,-0.00920115411281586
536,0.0117732211947441,-0.000876656675245613,-0.000506636686623096,0.014819229952991,0.0119201363995671,-0.00674791680648923
537,0.0101306810975075,0.00387660041451454,-0.00086690008174628,0.00861834920942783,0.0104644149541855,-0.00391113525256515
538,0.00947148259729147,0.00888957548886538,0.00019736094691325,0.00477280654013157,0.0101331677287817,0.00287007889710367
539,0.00895565003156662,0.013535151258111,0.00184412847738713,0.00453476142138243,0.00962136406451464,0.0139515856280923
540,0.00782735832035542,0.0147530110552907,0.0041510658338666,0.00626220135018229,0.00848611444234848,0.0247750375419855
541,0.00593032315373421,0.0135984783992171,0.00704776775091887,0.00763297965750098,0.00698532816022635,0.0306431446224451
542,0.00338500807993114,0.0143721243366599,0.00964753329753876,0.00845193676650524,0.00535314762964845,0.0313935615122318
543,0.000747869140468538,0.0153201939538121,0.0109558831900358,0.00853083096444607,0.00472107762470841,0.0291846990585327
544,-0.00137823994737118,0.0105171008035541,0.0103708365932107,0.0069479183293879,0.00575964991003275,0.0261969547718763
545,-0.0039540734142065,0.000690861430484802,0.00719557702541351,0.00383303174749017,0.00546995084732771,0.0223317518830299
546,-0.0074514145962894,-0.00824682600796223,0.00311879045329988,0.0011098759714514,0.0023505634162575,0.015077699907124
547,-0.0089900828897953,-0.0123636238276958,0.00254458375275135,0.0018479039426893,0.000377214193576947,0.00533740874379873
548,-0.00651886127889156,-0.0123498104512692,0.00656754616647959,0.00615648366510868,0.00182044052053243,-0.00340090459212661
549,-0.00134528067428619,-0.0112276952713728,0.0120128318667412,0.0101805301383138,0.00526323262602091,-0.00948139932006598
550,0.00401944760233164,-0.0104016596451402,0.0155055355280638,0.0113249160349369,0.00822252966463566,-0.0119735999032855
551,0.00772580923512578,-0.00880131125450134,0.0160846542567015,0.010892883874476,0.0081125358119607,-0.00967597402632236
552,0.00917202699929476,-0.00520379887893796,0.0147975916042924,0.01103591080755,0.00520346639677882,-0.00148614181671292
553,0.00761301536113024,-0.00130211468786001,0.011239180341363,0.0109041379764676,0.00182896200567484,0.0104971444234252
554,0.00291905272752047,0.0008210688829422,0.00480073085054755,0.00833510886877775,-0.00141334091313183,0.0201539900153875
555,-0.00268028536811471,0.00193647155538201,-0.00120981724467129,0.00493411626666784,-0.00418002903461456,0.0250031128525734
556,-0.00686384318396449,0.0027784735430032,-0.00273225200362504,0.00387423578649759,-0.00485960487276316,0.0278134122490883
557,-0.00905284751206636,0.0025298660621047,-0.000280290405498818,0.00442096684128046,-0.0037740592379123,0.0301839783787727
558,-0.00959816016256809,0.000779445574153215,0.00242242473177612,0.0033706072717905,-0.00363692361861467,0.0303020942956209
559,-0.0089907506480813,-0.00185513461474329,0.00337977171875536,0.000489200465381145,-0.00553287426009774,0.0259869061410427
560,-0.00695551931858063,-0.00428639864549041,0.00400872901082039,-0.00103188888169825,-0.00750080728903413,0.0177419204264879
561,-0.00307060312479734,-0.0064206775277853,0.00661804992705584,9.98729810817167E-05,-0.00775763439014554,0.00760832615196705
562,0.00134870153851807,-0.00675222836434841,0.0116568980738521,0.00278048124164343,-0.00688067963346839,-0.000626302906312048
563,0.00418394105508924,-0.00204249750822783,0.0167859345674515,0.00605135457590222,-0.00563029060140252,-0.00229977793060243
564,0.00527872936800122,0.00501869013532996,0.0192662831395864,0.00860076863318682,-0.0026083851698786,0.00287400162778795
565,0.00610668119043112,0.00828164909034967,0.0194550212472677,0.0100190863013268,0.00311989174224436,0.0112109435722232
566,0.00660608289763331,0.00629786215722561,0.0188509840518236,0.0115817505866289,0.00867638178169727,0.0200397409498692
567,0.00568927312269807,0.00218348065391183,0.0178939588367939,0.0147198848426342,0.0105791743844748,0.0300407912582159
568,0.00392217840999365,0.000270377000560984,0.0165452472865582,0.0183441694825888,0.00931628234684467,0.0423638187348843
569,0.00170566560700536,0.00156905816402286,0.0138084040954709,0.0187215395271778,0.00688041979447007,0.0534692518413067
570,-0.000819136796053499,0.00460726488381624,0.0102443471550941,0.0148422215133905,0.00434618024155498,0.0574117824435234
571,-0.00208219746127725,0.00906979106366634,0.00825741793960333,0.00977282784879208,0.00342255039140582,0.05256337672472
572,-0.00232815323397517,0.013674077577889,0.00846240296959877,0.00619127089157701,0.00438254792243242,0.0423930436372757
573,-0.00322184874676168,0.0164391659200192,0.00988600961863995,0.00354206352494657,0.00456421496346593,0.0321582369506359
574,-0.0053344969637692,0.0185373686254025,0.00989859271794558,-0.000618275953456759,0.000152297754539177,0.0266825631260872
575,-0.00926261581480503,0.0221001077443361,0.00572746712714434,-0.00647867331281304,-0.0104315215721726,0.0280513092875481
576,-0.0138823017477989,0.0256095174700022,-0.000420843018218875,-0.00996118597686291,-0.0217903573065996,0.0331554636359215
577,-0.0158517453819513,0.0251780170947313,-0.00304172583855689,-0.00712402909994125,-0.0254756379872561,0.0359125398099422
578,-0.014176394790411,0.0187062919139862,-0.000478145841043442,0.000391279085306451,-0.0201476309448481,0.033700343221426
579,-0.010446198284626,0.00886097270995378,0.00474041281268001,0.00859352573752403,-0.0104266395792365,0.0316188745200634
580,-0.0061190677806735,0.00295558013021946,0.00950923003256321,0.0147403385490179,-8.20729765109718E-05,0.0363402590155602
581,-0.00316475378349423,0.00504314480349422,0.0104794520884752,0.0153355440124869,0.00761102512478828,0.0461081378161907
582,-0.00253719091415405,0.00912414770573378,0.00683115981519222,0.0102642439305782,0.0116183012723923,0.0537788383662701
583,-0.00258476077578962,0.0085882069543004,0.00210443884134293,0.00538633530959487,0.0150041291490197,0.0553910657763481
584,-0.00195621582679451,0.00514678331092,-0.000182630028575659,0.00465491693466902,0.0197496917098761,0.0514634512364864
585,-0.0015317517099902,0.00255227647721767,0.000615832570474595,0.00618607830256224,0.0235050916671753,0.0453214384615421
586,-0.00268132681958377,0.00101988087408245,0.00345754297450185,0.0064244419336319,0.0226161982864141,0.0397415012121201
587,-0.00510341627523303,-0.000402584817493334,0.00726350443437696,0.00436431169509888,0.0163107104599476,0.034673098474741
588,-0.00756869837641716,-0.00164028978906572,0.0112344762310386,0.00128392607439309,0.0072143878787756,0.0292770490050316
589,-0.00963849015533924,-0.00230208644643426,0.0142485303804278,-0.00119084736797959,-0.000755335029680282,0.0244665127247572
590,-0.0117241498082876,-0.00129974854644388,0.0150228161364794,-0.00286897225305438,-0.00528338132426143,0.021882550790906
591,-0.0137755861505866,0.00265361345373094,0.0133714228868485,-0.00482197944074869,-0.00723245088011026,0.0213300511240959
592,-0.0150005985051394,0.00773906381800771,0.0105625633150339,-0.00671156402677298,-0.00848662108182907,0.0215686652809381
593,-0.015490235760808,0.0101642422378063,0.00775634869933128,-0.00786244496703148,-0.00971763487905264,0.0215195715427399
594,-0.0162081271409988,0.0101138455793262,0.00498909968882799,-0.00936704501509666,-0.0115693230181932,0.0203425399959087
595,-0.0177095197141171,0.0107447719201446,0.0017662305617705,-0.0123454425483942,-0.0147772328928113,0.0182094220072031
596,-0.0195336621254683,0.0117048984393477,-0.00176209467463195,-0.0151137309148908,-0.0193371213972569,0.0167822781950235
597,-0.0200705900788307,0.0106638325378299,-0.00364484102465212,-0.0142378835007548,-0.0234539713710546,0.0185998510569334
598,-0.0181389078497887,0.00796130485832691,-0.00156185775995255,-0.00905873347073793,-0.0227530375123024,0.0256239995360374
599,-0.0154508547857404,0.0041866353712976,0.00309910415671766,-0.00449360627681017,-0.0172809436917305,0.0358838140964508
600,-0.014505572617054,-0.000691826397087425,0.00634477054700255,-0.00557731045410037,-0.0134286507964134,0.0444235093891621
601,-0.0144614400342107,-0.0038129803724587,0.00721980351954699,-0.00961306970566511,-0.0139473993331194,0.0491843335330486
602,-0.0129513079300523,-0.00103703490458429,0.00735402712598443,-0.0105918031185865,-0.0151430163532496,0.0508627519011498
603,-0.00979071855545044,0.00554925808683038,0.00732821226119995,-0.00774153554812074,-0.0135227786377072,0.0497793294489384
604,-0.00712320627644658,0.00773266470059752,0.00678188959136605,-0.00448327511548996,-0.0100521622225642,0.0459081865847111
605,-0.0066764559596777,0.00268781301565468,0.00532642751932144,-0.00323750427924097,-0.00774540519341826,0.0407957211136818
606,-0.00779969757422805,-0.00412543956190348,0.00246828654780984,-0.00411216635257006,-0.00794867612421513,0.0374771915376186
607,-0.00905912090092897,-0.00801575742661953,-0.00129311950877309,-0.00648117205128074,-0.00926715228706598,0.036100834608078
608,-0.00927125103771687,-0.00820933189243078,-0.00311305350624025,-0.00869055930525064,-0.00881466083228588,0.0344757661223412
609,-0.00750922923907638,-0.00425103167071939,-0.00026454814360477,-0.00842591002583504,-0.00608668848872185,0.0327505953609943
610,-0.00486093387007713,0.00181425479240716,0.00644584884867072,-0.00639045378193259,-0.00330130895599723,0.0306105613708496
611,-0.00360213848762214,0.006158706266433,0.0143837388604879,-0.00427371868863702,-0.00181042682379484,0.0268956869840622
612,-0.00404983898624778,0.00867869984358549,0.021212924271822,-0.00170131050981581,-0.00137026864103973,0.0227464511990547
613,-0.0057603963650763,0.00943418778479099,0.0244280640035868,0.000110286950075533,-0.00209629698656499,0.0189158581197262
614,-0.0089300787076354,0.00761686498299241,0.0228865593671799,0.000167373742442578,-0.00442332215607166,0.0166035424917936
615,-0.012912942096591,0.00588811794295907,0.018444150686264,0.000953584967646748,-0.0074541256763041,0.0197177566587925
616,-0.0165758449584246,0.00774772558361292,0.0146318795159459,0.00327594950795174,-0.00882171560078859,0.0308929886668921
617,-0.0192033238708973,0.0126419579610229,0.0131275150924921,0.00417776685208082,-0.00666240882128477,0.0468099899590015
618,-0.0207355208694935,0.0173427201807499,0.0125195384025574,0.0024690858554095,-0.00301263201981783,0.0600612536072731
619,-0.0217561107128859,0.0201580747961998,0.0107958596199751,-0.000233119571930729,-0.00165242073126137,0.0648196041584015
620,-0.0229278821498156,0.0200105085968971,0.0076346923597157,-0.00206737336702645,-0.00312760239467025,0.0608860366046429
621,-0.0238221287727356,0.0159304533153772,0.0057096229866147,-0.000298044091323391,-0.00578545592725277,0.0539426580071449
622,-0.0234611500054598,0.0106993773952127,0.00761366123333573,0.00512646837159991,-0.00857014767825603,0.049999076873064
623,-0.0226988848298788,0.00666991621255875,0.0112563278526068,0.00928672775626183,-0.011057848110795,0.0505604967474937
624,-0.0229737553745508,0.00259041879326105,0.0134651865810156,0.00962542649358511,-0.0130221983417869,0.0542207695543766
625,-0.0240319836884737,-0.00159401388373226,0.014553097076714,0.00890260469168425,-0.014429060742259,0.0587311238050461
626,-0.0247594155371189,-0.00471646618098021,0.0151883726939559,0.00857569091022015,-0.0147646404802799,0.0603304952383041
627,-0.0247510951012373,-0.00509414076805115,0.0142417158931494,0.00690489308908582,-0.0133878635242581,0.0565349273383617
628,-0.0244400296360254,-0.00168780714739114,0.0120133571326733,0.00362355378456414,-0.0104611171409488,0.0492039136588573
629,-0.0245987940579653,0.00225923419930041,0.0100454334169626,-0.000900829269085079,-0.00769293401390314,0.0401385836303234
630,-0.0254614297300577,0.00186110648792237,0.00822129007428885,-0.00710350647568703,-0.00665163854137063,0.029435807839036
631,-0.0257598776370287,-0.00298570469021797,0.00623488333076239,-0.0125612281262875,-0.00653515290468931,0.0199227333068848
632,-0.02433080971241,-0.00825526751577854,0.00495644193142653,-0.0137858651578426,-0.00608953507617116,0.0148366410285234
633,-0.0216233599931002,-0.011167835444212,0.00517583917826414,-0.0107510695233941,-0.00475550722330809,0.0145521564409137
634,-0.0190328843891621,-0.0117650544270873,0.00626365654170513,-0.00658681849017739,-0.00308907823637128,0.017366211861372
635,-0.0175801534205675,-0.0115440627560019,0.00678352452814579,-0.00456035835668445,-0.00209821132011712,0.0194619558751583
636,-0.0168871656060219,-0.0102344518527389,0.00645996537059546,-0.00528596434742212,-0.000788422534242272,0.019045602530241
637,-0.0165173411369324,-0.00678684050217271,0.00516640162095428,-0.00797523651272058,0.00122118415310979,0.0176833309233189
638,-0.0167324263602495,-0.00378411589190364,0.00198223860934377,-0.0122434142976999,0.00215387041680515,0.0159154459834099
639,-0.0169859137386084,-0.00402915617451072,-0.00171407882589847,-0.0163519773632288,0.00216676876880229,0.0132448449730873
640,-0.0158797558397055,-0.00616923719644547,-0.00237911916337907,-0.0172613114118576,0.00305792922154069,0.0110588883981109
641,-0.0129818161949515,-0.00772871682420373,0.000485632568597794,-0.0141518665477633,0.00389706180430949,0.0127950431779027
642,-0.00923770479857922,-0.0079593863338232,0.00412079598754644,-0.00862335320562124,0.00171281478833407,0.0198114700615406
643,-0.00554236071184278,-0.00667938869446516,0.00660076132044196,-0.00295685697346926,-0.00324435066431761,0.0285539086908102
644,-0.00302505702711642,-0.00552457710728049,0.00791002251207829,0.000525923911482096,-0.00734685501083732,0.0344724357128143
645,-0.00300972233526409,-0.00646663038060069,0.00906013045459986,0.00171158683951944,-0.00938261114060879,0.0377863086760044
646,-0.0055508753284812,-0.00630561541765928,0.0101206917315722,0.00136790529359132,-0.0118452506139874,0.0414846874773502
647,-0.0096054719761014,-0.00180778722278774,0.0099644623696804,-0.00109696667641401,-0.0161960404366255,0.045777540653944
648,-0.0135478209704161,0.00468132132664323,0.00861841347068548,-0.00518712401390076,-0.0205517522990704,0.0492032989859581
649,-0.0163015387952328,0.00981767661869526,0.00619877083227038,-0.00998812634497881,-0.0228238739073277,0.0506194867193699
650,-0.0178522560745478,0.0124901160597801,0.00286248489283025,-0.0155063839629292,-0.0232275892049074,0.0491047762334347
651,-0.0172477029263973,0.0121268182992935,0.00138664594851434,-0.0203075893223286,-0.0221148077398539,0.0441628694534302
652,-0.0135532841086388,0.00767581630498171,0.00375828519463539,-0.0225864928215742,-0.0191743057221174,0.0357323698699474
653,-0.00856873579323292,-0.000316962192300707,0.00741127086803317,-0.0221420582383871,-0.0157785583287477,0.0263712871819735
654,-0.00430812779814005,-0.00825933646410704,0.0090783704072237,-0.018699899315834,-0.0125439260154963,0.0210346970707178
655,-0.000357303157215938,-0.0117371771484613,0.00892195198684931,-0.0122001925483346,-0.00763730425387621,0.0212835036218166
656,0.0036342958919704,-0.0091289971023798,0.00797775201499462,-0.00517772929742932,-0.00134548731148243,0.0230553913861513
657,0.00639915000647306,-0.00253258226439357,0.0058619724586606,-0.000637680583167821,0.00292405765503645,0.0231893211603165
658,0.00666826497763395,0.00439631473273039,0.00292782695032656,0.000761285773478448,0.00295202643610537,0.0240833349525929
659,0.00403413968160748,0.00938355643302202,-6.8248227762524E-05,-0.00056933390442282,3.64363113476429E-05,0.0288910269737244
660,-0.000683635531459004,0.0117857903242111,-0.00295518105849624,-0.00395336467772722,-0.00358266313560307,0.0360306613147259
661,-0.00551108457148075,0.0106841130182147,-0.00476635340601206,-0.00753805320709944,-0.00697211315855384,0.0420159995555878
662,-0.00870408397167921,0.00596401048824191,-0.00520710041746497,-0.00933384709060192,-0.00957953277975321,0.0453180447220802
663,-0.00944264139980078,0.000471609877422452,-0.0047696391120553,-0.00838206429034472,-0.0109466882422566,0.0448326580226421
664,-0.00783351063728333,-0.00213151890784502,-0.00204024789854884,-0.00370810087770224,-0.0108134606853127,0.040339283645153
665,-0.00451697548851371,-0.00109295931179076,0.0045135822147131,0.00466131418943405,-0.00896318629384041,0.0344886370003223
666,-0.00053897564066574,0.00295752962119877,0.0124734351411462,0.0135879516601563,-0.00665860250592232,0.0311864074319601
667,0.00248724105767906,0.00928226578980684,0.0163539275527,0.0180002469569445,-0.00641641998663545,0.0312960483133793
668,0.00330627057701349,0.0137155316770077,0.0136242425069213,0.0154874604195356,-0.00859518069773912,0.0318299420177937
669,0.00245821103453636,0.0132482936605811,0.00742911081761122,0.00906496308743954,-0.0102783059701324,0.031313918530941
670,0.00108650152105838,0.0105887344107032,0.00167195871472359,0.00233791582286358,-0.00963514391332865,0.0312309898436069
671,-0.000603518332354724,0.00872149132192135,-0.00255485833622515,-0.00397796975448728,-0.00895050168037415,0.0328084602952003
672,-0.00214708293788135,0.00783362612128258,-0.00450815260410309,-0.00902555324137211,-0.00998664926737547,0.0356044992804527
673,-0.00361752370372415,0.00688561471179128,-0.00351603236049414,-0.0108787352219224,-0.0113478992134333,0.0379536673426628
674,-0.00527599873021245,0.00510323699563742,0.000176683679455891,-0.00806083995848894,-0.011246707290411,0.038584791123867
675,-0.00614299392327666,0.00327653926797211,0.00537285162135959,-0.00212488719262183,-0.0090070366859436,0.0363493897020817
676,-0.00674373330548406,0.00453559728339314,0.00858288537710905,0.0026621671859175,-0.00684171076864004,0.0316760502755642
677,-0.00917752459645271,0.0104568600654602,0.00714033609256148,0.00412046164274216,-0.00826810486614704,0.0289989653974772
678,-0.0125783486291766,0.0180116593837738,0.00237100524827838,0.00201062532141805,-0.0129221100360155,0.0327123701572418
679,-0.0132398791611195,0.0230394117534161,-0.00214313948526978,-0.00214296067133546,-0.0171421896666288,0.0427779667079449
680,-0.00976037885993719,0.0235203225165606,-0.00323667726479471,-0.00371757592074573,-0.0185044053941965,0.0550684668123722
681,-0.00495602888986468,0.0195720512419939,-0.00145160499960184,-0.00183412863407284,-0.0180196277797222,0.0623615123331547
682,-0.002862015273422,0.0120815429836512,-0.000818510015960783,-0.00123286421876401,-0.018774101510644,0.0588361024856567
683,-0.00449499394744635,0.0031762442085892,-0.00376581796444952,-0.00354939629323781,-0.0218366701155901,0.0465658605098724
684,-0.00717352703213692,-0.00376235507428646,-0.00835779588669539,-0.00594686111435294,-0.0243369285017252,0.0337110385298729
685,-0.00819777045398951,-0.0068670567125082,-0.0102304518222809,-0.00672220718115568,-0.0229395944625139,0.0269902423024178
686,-0.00698546506464481,-0.00647270260378718,-0.00682361051440239,-0.00498493993654847,-0.0175093114376068,0.0283723119646311
687,-0.00480063632130623,-0.00334800942800939,-0.000217952809180133,-0.000258517655311152,-0.0113411247730255,0.0348252356052399
688,-0.0032405371312052,0.00154729071073234,0.00522796623408794,0.0033467982430011,-0.00780900195240974,0.039096862077713
689,-0.00196563522331417,0.00598547980189323,0.00803250074386597,0.00164664606563747,-0.00626737764105201,0.0366648510098457
690,-0.00100563676096499,0.00798663590103388,0.0088581582531333,-0.0041672638617456,-0.00495123164728284,0.0294082965701818
691,-0.001405164366588,0.00824799947440624,0.00785672385245562,-0.0106718922033906,-0.00360100925900042,0.0223265923559666
692,-0.00272251782007515,0.00805097538977861,0.00578418048098683,-0.0147011457011104,-0.00222455547191203,0.0209135413169861
693,-0.00431287894025445,0.0071443896740675,0.00372635130770504,-0.0163608305156231,-0.00174029998015612,0.0257983393967152
694,-0.00545691372826695,0.00695187086239457,0.00273951003327966,-0.0170418750494719,-0.0030806299764663,0.0326964035630226
695,-0.00547277601435781,0.0094585632905364,0.00283827143721282,-0.0163099709898233,-0.00558437313884497,0.0380640961229801
696,-0.00459151854738593,0.0118567403405905,0.00288775051012635,-0.0142654487863183,-0.00724885147064924,0.0405050665140152
697,-0.00288580940105021,0.0107941534370184,0.00287879444658756,-0.0105012962594628,-0.00705562578514218,0.0412744916975498
698,-0.000703577883541584,0.00804510898888111,0.00302788219414651,-0.0048059499822557,-0.00601452402770519,0.041871827095747
699,0.000569732743315399,0.00627628667280078,0.00253250193782151,0.000389225024264306,-0.00578342052176595,0.0410277806222439
700,7.3146729846485E-05,0.00525054801255465,0.00110831938218325,0.00240382738411427,-0.00727459648624063,0.0369829088449478
701,-0.000683558639138937,0.00463601155206561,0.000964331207796931,0.00205337977968156,-0.00921237654983997,0.0301605723798275
702,7.84845178714022E-05,0.00477785337716341,0.0042911316268146,0.00173642963636667,-0.0102834384888411,0.0222169514745474
703,0.00138496118597686,0.00438497075811028,0.00822350010275841,0.000552091398276389,-0.0116923116147518,0.0135678928345442
704,0.00254634651355445,0.00242285383865237,0.00917031709104776,-0.00261500477790833,-0.0126788206398487,0.00479103066027164
705,0.00490253465250134,0.000767239602282643,0.00839800201356411,-0.00545715400949121,-0.0103286691009998,-0.00110754487104714
706,0.00808325968682766,0.00146296340972185,0.00765141705051064,-0.00646759010851383,-0.00531126419082284,-0.00209390860982239
707,0.0100315986201167,0.00370149919763207,0.00677290884777904,-0.00671895174309611,-9.61849000304937E-05,0.000915471813641489
708,0.0103918267413974,0.00614026235416532,0.00663178972899914,-0.00552197638899088,0.00446327263489366,0.00749438302591443
709,0.00970740616321564,0.00928416475653648,0.00796067342162132,-0.00231493194587529,0.00725045567378402,0.0162952542304993
710,0.00754330959171057,0.0114596374332905,0.00944152753800154,-0.00100528227631003,0.00606432789936662,0.0217368770390749
711,0.00485948519781232,0.00894429627805948,0.0101824374869466,-0.00413951463997364,0.000793793820776045,0.0197980627417564
712,0.00366477225907147,0.00217580050230026,0.00996005348861218,-0.0102093415334821,-0.00630300305783749,0.0121397580951452
713,0.00405338872224092,-0.00477162096649408,0.00830697081983089,-0.0171646289527416,-0.0125908115878701,0.0030915392562747
714,0.00527217844501138,-0.00663269637152553,0.00679373880848289,-0.0217010788619518,-0.0150169627740979,-0.00143405422568321
715,0.00652528135105968,-0.0020706937648356,0.00751354219391942,-0.0210782941430807,-0.0129851968958974,0.00171302864328027
716,0.00625941669568419,0.00273040193133056,0.00858743768185377,-0.0174920931458473,-0.0103553449735045,0.00819933228194714
717,0.00432428671047091,0.00394059577956796,0.0075803380459547,-0.0144562143832445,-0.00962975062429905,0.0128838289529085
718,0.00265660928562284,0.00445131259039044,0.00574700115248561,-0.0116875357925892,-0.00955053977668285,0.0163241382688284
719,0.00177916930988431,0.00495955161750317,0.00450033647939563,-0.00851686950773001,-0.0100110610947013,0.0207962039858103
720,0.000665471190586686,0.00393674289807677,0.00414985278621316,-0.00569661846384406,-0.0116244712844491,0.026675995439291
721,-0.00119384843856096,0.00243902276270092,0.00424477038905025,-0.0034249285236001,-0.0136615037918091,0.0327678471803665
722,-0.00352413370274007,0.0011471644975245,0.00294856145046651,-0.00328097608871758,-0.0155513733625412,0.0362743064761162
723,-0.00587187707424164,-3.04526693071239E-05,-0.000645546359010041,-0.00758745707571507,-0.0176322218030691,0.0350368618965149
724,-0.00728139793500304,0.00039165306952782,-0.00460334774106741,-0.0144773218780756,-0.0193733144551516,0.0305699799209833
725,-0.00618745991960168,0.00350987678393722,-0.00536749279126525,-0.0191386770457029,-0.018902238458395,0.0262535586953163
726,-0.00300170155242085,0.00824483577162027,-0.00197672029025853,-0.0182482432574034,-0.0155586311593652,0.0246302634477615
727,0.000626941269729286,0.0124800018966198,0.00248668249696493,-0.0121748372912407,-0.010010864585638,0.026025103405118
728,0.00422078557312489,0.0148520227521658,0.00529934233054519,-0.004594337195158,-0.00407514022663236,0.0286670476198196
729,0.00667251087725163,0.0169632807374001,0.00681562488898635,0.00267251301556826,-0.00110651471186429,0.0316423811018467
730,0.00628662714734674,0.0209863856434822,0.00780490739271045,0.00930979661643505,-0.00297237187623978,0.0334422290325165
731,0.00361433951184154,0.0240404233336449,0.00773523608222604,0.012875217013061,-0.00724181393161416,0.0308565571904182
732,0.00029664661269635,0.021674869582057,0.00602383632212877,0.011829205788672,-0.0111504038795829,0.0241352375596762
733,-0.00246332376264036,0.0146452439948916,0.00344263599254191,0.00743155460804701,-0.0148919327184558,0.017471868544817
734,-0.00385964824818075,0.00717272702604532,0.00167175102978945,0.00177335261832923,-0.0183663479983807,0.0128219444304705
735,-0.00453858962282538,0.00268865562975407,0.00142639700789005,-0.00314577599056065,-0.0203999970108271,0.00882383063435555
736,-0.00505452323704958,0.00210638693533838,0.00247979420237243,-0.00602976372465491,-0.0201427601277828,0.00489161163568497
737,-0.0051610111258924,0.00455087749287486,0.00433941697701812,-0.00624050758779049,-0.017742395401001,0.0032680204603821
738,-0.00567021360620856,0.00800166558474302,0.00562717113643885,-0.00420854520052671,-0.0154305314645171,0.00596735579892993
739,-0.00710761640220881,0.00974077079445124,0.00562530430033803,-0.00147887587081641,-0.0148345232009888,0.0106806606054306
740,-0.00831311568617821,0.00805147364735603,0.00595788704231381,0.000771459192037582,-0.0151455774903297,0.0131344171240926
741,-0.00842117331922054,0.00338555499911308,0.00737965479493141,0.00121202005539089,-0.0160645730793476,0.0125203197821975
742,-0.00790433399379253,5.43953574378975E-05,0.00812538526952267,1.51373587868875E-05,-0.017680523917079,0.0130791561678052
743,-0.00674693891778588,0.00221125059761107,0.00728851975873113,-0.000353715498931706,-0.0183283761143684,0.0176389999687672
744,-0.00520082470029593,0.00808148831129074,0.0053904177621007,-7.61186893214472E-05,-0.0174469687044621,0.0226207487285137
745,-0.00435615936294198,0.0134228300303221,0.00261667743325233,-0.00198090076446533,-0.0159502886235714,0.0239776540547609
746,-0.00418203510344028,0.0154696656391025,-0.000707001308910549,-0.00656409980729222,-0.0142421508207917,0.0221645999699831
747,-0.00475534982979298,0.0146207809448242,-0.00371241010725498,-0.0106835095211864,-0.0138793168589473,0.0204699691385031
748,-0.00611441861838102,0.0138836549594998,-0.00536553701385856,-0.0108814826235175,-0.0161146800965071,0.0210203938186169
749,-0.00686414493247867,0.0140635399147868,-0.00485512427985668,-0.0074577066116035,-0.0195971317589283,0.0219324231147766
750,-0.00589359365403652,0.0134615693241358,-0.00234218104742467,-0.00336607405915856,-0.0210064705461264,0.0201523825526237
751,-0.00369509868323803,0.0113294804468751,0.000802340626250952,-0.000620709848590195,-0.0179017148911953,0.0154437869787216
752,-0.00139952986501157,0.00826531928032637,0.0037617851048708,0.000904644199181348,-0.0110440813004971,0.0106602096930146
753,0.000100987039331812,0.00439899135380983,0.00647927913814783,0.00242887763306499,-0.00431198067963123,0.00822557788342237
754,0.000404928287025541,0.00115187698975205,0.00848947558552027,0.0044504408724606,-0.00178364489693195,0.00702940952032804
755,-0.000100597135315184,0.00248566060326993,0.00938537437468767,0.0056258887052536,-0.00306328595615923,0.00564648443832994
756,-0.0014363662339747,0.00858044903725386,0.00881819520145655,0.00489255599677563,-0.0058133197017014,0.00605403352528811
757,-0.00397406099364161,0.0142621323466301,0.00685699004679918,0.00341739412397146,-0.00925817247480154,0.0104950740933418
758,-0.00573003571480513,0.016118498519063,0.00519593851640821,0.00275461003184319,-0.0105832051485777,0.0173321273177862
759,-0.00490479823201895,0.0138053987175226,0.00454643927514553,0.00270548998378217,-0.00827324856072664,0.0227037072181702
760,-0.00394474761560559,0.00811048503965139,0.00288998265750706,0.00141677178908139,-0.00682570552453399,0.02481884136796
761,-0.0047364984638989,0.0016129877185449,-0.00028904527425766,-0.00177579675801098,-0.00848038122057915,0.0242213383316994
762,-0.00595071073621511,-0.00373939843848348,-0.00319906161166728,-0.00563218584284186,-0.0102798482403159,0.020613506436348
763,-0.00702292984351516,-0.00847641937434673,-0.00460838992148638,-0.00939713232219219,-0.0108697321265936,0.0133734419941902
764,-0.00809654872864485,-0.0125674176961184,-0.00471906783059239,-0.0126818092539907,-0.0108176525682211,0.00378375174477696
765,-0.00820326525717974,-0.0135615803301334,-0.00412835506722331,-0.0137618808075786,-0.00954006984829903,-0.00531443767249584
766,-0.00652685156092048,-0.00915934424847364,-0.00325192720629275,-0.0113653279840946,-0.00691375648602843,-0.0105819087475538
767,-0.00398806901648641,-0.000762205978389829,-0.00365346856415272,-0.00707179261371493,-0.00503026507794857,-0.0107213351875544
768,-0.00227176211774349,0.00677028205245733,-0.00606928020715714,-0.00327035156078637,-0.00482269702479243,-0.00844285544008017
769,-0.00218625040724874,0.0100900111719966,-0.00832754839211702,-0.000329632981447503,-0.00480845477432013,-0.00743534229695797
770,-0.00368223688565195,0.00988238397985697,-0.00866518262773752,0.00190997438039631,-0.00514368899166584,-0.00784988701343536
771,-0.00619842810556293,0.00787505507469177,-0.00791645981371403,0.00141342764254659,-0.00730178225785494,-0.00752612575888634
772,-0.00851417798548937,0.00507249077782035,-0.00704274279996753,-0.00286793685518205,-0.0104257632046938,-0.00533865112811327
773,-0.00932175572961569,0.00194836966693401,-0.00550384167581797,-0.00839992798864841,-0.0130094382911921,-0.00186716590542346
774,-0.00778433680534363,-0.00185349001549184,-0.00252782204188406,-0.0124507499858737,-0.0132883116602898,0.00129910046234727
775,-0.00457567675039172,-0.00486714253202081,0.00112608273047954,-0.0134102758020163,-0.0100316582247615,0.00455975160002708
776,-0.00254333624616265,-0.00529357278719544,0.00315965781919658,-0.0121587300673127,-0.0064839068800211,0.00897886697202921
777,-0.00311397924087942,-0.00481462897732854,0.00259483815170825,-0.0116932038217783,-0.00591704482212663,0.0131928706541657
778,-0.00500031467527151,-0.00408540852367878,0.000621843442786485,-0.0124678015708923,-0.00803920440375805,0.0162339583039284
779,-0.00700355041772127,-0.00236046337522566,-0.00149494491051883,-0.0131495120003819,-0.0114412838593125,0.0175538342446089
780,-0.00834520068019629,-0.0008422193932347,-0.00305590289644897,-0.0132843954488635,-0.0146876154467463,0.0155345825478435
781,-0.00835818517953157,-0.000545864750165492,-0.00346712372265756,-0.0126583548262715,-0.0170506443828344,0.010423019528389
782,-0.0073963338509202,-0.00113791972398758,-0.00251304171979427,-0.0111473575234413,-0.0183867570012808,0.00592968054115772
783,-0.00688855163753033,-0.0022980768699199,-0.000974917493294925,-0.00976157374680042,-0.0187109019607306,0.00433871475979686
784,-0.00751024810597301,-0.00428508827462792,0.000488608435261995,-0.00962274707853794,-0.0180487465113401,0.00355639355257154
785,-0.0077850017696619,-0.00615023821592331,0.00230007083155215,-0.00948304869234562,-0.0152215668931603,0.00205198186449707
786,-0.00630757212638855,-0.00591103034093976,0.00395721988752484,-0.00779039645567536,-0.0095522403717041,0.000173135529621504
787,-0.00437325052917004,-0.00287164468318224,0.00380768673494458,-0.00523975444957614,-0.00423117820173502,-0.000732009415514767
788,-0.00388528616167605,0.00180684088263661,0.00140326039399952,-0.00327265076339245,-0.00244812271557748,0.00138396478723735
789,-0.00503193167969584,0.00546631030738354,-0.00216998299583793,-0.00318289967253804,-0.00383709883317351,0.00462223449721932
790,-0.00702160876244307,0.0072925016283989,-0.00515343714505434,-0.00550541048869491,-0.00675841560587287,0.00425493065267801
791,-0.00863126199692488,0.00936797447502613,-0.00634437333792448,-0.00874065887182951,-0.00935286190360785,-0.000539549684617668
792,-0.00916436780244112,0.0110906483605504,-0.00656139245256782,-0.0112146688625216,-0.0108932014554739,-0.0071052135899663
793,-0.00916757714003325,0.00968998670578003,-0.0068182684481144,-0.012135922908783,-0.0118851410225034,-0.0124413939192891
794,-0.00938135012984276,0.00503132818266749,-0.00665686605498195,-0.0108381910249591,-0.0122128119692206,-0.0143590187653899
795,-0.00970429088920355,-0.00155520625412464,-0.00661358889192343,-0.00836594495922327,-0.0117245651781559,-0.0132203754037619
796,-0.00934949237853289,-0.00695338938385248,-0.00734350923448801,-0.00552398152649403,-0.0103425392881036,-0.00928893126547337
797,-0.00832580868154764,-0.00704462686553597,-0.00808647274971008,-0.00204002042300999,-0.00850793812423944,-0.00340821268036962
798,-0.00744370277971029,-0.00263771996833384,-0.00833689421415329,0.000230686520808376,-0.00741830794140697,-0.000123154983157292
799,-0.0066744894720614,0.000811054080259055,-0.00760273495689034,-0.000515947991516441,-0.00705353822559118,-0.00167118944227695
800,-0.00575234834104776,0.000769831123761833,-0.00572810461744666,-0.00234934920445085,-0.00699446815997362,-0.00428782356902957
801,-0.00446099042892456,0.00150356080848724,-0.00302661792375147,-0.00198909128084779,-0.00719284126535058,-0.00346111506223679
802,-0.00269261607900262,0.00628673983737826,-0.000693635956849903,-0.00124144239816815,-0.00723073957487941,-0.000261108914855868
803,-0.00160275679081678,0.0112774344161153,-0.000961202953476459,-0.00478804623708129,-0.00781159102916718,0.00127259304281324
804,-0.00220805290155113,0.012839131988585,-0.00351585610769689,-0.0111214965581894,-0.0101321814581752,0.00121589808259159
805,-0.00346746784634888,0.0118450075387955,-0.00537045300006866,-0.0151929035782814,-0.0128852408379316,0.00207320228219032
806,-0.00378316640853882,0.00966919586062431,-0.00521796010434628,-0.0168049558997154,-0.0137075996026397,0.00359302316792309
807,-0.00321670831181109,0.00684880185872316,-0.00428738538175821,-0.0179757270962,-0.0119211245328188,0.00414474587887526
808,-0.0022696943487972,0.00491731334477663,-0.00305117899551988,-0.0168499201536179,-0.00798667315393686,0.00504396855831146
809,-0.00115393777377903,0.00588913587853312,-0.000832683581393212,-0.0113562196493149,-0.00291818496771157,0.00830124970525503
810,-0.000765779754146934,0.00977985374629498,0.00112080504186451,-0.00451377825811505,0.000868974253535271,0.0120980646461248
811,-0.00146117259282619,0.0147142950445414,0.00165117811411619,-0.000235179701121524,0.00143597647547722,0.0136258220300078
812,-0.00250361231155694,0.0182483661919832,0.00230921455658972,0.00108370359521359,0.000458245136542246,0.0122506963089108
813,-0.00357647356577218,0.0188983418047428,0.00385513692162931,0.000823973503429443,-0.000343921507010236,0.00881050620228052
814,-0.005150749348104,0.0171511508524418,0.00485066045075655,0.000178055808646604,-0.00197771820239723,0.0051322290673852
815,-0.00745138339698315,0.0145832160487771,0.00408613402396441,-0.000860699627082795,-0.00516200484707952,0.0020688665099442
816,-0.0100301336497068,0.0130092594772577,0.0014589341590181,-0.00345523888245225,-0.00982827600091696,-0.00232025980949402
817,-0.0118791507557034,0.0137779815122485,-0.00158780079800636,-0.00689814053475857,-0.0147490194067359,-0.00816643796861172
818,-0.0118901869282126,0.0159125495702028,-0.0029718060977757,-0.00791212171316147,-0.0169034134596586,-0.0104033770039678
819,-0.0107776047661901,0.0159731209278107,-0.0032580322586,-0.00628510862588882,-0.0159885659813881,-0.00601599691435695
820,-0.00967888254672289,0.0130669558420777,-0.00336882588453591,-0.00464016851037741,-0.0132031459361315,0.00279291137121618
821,-0.00800005998462439,0.00972956046462059,-0.0020689950324595,-0.00397896207869053,-0.00753297796472907,0.0121996765956283
822,-0.00588091043755412,0.00689616939052939,0.000164810597198084,-0.00484339939430356,-9.39645105972886E-05,0.0176628213375807
823,-0.0044249352067709,0.0040587461553514,0.00204141857102513,-0.00693302834406495,0.00616977410390973,0.0162225756794214
824,-0.00340720103122294,0.00146093382500112,0.0045795813202858,-0.00848613493144512,0.00969228614121675,0.00877068284898996
825,-0.00179338420275599,-0.000755660759750754,0.00836844369769096,-0.00871992483735085,0.0102130025625229,-0.000549940916243941
826,0.0010039844783023,-0.000352666713297367,0.0128430929034948,-0.0064956652931869,0.0105728534981608,-0.005404784809798
827,0.00387183949351311,0.00507952878251672,0.0165249425917864,-0.00185357371810824,0.0128286303952336,-0.00290782074443996
828,0.00465419422835112,0.0117434021085501,0.0163895674049854,0.00140818709041923,0.0140065774321556,0.00308238435536623
829,0.00324989459477365,0.0156017821282148,0.0117211071774364,0.00170326919760555,0.0114208552986383,0.00897151697427034
830,0.00101537839509547,0.0175804551690817,0.00548926601186395,0.00179458502680063,0.00656027905642986,0.0150110609829426
831,-0.000350702321156859,0.0175265334546566,0.00108941318467259,0.00352653581649065,0.0037957716267556,0.0208105500787497
832,0.000364545820048079,0.0137276407331228,-0.000613750773482025,0.00570008158683777,0.0055085513740778,0.0226016193628311
833,0.00240284134633839,0.00716519448906183,-0.000776521046645939,0.00597268529236317,0.0098753534257412,0.016193138435483
834,0.00376399955712259,0.000412695633713156,-0.000648150860797614,0.00259957811795175,0.0131779881194234,0.0022207098081708
835,0.00348560628481209,-0.00400145305320621,-0.000336104043526575,-0.00307604600675404,0.0130264470353723,-0.0122147295624018
836,0.00312286731787026,-0.00417737709358335,0.000977897318080068,-0.00807736627757549,0.0115117579698563,-0.0202473290264606
837,0.00396842043846846,-0.000741069670766592,0.00271788984537125,-0.0116428090259433,0.0115107810124755,-0.0205508954823017
838,0.00476060714572668,0.00349722639657557,0.00370157440192997,-0.0140640325844288,0.0119554847478867,-0.014916337095201
839,0.00401535583660007,0.00642174435779452,0.00332527933642268,-0.015761649236083,0.00985884573310614,-0.00644074659794569
840,0.00267434143461287,0.00821739621460438,0.00151164224371314,-0.0172033756971359,0.00513522699475288,0.00181752815842628
841,0.00217348686419427,0.0101736104115844,-0.0010252381907776,-0.0181694664061069,0.000428144296165556,0.00856194645166397
842,0.00202349480241537,0.0134096583351493,-0.00284564215689898,-0.0177697371691465,-0.00268890988081694,0.0138012254610658
843,0.00175989652052522,0.0167869124561548,-0.00237539364024997,-0.0153539199382067,-0.00388757023029029,0.0170432180166245
844,0.0023126220330596,0.0168976243585348,0.000532237230800092,-0.0114512732252479,-0.00279517355374992,0.0165194682776928
845,0.00389911467209458,0.0130872018635273,0.00471489829942584,-0.00667159119620919,-0.000487213546875864,0.0119238784536719
846,0.00519239064306021,0.00813816115260124,0.00848634354770184,-0.0018451603827998,0.000511237885802984,0.00612633023411036
847,0.00546933570876718,0.00472140870988369,0.0106519125401974,0.00200810376554728,-0.000177839421667159,0.00233516050502658
848,0.00512544298544526,0.00455413665622473,0.011473554186523,0.0046236626803875,-0.00104685826227069,0.00180077098775655
849,0.00446390965953469,0.00723364623263478,0.0115102082490921,0.00514953723177314,-0.00111573771573603,0.00369921023957431
850,0.0034558828920126,0.0105559676885605,0.0112343644723296,0.00382045586593449,2.23208171519218E-05,0.0060239308513701
851,0.0020285826176405,0.0129280993714929,0.0112503869459033,0.00174669607076794,0.00168637174647301,0.00646077003329992
852,0.000945589505136013,0.0137716056779027,0.0116057768464088,-0.000628808222245425,0.00263934303075075,0.00532939191907644
853,0.0011304528452456,0.0141611741855741,0.011917432770133,-0.00131718069314957,0.00238838326185942,0.00662770634517074
854,0.00217564194463193,0.015209355391562,0.0122414184734225,0.000358524499461055,0.00168272946029902,0.0110394852235913
855,0.00312387384474278,0.0152502171695232,0.0129198972135782,0.00120015058200806,0.00222071236930788,0.013381008990109
856,0.00314478925429285,0.0120335165411234,0.0130637334659696,-0.00179851916618645,0.00414846511557698,0.00996765866875649
857,0.00266692717559636,0.00612554000690579,0.0115105286240578,-0.00711768539622426,0.00673454347997904,0.00328643224202096
858,0.00304276403039694,0.000607974419835955,0.00886533688753843,-0.0102761285379529,0.00964709185063839,-0.0010234173387289
859,0.00419364776462317,-0.00283576385118067,0.00641891360282898,-0.00979231856763363,0.0117026781663299,0.000115720096800942
860,0.00498834438621998,-0.00519702304154634,0.00407903641462326,-0.00874211080372334,0.0117547623813152,0.00423901854082942
861,0.0046690502204001,-0.00552928680554032,0.00151325843762606,-0.00963659770786762,0.00994675327092409,0.00749032804742455
862,0.00335492752492428,-0.00225407723337412,-0.000324653898132965,-0.0118376826867461,0.00775055261328816,0.00941547937691212
863,0.00213881954550743,0.00177329394500703,-0.000599090999457985,-0.0136465560644865,0.00654799584299326,0.0107511142268777
864,0.00209539686329663,0.00333786476403475,0.000712588895112276,-0.0135134002193809,0.0069601247087121,0.0105421338230371
865,0.00319534842856228,0.00303683686070144,0.00261543365195394,-0.0112457815557718,0.00851471442729235,0.00790468882769346
866,0.00451679527759552,0.0024032024666667,0.00393134541809559,-0.00803979951888323,0.00947271380573511,0.00382922380231321
867,0.00553710665553808,0.00153218151535839,0.00519492058083415,-0.0049632927402854,0.00856725033372641,-0.000672308320645243
868,0.00656004576012492,7.55106811993755E-05,0.00751066999509931,-0.00244260183535516,0.00652897031977773,-0.0054805763065815
869,0.00721213035285473,-0.00072769052349031,0.0103837689384818,-0.000167844162206165,0.00489563401788473,-0.0094662606716156
870,0.00659247720614076,0.00218725670129061,0.0124058909714222,0.00274861743673682,0.00394260603934526,-0.0105645004659891
871,0.00441551255062222,0.00898184906691313,0.0127458460628986,0.00593790225684643,0.00319047714583576,-0.00836011860519648
872,0.00146290403790772,0.015419096685946,0.0114168953150511,0.00751464022323489,0.00310634402558208,-0.00377280754037201
873,-0.000717755756340921,0.0181019194424152,0.00916286930441856,0.0068225865252316,0.00440003024414182,0.00245887786149979
874,-0.00142038485500962,0.0168844908475876,0.00697631342336535,0.00496939243748784,0.00621674349531531,0.00868886522948742
875,-0.0013014447176829,0.0141557333990932,0.00540781393647194,0.00317363766953349,0.0066236462444067,0.0129129029810429
876,-0.00190041237510741,0.0106210978701711,0.00428940309211612,0.00166279217228293,0.00379621447063982,0.0137784807011485
877,-0.00333442655391991,0.0042035486549139,0.00311769242398441,0.000111514586023986,-0.000688176776748151,0.00942002143710852
878,-0.00423187436535954,-0.00476632360368967,0.00203732983209193,-0.00236039352603257,-0.00343602034263313,-0.00021517148707062
879,-0.00385980773717165,-0.0120954345911741,0.00252927816472948,-0.00562400789931417,-0.00371285900473595,-0.00918534304946661
880,-0.00192294595763087,-0.01328413374722,0.0048561617732048,-0.00660344259813428,-0.000689954031258821,-0.0106501486152411
881,0.000375263771275058,-0.00860378611832857,0.00669127143919468,-0.00423222547397017,0.0053217951208353,-0.00497120479121804
882,0.000764567987062037,-0.00303863082081079,0.00626357877627015,-0.00169505691155791,0.010138981975615,0.0025915636215359
883,-0.00114493374712765,-0.00019871280528605,0.00398740032687783,-0.00116592366248369,0.0109485015273094,0.00774799101054668
884,-0.00336225121282041,0.000788757926784456,0.00202970090322196,-0.00113268429413438,0.00916219875216484,0.00956341158598661
885,-0.00410083075985312,0.00118487933650613,0.00211554020643234,-0.000125252714497037,0.00699384417384863,0.00907200388610363
886,-0.00372403091751039,0.000129288440803066,0.00348712131381035,0.000173452426679432,0.00611963495612144,0.00634613586589694
887,-0.00335831753909588,-0.00210968148894608,0.00458502536639571,-0.00160348392091691,0.00789740215986967,0.00152701232582331
888,-0.00377264688722789,-0.00402416661381722,0.00430469820275903,-0.00465336674824357,0.0111569482833147,-0.00390912545844913
889,-0.00500047206878662,-0.00474054552614689,0.00276961270719767,-0.00702497176826,0.0135206514969468,-0.00720797432586551
890,-0.00549499504268169,-0.0034671735484153,0.00184815318789333,-0.00657207611948252,0.0147362276911736,-0.00600170996040106
891,-0.0045733586885035,-0.000787525961641222,0.00199982197955251,-0.00440581142902374,0.0146722635254264,-0.00223286636173725
892,-0.00369991804473102,0.00145008869003505,0.00134969013743103,-0.00407085102051497,0.0124534638598561,-0.00024478419800289
893,-0.00373428338207304,0.00328861270099878,-0.001352270366624,-0.00657076248899102,0.00832146313041449,-0.00173587002791464
894,-0.00408387137576938,0.00508125312626362,-0.00486562680453062,-0.00929050147533417,0.00289394496940076,-0.00543591985478997
895,-0.00364641030319035,0.00572496978566051,-0.00654861005023122,-0.009402921423316,-0.00207367539405823,-0.00973875634372234
896,-0.00257502077147365,0.00558269023895264,-0.00578932790085673,-0.00736987078562379,-0.00431695580482483,-0.0134879313409328
897,-0.00119191198609769,0.00612109480425715,-0.00375550123862922,-0.00485397363081574,-0.003301324788481,-0.0142604997381568
898,0.00155741325579584,0.00834781210869551,-0.000934572424739599,-0.000867593626026064,0.000628255482297391,-0.0101720383390784
899,0.00509903347119689,0.0115623828023672,0.00182534323539585,0.00492417067289352,0.00515464274212718,-0.00352656352333725
900,0.00743257394060493,0.0111102359369397,0.00341254496015608,0.00822767149657011,0.00732969678938389,0.000441925687482581
901,0.00806763954460621,0.00476123113185167,0.00394594203680754,0.0059528355486691,0.00703043909743428,-0.00053311645751819
902,0.00757380481809378,-0.00325672840699553,0.00353384856134653,0.000459290371509269,0.00543913990259171,-0.00292702880688012
903,0.00649061892181635,-0.00903542432934046,0.00202453974634409,-0.00425576558336616,0.00378533056937158,-0.00224045244976878
904,0.00563904456794262,-0.0108784530311823,0.000539682630915195,-0.00514660496264696,0.00324952811934054,0.00142608676105738
905,0.00534990662708879,-0.00914826709777117,9.08465954125859E-05,-0.00321624544449151,0.0033161174505949,0.00347832753323019
906,0.00559719512239099,-0.00572195369750261,0.000901281600818038,-0.00145477696787566,0.00299058086238801,0.00291269272565842
907,0.00650271633639932,-0.00127183296717703,0.00296275154687464,-5.69399235246237E-05,0.00271773221902549,0.00398646155372262
908,0.00808243080973625,0.0028171029407531,0.00535325380042195,0.000882534368429333,0.00386350369080901,0.00807463936507702
909,0.0107836788520217,0.00416853372007608,0.00695580057799816,0.000793654005974531,0.00775174144655466,0.0130049111321568
910,0.0143163688480854,0.0031651072204113,0.00672203861176968,0.000732526415959001,0.0129154669120908,0.016493184491992
911,0.0177138652652502,0.00279021356254816,0.00511063495650887,0.00221814168617129,0.016270250082016,0.0171254016458988
912,0.0200141407549381,0.00355074787512422,0.0037835338152945,0.004518938716501,0.0170797929167748,0.0145167196169496
913,0.0199450869113207,0.0027666597161442,0.00247692060656846,0.00482174893841147,0.0151050928980112,0.00942385382950306
914,0.017812067642808,-0.000299608916975558,0.000863462977577001,0.00213796319440007,0.0110611077398062,0.00454775430262089
915,0.0159217044711113,-0.0027466993778944,0.000172396685229614,-0.00110964709892869,0.00871734786778688,0.00318546616472304
916,0.0151715995743871,-0.00274606072343886,0.000729670573491603,-0.00295905605889857,0.00953294243663549,0.00480853253975511
917,0.0137535957619548,-0.00191122037358582,0.00152243301272392,-0.00475177774205804,0.0109669556841254,0.0049666864797473
918,0.0103914374485612,-0.000341694976668805,0.00158137502148747,-0.0077688223682344,0.01106265373528,0.000822742353193462
919,0.00691159488633275,0.00414401199668646,0.00134217890445143,-0.00961561780422926,0.0106170186772943,-0.00604588910937309
920,0.00546547537669539,0.00947426538914442,0.00177831773180515,-0.00758173549547791,0.0112341064959764,-0.0120985088869929
921,0.00538096390664577,0.011640309356153,0.00310331443324685,-0.0033333410974592,0.0122679676860571,-0.0150404507294297
922,0.00542700756341219,0.00967346038669348,0.00574553944170475,-0.000943976396229118,0.0121977124363184,-0.0147585077211261
923,0.00517452228814363,0.00315259909257293,0.00850383099168539,-0.00285643571987748,0.0103635117411613,-0.0128846587613225
924,0.00423689326271415,-0.00584555836394429,0.00842809025198221,-0.00808990560472012,0.006898851133883,-0.0113671943545341
925,0.00328270276077092,-0.0125508196651936,0.00486102420836687,-0.0136488070711493,0.00346814980730414,-0.0113476067781448
926,0.00403667986392975,-0.0142485396936536,0.000161373041919433,-0.0170454308390617,0.00223540887236595,-0.0112275052815676
927,0.00688920821994543,-0.0122057795524597,-0.00342461280524731,-0.0174803696572781,0.00414953753352165,-0.00816293898969889
928,0.0101631432771683,-0.0100754406303167,-0.00604597991332412,-0.0162356588989496,0.00892703421413898,-0.00293020741082728
929,0.012506646104157,-0.00912626180797815,-0.00835523288697004,-0.014655920676887,0.0144775658845901,0.00174055120442063
930,0.0138233061879873,-0.00774613814428449,-0.00921436306089163,-0.0124682867899537,0.0172412842512131,0.00458537135273218
931,0.0138807259500027,-0.00532037112861872,-0.00747665110975504,-0.00927078723907471,0.0153948301449418,0.00563673302531242
932,0.0126953963190317,-0.00251272995956242,-0.00451625604182482,-0.00514825200662017,0.0111775044351816,0.00600192928686738
933,0.0114732533693314,0.000878620659932494,-0.00218936312012374,0.000204777446924709,0.00911395065486431,0.00667317910119891
934,0.0103596337139606,0.00433118036016822,-0.00157797476276755,0.00499847065657377,0.0106477681547403,0.00602770410478115
935,0.0081930048763752,0.00619752425700426,-0.00288897822611034,0.0062636430375278,0.0129389362409711,0.00271757133305073
936,0.00592431612312794,0.00694413157179952,-0.00320198480039835,0.00509107718244195,0.0141038047149777,-0.000257873442023993
937,0.0054004592821002,0.00702153099700809,-0.000259871798334643,0.00362734263762832,0.0152404690161347,-0.000590229057706892
938,0.00599000602960587,0.00499793468043208,0.00416843499988317,0.00204625842161477,0.0171366911381483,0.000670479668769985
939,0.00676515558734536,0.00167944049462676,0.0077690058387816,0.00129280495457351,0.0190838072448969,0.00213229982182384
940,0.00795526150614023,-0.000414846377680078,0.00986507162451744,0.00310302991420031,0.0199865326285362,0.00157976674381644
941,0.00894846394658089,-0.00125180720351636,0.0113848857581615,0.00698973657563329,0.0190701279789209,-0.00291989790275693
942,0.00865394435822964,-0.000847306801006198,0.0133378570899367,0.011055700480938,0.0158219430595636,-0.0091602373868227
943,0.00727972434833646,0.00322410883381963,0.0153828300535679,0.014836136251688,0.0106264781206846,-0.0133443791419268
944,0.0064517711289227,0.00910205766558647,0.0164577271789312,0.0158115737140179,0.00656417477875948,-0.0155744701623917
945,0.00717180734500289,0.01160435564816,0.0151013741269708,0.0109902219846845,0.00574709987267852,-0.0158008523285389
946,0.00867886655032635,0.0121886879205704,0.010856281965971,0.00240664021112025,0.00602188659831882,-0.0124024227261543
947,0.00927127711474895,0.013184729963541,0.00526547757908702,-0.00545447366312146,0.00478468183428049,-0.00711523229256272
948,0.00837416388094425,0.0113888867199421,0.000632227805908769,-0.00922440830618143,0.00296302489005029,-0.00151327985804528
949,0.00695607252418995,0.00558189023286104,-0.00218252860940993,-0.00954387336969376,0.0029222765006125,0.00456096511334181
950,0.00530609535053372,-0.00101075368002057,-0.00457456987351179,-0.0101153366267681,0.00342201325111091,0.00978216342628002
951,0.00312391459010541,-0.00538543611764908,-0.00732660898938775,-0.0121079003438354,0.0023245841730386,0.012938148342073
952,0.00125492038205266,-0.0064823585562408,-0.00897148810327053,-0.0135155636817217,0.00151076808106154,0.0155311301350594
953,0.00145468604750931,-0.00454044807702303,-0.0079734968021512,-0.0128151793032885,0.00377655727788806,0.0196543969213963
954,0.00427875574678183,-0.000891851959750056,-0.00452110078185797,-0.010005603544414,0.00931838806718588,0.0240428801625967
955,0.00840613152831793,0.00363169563934207,-9.88932952168398E-05,-0.00543660810217261,0.0164459068328142,0.025464279577136
956,0.0121177220717072,0.00848306622356176,0.00327715114690363,-0.000441398617113009,0.0224842634052038,0.0214430931955576
957,0.0145633108913898,0.0116427103057504,0.00463068438693881,0.0028390334919095,0.0255100540816784,0.0113839283585548
958,0.0155637348070741,0.0109840454533696,0.00516005698591471,0.00444782618433237,0.0256712716072798,-0.00129196012858301
959,0.0154515663161874,0.00683129113167524,0.00669794576242566,0.00683924648910761,0.023928627371788,-0.0113399736583233
960,0.014646902680397,0.00259396061301231,0.00898818764835596,0.0102343885228038,0.0200289878994226,-0.0170357841998339
961,0.012895586900413,0.00175281555857509,0.010332434438169,0.0123370876535773,0.0135847823694348,-0.0185035970062017
962,0.00968359503895044,0.00449515227228403,0.00965067651122808,0.0119861951097846,0.00620919605717063,-0.0154377166181803
963,0.00491348607465625,0.00893822126090527,0.00649022730067372,0.00960872229188681,-0.000158098177053034,-0.00860908441245556
964,-0.000815938226878643,0.0137760052457452,0.00220293388701975,0.00706726405769587,-0.00495862355455756,0.000821669062133878
965,-0.00657096365466714,0.0186356175690889,-5.81075473746751E-05,0.00748299388214946,-0.00806187838315964,0.0115401120856404
966,-0.0109542896971107,0.0229522194713354,0.00257726688869298,0.0129869906231761,-0.00824532099068165,0.0210591033101082
