,AF3,AF4,Fp1,Fp2,AF7,AF8
0,0.00318746780976653,0.0094010503962636,0.00197184924036264,0.00230445340275764,-0.00106000644154847,0.00642947386950254
1,0.00403140624985099,0.00762123754248023,0.00311739486642182,0.00379734695889056,0.00139964977279305,0.002399469492957
2,0.00471064308658242,0.0067710792645812,0.00386416562832892,0.00569686759263277,0.00145185831934214,-0.000644927669782192
3,0.00480582332238555,0.0063489330932498,0.00319380755536258,0.00570053420960903,-0.00182415440212935,-0.00181904225610197
4,0.00392162892967463,0.00457800226286054,0.0017371125286445,0.00214379583485425,-0.00554806971922517,-0.00268835667520761
5,0.00250322348438203,0.00199784338474274,0.000977181829512119,-0.00275892019271851,-0.00737887900322676,-0.00311448448337615
6,0.0018865728052333,0.000727355305571109,0.00162306346464902,-0.00582322757691145,-0.00624688202515244,-0.00149593234527856
7,0.00228341319598258,0.00121674814727157,0.00220761308446527,-0.00708005297929049,-0.00326364836655557,0.00182703393511474
8,0.00286503741517663,0.00208690878935158,0.00207080249674618,-0.00816003046929836,-0.000340892991516739,0.00446232687681913
9,0.00309423659928143,0.00210759253241122,0.00195120694115758,-0.0093693109229207,0.00123568275012076,0.00441850908100605
10,0.00357763422653079,0.00159191049169749,0.00172584119718522,-0.00943297334015369,0.00135067268274724,0.00218009855598211
11,0.00545047642663121,0.00140636216383427,0.00173360703047365,-0.00671715661883354,0.00175385910551995,-0.000166684258147143
12,0.00851001124829054,0.00153146195225418,0.0029653562232852,-0.00131794472690672,0.00369719136506319,-0.00158284849021584
13,0.0111795654520392,0.00204717414453626,0.00496268924325705,0.00484938733279705,0.00567096006125212,-0.00185010861605406
14,0.0114517845213413,0.00269791204482317,0.00581717072054744,0.0086950920522213,0.00468574371188879,-0.00170054729096591
15,0.00916854850947857,0.00313953030854464,0.00524013675749302,0.00890191271901131,0.000841259665321559,-0.00171479640994221
16,0.00669283140450716,0.00452579092234373,0.00492415577173233,0.00785377062857151,-0.00241017783991992,-0.000324840162647888
17,0.00493962038308382,0.00676315277814865,0.00508081633597612,0.0068053319118917,-0.00342194782570004,0.00234815524891019
18,0.00337395584210753,0.00790770072489977,0.00525392359122634,0.00485410448163748,-0.00274767680093646,0.00371575611643493
19,0.00258808699436486,0.00768566038459539,0.00569458771497011,0.00274349399842322,-0.00165987829677761,0.00352812674827874
20,0.00352741591632366,0.00760320434346795,0.0064351623877883,0.0024223153013736,-0.00130635441746563,0.00398825341835618
21,0.00498477276414633,0.00787600316107273,0.00635169493034482,0.00352536700665951,-0.00289738900028169,0.00583021389320493
22,0.0044579547829926,0.00669346423819661,0.00408752961084247,0.00407571857795119,-0.00739348074421287,0.00673472788184881
23,0.00224038679152727,0.0030565073247999,0.000677934382110834,0.0038935630582273,-0.0129523193463683,0.00397320557385683
24,0.000471001956611872,-0.00179895909968764,-0.00178118806798011,0.00366980512626469,-0.0165221709758043,-0.00217369967140257
25,0.000149235085700639,-0.00594231300055981,-0.00247933017089963,0.00357434875331819,-0.0168038662523031,-0.00866535771638155
26,0.00148766103666276,-0.00925870798528194,-0.00128830957692117,0.00307383551262319,-0.0132443299517035,-0.0147978058084846
27,0.00365088484250009,-0.0125327799469233,0.000846986309625208,0.00177997327409685,-0.00742912199348211,-0.0215513966977596
28,0.00460031116381288,-0.0136970411986113,0.00154790701344609,0.000984789105132222,-0.00409762701019645,-0.0240449067205191
29,0.00428343983367085,-0.0111104799434543,0.000975376111455262,0.00156168558169156,-0.00366822769865394,-0.0184854064136744
30,0.00419626710936427,-0.00702407443895936,0.00112112890928984,0.00313410093076527,-0.00355017697438598,-0.0094255181029439
31,0.0037731253542006,-0.00375919905491173,0.0013066801475361,0.00512298848479986,-0.0043259528465569,-0.00168771832250059
32,0.00258903135545552,-0.0020282263867557,0.000946700747590512,0.00613883044570684,-0.00535127660259604,0.00216727610677481
33,0.00240382854826748,-0.00214544078335166,0.000468810816528276,0.00497786328196526,-0.00563217746093869,0.00118600390851498
34,0.00411750562489033,-0.00401954678818583,-0.000469597842311487,0.00198054243810475,-0.00552596850320697,-0.00245325360447168
35,0.00626244302839041,-0.00651633879169822,-0.00207551126368344,-0.00175435992423445,-0.0052954712882638,-0.00554235931485891
36,0.00692780828103423,-0.00843451451510191,-0.00441886996850371,-0.00533173605799675,-0.00652853958308697,-0.00727604795247316
37,0.00621945317834616,-0.00993974693119526,-0.00612413324415684,-0.00775954779237509,-0.00851565040647984,-0.00963850039988756
38,0.0055537037551403,-0.0118453288450837,-0.00541185215115547,-0.00841674394905567,-0.00858975108712912,-0.0132528301328421
39,0.00563762616366148,-0.0136799225583673,-0.00342371105216444,-0.00809584371745586,-0.00803900323808193,-0.0160764921456575
40,0.00680959969758987,-0.0134872328490019,-0.00237357732839882,-0.00780182192102075,-0.00980599224567413,-0.0167187340557575
41,0.00829307455569506,-0.0107443844899535,-0.00266041303984821,-0.00790229812264442,-0.0131560247391462,-0.0159404054284096
42,0.00807955488562584,-0.00744450651109219,-0.00320700695738196,-0.00832256861031055,-0.0152105977758765,-0.0146680483594537
43,0.00568109191954136,-0.00515515962615609,-0.00324187125079334,-0.00811952911317348,-0.0154666490852833,-0.0122150015085936
44,0.00252910936251283,-0.00332621415145695,-0.00356996478512883,-0.00632123369723558,-0.0161350294947624,-0.00791540555655956
45,0.000112352783617098,-0.00137422815896571,-0.00479916715994477,-0.00350311165675521,-0.0172556824982166,-0.00362337473779917
46,-0.000618193298578262,0.00047984198317863,-0.00578433694317937,-0.000767420802731067,-0.0161582008004189,-0.0012986270012334
47,0.000336525175953284,0.00230951723642647,-0.00536462711170316,0.0015836771344766,-0.0122666945680976,-0.000319844926707447
48,0.00248703081160784,0.0040008407086134,-0.00350148836150765,0.00317778484895825,-0.00630678562447429,-0.000463727512396872
49,0.00507630780339241,0.00546883512288332,-0.0013427872909233,0.00419062515720725,3.22397463605739E-05,-0.00170631217770278
50,0.00614464189857244,0.00599979236721992,-0.000884612556546927,0.00446926848962903,0.0029537936206907,-0.00274799577891827
51,0.00487295584753156,0.0043030958622694,-0.00285378540866077,0.00272127310745418,0.000967977452091873,-0.00309230946004391
52,0.00273160240612924,0.000973582500591874,-0.00581825198605657,-0.000916198128834367,-0.00353480316698551,-0.00309376115910709
53,0.00115378852933645,-0.00230211019515991,-0.00827273074537516,-0.00530314911156893,-0.00789286568760872,-0.00374924694187939
54,0.00151902111247182,-0.00429145712405443,-0.00900256913155317,-0.0091302627697587,-0.0099274730309844,-0.00538005633279681
55,0.00419882871210575,-0.0045240530744195,-0.00679272459819913,-0.0104391975328326,-0.00861740671098232,-0.00617434270679951
56,0.00703572621569037,-0.00376223237253726,-0.00303257466293871,-0.0085606649518013,-0.00691167032346129,-0.00468810833990574
57,0.00844812672585249,-0.00318112201057374,-0.000497038592584431,-0.0050670369528234,-0.0068365316838026,-0.00250801956281066
58,0.00945578049868345,-0.0029524948913604,0.00155629753135145,-0.00128334562759846,-0.00496760196983814,-0.00181574048474431
59,0.0104021560400724,-0.00283649982884526,0.00456969579681754,0.00243022153154016,-0.000717764312867075,-0.00242670392617583
60,0.009890953078866,-0.00355764641426504,0.00654362700879574,0.00462017534300685,0.00137272221036255,-0.00379527639597654
61,0.00721402000635862,-0.00506873894482851,0.0054283207282424,0.00384147092700005,-0.00105225632432848,-0.00545656541362405
62,0.00272931717336178,-0.00599505100399256,0.00142540014348924,0.000518258428201079,-0.00651779118925333,-0.00610277522355318
63,-0.00213584071025252,-0.00564258499071002,-0.0036147756036371,-0.00326151004992425,-0.0118991425260901,-0.00490315398201346
64,-0.00597864110022783,-0.00454943627119064,-0.00763132330030203,-0.00504157692193985,-0.0159459635615349,-0.00287198531441391
65,-0.00848449300974607,-0.00437779957428575,-0.00934914126992226,-0.00405657617375255,-0.0179417468607426,-0.00353739061392844
66,-0.00980022642761469,-0.00600857893005013,-0.00885093212127686,-0.00184740056283772,-0.0166864655911922,-0.00754558760672808
67,-0.0101669393479824,-0.0080902548506856,-0.00755079975351691,-0.000838110106997192,-0.013261360116303,-0.0104749780148268
68,-0.00940550398081541,-0.00895103812217712,-0.00617124792188406,-0.00109598378185183,-0.00937169045209885,-0.01001294888556
69,-0.00770280696451664,-0.00831408612430096,-0.00472890585660934,-0.000686488987412304,-0.00581180397421122,-0.00728997541591525
70,-0.00593624636530876,-0.00655723968520761,-0.00313515681773424,0.000936378433834761,-0.00278146285563707,-0.00355411064811051
71,-0.00452848942950368,-0.0040387106128037,-0.00146511092316359,0.00274191331118345,-0.000560425920411944,0.000389865133911371
72,-0.00288505502976477,-0.00158109550829977,-6.99113888913416E-06,0.00353591679595411,0.00103345885872841,0.00373124214820564
73,-0.000540603534318507,-0.00034580787178129,0.0011484045535326,0.00292685138992965,0.00203241477720439,0.00535965757444501
74,0.00151811086107045,-0.000465467746835202,0.00116797850932926,0.00179871951695532,0.000173918146174401,0.00526650762185454
75,0.0025339899584651,-0.000662927923258394,-3.33540629071649E-05,0.00212773960083723,-0.00467379624024034,0.0054213204421103
76,0.00280985375866294,-0.000456462992588058,-0.00138138676993549,0.00448629027232528,-0.00807595811784267,0.00682310666888952
77,0.00259012775495648,6.28821944701485E-05,-0.00276511162519455,0.00692894821986556,-0.00695561431348324,0.00783621426671743
78,0.00261282804422081,0.00153126032091677,-0.00339830038137734,0.00795147754251957,-0.00151234387885779,0.00695506995543838
79,0.00300398701801896,0.00381213612854481,-0.00251786201260984,0.00791930314153433,0.00483186868950725,0.00575667805969715
80,0.00218017096631229,0.00594547763466835,-0.00136386079248041,0.00780118769034743,0.00713522871956229,0.00751333916559815
81,-0.00115679402370006,0.00775249907746911,-0.000643964915070683,0.00843250565230846,0.00441558426246047,0.0137125058099627
82,-0.00644381903111935,0.00921004451811314,2.07191969820997E-05,0.00998034235090017,-0.000194219916011207,0.0222867913544178
83,-0.0102997180074453,0.00924415793269873,0.00119718303903937,0.0112717915326357,-0.00135131739079952,0.0280460175126791
84,-0.00972600933164358,0.0068424865603447,0.00243437848985195,0.0099254073575139,0.00365315261296928,0.0259783118963242
85,-0.00651348242536187,0.00259743817150593,0.000860701024066657,0.00398561032488942,0.00919699389487505,0.0154991513118148
86,-0.00369766377843916,-0.00141867413185537,-0.00507809827104211,-0.00488666072487831,0.00888379290699959,0.00152977858670056
87,-0.00210773595608771,-0.00374278193339705,-0.0126981940120459,-0.0121509078890085,0.00387161294929683,-0.0109561551362276
88,-0.00137152569368482,-0.00438424851745367,-0.0180245786905289,-0.015198121778667,-0.00147369795013219,-0.0207249969244003
89,-0.000523633440025151,-0.00448117265477777,-0.0185758825391531,-0.0146886110305786,-0.0032158400863409,-0.027982335537672
90,0.000182533447514288,-0.00477150315418839,-0.0147439492866397,-0.0117456214502454,-0.00144401204306632,-0.0312448460608721
91,-0.000115705057396553,-0.00481317704543471,-0.00952465739101171,-0.00841737072914839,8.27403055154718E-05,-0.0301835350692272
92,-0.000603539461735636,-0.00532599398866296,-0.00651212874799967,-0.00866975914686918,0.000849480275064707,-0.0292713716626167
93,-0.000390167784644291,-0.00688152061775327,-0.00757994456216693,-0.0130509557202458,0.00129973900038749,-0.0304392296820879
94,-8.28260672278702E-05,-0.00928983092308044,-0.0112826749682426,-0.0181511826813221,0.000945593055803329,-0.0320442840456963
95,-0.000167078207596205,-0.0118470638990402,-0.0141137782484293,-0.0199699997901917,0.00100139039568603,-0.03266267105937
96,-5.52015226276126E-05,-0.012358614243567,-0.0138457790017128,-0.0161961186677217,0.00225859577767551,-0.0300811920315027
97,-2.19671801460208E-05,-0.0106034679338336,-0.0128197502344847,-0.0101842479780316,0.00120295584201813,-0.0259057059884071
98,-0.00103960651904345,-0.00774832675233483,-0.0140134058892727,-0.00599281676113606,-0.00619677966460586,-0.0230480097234249
99,-0.00242094276472926,-0.00404047500342131,-0.0152724403887987,-0.00327457161620259,-0.0166129004210234,-0.0210436396300793
100,-0.00259715272113681,-0.000268502277322114,-0.0139115452766418,-0.00117397122085094,-0.0238429866731167,-0.019605515524745
101,-0.0012369774049148,0.00150258268695325,-0.0108803166076541,1.90796708920971E-06,-0.0254638884216547,-0.0202697068452835
102,0.000309039634885266,-0.00020519744430203,-0.00838129967451096,0.000518748944159597,-0.0218780729919672,-0.0235517509281635
103,0.000548132695257664,-0.00346966157667339,-0.00798248313367367,0.00111113721504807,-0.0154647985473275,-0.026819096878171
104,-0.000194877808098681,-0.0062489346601069,-0.0099835405126214,0.000670943059958518,-0.00799791142344475,-0.0292329732328653
105,-0.000573082361370325,-0.00874711107462645,-0.013149163685739,-0.00184383371379226,0.000480860064271837,-0.033029779791832
106,-0.000156897935084999,-0.00977579783648252,-0.0156824216246605,-0.00412564678117633,0.00835648085922003,-0.0358822792768478
107,0.00108760874718428,-0.00822696276009083,-0.0167899187654257,-0.00410129129886627,0.013386519625783,-0.0341501161456108
108,0.00267557636834681,-0.00608733110129833,-0.0171115975826979,-0.00228379247710109,0.0147806107997894,-0.0294800605624914
109,0.00301710329949856,-0.00440983707085252,-0.017617667093873,0.00130364019423723,0.0123821040615439,-0.0227826405316591
110,0.00193951232358813,-0.0021227381657809,-0.0177639946341515,0.00613510981202126,0.00847902614623308,-0.0145421586930752
111,0.000589411647524685,0.000113186302769464,-0.0161327570676804,0.0101416762918234,0.0058973147533834,-0.00788700021803379
112,-0.000651155191008002,-0.000265657057752833,-0.0130423959344625,0.011835359968245,0.00436983071267605,-0.00564439315348864
113,-0.00119741808157414,-0.00478057470172644,-0.0103571703657508,0.00959925539791584,0.00459794327616692,-0.00955176260322332
114,-0.000500656140502542,-0.0107584437355399,-0.0093536488711834,0.00373818259686232,0.00717224413529038,-0.0171437226235867
115,0.000847112329211086,-0.0137585196644068,-0.0100322281941772,-0.00226560677401721,0.00881718751043081,-0.0226942617446184
116,0.00211591040715575,-0.0134592782706022,-0.0113446488976479,-0.00615621777251363,0.00762541918084025,-0.0240498483181
117,0.00260587385855615,-0.0120689617469907,-0.0127492435276508,-0.00819412712007761,0.00348700140602887,-0.0223104152828455
118,0.00283686933107674,-0.0102363927289844,-0.0136259142309427,-0.00923877116292715,-0.00175697635859251,-0.0191924888640642
119,0.00375856342725456,-0.00771008804440498,-0.0123070543631911,-0.00872352719306946,-0.00395491952076554,-0.0160842537879944
120,0.00398843782022595,-0.00482828309759498,-0.0090742576867342,-0.00543370703235269,-0.00289738248102367,-0.0129645802080631
121,0.00264634331688285,-0.0033607822842896,-0.00709243537858129,-0.00145209301263094,-0.00208309479057789,-0.0118875838816166
122,0.000958630349487066,-0.00480711320415139,-0.00892562419176102,-0.000451581348897889,-0.00368034676648676,-0.0155966188758612
123,-0.000407945160986856,-0.00746107520535588,-0.0134851634502411,-0.00251961755566299,-0.0066518927924335,-0.0213012676686049
124,-0.00133162224665284,-0.00894549302756786,-0.0175474975258112,-0.00524297682568431,-0.0081461388617754,-0.0243573281913996
125,-0.00155806145630777,-0.00935747381299734,-0.0198175571858883,-0.00782584771513939,-0.0074545587413013,-0.0245479978621006
126,-0.0016741860890761,-0.00957373157143593,-0.02141497656703,-0.0107899233698845,-0.00717858225107193,-0.0244117435067892
127,-0.00187985470984131,-0.00959931407123804,-0.021940415725112,-0.0128566669300199,-0.00733927870169282,-0.0248986519873142
128,-0.00146616448182613,-0.00913871917873621,-0.0195446778088808,-0.0117142973467708,-0.00514899333938956,-0.0245093014091253
129,4.9260388550465E-06,-0.00824462901800871,-0.0146065214648843,-0.00800304114818573,-0.000946550106164068,-0.0234762113541365
130,0.00194467511028051,-0.00712518347427249,-0.00942946318536997,-0.00437550945207477,0.00232113595120609,-0.0235516969114542
131,0.00245064916089177,-0.00661609368398786,-0.00545069482177496,-0.00227146199904382,0.00225053913891315,-0.0241850931197405
132,0.00077754317317158,-0.0076105697080493,-0.0030114590190351,-0.00225201365537941,-0.000732233223970979,-0.0246337149292231
133,-0.00177801819518209,-0.00871414504945278,-0.00332438386976719,-0.00412217900156975,-0.004319301340729,-0.0243494212627411
134,-0.00338887749239802,-0.00810919888317585,-0.00598635384812951,-0.00633564777672291,-0.00584776094183326,-0.0226758308708668
135,-0.00304287625476718,-0.00677506299689412,-0.0082657178863883,-0.00735814915969968,-0.00329072959721088,-0.0205681920051575
136,-0.00101514195557684,-0.00607091700658202,-0.00915548484772444,-0.0066954861395061,0.0020873483736068,-0.0186638440936804
137,0.0020621542353183,-0.00598912220448256,-0.00907854363322258,-0.00492210127413273,0.00751569774001837,-0.0169409606605768
138,0.00537875527516007,-0.00636543333530426,-0.00843689311295748,-0.0031311574857682,0.0120435543358326,-0.015920864418149
139,0.00863722991198301,-0.00676613254472613,-0.00691799353808165,-0.0011103207943961,0.0168903656303883,-0.0155869107693434
140,0.0113206412643194,-0.0072044231928885,-0.00416795071214437,0.00157436018344015,0.0223244968801737,-0.0153379701077938
141,0.0122914332896471,-0.00764996698126197,-0.00132206152193248,0.00449657253921032,0.0263996012508869,-0.0141676738858223
142,0.0112945446744561,-0.0073318281210959,0.000482721428852528,0.00768229970708489,0.0277784876525402,-0.0114404540508986
143,0.00935052894055843,-0.00657187635079026,0.00113942683674395,0.0104570351541042,0.0262236688286066,-0.00877978838980198
144,0.0084328530356288,-0.00668286951258779,0.00108491303399205,0.0110034216195345,0.0229199081659317,-0.00923464633524418
145,0.00839580688625574,-0.0080877086147666,0.000754512031562626,0.00894186552613974,0.0174733567982912,-0.0138936406001449
146,0.00717498129233718,-0.0103906914591789,0.000431034655775875,0.00502010527998209,0.00771464593708515,-0.0211837850511074
147,0.00482598366215825,-0.0124418549239635,0.000739689101465046,0.000383441743906587,-0.00439882092177868,-0.0267747156322002
148,0.00321503635495901,-0.0126322377473116,0.00190139783080667,-0.00328518263995647,-0.0139922378584743,-0.0267877839505672
149,0.00280007300898433,-0.011268574744463,0.00253819464705884,-0.00497798109427094,-0.0183963570743799,-0.0218301974236965
150,0.00255196890793741,-0.0108284754678607,0.00133002758957446,-0.0046002147719264,-0.0169503837823868,-0.0153121836483479
151,0.00321519910357893,-0.0130477789789438,7.33156866772333E-06,-0.00360016291961074,-0.00873302482068539,-0.0132519165053964
152,0.00508267572149634,-0.0162703730165958,-3.94002781831659E-05,-0.00315905921161175,0.00227118609473109,-0.0170770194381475
153,0.00628444459289312,-0.0176564585417509,-0.00114885438233614,-0.00279860105365515,0.0092536136507988,-0.0199537687003613
154,0.00695949047803879,-0.0162928905338049,-0.00456985924392939,-0.0024320671800524,0.012146620079875,-0.0170957371592522
155,0.00859668664634228,-0.0128197455778718,-0.00910854991525412,-0.00282566738314927,0.0141147812828422,-0.00978265702724457
156,0.0107401832938194,-0.00910085812211037,-0.0140706105157733,-0.00440829945728183,0.0155990999191999,-0.00221483618952334
157,0.0117547307163477,-0.00684422207996249,-0.0187964010983706,-0.00639982474967837,0.0156315453350544,0.00216490309685469
158,0.0108310282230377,-0.00626057432964444,-0.0221884995698929,-0.00792277697473764,0.0144854206591845,0.0023121980484575
159,0.00847579445689917,-0.00572229968383908,-0.0234373044222593,-0.0084059638902545,0.0133100803941488,-0.000415599293773994
160,0.00565368123352528,-0.00300492765381932,-0.0220642928034067,-0.00685993023216724,0.0125119425356388,-0.00261100777424872
161,0.00299540814012289,0.000870550982654095,-0.0183569584041834,-0.00374024827033281,0.0124955484643579,-0.00307380873709917
162,0.000883204571437091,0.00279267830774188,-0.0136867351830006,-0.00105795019771904,0.0136810885742307,-0.00371110718697309
163,-0.000397181371226907,0.00148816069122404,-0.0103332940489054,-0.000690189481247216,0.0151434438303113,-0.00610528001561761
164,-0.000902286556083709,-0.00197700131684542,-0.00995037239044905,-0.002812605118379,0.0151434475556016,-0.00951010454446077
165,-0.00114193861372769,-0.00520412437617779,-0.0114451358094811,-0.0050974553450942,0.0128999715670943,-0.011209774762392
166,-0.00135884073097259,-0.00681967986747622,-0.0124434158205986,-0.00586870778352022,0.00947517435997725,-0.0100050857290626
167,-0.00155419984366745,-0.00719080027192831,-0.0118098640814424,-0.00525334663689137,0.00645864708349109,-0.00640621408820152
168,-0.00167958450037986,-0.00695150438696146,-0.00980327278375626,-0.00386590883135796,0.00432264572009444,-0.00135086663067341
169,-0.00123980978969485,-0.0063112280331552,-0.00769497035071254,-0.00255737779662013,0.00173141725827008,0.00359304598532617
170,-0.000888693321030587,-0.00604833289980888,-0.00687417108565569,-0.00200912449508905,-0.00250285863876343,0.00687713548541069
171,-0.00184183311648667,-0.00721637904644012,-0.00745117058977485,-0.00299716158770025,-0.00648226449266076,0.00698518706485629
172,-0.00346984551288188,-0.0086015909910202,-0.00932169705629349,-0.00583955366164446,-0.00886945519596338,0.00416250573471189
173,-0.00444719335064292,-0.00858032144606113,-0.0123982708901167,-0.0098912576213479,-0.0106209171935916,-9.51727361098165E-06
174,-0.00399616127833724,-0.00764538533985615,-0.0147892730310559,-0.0136393308639526,-0.0110110826790333,-0.00446615228429437
175,-0.0026880782097578,-0.00709370663389564,-0.0152166355401278,-0.0158559791743755,-0.00908422376960516,-0.00837587006390095
176,-0.00195098330732435,-0.00728219887241721,-0.0142278019338846,-0.0159795098006725,-0.00626228004693985,-0.0107652824372053
177,-0.00194133911281824,-0.00722700404003263,-0.0113312527537346,-0.0130280293524265,-0.00439959857612848,-0.0111225452274084
178,-0.00240632123313844,-0.0067560151219368,-0.00680685322731733,-0.00804346799850464,-0.00463319476693869,-0.0110814636573195
179,-0.00336189148947597,-0.00643752189353108,-0.00332969147711992,-0.00377391115762293,-0.00685659795999527,-0.0117945345118642
180,-0.00379937118850648,-0.00574120413511992,-0.00210740976035595,-0.00130084704142064,-0.00810365378856659,-0.0118366871029139
181,-0.00229665590450168,-0.00436182366684079,-0.00227083102799952,-0.00107788422610611,-0.00477665383368731,-0.010831056162715
182,0.000721718766726553,-0.00347680551931262,-0.00323558389209211,-0.00311396969482303,0.00304459710605443,-0.0102155329659581
183,0.00266813416965306,-0.0041428436525166,-0.00472805509343743,-0.00575035717338324,0.0113499742001295,-0.0102312788367271
184,0.00174659572076052,-0.00523397093638778,-0.00640467740595341,-0.00717690354213119,0.0150948306545615,-0.00906702224165201
185,-0.00137990969233215,-0.0048911483027041,-0.00788041669875383,-0.00682638399302959,0.0123090641573071,-0.00494970101863146
186,-0.00475388625636697,-0.00365537567995489,-0.00879816059023142,-0.00561970053240657,0.00678963493555784,0.000766874814871699
187,-0.00663728872314096,-0.00334549439139664,-0.00864271447062492,-0.00466803880408406,0.00405806908383965,0.00509421201422811
188,-0.0067824125289917,-0.00463119056075811,-0.0080281924456358,-0.00482761906459928,0.00367484707385302,0.00622866582125425
189,-0.00620916020125151,-0.00730303628370166,-0.00875648204237223,-0.0070583219639957,0.00152431498281658,0.00346589577384293
190,-0.00619729654863477,-0.0106230713427067,-0.0107100019231439,-0.00991346780210733,-0.00233336794190109,-0.0013898906763643
191,-0.00733071379363537,-0.0134611213579774,-0.0124910995364189,-0.0112231280654669,-0.00605667009949684,-0.00531588355079293
192,-0.00876971241086721,-0.0148046836256981,-0.0133420480415225,-0.0112155713140965,-0.00932775344699621,-0.00685631157830358
193,-0.00955472886562347,-0.0140356840565801,-0.0129824532195926,-0.00973567925393581,-0.011696963571012,-0.00570055935531855
194,-0.00945952441543341,-0.0113221406936646,-0.0118266921490431,-0.0065846461802721,-0.0124487746506929,-0.00318189500831068
195,-0.0084441639482975,-0.00740817794576287,-0.0106221344321966,-0.00406726310029626,-0.0111020784825087,-0.00195039017125964
196,-0.00697065191343427,-0.00324087077751756,-0.00989488884806633,-0.00395119842141867,-0.00851105526089668,-0.00267302803695202
197,-0.00568462116643786,-0.000912102637812495,-0.00941688008606434,-0.00585669185966253,-0.00651875790208578,-0.00441587576642632
198,-0.004731728695333,-0.00264717545360327,-0.00846388842910528,-0.00949780642986298,-0.00582948233932257,-0.00748890498653054
199,-0.00352910882793367,-0.00762897217646241,-0.00703349802643061,-0.0141984326764941,-0.00503897713497281,-0.0116513483226299
200,-0.00187656318303198,-0.0128076737746596,-0.00586449448019266,-0.0177543051540852,-0.00272387615405023,-0.0150282708927989
201,-0.000779193826019764,-0.0162467174232006,-0.0055276807397604,-0.0187785029411316,0.000418173876823857,-0.0160737875849009
202,-0.00103390321601182,-0.017353342846036,-0.006767931394279,-0.0182980913668871,0.00100819545332342,-0.0136316400021315
203,-0.00257060234434903,-0.0166085995733738,-0.0107647208496928,-0.018503837287426,-0.00342780677601695,-0.0086319213733077
204,-0.0040690922178328,-0.0160627085715532,-0.0160955376923084,-0.0205823443830013,-0.00826496910303831,-0.00658380892127752
205,-0.00422549666836858,-0.0164870042353868,-0.0182636715471745,-0.0219407975673676,-0.00859027076512575,-0.00988938193768263
206,-0.00342281349003315,-0.0161071848124266,-0.0149159589782357,-0.0193816907703877,-0.00671146484091878,-0.0123971467837691
207,-0.00192790466826409,-0.0141497412696481,-0.00836258009076118,-0.014778115786612,-0.00506798876449466,-0.0103883566334844
208,-1.06891475297743E-05,-0.0120990080758929,-0.0026929706800729,-0.0123649500310421,-0.00308500067330897,-0.00722430273890495
209,0.00135073228739202,-0.0107350563630462,0.000713207817170769,-0.0127762360498309,-0.000460640963865444,-0.00491650495678186
210,0.00229582167230546,-0.0097337644547224,0.00296628009527922,-0.0136961583048105,0.0028208342846483,-0.00284500676207244
211,0.0031363470479846,-0.0106199504807591,0.00306433532387018,-0.0149411568418145,0.00572888553142548,-0.00249617057852447
212,0.00321164727210999,-0.0143599854782224,-0.000547995208762586,-0.0177234094589949,0.00661946274340153,-0.00567028857767582
213,0.00267820851877332,-0.017855504527688,-0.00552536034956574,-0.0207323133945465,0.00655115814879537,-0.0102605083957314
214,0.00171665195375681,-0.0186216272413731,-0.00956882163882256,-0.0227172113955021,0.00589348701760173,-0.013594669289887
215,-0.000408702675485983,-0.0175917334854603,-0.0129321645945311,-0.0242163725197315,0.00237587722949684,-0.0151909720152617
216,-0.00283658178523183,-0.015128000639379,-0.0150956641882658,-0.0240237955003977,-0.00272993324324489,-0.0134653244167566
217,-0.00360401952639222,-0.0113654620945454,-0.0158408489078283,-0.0213629715144634,-0.00589398294687271,-0.00827811006456614
218,-0.00252190977334976,-0.00817156117409468,-0.0159890502691269,-0.0186208728700876,-0.00682013155892491,-0.00342120672576129
219,-0.000490731617901474,-0.0062964791432023,-0.0148018756881356,-0.0169277004897594,-0.00631559174507856,-0.00139909412246197
220,0.00171072059310973,-0.00562890898436308,-0.0112666673958302,-0.0154001759365201,-0.00416008289903402,-0.00234714546240866
221,0.00318387593142688,-0.00670679844915867,-0.0067573026753962,-0.0137752462178469,-0.00162832485511899,-0.00534659624099731
222,0.00393992336466908,-0.00834147538989782,-0.00331393093802035,-0.0110938316211104,-0.00152047560550272,-0.00739336479455233
223,0.00442208722233772,-0.00887859240174294,-0.00202623382210732,-0.0065479027107358,-0.00383332488127053,-0.00602823495864868
224,0.00451146252453327,-0.00829363614320755,-0.00231854035519063,-0.00091603072360158,-0.00513991620391607,-0.0015404955483973
225,0.00473879091441631,-0.00700007937848568,-0.00143033708445728,0.00491079781204462,-0.0027411999180913,0.00376025238074362
226,0.00549083109945059,-0.00578899262472987,0.00174034084193408,0.00973320286720991,0.00237223925068974,0.00671836826950312
227,0.00543038919568062,-0.00529973162338138,0.00465097138658166,0.0129553405568004,0.00550730107352138,0.0062924949452281
228,0.00351645890623331,-0.0051472494378686,0.00566173391416669,0.0152466706931591,0.00373554998077452,0.00448402669280767
229,0.000600361090619117,-0.00527488766238093,0.00589494733139873,0.0163434222340584,-9.89553154795431E-05,0.00282080518081784
230,-0.00147410167846829,-0.00644131703302264,0.00648079253733158,0.0151967741549015,-0.000569957715924829,0.000652493792586029
231,-0.00201393105089664,-0.00796236097812653,0.00711825909093022,0.0129488538950682,0.00360251730307937,-0.00128734344616532
232,-0.00246215029619634,-0.0077273566275835,0.0062783882021904,0.0123598864302039,0.00713542615994811,-0.000259953259956092
233,-0.00392389670014381,-0.00511809997260571,0.00326601346023381,0.0139061734080315,0.00603541219606996,0.00357064721174538
234,-0.00596953416243196,-0.00100266758818179,-2.62902703980217E-05,0.0161946751177311,0.00218989443965256,0.007313571870327
235,-0.00766239361837506,0.00340174650773406,-0.00109268829692155,0.0184010248631239,-0.00131933705415577,0.00920829176902771
236,-0.00843620579689741,0.00683712167665362,0.000855286605656147,0.0209166649729013,-0.00396449351683259,0.00975857395678759
237,-0.00854095350950956,0.00836300104856491,0.00454985164105892,0.0237025432288647,-0.00708678178489208,0.0100659374147654
238,-0.00808695424348116,0.00789590086787939,0.00841979309916496,0.0252365786582232,-0.0106856739148498,0.0102362344041467
239,-0.00689862342551351,0.00683519663289189,0.0120300985872746,0.0248833298683167,-0.0126794623211026,0.0106912516057491
240,-0.00632130540907383,0.00553471082821488,0.0136364232748747,0.0224246401339769,-0.0124293258413672,0.0108478739857674
241,-0.00715260859578848,0.00369788846001029,0.0117123974487185,0.0183756425976753,-0.0115086389705539,0.0097065381705761
242,-0.00802198983728886,0.00266842963173985,0.00806483067572117,0.0152339544147253,-0.0113865314051509,0.00859725847840309
243,-0.00864854082465172,0.00262164347805083,0.00464019551873207,0.0141855319961905,-0.0125735206529498,0.00852556526660919
244,-0.00933847017586231,0.00228694546967745,0.00237742578610778,0.0144309131428599,-0.0135740377008915,0.0092760231345892
245,-0.00907179433852434,0.00155237421859056,0.00220789643935859,0.0152298444882035,-0.0123968720436096,0.0111572435125709
246,-0.0071900780312717,0.00139135727658868,0.00385289802215993,0.0161819644272327,-0.00929445493966341,0.0142723275348544
247,-0.00468510668724775,0.00198026560246944,0.00572830019518733,0.0167189352214336,-0.00484030554071069,0.0167417321354151
248,-0.00286922557279468,0.00183745415415615,0.0065083266235888,0.0158012583851814,0.00129429087974131,0.0152109367772937
249,-0.00248908088542521,0.000160050738486461,0.00570273119956255,0.0128381513059139,0.0066983955912292,0.00891724415123463
250,-0.00369995576329529,-0.00158524140715599,0.00373683101497591,0.00884168595075607,0.00710990699008107,0.00131629838142544
251,-0.00519227562472224,-0.00196468271315098,0.00183219171594828,0.00544551806524396,0.00352423056028783,-0.0037709993775934
252,-0.00536398915573955,-0.00139452761504799,0.000821963942144066,0.00312103400938213,0.000857240869663656,-0.00569459656253457
253,-0.004385597538203,-0.00115527980960906,0.000694296904839575,0.00134130392689258,0.000373493268853053,-0.00651986477896571
254,-0.00329075427725911,-0.00120246189180762,0.001056196866557,0.000354741525370628,0.000371882721083239,-0.00712617114186287
255,-0.00239856890402734,0.000100019657111261,0.00179924769327044,0.00139676337130368,0.000500116322655231,-0.00547350011765957
256,-0.00234254379756749,0.00311448960565031,0.00269059673883021,0.00421927031129599,0.000605692621320486,1.34375504785567E-05
257,-0.0038273346144706,0.0057307411916554,0.00256297527812421,0.00597503315657377,-0.000518488581292331,0.00696629611775279
258,-0.00600942224264145,0.00600224593654275,0.000949873763602227,0.00430057663470507,-0.00288271671161056,0.0108343176543713
259,-0.00668327230960131,0.00432773074135184,-0.000291618838673458,0.000294413068331778,-0.00429141568019986,0.00986223947256804
260,-0.00436909310519695,0.00138189131394029,0.00074403831968084,-0.00401172786951065,-0.00260356068611145,0.00453920150175691
261,-0.00137437309604138,-0.00127579015679657,0.0029396889731288,-0.00648938771337271,-0.000830693868920207,-0.00162310048472136
262,-0.000429102394264191,-0.000719133298844099,0.00374743319116533,-0.00537730613723397,-0.00334289856255054,-0.00344756268896163
263,-0.000680717406794429,0.00179480423685163,0.00295173819176853,-0.00273298984393477,-0.00753634236752987,-0.00246891286224127
264,-0.00109113706275821,0.00281486939638853,0.00233827996999025,-0.000700162316206843,-0.00944894459098578,-0.0025595196057111
265,-0.00164859148208052,0.00182921811938286,0.00275201769545674,0.000753699627239257,-0.0094106663018465,-0.00354183348827064
266,-0.00267154141329229,-4.59672592114657E-05,0.0030719565693289,0.0016443463973701,-0.0101250922307372,-0.00423129461705685
267,-0.00388351432047784,-0.00166537205222994,0.0025151944719255,0.00248114531859756,-0.0127463424578309,-0.00428401818498969
268,-0.00383747299201787,-0.0025681690312922,0.0014649328077212,0.00316002918407321,-0.0154526019468904,-0.00402133213356137
269,-0.00216751568950713,-0.00256603746674955,0.000757812696974725,0.00353611214086413,-0.0156356729567051,-0.00268918322399259
270,0.000995791051536798,-0.00104704697150737,0.0018610330298543,0.00464120833203197,-0.0107980854809284,0.00117627915460616
271,0.00447086850181222,0.00161385140381753,0.00395698426291347,0.00614916952326894,-0.00320300017483532,0.00685095274820924
272,0.00585442455485463,0.00344389048404992,0.00477644382044673,0.00646353140473366,0.00205238093622029,0.0114254234358668
273,0.00497242994606495,0.00376336649060249,0.00476645398885012,0.00619086157530546,0.00399735802784562,0.0138063821941614
274,0.00354730803519487,0.00448820926249027,0.0057757468894124,0.00743121095001698,0.00416832510381937,0.0151060996577144
275,0.00277216802351177,0.00663009285926819,0.00790712609887123,0.00969430338591337,0.00375237339176238,0.0145164495334029
276,0.00276426877826452,0.00853318348526955,0.00978876743465662,0.0109088867902756,0.00356649304740131,0.0110668111592531
277,0.00338804489001632,0.0089271804317832,0.0113405110314488,0.0115170460194349,0.00443222001194954,0.00758073106408119
278,0.00413960590958595,0.00871794950217009,0.0135841211304069,0.0133336745202541,0.00607878807932138,0.00767509220167995
279,0.00421638879925013,0.00968728307634592,0.0166197381913662,0.0167670212686062,0.00815398059785366,0.0119962533935905
280,0.00411916803568602,0.0120815588161349,0.0191134884953499,0.0207206178456545,0.0112369293347001,0.0179179348051548
281,0.00434361817315221,0.0138669610023499,0.0195598937571049,0.0239875316619873,0.0138959353789687,0.0224260818213224
282,0.00489878933876753,0.0140055334195495,0.0190136004239321,0.0265609733760357,0.0148285636678338,0.0254585295915604
283,0.00677313702180982,0.0133121823891997,0.0202107504010201,0.0285565610975027,0.0153224691748619,0.0265604015439749
284,0.00959287583827972,0.0127152185887098,0.0238417033106089,0.0306317284703255,0.0148147372528911,0.0243416205048561
285,0.0115502150729299,0.0129167232662439,0.0283474531024694,0.0337873809039593,0.0118724759668112,0.0201329737901688
286,0.0115897664800286,0.0134866908192635,0.0312641151249409,0.0368087366223335,0.00784116517752409,0.0166539680212736
287,0.00957255251705647,0.0134972678497434,0.0303797125816345,0.0378225743770599,0.0050001940689981,0.0163226556032896
288,0.00720920925959945,0.0128749189898372,0.0262870714068413,0.0360065065324306,0.00571162579581141,0.0192486066371202
289,0.00623967219144106,0.01285261195153,0.0211784336715937,0.0320156216621399,0.0085185132920742,0.0237023271620274
290,0.00603060470893979,0.0145897939801216,0.0165960360318422,0.028339384123683,0.00902395416051149,0.0285791661590338
291,0.00544184679165483,0.0169642921537161,0.0136755853891373,0.026221327483654,0.00758003117516637,0.0317619778215885
292,0.00438534747809172,0.0176679436117411,0.0121064661070704,0.0241399463266134,0.00685271853581071,0.0303328149020672
293,0.00374182919040322,0.0160082690417767,0.0112491734325886,0.0210311152040958,0.00749136600643396,0.0243564192205668
294,0.00389628391712904,0.0132922008633614,0.0110619757324457,0.0177401043474674,0.00857298448681831,0.0171060804277658
295,0.00402082642540336,0.0106827626004815,0.010970282368362,0.0150977885350585,0.00888577662408352,0.0111875105649233
296,0.00347951566800475,0.00807494763284922,0.0106825781986117,0.0130658419802785,0.00808269251137972,0.00632987963035703
297,0.00185166241135448,0.00539342453703284,0.0110157448798418,0.0120498118922114,0.0061214123852551,0.00174582633189857
298,-0.000373722257791087,0.0038800782058388,0.0124262664467096,0.0130451628938317,0.00386834098026156,-0.000885120825842023
299,-0.00152759393677115,0.00424073869362473,0.0133411195129156,0.0152717940509319,0.00292982929386199,0.000168120153830387
300,-0.00130499212536961,0.00528275500983,0.0122428433969617,0.0165827106684446,0.0036703331861645,0.00377786648459733
301,-0.000325098721077666,0.00565844308584929,0.00999071728438139,0.0159381330013275,0.00598016986623406,0.00735375285148621
302,0.00146205921191722,0.00504893762990832,0.00849290285259485,0.0135026955977082,0.00971436873078346,0.00885943416506052
303,0.00353143247775733,0.0044672847725451,0.00876274053007364,0.010592388920486,0.0136339021846652,0.00865914579480886
304,0.00509537989273667,0.00563454814255238,0.0104206064715981,0.00911720097064972,0.015536199323833,0.0092405928298831
305,0.00615486269816756,0.00882656965404749,0.0122376829385757,0.00954628735780716,0.0135803623124957,0.0119597353041172
306,0.0065607582218945,0.0120065668597817,0.0131284492090344,0.0108967470005155,0.0083544859662652,0.0154449641704559
307,0.00598524697124958,0.0125101916491985,0.0126514844596386,0.0119225941598415,0.00211462238803506,0.0166317913681269
308,0.00521504133939743,0.0101216090843081,0.0113123608753085,0.0125164659693837,-0.00180589884985238,0.0140833808109164
309,0.00540177896618843,0.00765906134620309,0.0099397748708725,0.0135398488491774,6.53653696645051E-05,0.00930298957973719
310,0.00611830782145262,0.0074375462718308,0.00820424780249596,0.0144035471603274,0.00558765046298504,0.00448754010722041
311,0.00543789472430944,0.00897786300629377,0.00574262347072363,0.0141237210482359,0.00732430722564459,0.0021933694370091
312,0.00220569199882448,0.0103018190711737,0.00335294031538069,0.0128165716305375,0.00193409400526434,0.00348401139490306
313,-0.00236653909087181,0.0099610798060894,0.00199129129759967,0.0110139464959502,-0.00604043109342456,0.00586074916645885
314,-0.00551336351782084,0.00787780247628689,0.00206676870584488,0.00950912851840258,-0.00962244253605604,0.00642498303204775
315,-0.00549494475126266,0.00513333966955543,0.00302677904255688,0.00861813966184855,-0.006498116068542,0.00531330145895481
316,-0.00288263545371592,0.00329576875083148,0.00475291162729263,0.00873067881911993,0.00124163425061852,0.00493354257196188
317,0.000607304566074163,0.00428345985710621,0.00785495154559612,0.011300821788609,0.00931775104254484,0.00803116895258427
318,0.00281215296126902,0.00771325454115868,0.0106004662811756,0.0156419575214386,0.0122358687222004,0.0140715008601546
319,0.00220985687337816,0.00969046447426081,0.0100779747590423,0.0178484953939915,0.00919676665216684,0.0177326872944832
320,-0.000548545096535236,0.00870217010378838,0.00624566990882158,0.0162064284086227,0.00389226130209863,0.0161322019994259
321,-0.00331431860104203,0.00656341388821602,0.00134702061768621,0.0123367048799992,-0.000225830255658366,0.0107953120023012
322,-0.0045585841871798,0.00455176876857877,-0.00277874153107405,0.00836461037397385,-0.00159201631322503,0.00339301815256476
323,-0.00463349698111415,0.00328672584146261,-0.00487587926909328,0.00579553423449397,-0.000947597029153258,-0.0038129158783704
324,-0.00497149722650647,0.0030576647259295,-0.00407363288104534,0.00481402967125177,-0.000132200890220702,-0.00722410250455141
325,-0.00599636230617762,0.00378936226479709,-0.00127668061759323,0.00491496734321117,-0.00116521678864956,-0.00392066733911633
326,-0.00661929277703166,0.00463093910366297,0.00154407054651529,0.00504362070932984,-0.00387118640355766,0.00431919004768133
327,-0.00666239112615585,0.00492770876735449,0.00325638335198164,0.00487213861197233,-0.00627809530124068,0.0132982758805156
328,-0.0063545792363584,0.00496063288301229,0.00414513377472758,0.0050132772885263,-0.00679703755304217,0.0204167254269123
329,-0.00388939655385911,0.0038518812507391,0.00575139746069908,0.00451687630265951,-0.00338268512859941,0.0222797021269798
330,0.000437429873272777,0.000750113453250378,0.00813480094075203,0.00303589459508657,0.00230606994591653,0.0186024643480778
331,0.0033291548024863,-0.00262778019532561,0.00950802396982908,0.00224045244976878,0.0045674005523324,0.0140828946605325
332,0.00412747077643871,-0.00408769026398659,0.00945605058223009,0.00259394780732691,0.00172327004838735,0.011036760173738
333,0.00467593735083938,-0.00345474714413285,0.00942779146134853,0.0033265536185354,-0.00170700659509748,0.00910754315555096
334,0.00543629378080368,-0.002378074452281,0.00999417621642351,0.00364910322241485,-0.00203562504611909,0.00811375677585602
335,0.00512291956692934,-0.00213956297375262,0.00938000995665789,0.0030648885294795,-0.0013666128506884,0.0078773433342576
336,0.00308454153127968,-0.00256340997293592,0.00661530252546072,0.00214576558209956,-0.00241527054458857,0.00817379262298346
337,0.000527089054230601,-0.00318023608997464,0.00398707669228315,0.00217818678356707,-0.00342447846196592,0.00832785572856665
338,-0.00132774410303682,-0.00393105112016201,0.00311607494950294,0.00334157748147845,-0.00152761198114604,0.00786754675209522
339,-0.00208359444513917,-0.00434760190546513,0.00297799543477595,0.00458281161263585,0.00342501397244632,0.0075050494633615
340,-0.00118594593368471,-0.0035950536839664,0.00370545173063874,0.00575098162516952,0.0101185133680701,0.0074731120839715
341,0.000669919769279659,-0.00188369059469551,0.00553175993263721,0.00666548777371645,0.0150759629905224,0.00593340024352074
342,0.00223685475066304,0.000587490387260914,0.00739422580227256,0.00658512953668833,0.014283861964941,0.00275800214149058
343,0.00337438518181443,0.00334544968791306,0.00870178174227476,0.00532706314697862,0.00896219164133072,0.00053172220941633
344,0.00326717831194401,0.0047795819118619,0.00834379624575377,0.00333086727187037,0.002873913384974,0.000753658940084279
345,0.00175057351589203,0.00432296749204397,0.00603784993290901,0.00193502230104059,-0.00167519715614617,0.00250751525163651
346,0.00164505140855908,0.00305739976465702,0.00403490103781223,0.00315293855965137,-0.00176039268262684,0.00424934597685933
347,0.00471039954572916,0.00220847642049193,0.00373651064001024,0.00736047374084592,0.00323007092811167,0.00564894126728177
348,0.00884259305894375,0.00260375300422311,0.00406420882791281,0.0124124204739928,0.00849599577486515,0.00750307133421302
349,0.0113578755408525,0.00422003259882331,0.00391630036756396,0.0168287232518196,0.00976308155804873,0.0106499036774039
350,0.0119690420106053,0.00583493430167437,0.00391885638237,0.0197698697447777,0.00788730382919312,0.0139103513211012
351,0.012258174829185,0.00635081855580211,0.00612784409895539,0.0199516732245684,0.00658074161037803,0.0152797605842352
352,0.0129801752045751,0.00581199117004871,0.011751196347177,0.0178537219762802,0.00759838428348303,0.0148481009528041
353,0.013684225268662,0.00470984261482954,0.0188493560999632,0.0148692214861512,0.00932996161282063,0.0133008407428861
354,0.0144234225153923,0.00295149954035878,0.0241959281265736,0.01191003061831,0.0115442173555493,0.0102279987186193
355,0.0154083967208862,0.00097856333013624,0.0278363432735205,0.0114514427259564,0.0165512543171644,0.00629936810582876
356,0.0155544672161341,0.000218505374505185,0.0309836305677891,0.0153042897582054,0.0228953082114458,0.00390260317362845
357,0.013132106512785,0.00098170165438205,0.0305513944476843,0.0202013738453388,0.0240695513784885,0.00436035497114062
358,0.00840550381690264,0.00190205359831452,0.0231539346277714,0.0203923061490059,0.0170975308865309,0.00626027304679155
359,0.00387508072890341,0.00223601562902331,0.0117039121687412,0.014715869911015,0.00571182416751981,0.00817685294896364
360,0.00114367983769625,0.00321856630034745,0.00274026370607316,0.00881197117269039,-0.00549615360796452,0.0118116568773985
361,0.000216770407860167,0.00586531683802605,-0.000321401690598577,0.00789795722812414,-0.0126349227502942,0.0188926942646503
362,2.62731259681459E-06,0.00924645736813545,0.000780521484557539,0.0108063258230686,-0.0145817510783672,0.0279689487069845
363,-0.00142806489020586,0.0121834669262171,0.00311503722332418,0.0135207381099463,-0.0157715883105993,0.0363745577633381
364,-0.00493341637775302,0.0139240818098187,0.00438563851639628,0.013026493601501,-0.0209293328225613,0.0414260998368263
365,-0.00949203036725521,0.0136265270411968,0.00300248432904482,0.00847012642771006,-0.0289081018418074,0.0410268157720566
366,-0.0128507753834128,0.0113321142271161,0.000828914344310761,0.00235711736604571,-0.034012146294117,0.0354756787419319
367,-0.0134668303653598,0.00875992141664028,0.00129788916092366,-0.00219615269452333,-0.0329386219382286,0.027584545314312
368,-0.0120056960731745,0.00833855289965868,0.00431395415216684,-0.00518677057698369,-0.0282355081290007,0.0210935268551111
369,-0.0103644030168653,0.0100617604330182,0.0060087526217103,-0.00802160613238811,-0.0246381629258394,0.0180325321853161
370,-0.00889386422932148,0.0118143297731876,0.00422087172046304,-0.0097751310095191,-0.0230958089232445,0.0179543942213058
371,-0.00673918845131993,0.0130392033606768,0.00144034239929169,-0.00773323094472289,-0.0213353745639324,0.0201614908874035
372,-0.00438198912888765,0.0137255564332008,0.00104751461185515,-0.00192334363237023,-0.0177742131054401,0.0232424661517143
373,-0.00252031115815043,0.0131820989772677,0.00417236238718033,0.00482637668028474,-0.0118438089266419,0.0250783711671829
374,-0.00171359232626855,0.011373451910913,0.0091909896582365,0.0109777422621846,-0.00555258756503463,0.0259021427482367
375,-0.00215256260707974,0.00889182463288307,0.0132230557501316,0.0158762447535992,-0.00225218548439443,0.027975769713521
376,-0.00285793491639197,0.00691939750686288,0.0146574145182967,0.0180688910186291,-0.00272823451086879,0.0318563506007195
377,-0.00384269980713725,0.00673085497692227,0.0133944572880864,0.0166351106017828,-0.00641003204509616,0.0355506800115108
378,-0.00564588932320476,0.00878085847944021,0.0100640067830682,0.0126063032075763,-0.012294065207243,0.0376681573688984
379,-0.00691844848915935,0.0122697884216905,0.00638021249324083,0.00819742307066917,-0.0171764492988586,0.0384317897260189
380,-0.006198117043823,0.0161861982196569,0.00487482454627752,0.00543068954721093,-0.0179079342633486,0.039310660213232
381,-0.00437181210145354,0.0198777783662081,0.00652297399938107,0.00506663555279374,-0.0149614186957479,0.0413777194917202
382,-0.00332849565893412,0.0220783744007349,0.00978310499340296,0.00635074125602841,-0.0118763949722052,0.04324721544981
383,-0.00328473607078195,0.0218878462910652,0.0126974554732442,0.00849755760282278,-0.0107905054464936,0.0427252501249313
384,-0.00293009239248931,0.0194945372641087,0.0148227214813232,0.0112866973504424,-0.00916604790836573,0.0385867841541767
385,-0.00273050763644278,0.0152361989021301,0.0158721599727869,0.0138687649741769,-0.00572271551936865,0.0313915349543095
386,-0.00355322635732591,0.0107565969228745,0.0157738588750362,0.0153996841982007,-0.00268972362391651,0.0244221650063992
387,-0.00415849639102817,0.00898653361946344,0.0154337361454964,0.0157404933124781,-0.00148651876952499,0.0215438064187765
388,-0.00471806293353438,0.0107300188392401,0.0144602637737989,0.0146149136126041,-0.00335809052921832,0.023460740223527
389,-0.00615928182378411,0.0136820720508695,0.0129620162770152,0.0122236926108599,-0.00728206476196647,0.0268750954419374
390,-0.00787593238055706,0.014665249735117,0.0118301128968596,0.00897168181836605,-0.0100906556472182,0.0275793764740229
391,-0.0091871228069067,0.0132318828254938,0.0106132421642542,0.00577491661533713,-0.0112786265090108,0.0255966000258923
392,-0.00977589469403028,0.0110119692981243,0.00953695178031921,0.00366024766117334,-0.0116652697324753,0.0234605558216572
393,-0.0102194510400295,0.00845021847635508,0.00872125849127769,0.00192142138257623,-0.0123382965102792,0.0216223988682032
394,-0.0105285700410604,0.00635201018303633,0.0082703297957778,0.000661644909996539,-0.0145321004092693,0.0201028287410736
395,-0.00945135392248631,0.00572675699368119,0.00959177408367395,0.000777282984927297,-0.0172530896961689,0.0180301424115896
396,-0.00709551991894841,0.00660639582201838,0.0125714866444469,0.00155586609616876,-0.0183905865997076,0.0143569633364677
397,-0.00444229319691658,0.00896024517714977,0.0147385438904166,0.00193447328638285,-0.0172387678176165,0.011406198143959
398,-0.00209590140730143,0.0110710253939033,0.013247387483716,0.000583371089305729,-0.0155684230849147,0.0111066494137049
399,-0.000837142753880471,0.0108130350708961,0.00792689062654972,-0.00263662985526025,-0.0149749368429184,0.0127511015161872
400,-0.000895726901944727,0.00883671548217535,0.00216387049295008,-0.00532296393066645,-0.0145640512928367,0.0159183461219072
401,-0.00102555542252958,0.00680942134931684,-0.000790252059232444,-0.00585866859182715,-0.0124877830967307,0.0199242550879717
402,0.000145949001307599,0.00587521540001035,-0.000828673131763935,-0.00445195334032178,-0.00821958389133215,0.0237646996974945
403,0.00204935064539313,0.00576845230534673,0.000678009528201073,-0.00243265344761312,-0.00251902220770717,0.0265951827168465
404,0.00273211183957756,0.00471736583858728,0.00306732743047178,-0.00153927295468748,0.00298880040645599,0.0273159816861153
405,0.00117135012988001,0.00282030529342592,0.00549257919192314,-0.00149402243550867,0.0048788427375257,0.0266816485673189
406,-0.00192744191735983,0.00201385957188904,0.00682802125811577,-0.000932867696974427,0.00128756801132113,0.0261769406497478
407,-0.00458647636696696,0.00244642538018525,0.00702010374516249,7.51757179386914E-05,-0.00534058455377817,0.0243224874138832
408,-0.00467712758108974,0.00205202866345644,0.00707645108923316,9.19751910259947E-05,-0.0104857925325632,0.0182313825935125
409,-0.00232734787277877,-8.79237049957737E-05,0.00741953495889902,-0.00142182118725032,-0.0116619737818837,0.0091010220348835
410,0.000319733226206154,-0.00235075294040143,0.00692556379362941,-0.0035157767124474,-0.0103466212749481,0.00165657245088369
411,0.00188773998524994,-0.00328388554044068,0.00475433096289635,-0.00598728889599442,-0.00935199949890375,-0.00198114453814924
412,0.00347713869996369,-0.00322369043715298,0.002320023952052,-0.00927494373172522,-0.00839453563094139,-0.00339846522547305
413,0.00570556148886681,-0.00299994717352092,0.000308290560496971,-0.0137250022962689,-0.00758231244981289,-0.00428672879934311
414,0.00648178905248642,-0.00240776943974197,-0.00217309687286615,-0.0190433654934168,-0.00982498936355114,-0.00445727119222283
415,0.00533844390884042,-0.000773242558352649,-0.00446820538491011,-0.0234209895133972,-0.0134279998019338,-0.00280542555265129
416,0.00447003170847893,0.00153980497270823,-0.00529887853190303,-0.0250976867973804,-0.0134356264024973,0.000453634565928951
417,0.00565124303102493,0.00373105914331973,-0.00409244885668159,-0.0235755853354931,-0.00852673873305321,0.00317590893246233
418,0.00773863447830081,0.00524214841425419,-0.00224551022984087,-0.0195743478834629,-0.00318502099253237,0.00329011608846486
419,0.00713483709841967,0.00521229906007648,-0.00295278709381819,-0.0154705233871937,-0.00416017323732376,0.000416544295148924
420,0.00255897897295654,0.00329259340651333,-0.00713920500129461,-0.0145479561761022,-0.0125401141121984,-0.00475426344200969
421,-0.00320627423934639,0.000656048243399709,-0.012483318336308,-0.0177564732730389,-0.022393673658371,-0.0107519421726465
422,-0.00614608218893409,-0.00097306037787348,-0.0160009060055017,-0.0220591332763433,-0.0263324920088053,-0.0150907263159752
423,-0.00462986528873444,-0.00137139577418566,-0.0162496399134398,-0.0244328938424587,-0.0212288293987513,-0.016793129965663
424,-0.000867390597704798,-0.00166819151490927,-0.0139975342899561,-0.0245536267757416,-0.0103952325880528,-0.0168013535439968
425,0.00173632684163749,-0.00289451610296965,-0.0110191805288196,-0.0232603792101145,-0.000417658971855417,-0.0163761004805565
426,0.00088738976046443,-0.00603058561682701,-0.00931642111390829,-0.0226467289030552,0.0034974820446223,-0.0171765200793743
427,-0.00281455577351153,-0.00996794365346432,-0.00901405233889818,-0.0232288856059313,0.00144808273762465,-0.0181270018219948
428,-0.00638128910213709,-0.0115716503933072,-0.00814959220588207,-0.0217423215508461,-0.00215078750625253,-0.0156505052000284
429,-0.00823924969881773,-0.0102510619908571,-0.00614596204832196,-0.0167547501623631,-0.00389782781712711,-0.00958966743201017
430,-0.00834247656166554,-0.00854888930916786,-0.0043294345960021,-0.0117688411846757,-0.00308225024491549,-0.00480257207527757
431,-0.00698942551389337,-0.00840758718550205,-0.00398986740037799,-0.0100800730288029,-0.00111724354792386,-0.0056257457472384
432,-0.0050024576485157,-0.00936880521476269,-0.00502963922917843,-0.010486226528883,0.000524509872775525,-0.0102324830368161
433,-0.00306439050473273,-0.0106059303507209,-0.00657754857093096,-0.0109461350366473,0.00195040786638856,-0.0149902878329158
434,-0.00126673362683505,-0.011307823471725,-0.0071317944675684,-0.0108636142686009,0.00309854792430997,-0.0189362224191427
435,7.613133675477E-06,-0.0107910400256515,-0.00549559574574232,-0.0100359804928303,0.00305689964443445,-0.0215170495212078
436,-0.000515998981427401,-0.00993217993527651,-0.00304043805226684,-0.0100878076627851,0.00050427665701136,-0.0220997575670481
437,-0.00255024153739214,-0.00892764888703823,-0.000922296079806983,-0.0117625687271357,-0.00413412600755692,-0.0192585196346045
438,-0.00434293644502759,-0.00758147472515702,0.000922212842851877,-0.0136325638741255,-0.00765126710757613,-0.0127738369628787
439,-0.00588928069919348,-0.00751027418300509,0.00107938540168107,-0.0158003456890583,-0.00869687180966139,-0.00658118398860097
440,-0.00753208855167031,-0.00888007320463657,-0.000765740114729851,-0.0181587878614664,-0.00808253698050976,-0.00360907707363367
441,-0.00847028382122517,-0.0101791126653552,-0.00312189990654588,-0.0200079940259457,-0.00547589128836989,-0.00368183571845293
442,-0.00851592980325222,-0.011541161686182,-0.00511904712766409,-0.0221139546483755,-0.000795956933870912,-0.00654201954603195
443,-0.00827651843428612,-0.0128024965524673,-0.00597031740471721,-0.0238218232989311,0.00383434491232038,-0.0100007439032197
444,-0.00787750352174044,-0.0126933958381414,-0.00517970230430365,-0.0234380215406418,0.00605968153104186,-0.0105876354500651
445,-0.00721698114648461,-0.0116290180012584,-0.00305906962603331,-0.0213018916547298,0.00672256946563721,-0.00819619838148355
446,-0.00736712012439966,-0.0105002829805017,-0.000719691219273955,-0.0183041673153639,0.00626108422875404,-0.0048330738209188
447,-0.00856837816536427,-0.00924735888838768,0.000533658429048955,-0.0148789864033461,0.00363534851931036,-0.0019670866895467
448,-0.00897343922406435,-0.00827574357390404,0.000422351557062939,-0.012048720382154,0.00092367670731619,-0.000601010979153216
449,-0.00859099626541138,-0.00814543385058641,-0.00100849790032953,-0.0106343552470207,-0.000254652346484363,-0.000643124163616449
450,-0.00902963895350695,-0.00822757463902235,-0.00309646525420249,-0.00967665296047926,-0.000986216589808464,-0.000700354110449553
451,-0.0102187423035502,-0.00743497582152486,-0.00450501637533307,-0.00734494905918837,-0.00221275025978684,0.000979956705123186
452,-0.0112665444612503,-0.00609350111335516,-0.00512813776731491,-0.00370010477490723,-0.00328887021169066,0.00409570056945086
453,-0.0121734626591206,-0.00557721359655261,-0.00564207369461656,-0.000669146014843136,-0.00293307425454259,0.00593039160594344
454,-0.0130955725908279,-0.00651937117800117,-0.00571538181975484,0.000174414861248806,-0.00099117448553443,0.0041943839751184
455,-0.0137524278834462,-0.00868264213204384,-0.00429417798295617,-0.00103935599327087,0.00207583163864911,-0.000994855770841241
456,-0.0140964686870575,-0.0115695940330625,-0.00174308323767036,-0.00340306735597551,0.00414451258257031,-0.00780728785321116
457,-0.0137865720316768,-0.0144587643444538,0.000530435878317803,-0.00661453232169151,0.00340364687144756,-0.0148877082392573
458,-0.0129047827795148,-0.0168958585709333,0.00188057136256248,-0.0104219922795892,0.00178458169102669,-0.0211498066782951
459,-0.0128180468454957,-0.0186683628708124,0.00197263830341399,-0.0137809151783586,0.00064186321105808,-0.0243988540023565
460,-0.0139321349561214,-0.0187206976115704,0.00140707951504737,-0.0150341270491481,-0.00145366450306028,-0.0222564171999693
461,-0.0145944934338331,-0.016145396977663,0.00179620110429823,-0.0138811348006129,-0.00371174537576735,-0.0146741326898336
462,-0.0135810906067491,-0.0118769565597177,0.00299897836521268,-0.0117773870006204,-0.00422797072678804,-0.00467935297638178
463,-0.0116950329393148,-0.00712965289130807,0.00331707228906453,-0.00939682964235544,-0.00439315149560571,0.00478182779625058
464,-0.00996264908462763,-0.00297806807793677,0.00236154743470252,-0.00723764067515731,-0.00486318673938513,0.0118802720680833
465,-0.00839647930115461,-0.000800654292106628,0.000715301663149148,-0.00659700762480497,-0.00439209304749966,0.015630628913641
466,-0.00674331234768033,-0.000460682320408523,-0.00108646485023201,-0.00718761654570699,-0.00314512359909713,0.0176987964659929
467,-0.00532105285674334,-0.0010895881569013,-0.00228642695583403,-0.00822038389742374,-0.00138792407233268,0.0197380557656288
468,-0.00474486453458667,-0.00235646241344512,-0.00285504898056388,-0.010280086658895,0.00108484912198037,0.0207223333418369
469,-0.00528957089409232,-0.0039087045006454,-0.00438303127884865,-0.0138694234192371,0.0031123380176723,0.0191056802868843
470,-0.00655920477584004,-0.00540895946323872,-0.00778592377901077,-0.0179322622716427,0.00350380502641201,0.0154876252636313
471,-0.00707632070407271,-0.00701557006686926,-0.0109485490247607,-0.0213123317807913,0.00421771965920925,0.0113152377307415
472,-0.00549288466572762,-0.0087213171645999,-0.0119539201259613,-0.0246194675564766,0.0064235245808959,0.00670476630330086
473,-0.0022189486771822,-0.0098166149109602,-0.0110502643510699,-0.0278474744409323,0.00699646910652518,0.00239554094150662
474,0.000639054807834327,-0.0111125558614731,-0.00972265284508467,-0.0311353597790003,0.00294085475616157,-0.00182285241317004
475,0.00124140584375709,-0.0134141575545073,-0.0103337727487087,-0.0356599874794483,-0.00544513110071421,-0.00729715032503009
476,3.17267622449435E-05,-0.0146622192114592,-0.0133064147084951,-0.0399757139384747,-0.0146618476137519,-0.0116536756977439
477,-0.00160802341997623,-0.0141685362905264,-0.0171398650854826,-0.0417081527411938,-0.0203380882740021,-0.0126648703590035
478,-0.0027159508317709,-0.0139067340642214,-0.0203947573900223,-0.0403910055756569,-0.020497802644968,-0.0130663616582751
479,-0.00188105227425694,-0.0148854712024331,-0.0215411465615034,-0.0368683785200119,-0.0155531298369169,-0.0163352303206921
480,0.0012477848213166,-0.0165538918226957,-0.0194813683629036,-0.0322139002382755,-0.00700393551960588,-0.022496810182929
481,0.00419778004288673,-0.0163096971809864,-0.0140462135896087,-0.0258210729807615,0.000729713297914714,-0.0275023318827152
482,0.00442938646301627,-0.0122068552300334,-0.00706929760053754,-0.0176667980849743,0.00244376063346863,-0.0272705592215061
483,0.00287943286821246,-0.00743802962824702,-0.00183751957956702,-0.011037933640182,-6.87248102622107E-05,-0.022906681522727
484,0.00198474829085171,-0.0057504060678184,0.000675354385748506,-0.00849100295454264,-0.000611542374826968,-0.0177571345120668
485,0.00210591568611562,-0.00623381277546287,0.00129879941232502,-0.00902184378355742,0.00207019038498402,-0.0124701634049416
486,0.0025049215182662,-0.00691122934222221,-0.000212795144761913,-0.0107317315414548,0.00504810037091374,-0.00703730946406722
487,0.00289536663331091,-0.00733146537095308,-0.00351068889722228,-0.0122683169320226,0.00637150835245848,-0.0022837221622467
488,0.00272974837571383,-0.00740983802825212,-0.00693258736282587,-0.0125912018120289,0.00565819954499602,0.00190140446648002
489,0.000877740792930126,-0.00824336800724268,-0.00982216000556946,-0.012427237816155,0.00364590552635491,0.00533639779314399
490,-0.00265292823314667,-0.0107000647112727,-0.012560891918838,-0.0136764207854867,0.00139069196302444,0.00680590188130736
491,-0.00518771586939693,-0.0124139031395316,-0.0136498995125294,-0.015088738873601,0.000229460914852098,0.0070432904176414
492,-0.00447689136490226,-0.0109227746725082,-0.0104699991643429,-0.0128520661965013,0.00199612649157643,0.00839133840054274
493,-0.00188657722901553,-0.00773310335353017,-0.00421180995181203,-0.00651410780847073,0.00599418999627233,0.0103767914697528
494,0.000905529246665537,-0.00598632777109742,0.000881523184943944,0.000145001002238132,0.00981944426894188,0.00981936790049076
495,0.0041563892737031,-0.0061456635594368,0.00286321830935776,0.00408462947234511,0.0126758050173521,0.00582790654152632
496,0.0072212596423924,-0.00620964867994189,0.00323155825026333,0.00647109420970082,0.0140017727389932,0.00199229805730283
497,0.0082840658724308,-0.005097228102386,0.00373798166401684,0.00929133500903845,0.012934579513967,0.00185454043094069
498,0.00711871962994337,-0.00349865853786469,0.00438431045040488,0.0120278848335147,0.00990926194936037,0.00465839495882392
499,0.00521260360255837,-0.00219043786637485,0.00539000006392598,0.0145368492230773,0.00619568908587098,0.00804687291383743
500,0.00351226516067982,-0.00154248299077153,0.0076434132643044,0.0176715925335884,0.00213463744148612,0.0102212596684694
501,0.00297222030349076,-0.00160062045324594,0.0112961251288652,0.0207643993198872,-0.000129625608678907,0.0100291362032294
502,0.00404857518151402,-0.00227836798876524,0.0146551011130214,0.0215218812227249,0.00189271091949195,0.00811909604817629
503,0.00493637332692742,-0.00346052669920027,0.0141498548910022,0.0182100255042315,0.00479464046657085,0.00627257954329252
504,0.00456680729985237,-0.00457098614424467,0.00924753583967686,0.0122328223660588,0.0052534812130034,0.00558206904679537
505,0.00471819238737226,-0.00476792827248573,0.00382969179190695,0.00735953683033586,0.00559317134320736,0.00587011966854334
506,0.00691424263641238,-0.00353072350844741,0.000432822620496154,0.00578361004590988,0.0069653014652431,0.00660826405510306
507,0.0102274036034942,-0.000808345503173769,-0.000572861987166107,0.00673471577465534,0.00797941535711288,0.00718821212649345
508,0.0132302604615688,0.0027541380841285,0.00157632131595165,0.0085571613162756,0.010337833315134,0.00699025439098477
509,0.0145681640133262,0.00590633833780885,0.00580040318891406,0.0103729870170355,0.0145555846393108,0.00662095146253705
510,0.014243652112782,0.00815262831747532,0.00934919621795416,0.0119100920855999,0.0175164677202702,0.00730915833264589
511,0.0137924728915095,0.00900233443826437,0.0105440896004438,0.0121716447174549,0.0175363831222057,0.00848799757659435
512,0.0130986655130982,0.00762283662334085,0.00910051912069321,0.0102762570604682,0.0144253093749285,0.0086944242939353
513,0.011719124391675,0.00482338108122349,0.0066710957325995,0.00724436901509762,0.00992610026150942,0.00804959144443274
514,0.0104789016768336,0.00195273268036544,0.00551872979849577,0.00427821511402726,0.00753949163481593,0.00757025694474578
515,0.0097845708951354,-5.00517271575518E-05,0.00605052802711725,0.00218252209015191,0.00777550134807825,0.00867974851280451
516,0.00879391748458147,-0.000510491023305804,0.00587401771917939,0.00145556079223752,0.00690819090232253,0.0122654503211379
517,0.00679337559267879,1.66152549354592E-05,0.00267106341198087,0.00104445160832256,0.00286983139812946,0.016391621902585
518,0.00487265968695283,0.000568105839192867,-0.00147303158883005,0.000272732751909643,-0.00116437836550176,0.017888305708766
519,0.00408132513985038,0.000691463414113969,-0.0036013382486999,-0.000761989096645266,-0.00206319405697286,0.0152246551588178
520,0.0042241201736033,0.00165824964642525,-0.00391842378303409,-0.00151967816054821,-0.00129010574892163,0.00969165191054344
521,0.0051282849162817,0.00454250536859035,-0.00266390503384173,-0.000529631739482284,-0.000977417104877532,0.00293123698793352
522,0.0060942592099309,0.00692099845036864,0.000434454879723489,0.00158082670532167,-0.00183172582183033,-0.00495592458173633
523,0.00638992479071021,0.00736099015921354,0.00459075346589088,0.00297506409697235,-0.00444173254072666,-0.0116019481793046
524,0.00627211341634393,0.00714084412902594,0.00871503166854382,0.0034097102470696,-0.00664242450147867,-0.0137708131223917
525,0.00607609981670976,0.00674285320565104,0.011374993249774,0.00269480980932713,-0.00547172548249364,-0.0118182590231299
526,0.00564044993370771,0.00644047604873776,0.0116646066308022,0.00138294557109475,-0.00170416128821671,-0.0078543983399868
527,0.00506503600627184,0.00619907444342971,0.0104719586670399,0.000925436790566891,0.0030488702468574,-0.00394444447010756
528,0.00474874349310994,0.00500795803964138,0.00919289514422417,0.00106022018007934,0.00823890883475542,-0.00125304597895592
529,0.00403798278421164,0.00285597238689661,0.00821617059409618,0.000928038381971419,0.0117497807368636,0.000887465139385313
530,0.00218045385554433,0.00128018553368747,0.00761955790221691,0.0011219127336517,0.0116215627640486,0.00385225075297058
531,0.000121365745144431,0.00136541563551873,0.00793878640979528,0.0021700426004827,0.00865824893116951,0.00777472369372845
532,-0.00102671410422772,0.00243218312971294,0.00888160988688469,0.0032326492946595,0.00447384035214782,0.0108854798600078
533,-0.0011121736606583,0.00348654086701572,0.00978529267013073,0.00406459160149097,0.000907082227058709,0.0115996627137065
534,-0.000196440596482717,0.00422478886321187,0.0109021198004484,0.00554601475596428,-0.0013747044140473,0.00948612950742245
535,0.000978614669293165,0.00365531421266496,0.0124810365960002,0.00726415123790503,-0.00398526201024652,0.00386713445186615
536,0.00180026818998158,0.0015023248270154,0.0139212878420949,0.0084017226472497,-0.0075765922665596,-0.00401862617582083
537,0.00265995319932699,-0.000366758380550891,0.0141444336622953,0.00969020184129477,-0.011033633723855,-0.00922479387372732
538,0.00402459315955639,-0.000368261622497812,0.0131852803751826,0.0115448916330934,-0.0127954967319965,-0.00820377189666033
539,0.0051697832532227,0.000946332642342895,0.0112947281450033,0.0117761101573706,-0.0127450851723552,-0.00334227550774813
540,0.00441247317939997,0.00193735724315047,0.0075094080530107,0.00788453966379166,-0.0125250099226832,0.000851218646857888
541,0.00202224310487509,0.00260113994590938,0.00179411517456174,0.00144224741961807,-0.0126687735319138,0.00363956764340401
542,0.000675891991704702,0.00336097716353834,-0.00418294267728925,-0.00466897850856185,-0.0104329073801637,0.00481910118833184
543,0.00161108491010964,0.00359578873030841,-0.00845161639153957,-0.00935827288776636,-0.00352321588434279,0.00318965222686529
544,0.00313621433451772,0.0038297213613987,-0.0103062270209193,-0.0119442250579596,0.0047552571631968,0.000493077386636287
545,0.00394695857539773,0.00520099094137549,-0.0107408314943314,-0.0127853536978364,0.00969347264617682,-0.000799508532509208
546,0.00455720303580165,0.00709603959694505,-0.0103716589510441,-0.0131973661482334,0.0107029480859637,-0.000349978858139366
547,0.00532681168988347,0.00747135048732162,-0.00946163944900036,-0.0144495759159327,0.00967076700180769,0.000239336586673744
548,0.00584115972742438,0.0064225671812892,-0.00883571896702051,-0.015791729092598,0.00722748273983598,0.0008063122513704
549,0.00595935992896557,0.00633804406970739,-0.00834944471716881,-0.014517473988235,0.00335741997696459,0.003342802869156
550,0.00581110501661897,0.00726466765627265,-0.00752389803528786,-0.0106087112799287,-0.00020921987015754,0.00717779155820608
551,0.00524617126211524,0.00777057139202952,-0.00659544439986348,-0.0066091506741941,-0.00231143645942211,0.0105334715917706
552,0.00425637699663639,0.00881553813815117,-0.0056382124312222,-0.00340258679352701,-0.00382028985768557,0.0139365214854479
553,0.00275050895288587,0.0114875435829163,-0.00488141179084778,-0.00095789524493739,-0.00509658316150308,0.0171926096081734
554,0.000727315898984671,0.0146609731018543,-0.00453726341947913,0.000207816585316323,-0.00561449769884348,0.0189618077129126
555,-0.000908847257960588,0.0161949209868908,-0.0039936900138855,0.000224721647100523,-0.00520038744434714,0.0186416283249855
556,-0.00115790287964046,0.0144421840086579,-0.00250941421836615,-1.37706174427876E-05,-0.00320690823718905,0.0162055939435959
557,-0.000329500704538077,0.011214810423553,-0.000147225975524634,0.001552754198201,-0.000316881603794172,0.0140571985393763
558,-0.000293834105832502,0.00878429971635342,0.00147629296407104,0.00507455505430698,0.000713989778887481,0.0137433856725693
559,-0.0019607103895396,0.00637109111994505,0.000845981005113572,0.00718115177005529,-0.00011043392441934,0.0132627319544554
560,-0.00349621614441276,0.00438833702355623,-0.000272750476142392,0.00749341445043683,9.535421122564E-05,0.0132603440433741
561,-0.00303338002413511,0.00372277968563139,0.000602841202635318,0.00852641090750694,0.00182517583016306,0.0147689804434776
562,-0.000484626914840192,0.00388207053765655,0.00284819351509213,0.0106708239763975,0.00207313150167465,0.0141856903210282
563,0.00265403394587338,0.0047357021830976,0.00433267140761018,0.012800588272512,-0.00011234335397603,0.00904054567217827
564,0.00399595592170954,0.00555136473849416,0.00408028718084097,0.0135206049308181,-0.00242161913774908,0.00132308399770409
565,0.00347247277386487,0.00574532244354486,0.00350842368789017,0.0127820922061801,-0.00322413304820657,-0.00542275607585907
566,0.0027783177793026,0.00601698458194733,0.00384695548564196,0.0118041932582855,-0.0026529177557677,-0.00822877231985331
567,0.00215511489659548,0.00675129285082221,0.00425788760185242,0.0108747836202383,-0.00162318535149097,-0.00624935841187835
568,0.00174750806763768,0.00847489107400179,0.00472460081800818,0.0106760682538152,-0.000221610127482563,-0.000162206793902442
569,0.00245366455055773,0.0116697885096073,0.00613456033170223,0.0122250830754638,0.00154899316839874,0.00848797149956226
570,0.00393518060445786,0.0146643053740263,0.00799103081226349,0.0143973277881742,0.00302042649127543,0.0163624361157417
571,0.00473268749192357,0.0158255845308304,0.0089475279673934,0.0151892025023699,0.00288912374526262,0.0209777485579252
572,0.00443184562027454,0.0155967837199569,0.00890580844134092,0.0139418430626392,-0.000727245875168592,0.0218931399285793
573,0.00408450188115239,0.0144153945147991,0.0100689297541976,0.0114790620282292,-0.00660504493862391,0.0187005586922169
574,0.00446211593225598,0.0118385115638375,0.013857189565897,0.00876433029770851,-0.0101591544225812,0.011634623631835
575,0.00502952886745334,0.00787015073001385,0.0175900682806969,0.00615086313337088,-0.00914258603006601,0.00280804629437625
576,0.00521269766613841,0.00448085740208626,0.0177121069282293,0.00434078788384795,-0.00587715022265911,-0.00382769666612148
577,0.00533046945929527,0.00411388045176864,0.0138228740543127,0.00411041267216206,-0.00342711852863431,-0.00511156348511577
578,0.00579794403165579,0.00631756382063031,0.00871340278536081,0.00507680326700211,-0.000855181307997555,-0.00184622092638165
579,0.00603479938581586,0.0084172310307622,0.00528146652504802,0.00589235732331872,0.00290424842387438,0.00283191283233464
580,0.005195626989007,0.00948838144540787,0.00395887065678835,0.00607624417170882,0.00428242515772581,0.00732301268726587
581,0.00319094932638109,0.0106423320248723,0.00353316310793161,0.00634845206514001,0.000914703181479126,0.0119584538042545
582,0.000342149549396709,0.0129812126979232,0.00286158244125545,0.00762321567162871,-0.00430626515299082,0.0170541852712631
583,-0.00242208922281861,0.0168391689658165,0.00203169486485422,0.0102042546495795,-0.00751197384670377,0.0213585514575243
584,-0.00379967456683517,0.020459346473217,0.0019362848252058,0.0126323644071817,-0.00698823435232043,0.0222362577915192
585,-0.00351685006171465,0.0211887191981077,0.00267406878992915,0.0129736103117466,-0.00348282651975751,0.0181669369339943
586,-0.00224007712677121,0.0182972140610218,0.00321307452395558,0.0112348673865199,0.000328385940520093,0.0105073880404234
587,-0.00070403580320999,0.0133047383278608,0.00342924543656409,0.00914458185434341,0.00290512386709452,0.00343521614558995
588,0.000262001762166619,0.0078396825119853,0.00434786081314087,0.00742754712700844,0.00507243536412716,0.000212304206797853
589,0.00102679198607802,0.0025429951492697,0.00548541033640504,0.00508839497342706,0.00693842303007841,-0.000601366511546075
590,0.00257147173397243,-0.00150127639062703,0.00540771847590804,0.00211088662035763,0.00723545858636498,-0.00103619031142443
591,0.00379236112348735,-0.00322387274354696,0.00410272926092148,8.80392690305598E-05,0.00656672473996878,0.00042110841604881
592,0.00307756010442972,-0.00341700064018369,0.00193493324331939,-0.000607091351412237,0.0063209212385118,0.00442423950880766
593,0.00185822858475149,-0.00345158320851624,-0.000682633835822344,-0.00140255643054843,0.00644157966598868,0.00781676638871431
594,0.00203969073481858,-0.00351975602097809,-0.00314163230359554,-0.00329781835898757,0.00588412722572684,0.0081758163869381
595,0.00292676733806729,-0.00320353312417865,-0.00546529423445463,-0.00610854662954807,0.00379991717636585,0.00631619431078434
596,0.00394990434870124,-0.00241787708364427,-0.00689182849600911,-0.00871083978563547,0.00189439440146089,0.00385231082327664
597,0.00450923480093479,-0.00142669642809778,-0.00694971438497305,-0.00964883249253035,0.000683220336213708,0.00234248978085816
598,0.00349731091409922,-0.000340139464242384,-0.00716103333979845,-0.00873596780002117,-0.00176381575874984,0.00255506485700607
599,0.00125593272969127,0.000396840419853106,-0.00815269537270069,-0.00697469105944037,-0.00488729542121291,0.00312168127857149
600,-0.00107093050610274,0.000369865068932995,-0.00816551875323057,-0.00473961513489485,-0.00712638674303889,0.00318198231980205
601,-0.00253375642932951,-4.10243728765636E-06,-0.00622365716844797,-0.00206176121719182,-0.00842464435845613,0.00371157913468778
602,-0.00362675078213215,-0.000597530917730182,-0.00380526483058929,0.000194374268176034,-0.0100521948188543,0.00454605277627707
603,-0.00542763387784362,-0.00230717984959483,-0.00243393168784678,0.000418986979639158,-0.0121182715520263,0.00367869809269905
604,-0.00740974489599466,-0.00522388005629182,-0.00202586362138391,-0.001357436995022,-0.0123362801969051,0.000899971579201519
605,-0.00892385840415955,-0.00794045254588127,-0.00238447519950569,-0.00304829888045788,-0.0105034532025456,-0.00141384312883019
606,-0.0105774123221636,-0.00917784962803125,-0.00489774905145168,-0.00460541294887662,-0.00942900963127613,-0.00241859606467187
607,-0.0121958702802658,-0.00686388090252876,-0.0094419876113534,-0.0064559169113636,-0.00963536370545626,-0.00222692941315472
608,-0.0125541966408491,-0.0004126564017497,-0.0128680663183331,-0.00736763747408986,-0.00963148567825556,-0.000574617588426918
609,-0.0109217017889023,0.00575269479304552,-0.0128394877538085,-0.0079001784324646,-0.00913810171186924,0.000539739790838212
610,-0.00694289989769459,0.00815293285995722,-0.00938850454986095,-0.00912839360535145,-0.00779467495158315,-0.000347540044458583
611,-0.00197394122369587,0.00841649062931538,-0.00467240996658802,-0.0100186485797167,-0.0062610600143671,-0.000600938859861344
612,0.00179664243478328,0.0087801069021225,-0.0011444881092757,-0.00923043768852949,-0.00598891125991941,0.00227167899720371
613,0.00414347089827061,0.00875366665422916,0.000162813492352143,-0.00736537389457226,-0.00653783185407519,0.00571815809234977
614,0.00604765070602298,0.00696637714281678,-0.000433313951361924,-0.00592582207173109,-0.00608773017302155,0.00567345367744565
615,0.00787340849637985,0.00397520931437612,-0.00138085964135826,-0.00453562755137682,-0.00425414647907019,0.00238034827634692
616,0.00895826891064644,0.00144610169809312,-0.00111021427437663,-0.00268062436953187,-0.00305991130881011,-0.00201426120474935
617,0.00875901710242033,0.000419181422330439,0.000485878059407696,-0.00173078943043947,-0.00426119472831488,-0.00623295502737165
618,0.00715705240145326,0.00182282389141619,0.00191672472283244,-0.00176470750011504,-0.00830173119902611,-0.00731481099501252
619,0.00401772884652019,0.00545776169747114,0.00147656456101686,-0.00195618090219796,-0.0138723235577345,-0.00330455997027457
620,0.000405912578571588,0.00856658257544041,-0.00146362651139498,-0.00359234539791942,-0.0165448095649481,0.00236493372358382
621,-0.00168935011606663,0.00945152062922716,-0.00544380582869053,-0.00675911223515868,-0.0126952659338713,0.00601807562634349
622,-0.00218963879160583,0.00917121581733227,-0.00863854214549065,-0.00937016867101192,-0.00515351677313447,0.0082596754655242
623,-0.00189272814895958,0.0087089529260993,-0.0107506047934294,-0.0108486749231815,0.00117181183304638,0.0104771070182323
624,-0.000545803864952177,0.00838983803987503,-0.0115133384242654,-0.0114256339147687,0.00502445735037327,0.0122699029743671
625,0.00131601246539503,0.00765581661835313,-0.0107629830017686,-0.0114399557933211,0.00639732088893652,0.0124973515048623
626,0.00225960789248347,0.00592760322615504,-0.00965214427560568,-0.0116700818762183,0.00470483861863613,0.0113779697567225
627,0.00162398139946163,0.00416953861713409,-0.00965097732841969,-0.0118784522637725,0.000421170174377039,0.0103537682443857
628,0.000729245075490326,0.00382590619847178,-0.00994815956801176,-0.0106383301317692,-0.00347543600946665,0.0102958893403411
629,0.00136134272906929,0.00431459676474333,-0.00866231136023998,-0.00771904829889536,-0.00435100635513663,0.0096987672150135
630,0.0027323339600116,0.00294448691420257,-0.00642661331221461,-0.00495357159525156,-0.00274739693850279,0.0058419588021934
631,0.00365231977775693,-0.000519919150974602,-0.00470552500337362,-0.0032737422734499,-0.000286869995761663,0.000290605064947158
632,0.00512222992256284,-0.00313724461011589,-0.00381998624652624,-0.00221003405749798,0.00239261891692877,-0.00233491091057658
633,0.00730256084352732,-0.00317112170159817,-0.00431655813008547,-0.00206703622825444,0.00401766551658511,-0.000388810818549246
634,0.0075890589505434,-0.00197020056657493,-0.00659503694623709,-0.00413789739832282,0.00151332863606513,0.00340026780031621
635,0.00467016501352191,-0.000750133534893394,-0.00872030947357416,-0.00761544331908226,-0.00464504910632968,0.00547255203127861
636,0.00131728162523359,0.0016741172876209,-0.0080399326980114,-0.00889638718217611,-0.00880925077944994,0.00540296640247107
637,0.000272121658781543,0.00516730174422264,-0.00554317468777299,-0.00696258107200265,-0.00821783300489187,0.00418637506663799
638,0.00155826413538307,0.00750210648402572,-0.00363323884084821,-0.00454960623756051,-0.00443575903773308,0.00207543862052262
639,0.00459666363894939,0.00793163012713194,-0.00204313383437693,-0.00311691151000559,0.00202947133220732,0.000261854147538543
640,0.00801075249910355,0.00706525892019272,-0.000559738837182522,-0.00215314491651952,0.00944194756448269,0.000222545277210884
641,0.0100187174975872,0.00601706001907587,-0.000318618898745626,-0.00103748054243624,0.0138028990477324,0.00202529621310532
642,0.010893240571022,0.00628568371757865,-0.000958765391260386,0.000952185946516693,0.0144984209910035,0.00547915371134877
643,0.0114302635192871,0.00730353966355324,-0.000947026652283967,0.00308433454483747,0.0135971289128065,0.00949017144739628
644,0.011144669726491,0.00735396193340421,-6.29130663583055E-05,0.00369853130541742,0.0111452341079712,0.0123229399323463
645,0.00968994107097387,0.00638580601662397,0.000708699866663665,0.00282481778413057,0.00580746028572321,0.0136237628757954
646,0.00788935832679272,0.00557093881070614,0.00118362042121589,0.00205296254716814,-0.00151218834798783,0.0137990824878216
647,0.00641314079985023,0.00546267768368125,0.00149489194154739,0.00189091521315277,-0.00755867501720786,0.0129653783515096
648,0.00514656724408269,0.0055300509557128,0.00123398716095835,0.00107220362406224,-0.0101014636456966,0.0113015025854111
649,0.0045906575396657,0.00581066589802504,0.000547925243154168,-0.000877980259247124,-0.00955757033079863,0.00937708932906389
650,0.005183061119169,0.00688940519466996,-9.73235000856221E-05,-0.00315960217267275,-0.00784573797136545,0.00744603388011456
651,0.00595050165429711,0.00856767315417528,-0.00044233410153538,-0.00483927130699158,-0.00688405940309167,0.00560426758602262
652,0.00596940936520696,0.0102337142452598,-0.00052333646453917,-0.00550250429660082,-0.007780019659549,0.00387909100390971
653,0.00515166576951742,0.0115697039291263,-0.00104774255305529,-0.00578599749132991,-0.0107703115791082,0.00146319624036551
654,0.0033819682430476,0.0121554303914309,-0.00269913021475077,-0.00659126881510019,-0.0153677575290203,-0.00293744029477239
655,0.001089092111215,0.0114101432263851,-0.00490324012935162,-0.00857964903116226,-0.0198145620524883,-0.0100144818425179
656,-0.000890467199496925,0.00945218652486801,-0.00707512395456433,-0.0125552574172616,-0.0228899661451578,-0.0189036838710308
657,-0.00187481415923685,0.00808937102556229,-0.00905482564121485,-0.017282435670495,-0.0249626636505127,-0.0259366482496262
658,-0.00177587859798223,0.00841044541448355,-0.0104106580838561,-0.0202814247459173,-0.0268797874450684,-0.0281385779380798
659,-0.00162264553364366,0.00882232841104269,-0.0115382773801684,-0.0216373149305582,-0.0303145423531532,-0.0273114684969187
660,-0.00191777164582163,0.00815245416015387,-0.0130238216370344,-0.0227428041398525,-0.0355429872870445,-0.0263526681810617
661,-0.00167513079941273,0.00718711502850056,-0.0140844751149416,-0.0236657802015543,-0.0400288477540016,-0.0261007100343704
662,-8.34483871585689E-05,0.00635975645855069,-0.0136820580810308,-0.0249910186976194,-0.0417075902223587,-0.0281147416681051
663,0.00187383475713432,0.00443770177662373,-0.0134494658559561,-0.02943130210042,-0.0422796569764614,-0.0350146889686584
664,0.00269537232816219,0.00102403433993459,-0.0163419973105192,-0.0379177518188953,-0.0450825430452824,-0.0461570918560028
665,0.00241662003099918,-0.00194024608936161,-0.0221012067049742,-0.0470780394971371,-0.0507156364619732,-0.0573072843253613
666,0.00219684257172048,-0.00278218300081789,-0.0275148376822472,-0.0528217852115631,-0.0567873455584049,-0.064924880862236
667,0.00249189790338278,-0.00264037935994565,-0.0310906805098057,-0.0554640218615532,-0.0610445030033588,-0.0698214918375015
668,0.00352027686312795,-0.00362234888598323,-0.0346646048128605,-0.0588682405650616,-0.064687006175518,-0.0753506943583488
669,0.00573387509211898,-0.00619731470942497,-0.039941493421793,-0.0646536499261856,-0.069575123488903,-0.0828721821308136
670,0.00739346677437425,-0.00976979453116655,-0.0462610125541687,-0.070428878068924,-0.0757548362016678,-0.0910822451114655
671,0.00692280242219567,-0.0124014271423221,-0.0508107542991638,-0.0721954479813576,-0.0824419558048248,-0.0969619825482368
672,0.00650975620374084,-0.0124138407409191,-0.0505348145961761,-0.0686627924442291,-0.0857618004083633,-0.0992254689335823
673,0.0080748051404953,-0.0111485971137881,-0.0460567288100719,-0.0633504390716553,-0.0826547890901566,-0.100452914834023
674,0.0103838974609971,-0.0106188599020243,-0.0415053740143776,-0.0608052611351013,-0.0763047188520432,-0.10339841991663
675,0.0121725080534816,-0.0111868260428309,-0.0403276905417442,-0.0625293478369713,-0.0721848830580711,-0.108702033758163
676,0.0136561384424567,-0.0119761824607849,-0.0426268130540848,-0.0658851861953735,-0.072544626891613,-0.114114865660667
677,0.0148107530549169,-0.0120656192302704,-0.045559961348772,-0.0674472823739052,-0.0752163082361221,-0.116347797214985
678,0.0144974235445261,-0.011242451146245,-0.0471151396632195,-0.0670743510127068,-0.0784054324030876,-0.115100793540478
679,0.0117184156551957,-0.0099033135920763,-0.0482825674116611,-0.0668254345655441,-0.0836836472153664,-0.113087296485901
680,0.0071712676435709,-0.00910862442106009,-0.0503680184483528,-0.0684745013713837,-0.0913721099495888,-0.113327473402023
681,0.00275874929502606,-0.00898806098848581,-0.0530877113342285,-0.0719813704490662,-0.0989030301570892,-0.115900054574013
682,0.000323028507409617,-0.00862559955567122,-0.0562827438116074,-0.076375886797905,-0.104171380400658,-0.118817314505577
683,0.000796544132754207,-0.00851970352232456,-0.0603818595409393,-0.0819500759243965,-0.106737308204174,-0.121931202709675
684,0.00369089166633785,-0.00995257683098316,-0.0638183504343033,-0.08780138194561,-0.105879463255405,-0.125767171382904
685,0.00737079279497266,-0.0133181428536773,-0.0636094659566879,-0.0909443274140358,-0.100303135812283,-0.129073604941368
686,0.0102603305131197,-0.0170787610113621,-0.0600148849189281,-0.09055195748806,-0.0923049747943878,-0.130031794309616
687,0.0119773363694549,-0.0186602845788002,-0.0569506399333477,-0.0896311923861504,-0.0871215164661407,-0.129139795899391
688,0.013053834438324,-0.0168619379401207,-0.0560239814221859,-0.0906486809253693,-0.0870205163955688,-0.128599211573601
689,0.0140795754268765,-0.012425254099071,-0.0550600998103619,-0.091947428882122,-0.089422307908535,-0.128528773784637
690,0.0150543358176947,-0.00859579164534807,-0.0536004155874252,-0.0919970348477364,-0.0898018479347229,-0.128480598330498
691,0.0154886366799474,-0.00858698412775993,-0.0532619692385197,-0.0918257758021355,-0.0869930759072304,-0.130035638809204
692,0.014712824486196,-0.0122612416744232,-0.053766094148159,-0.0915564298629761,-0.0841700509190559,-0.134881421923637
693,0.0126668335869908,-0.0171681400388479,-0.0524566136300564,-0.0896636545658112,-0.0835406109690666,-0.142377436161041
694,0.0103586269542575,-0.021121870726347,-0.0475823692977428,-0.0859000459313393,-0.0836092159152031,-0.14916130900383
695,0.00932592339813709,-0.0233442578464746,-0.0417779497802258,-0.0819984823465347,-0.0826893895864487,-0.151185005903244
696,0.0104994177818298,-0.0241407174617052,-0.0392655655741692,-0.0799685344099998,-0.0809818655252457,-0.147254705429077
697,0.0126213859766722,-0.0239152442663908,-0.0410326793789864,-0.080512709915638,-0.0793951153755188,-0.139576300978661
698,0.0138617716729641,-0.0223474279046059,-0.0453208833932877,-0.0821578651666641,-0.0788135305047035,-0.131194189190865
699,0.0141654117032886,-0.0193329825997353,-0.0491192936897278,-0.0826954394578934,-0.0787185356020927,-0.124283991754055
700,0.0141442306339741,-0.0162642151117325,-0.0502520576119423,-0.0817421451210976,-0.0770123898983002,-0.119405291974545
701,0.0142656425014138,-0.0148178050294518,-0.0495451763272285,-0.0804044306278229,-0.0719069018959999,-0.1161854788661
702,0.0146659510210156,-0.0154301756992936,-0.0486521571874619,-0.0789328664541245,-0.0634738057851791,-0.114429034292698
703,0.015003589913249,-0.0174965895712376,-0.0486740879714489,-0.0775587186217308,-0.0543189570307732,-0.113426528871059
704,0.0149691393598914,-0.0191594064235687,-0.0510660037398338,-0.0769329071044922,-0.0482934787869453,-0.11168871819973
705,0.013720104470849,-0.0185138713568449,-0.0555416829884052,-0.0759534761309624,-0.047253742814064,-0.107571341097355
706,0.0112260021269321,-0.0160132050514221,-0.0589160546660423,-0.0731963440775871,-0.0486498102545738,-0.100359559059143
707,0.00952901970595121,-0.0134974597021937,-0.0585959702730179,-0.0697324201464653,-0.0476076826453209,-0.0920468494296074
708,0.00992382224649191,-0.0113310385495424,-0.0549847707152367,-0.0665652006864548,-0.0429427698254585,-0.0846687480807304
709,0.0110907470807433,-0.00927549786865711,-0.0500400364398956,-0.0630310624837875,-0.0376125536859035,-0.0781884491443634
710,0.0111603969708085,-0.00832420121878386,-0.0452639721333981,-0.0590908117592335,-0.0336128696799278,-0.0726931020617485
711,0.00995360780507326,-0.00869311485439539,-0.0407665632665157,-0.0545560605823994,-0.0311817079782486,-0.0680072978138924
712,0.00788038223981857,-0.00899722240865231,-0.0363474823534489,-0.0491592772305012,-0.0303200390189886,-0.0637284442782402
713,0.00498465402051806,-0.00818352121859789,-0.0328130796551704,-0.043876189738512,-0.0294889006763697,-0.0603448711335659
714,0.00246189534664154,-0.00620915368199348,-0.0306857842952013,-0.0392982587218285,-0.0269358064979315,-0.0577140189707279
715,0.00165790016762912,-0.0038318051956594,-0.0293364692479372,-0.0349745787680149,-0.0240608938038349,-0.0540656112134457
716,0.00221155397593975,-0.00238792249001563,-0.027537988498807,-0.0309954602271318,-0.0222763679921627,-0.0482445098459721
717,0.00344689609482884,-0.00267070718109608,-0.0244738534092903,-0.02868920750916,-0.0201675072312355,-0.0418689623475075
718,0.00537635572254658,-0.00434266356751323,-0.0212379172444344,-0.0285927653312683,-0.0165291745215654,-0.0382899940013886
719,0.00800774805247784,-0.00623562326654792,-0.0195079240947962,-0.0289173033088446,-0.0117692993953824,-0.0387397296726704
720,0.0102733494713902,-0.00729317497462034,-0.0192644950002432,-0.0277932286262512,-0.00697205122560263,-0.0403712205588818
721,0.00989990867674351,-0.00686283456161618,-0.0197417717427015,-0.024331470951438,-0.00472286902368069,-0.0386318191885948
722,0.00618094298988581,-0.00440048240125179,-0.0194874238222837,-0.0174869541078806,-0.00582417147234082,-0.0305533949285746
723,0.0014986036112532,-0.000684822385665029,-0.0170096699148417,-0.0079794954508543,-0.00596965150907636,-0.0173719301819801
724,-0.001806162414141,0.00277429027482867,-0.0138710159808397,0.00080071110278368,-0.00289384368807077,-0.00319963903166354
725,-0.00413703080266714,0.00487597426399589,-0.0131507208570838,0.00555619923397899,-0.000284682813799009,0.00814099982380867
726,-0.00664063775911927,0.0053383563645184,-0.0148518215864897,0.00618103612214327,-0.000779971480369568,0.0151559375226498
727,-0.00890979077666998,0.00483746035024524,-0.0161260087043047,0.00564274983480573,-0.00298829842358828,0.0185569245368242
728,-0.00989176332950592,0.00381263624876738,-0.0143091883510351,0.00706901075318456,-0.00417737569659948,0.0191951859742403
729,-0.00898942165076733,0.00249604531563818,-0.00831934623420238,0.0116596585139632,-0.00141333055216819,0.0177101586014032
730,-0.00693788845092058,0.00108313385862857,0.000435406604083255,0.0180885754525661,0.00555030396208167,0.0151514112949371
731,-0.00555595243349671,-0.000822433386929333,0.00759962806478143,0.0227495636790991,0.0127809103578329,0.0127336625009775
732,-0.00561891822144389,-0.00332918576896191,0.00879273656755686,0.0225988421589136,0.01564528234303,0.0114396419376135
733,-0.00638254918158054,-0.00560376513749361,0.00466165971010923,0.0193280782550573,0.013741921633482,0.0120522305369377
734,-0.00648699514567852,-0.00636042794212699,1.59204100782517E-05,0.0168370772153139,0.0120139569044113,0.014466037042439
735,-0.00516687333583832,-0.00444255257025361,-0.0021167267113924,0.0166710149496794,0.0137529904022813,0.0183439534157515
736,-0.00373301818035543,-0.000592957425396889,-0.00202170107513666,0.0179824437946081,0.0163417495787144,0.0237490348517895
737,-0.00401690090075135,0.00300826551392674,-0.00130227592308074,0.0185424294322729,0.016472889110446,0.0296067297458649
738,-0.00554378144443035,0.00549082178622484,-0.00114574155304581,0.0175234079360962,0.0149330329149961,0.0349191166460514
739,-0.00618964852765203,0.00697180069983006,-0.000187049445230514,0.0176326055079699,0.0159933660179377,0.0403244234621525
740,-0.00597549416124821,0.00695951003581285,0.00308619602583349,0.0209193602204323,0.0212470926344395,0.0460177548229694
741,-0.00692003220319748,0.00544062443077564,0.00772313494235277,0.0259985998272896,0.0277393311262131,0.0515779703855515
742,-0.00875026639550924,0.00467602908611298,0.0126235112547874,0.0313004963099957,0.0325924232602119,0.05753019079566
743,-0.009862438775599,0.00644612172618508,0.0174043141305447,0.0356964245438576,0.0339537933468819,0.0639515817165375
744,-0.00983509980142117,0.00936872232705355,0.0213814899325371,0.0380410961806774,0.0323914177715778,0.0695397704839706
745,-0.00882890168577433,0.0114067047834396,0.0234160553663969,0.0387581847608089,0.030888682231307,0.0731259435415268
746,-0.00728501193225384,0.0119752809405327,0.0231294687837362,0.0392123833298683,0.0316739417612553,0.0748173519968987
747,-0.00566932372748852,0.0111231748014688,0.0215408429503441,0.0399937145411968,0.0358189716935158,0.0754153281450272
748,-0.00484115350991488,0.00882858224213123,0.0200154483318329,0.0411050654947758,0.0421152710914612,0.0749984681606293
749,-0.00576504040509462,0.00554289994761348,0.0189169347286224,0.042565580457449,0.0470325499773026,0.0731360390782356
750,-0.00758529640734196,0.00291432114318013,0.0181817635893822,0.0448638461530209,0.0487417578697205,0.0697515979409218
751,-0.00814380962401628,0.00301887188106775,0.0185099430382252,0.0490855947136879,0.0484514832496643,0.0657611712813377
752,-0.00690108677372336,0.0049607097171247,0.0202932208776474,0.0542938224971294,0.0479438491165638,0.0622504577040672
753,-0.00500041013583541,0.00563304591923952,0.0228945929557085,0.0574576891958714,0.0489711835980415,0.0596664324402809
754,-0.00354101555421948,0.00455275876447558,0.0257058143615723,0.0575607866048813,0.051881305873394,0.0592613965272903
755,-0.00341350468806922,0.00353956152684987,0.028860941529274,0.0561365708708763,0.0536702387034893,0.0617111101746559
756,-0.00492974231019616,0.00395291810855269,0.0323981456458569,0.054478295147419,0.0509670414030552,0.0654426515102386
757,-0.00789630226790905,0.00559701537713408,0.035114262253046,0.0524475611746311,0.0431531108915806,0.068863607943058
758,-0.0109641049057245,0.00725365662947297,0.0359281711280346,0.0503298193216324,0.0346337221562862,0.0716662406921387
759,-0.0121273901313543,0.00883456878364086,0.0351381599903107,0.049044132232666,0.0319692492485046,0.0743581354618073
760,-0.011788041330874,0.0101895611733198,0.03254359588027,0.0477937161922455,0.0352682024240494,0.0764319971203804
761,-0.0115981297567487,0.009649608284235,0.0278960838913918,0.0462506078183651,0.0401828400790691,0.0761509388685226
762,-0.0111325988546014,0.00698419939726591,0.0228932667523623,0.0460163615643978,0.0457364320755005,0.0732412114739418
763,-0.00936275720596313,0.00430654035881162,0.0191626865416765,0.0472526028752327,0.0525317043066025,0.0694422051310539
764,-0.00643914565443993,0.00337360985577106,0.0180082432925701,0.0491261631250381,0.0604387670755386,0.0673276335000992
765,-0.00309985317289829,0.004238645080477,0.0203900150954723,0.0514659658074379,0.0675037130713463,0.0688009113073349
766,-0.000711717118974775,0.00608396297320724,0.0239471383392811,0.053409967571497,0.0684225857257843,0.0731291249394417
767,0.000416763010434806,0.00783395674079657,0.0257025342434645,0.0543631128966808,0.0625526309013367,0.0768220499157906
768,0.000795401050709188,0.00875741895288229,0.0256466940045357,0.0553399994969368,0.0552312061190605,0.0775400623679161
769,4.43592543888371E-05,0.00893473252654076,0.0254587773233652,0.0569969713687897,0.0495529510080814,0.0768769159913063
770,-0.001868637627922,0.00867534708231688,0.0267175789922476,0.0584177002310753,0.046337679028511,0.0772388279438019
771,-0.00389762013219297,0.00795531179755926,0.0293717812746763,0.0585788041353226,0.045427031815052,0.0784708857536316
772,-0.0046135438606143,0.00705458503216505,0.0327753126621246,0.0581446401774883,0.0453011132776737,0.0796593353152275
773,-0.00368486740626395,0.00630340445786715,0.0367039069533348,0.0580628588795662,0.0447846092283726,0.0805828273296356
774,-0.00239779683761299,0.00560637190937996,0.0394429489970207,0.0579902417957783,0.0430491492152214,0.0811677649617195
775,-0.00187217711936682,0.00539630558341742,0.0394122526049614,0.0572934448719025,0.0411554612219334,0.081729881465435
776,-0.00280758109875023,0.00493035605177283,0.0367484427988529,0.0542646013200283,0.0417809374630451,0.0809478610754013
777,-0.00526512786746025,0.00313603295944631,0.0321897380053997,0.04813377186656,0.0449264049530029,0.0771660059690475
778,-0.00676244869828224,0.00192303326912224,0.0283005721867085,0.0428118593990803,0.0494389310479164,0.0727670192718506
779,-0.00539207411929965,0.00285189901478589,0.0270400904119015,0.0419361218810081,0.054642278701067,0.0711946487426758
780,-0.00218475726433098,0.00525211123749614,0.0272477827966213,0.0446130596101284,0.0597086437046528,0.0726908966898918
781,0.00120976532343775,0.00815289840102196,0.0275184195488691,0.0487707182765007,0.0636349469423294,0.075345441699028
782,0.00363925588317215,0.0106155648827553,0.0279858633875847,0.053054790943861,0.0655659958720207,0.0771801769733429
783,0.00496132811531425,0.0121529279276729,0.0296662077307701,0.0567341484129429,0.0670780837535858,0.076874628663063
784,0.00547668198123574,0.0121958022937179,0.0323547422885895,0.0594605095684528,0.0693887919187546,0.0732878819108009
785,0.00519571639597416,0.0104375882074237,0.0342564024031162,0.0608042553067207,0.0706111863255501,0.067384734749794
786,0.0042873783968389,0.00814886577427387,0.034807100892067,0.0608855597674847,0.0692747980356216,0.0635699033737183
787,0.0034772758372128,0.00700065074488521,0.0358813926577568,0.0606219843029976,0.0658715069293976,0.0653000250458717
788,0.00297896470874548,0.00640413723886013,0.0387672819197178,0.0602410659193993,0.0608422234654427,0.0705065280199051
789,0.00209628231823444,0.00490375654771924,0.0419852212071419,0.0595753230154514,0.0550126247107983,0.0742712095379829
790,0.000441069103544578,0.00369770918041468,0.0429002195596695,0.0596039295196533,0.050278514623642,0.0754275768995285
791,-0.0015928897773847,0.00461965333670378,0.0418316833674908,0.0615594387054443,0.0483103282749653,0.0771691054105759
792,-0.00343141797930002,0.00642428733408451,0.0421452596783638,0.0646804198622704,0.0493431091308594,0.0808497220277786
793,-0.0041770008392632,0.00655224313959479,0.0442933812737465,0.0662237852811813,0.0519489645957947,0.0836138352751732
794,-0.00252512493170798,0.00490752514451742,0.0461368598043919,0.0652185007929802,0.0562716200947762,0.0837068185210228
795,0.000295774254482239,0.00296408333815634,0.0459983721375465,0.0632454231381416,0.0627491846680641,0.0824253484606743
796,0.000920841004699469,0.00124714989215136,0.0426204465329647,0.0610384792089462,0.0676826760172844,0.0809104442596436
797,-0.000918269448447973,-0.000318287842674181,0.0375933535397053,0.0581312738358974,0.0690271928906441,0.0792418196797371
798,-0.00210433756001294,-0.00115826923865825,0.0340973995625973,0.0551162734627724,0.0696040615439415,0.0776178538799286
799,-0.00156714301556349,-0.000904615386389196,0.032545130699873,0.0535057708621025,0.0693073272705078,0.0766731128096581
800,-0.000115881281089969,-0.000116600895125885,0.0328356623649597,0.0543223209679127,0.0668885037302971,0.0762525498867035
801,0.00183081591967493,0.00112353439908475,0.0351802036166191,0.0571757070720196,0.0636280328035355,0.0755716562271118
802,0.00295742158778012,0.00345830712467432,0.037744365632534,0.0604820027947426,0.0594642646610737,0.0746841505169868
803,0.00266431760974228,0.00607251795008779,0.0394584462046623,0.062448401004076,0.0558923110365868,0.0731316581368446
804,0.00089881126768887,0.00655814865604043,0.0404815971851349,0.0620587468147278,0.0545296669006348,0.0702143684029579
805,-0.00196516304276884,0.00488646933808923,0.0409446097910404,0.0607770681381226,0.0541734248399735,0.067853718996048
806,-0.00353685417212546,0.00371229695156217,0.0414734818041325,0.0605417229235172,0.0549081042408943,0.0686562210321426
807,-0.00211288989521563,0.00446237623691559,0.0423587821424007,0.0613760985434055,0.0570798330008984,0.0722315460443497
808,0.000890931696631014,0.0059081744402647,0.0432954579591751,0.0627014487981796,0.0588432215154171,0.0751844197511673
809,0.00305904378183186,0.0064835362136364,0.0439916700124741,0.0638008639216423,0.0590194091200829,0.0755105391144753
810,0.00369630428031087,0.00647720042616129,0.0444022715091705,0.0637922734022141,0.0581361837685108,0.0749398544430733
811,0.0035559362731874,0.00639042910188437,0.0440769754350185,0.0618264749646187,0.0578114651143551,0.0751652643084526
812,0.00336154759861529,0.00589535571634769,0.0425393953919411,0.0581312105059624,0.0603481382131577,0.0764134004712105
813,0.0025354502722621,0.0055797197856009,0.0399801321327686,0.054841011762619,0.0633170902729034,0.0780516862869263
814,0.00102713727392256,0.00656488537788391,0.0375545136630535,0.0538998357951641,0.0627307444810867,0.0780346393585205
815,0.000598215730860829,0.00824360549449921,0.0368088409304619,0.0546605549752712,0.0607915446162224,0.0750560909509659
816,0.00182742811739445,0.00880409684032202,0.0376546829938889,0.0550653859972954,0.0605853423476219,0.0706158801913261
817,0.0033875925000757,0.00725679704919457,0.0384964011609554,0.0539784170687199,0.0619719587266445,0.0666313692927361
818,0.00365281035192311,0.0042697386816144,0.0375545211136341,0.0515665821731091,0.0634206011891365,0.0639325678348541
819,0.00238637300208211,0.00181831314694136,0.0341859348118305,0.0492319837212563,0.0633252412080765,0.0631136745214462
820,0.000871810829266906,0.00133094366174191,0.0298237428069115,0.0478165075182915,0.0617575459182262,0.0636205673217773
821,-0.000239520639297552,0.00271671474911273,0.0260853618383408,0.0456263683736324,0.0595403909683228,0.0637400522828102
822,-0.000886060937773436,0.00545502360910177,0.0236083921045065,0.0414989218115807,0.0571193359792233,0.0628799498081207
823,-0.000663666927721351,0.00871624797582626,0.0223128888756037,0.037279549986124,0.054649643599987,0.0621911473572254
824,0.00022995300241746,0.0105789406225085,0.0213307645171881,0.0343964770436287,0.0518884621560574,0.061922449618578
825,0.00116661470383406,0.0105763962492347,0.0209303423762321,0.0331474952399731,0.0492436848580837,0.0618869587779045
826,0.0018020166317001,0.0105197606608272,0.0221913121640682,0.0337305553257465,0.046976201236248,0.0626618713140488
827,0.00207172031514347,0.0105791762471199,0.0244538243860006,0.0346596203744411,0.0443507917225361,0.063086524605751
828,0.00244465353898704,0.00954042933881283,0.025990279391408,0.0341578871011734,0.0412379205226898,0.0612200647592545
829,0.00363534246571362,0.00757305882871151,0.0255209766328335,0.0322474129498005,0.0383366569876671,0.0565658695995808
830,0.00606105104088783,0.00569693511351943,0.0237623155117035,0.0308401677757502,0.0377177223563194,0.0503730662167072
831,0.00895320624113083,0.0049590952694416,0.0227103251963854,0.032122977077961,0.0401874370872974,0.0458069182932377
832,0.0104997986927629,0.0055662440136075,0.0222328472882509,0.0351568683981895,0.043124333024025,0.0444894358515739
833,0.00973526295274496,0.0064777503721416,0.0206191521137953,0.0365230329334736,0.0446291267871857,0.0442927479743958
834,0.00756827788427472,0.0072159175761044,0.0177694447338581,0.0351463295519352,0.0447841957211494,0.0434989258646965
835,0.00554440915584564,0.00802289880812168,0.0151887778192759,0.03330322727561,0.0446521379053593,0.0425771735608578
836,0.00503603322431445,0.00946102105081081,0.0144480876624584,0.0339587815105915,0.0455359630286694,0.0428893640637398
837,0.00674139661714435,0.0116315605118871,0.0158157888799906,0.0371361002326012,0.0470442622900009,0.0453299172222614
838,0.00857798848301172,0.0127981705591083,0.0172465275973082,0.0396611578762531,0.0465127378702164,0.0489037930965424
839,0.00851343851536512,0.0119831077754498,0.0181195270270109,0.0399947389960289,0.0447291322052479,0.0517149418592453
840,0.00781288929283619,0.0105842128396034,0.0208171252161264,0.0392884276807308,0.0463330745697021,0.0520179606974125
841,0.00739075755700469,0.0106041515246034,0.0248564351350069,0.038736280053854,0.0489308014512062,0.0498617105185986
842,0.00686023430898786,0.0126280039548874,0.0267814993858337,0.0385012067854404,0.0466891266405582,0.0473868511617184
843,0.00660216575488448,0.0144962184131145,0.025567164644599,0.038166768848896,0.041532251983881,0.0454236976802349
844,0.00718018412590027,0.0136202117428184,0.022794995456934,0.0370361432433128,0.0383606478571892,0.0423596538603306
845,0.00812451913952827,0.00962228886783123,0.0201578233391047,0.0337574854493141,0.0378945358097553,0.0367780923843384
846,0.0085185170173645,0.00446070078760386,0.0182046908885241,0.0278727486729622,0.0385407842695713,0.0303832199424505
847,0.00821500085294247,0.00113225448876619,0.0165363177657127,0.0215215347707272,0.0385793074965477,0.0270209703594446
848,0.00765553116798401,0.00137475249357522,0.0154511546716094,0.0179459434002638,0.0370444469153881,0.0289067309349775
849,0.0062712007202208,0.00415859604254365,0.0149457380175591,0.0178846139460802,0.0335201881825924,0.0347571633756161
850,0.00259866053238511,0.00665315985679626,0.013864966109395,0.0188164226710796,0.0273893997073174,0.0409411713480949
851,-0.0015887978952378,0.00768186151981354,0.0129741756245494,0.0187586732208729,0.0216905325651169,0.0450582765042782
852,-0.0032803132198751,0.00806857738643885,0.0128322513774037,0.0172930639237165,0.0196100100874901,0.0468644350767136
853,-0.00356308580376208,0.00800773967057467,0.0120950397104025,0.0148678198456764,0.0192577429115772,0.0463039092719555
854,-0.00454595126211643,0.00779063580557704,0.0112039595842361,0.0141194956377149,0.0180562864989042,0.0439513511955738
855,-0.00686337379738688,0.00821292400360107,0.0109661584720016,0.0174224525690079,0.013438243418932,0.0409175455570221
856,-0.0101373363286257,0.0082253273576498,0.0106702391058207,0.0237602330744267,0.00527784787118435,0.0362683348357677
857,-0.0118791004642844,0.00588963041082025,0.0107495244592428,0.0302387923002243,0.000719049712643027,0.0276098661124706
858,-0.010722384788096,0.00108390825334936,0.0117886625230312,0.0333286635577679,0.00540109956637025,0.0152795575559139
859,-0.00873218663036823,-0.00354091776534915,0.012588070705533,0.0312954224646091,0.0156470388174057,0.00468044681474566
860,-0.00776616623625159,-0.00475309137254953,0.0125237833708525,0.0261861570179462,0.0249254405498505,0.000912968709599227
861,-0.00784188136458397,-0.00152854749467224,0.0121574848890305,0.0208401642739773,0.029313862323761,0.00345154362730682
862,-0.00765151297673583,0.00459397956728935,0.0124581893905997,0.016635600477457,0.0284426510334015,0.0091064590960741
863,-0.00548853166401386,0.00930459331721067,0.0145595371723175,0.0133255729451776,0.0263725407421589,0.0144623620435596
864,-0.00225669401697814,0.0098936203867197,0.0177851412445307,0.0110932709649205,0.0252763144671917,0.0183152314275503
865,-0.000240673281950876,0.00853837374597788,0.0197327863425016,0.0111720599234104,0.0224367026239634,0.0223915334790945
866,0.000333060423145071,0.00683459406718612,0.0187746621668339,0.0125818643718958,0.0187249965965748,0.0259080622345209
867,-0.000251352117629722,0.00421951850876212,0.014713223092258,0.0134794237092137,0.0183347556740046,0.0263032875955105
868,-0.00182590913027525,0.00153135356958956,0.00948864780366421,0.0140237268060446,0.0226271469146013,0.0238907411694527
869,-0.00365638453513384,6.5898522734642E-05,0.00591190252453089,0.0148975206539035,0.0292787943035364,0.0208666026592255
870,-0.00508723547682166,-0.000774840591475368,0.00452252104878426,0.0155374426394701,0.0346975587308407,0.0182279087603092
871,-0.006266332231462,-0.00258983578532934,0.00374193955212832,0.0144990822300315,0.0369911640882492,0.0155183812603354
872,-0.00817526411265135,-0.0049686380662024,0.00232160976156592,0.0126777999103069,0.0346611365675926,0.0127831408753991
873,-0.0101703181862831,-0.00601959321647882,0.000923082407098264,0.0128830475732684,0.0281007681041956,0.0101378206163645
874,-0.00985164754092693,-0.00572901824489236,0.000789626559708267,0.0148657923564315,0.0225465539842844,0.00658649578690529
875,-0.00738490838557482,-0.00516725704073906,0.00186096515972167,0.01632877625525,0.0215451680123806,0.00192280323244631
876,-0.00549324881285429,-0.00434368243440986,0.00356059218756855,0.0168452281504869,0.022082481533289,-0.00153352203778923
877,-0.0056216805242002,-0.00301094818860292,0.00504073593765497,0.0168797038495541,0.0198921579867601,-0.00183740514330566
878,-0.00725250272080302,-0.00113069638609886,0.00519732106477022,0.0175119619816542,0.014462829567492,0.000467838020995259
879,-0.00893506314605474,0.000795668922364712,0.00455472618341446,0.0198006089776754,0.00943395495414734,0.00333586125634611
880,-0.00985774025321007,0.00146298645995557,0.00425735535100102,0.021940540522337,0.00823411624878645,0.00449255714192986
881,-0.010609139688313,0.000884581764694303,0.00338490679860115,0.021228326484561,0.00968757458031178,0.00370825920253992
882,-0.0115559361875057,0.000840961874928325,0.000955805357079953,0.0174004770815372,0.0110547058284283,0.00283792428672314
883,-0.0117868110537529,0.00219242251478136,-0.00126377318520099,0.0125315068289638,0.0121906753629446,0.00319665111601353
884,-0.0109995668753982,0.00384383206255734,-0.00148692785296589,0.00884844921529293,0.0128056462854147,0.0045718620531261
885,-0.010671011172235,0.00420628115534782,-0.000654938106890768,0.00668106647208333,0.0113995485007763,0.00647445907816291
886,-0.0117957629263401,0.00308707845397294,-0.000196023189346306,0.00546665722504258,0.00921212323009968,0.00909486785531044
887,-0.0136168645694852,0.00200370326638222,3.02558182738721E-05,0.00539709813892841,0.00787834171205759,0.0125722112134099
888,-0.0150147164240479,0.00191786896903068,0.000437137350672856,0.00606836937367916,0.006881735753268,0.0157678741961718
889,-0.015052231028676,0.00248669739812613,0.00132484524510801,0.00644892128184438,0.00691843358799815,0.0168837886303663
890,-0.0136291990056634,0.00321748084388673,0.00286769843660295,0.00665127951651812,0.00786901637911797,0.0148948803544044
891,-0.0121292369440198,0.00355887529440224,0.00430023809894919,0.00678326189517975,0.00732900341972709,0.0106328632682562
892,-0.0112489452585578,0.00301474379375577,0.00507628871127963,0.00591357611119747,0.00560732325538993,0.0062176831997931
893,-0.00993445888161659,0.00104605255182832,0.00499426573514938,0.00323995715007186,0.00595331750810146,0.00271836156025529
894,-0.007211625110358,-0.00179043994285166,0.00417723692953587,-0.00025018717860803,0.0103661296889186,0.000800564652308822
895,-0.00414705509319901,-0.00337282358668745,0.00355960475280881,-0.00210238015279174,0.0161738879978657,0.00163484981749207
896,-0.00304826139472425,-0.00299513060599566,0.0037626507692039,-0.000919529586099088,0.0185273829847574,0.00494625931605697
897,-0.00416898354887962,-0.00206356891430914,0.00504855299368501,0.00259175896644592,0.0173128992319107,0.00865658093243837
898,-0.00552322808653116,-0.00139942928217351,0.00752964429557323,0.00686287600547075,0.015979690477252,0.0116198975592852
899,-0.00562178157269955,-0.000612124567851424,0.00992885045707226,0.0102080386132002,0.0155006740242243,0.0139149045571685
900,-0.00481430487707257,0.00045729146222584,0.00977847911417484,0.0105053968727589,0.0133974738419056,0.0141922198235989
901,-0.00417968118563294,0.00176369212567806,0.00685666594654322,0.00739586818963289,0.0081101069226861,0.0117941275238991
902,-0.00408775778487325,0.00325496331788599,0.00392366060987115,0.00362787209451199,0.00148647115565836,0.0090946676209569
903,-0.00435918429866433,0.00443269545212388,0.00293989712372422,0.00182884896639735,-0.00407429272308946,0.00827226601541042
904,-0.00399970915168524,0.00507306400686502,0.00416796840727329,0.00283826841041446,-0.00610842136666179,0.00975532177835703
905,-0.00228866399265826,0.00530850421637297,0.00643630465492606,0.00584219163283706,-0.00335727212950587,0.0126156201586127
906,-0.000650477595627308,0.00453853281214833,0.00697243865579367,0.00785588379949331,0.00109081133268774,0.0136940805241466
907,-0.000920056714676321,0.00170507864095271,0.00493933260440826,0.00678362883627415,0.00457967445254326,0.0100370496511459
908,-0.00321080815047026,-0.0034975279122591,0.00211079511791468,0.00365402339957654,0.00707696052268147,0.00213065487332642
909,-0.00565123278647661,-0.00944905634969473,8.46765469759703E-05,0.000183287309482694,0.00737827038392425,-0.0069390069693327
910,-0.00630946084856987,-0.0130462609231472,-0.000540134555194527,-0.00280288932844996,0.00551967089995742,-0.013803593814373
911,-0.00613339245319366,-0.0135400220751762,-0.000823800044599921,-0.00558139383792877,0.00350439175963402,-0.0170899368822575
912,-0.00728381238877773,-0.0135586662217975,-0.00206173374317586,-0.00895808171480894,0.00191021431237459,-0.0181249417364597
913,-0.00927596446126699,-0.0146089252084494,-0.00387345091439784,-0.0127826957032084,0.000981847522780299,-0.0191577468067408
914,-0.0104707824066281,-0.0155824348330498,-0.00565908523276448,-0.0155076934024692,0.000523760041687638,-0.0210719686001539
915,-0.0102923167869449,-0.0149554591625929,-0.00674045970663428,-0.014835393987596,-0.000553317891899496,-0.0223915912210941
916,-0.00888934731483459,-0.0132914343848825,-0.00628283945843577,-0.0110692325979471,-0.002085484797135,-0.0224451515823603
917,-0.00789559073746204,-0.0126186730340123,-0.00514661567285657,-0.00764996930956841,-0.00375178386457264,-0.0217549223452806
918,-0.00916953757405281,-0.012371595017612,-0.00510955322533846,-0.00584499584510922,-0.00646378193050623,-0.0180716998875141
919,-0.0116929188370705,-0.0109149785712361,-0.00599375553429127,-0.00461520301178098,-0.00922961998730898,-0.0104526225477457
920,-0.01223832834512,-0.00869210157543421,-0.00552065391093493,-0.00371839688159525,-0.00861016567796469,-0.00307634053751826
921,-0.0101408967748284,-0.0064326161518693,-0.00281093292869627,-0.00329542718827724,-0.00521745160222054,0.000461873132735491
922,-0.0079432362690568,-0.00393287837505341,0.000700920529197901,-0.0032643317244947,-0.0035418039187789,0.00106463069096208
923,-0.00688794860616326,-0.00149892922490835,0.00282049248926342,-0.00368311465717852,-0.0054899756796658,0.000769835256505758
924,-0.00720101129263639,-0.000868315226398408,0.00181910349056125,-0.00479708192870021,-0.0093048270791769,-1.66703684953973E-05
925,-0.00881978217512369,-0.0029724701307714,-0.00155052426271141,-0.00655406434088945,-0.0111912582069635,-0.00108591455500573
926,-0.00998266413807869,-0.00624094856902957,-0.00535279512405396,-0.00860234536230564,-0.00934863835573196,-0.00219505862332881
927,-0.009766586124897,-0.00888516195118427,-0.00868556462228298,-0.0103888167068362,-0.00647286884486675,-0.00382243120111525
928,-0.00898495223373175,-0.0101986145600677,-0.0105460686609149,-0.0109216021373868,-0.00589805236086249,-0.00610453682020307
929,-0.00815137848258018,-0.00962107628583908,-0.00932649895548821,-0.00942405499517918,-0.00736675737425685,-0.00808116421103477
930,-0.00748197827488184,-0.00777795258909464,-0.00569639494642615,-0.00724687799811363,-0.00887999776750803,-0.00984993018209934
931,-0.00742867821827531,-0.00642149057239294,-0.00302528403699398,-0.00695323618128896,-0.00990481488406658,-0.0125510822981596
932,-0.00807649455964565,-0.00575500726699829,-0.00239060516469181,-0.00798876862972975,-0.0104881720617414,-0.0147065240889788
933,-0.0090195070952177,-0.00557621754705906,-0.00220195716246963,-0.00781522877514362,-0.010363582521677,-0.0146695747971535
934,-0.00977462064474821,-0.00621778005734086,-0.00149306270759553,-0.00535444729030132,-0.00910803209990263,-0.0138685135170817
935,-0.0101394765079021,-0.0066026165150106,0.000128860658151098,-0.00100957741960883,-0.00700369756668806,-0.0147183537483215
936,-0.0107806269079447,-0.00657489942386746,0.00192439614329487,0.00186364422552288,-0.00549333076924086,-0.018375551328063
937,-0.0126660401001573,-0.00722469575703144,0.00205338280647993,8.49576827022247E-06,-0.00612638751044869,-0.0215145368129015
938,-0.0159187875688076,-0.00764466403052211,-0.000914805219508708,-0.0050583309493959,-0.00963076390326023,-0.019513813778758
939,-0.0195036847144365,-0.00624088058248162,-0.00674842158332467,-0.00977937690913677,-0.0145594272762537,-0.0126480907201767
940,-0.0207813661545515,-0.00345145119354129,-0.0123245595023036,-0.0119197089225054,-0.0157674495130777,-0.00438748253509402
941,-0.0179277788847685,-0.000846649461891502,-0.0139637952670455,-0.010820890776813,-0.00902440212666988,0.00298472703434527
942,-0.0136359045282006,0.00166901852935553,-0.0122348591685295,-0.00688720075413585,-0.000543626840226352,0.0104326186701655
943,-0.0115043548867106,0.00491180410608649,-0.0106980418786407,-0.00206922856159508,-0.000481097144074738,0.0176503714174032
944,-0.0104761738330126,0.00867143459618092,-0.00967235118150711,0.00173368793912232,-0.00743716862052679,0.0215263795107603
945,-0.00857518520206213,0.0116278547793627,-0.00765930395573378,0.00415933737531304,-0.0142037710174918,0.02068280428648
946,-0.00709497928619385,0.0108625777065754,-0.00555679388344288,0.0040957354940474,-0.0185879822820425,0.0147116901353002
947,-0.00676849763840437,0.00559121603146195,-0.00460479548200965,0.00123116921167821,-0.0210815649479628,0.00461343862116337
948,-0.00659124366939068,-0.000884576933458447,-0.00484541803598404,-0.00168371573090553,-0.0222097244113684,-0.00627585267648101
949,-0.00634671887382865,-0.00574931222945452,-0.00483448803424835,-0.00257674185559154,-0.0216787811368704,-0.01548823248595
950,-0.00591284688562155,-0.00824934151023626,-0.00222294614650309,-0.00203713052906096,-0.0190858822315931,-0.0212195347994566
951,-0.00556030869483948,-0.00838882382959127,0.00255934824235737,-0.00107400713022798,-0.0171922836452723,-0.0217658374458551
952,-0.00611475948244333,-0.00659932848066092,0.0066291680559516,-0.000226882533752359,-0.0189262684434652,-0.0182312224060297
953,-0.00772111024707556,-0.00394135247915983,0.00758337555453181,-0.000775781751144677,-0.0231279507279396,-0.0142825245857239
954,-0.00950829405337572,-0.00226507754996419,0.00512050418183208,-0.00418880395591259,-0.0262221116572618,-0.013522089459002
955,-0.00967585947364569,-0.00254807737655938,0.00128099787980318,-0.00991389155387878,-0.0255668107420206,-0.0172965675592422
956,-0.00810113828629255,-0.00426144106313586,-0.00234634918160737,-0.016541101038456,-0.0221155062317848,-0.0229470450431108
957,-0.00669327052310109,-0.00661934027448297,-0.00542005663737655,-0.0231591649353504,-0.0191558282822371,-0.0262554977089167
958,-0.00702553661540151,-0.00869218911975622,-0.00825146492570639,-0.0281235296279192,-0.0194482170045376,-0.0253997072577477
959,-0.00913336686789989,-0.00954439491033554,-0.0114336926490068,-0.0305347852408886,-0.0225736666470766,-0.0221644341945648
960,-0.0110136140137911,-0.00898071192204952,-0.0147244594991207,-0.0310813337564468,-0.025021905079484,-0.0202022828161716
961,-0.0109747406095266,-0.00750592164695263,-0.01699623093009,-0.0296376328915358,-0.0245638731867075,-0.0213271360844374
962,-0.00920736044645309,-0.00529074063524604,-0.0172411538660526,-0.0255952104926109,-0.0226720236241817,-0.0237508378922939
963,-0.0070407846942544,-0.00309042166918516,-0.0158666186034679,-0.0204160865396261,-0.0235600247979164,-0.0253080688416958
964,-0.00588956102728844,-0.00286442530341446,-0.0143750431016088,-0.0177666004747152,-0.0292172376066446,-0.0267954301089048
