,AF3,AF4,Fp1,Fp2,AF7,AF8
0,0.00142583088018,0.00523547222837806,0.0157705470919609,0.00112938182428479,0.00917200837284327,0.0417404025793076
1,0.00101913721300662,0.00535323238000274,0.0179140623658895,-0.000514567189384252,0.0143360085785389,0.0410718992352486
2,0.00180582620669156,0.00675056735053658,0.0187358092516661,-0.00212494120933115,0.0215449035167694,0.0412941165268421
3,0.00298913917504251,0.0105441818013787,0.0189447160810232,-0.00260015740059316,0.027438722550869,0.0430269166827202
4,0.00357792992144823,0.0146055007353425,0.0191166903823614,-0.00217967503704131,0.0294652506709099,0.0441544838249683
5,0.00304570840671659,0.0149160893633962,0.0189495012164116,-0.0021021100692451,0.0269736535847187,0.0419709496200085
6,0.00166834564879537,0.0106534445658326,0.0183265134692192,-0.00292361271567643,0.0215356051921844,0.0373329110443592
7,0.000240324094193056,0.00537845911458135,0.0180952772498131,-0.00325243221595883,0.0160344168543816,0.0349038504064083
8,-0.000866019283421338,0.00260837143287063,0.0183526091277599,-0.00203731842339039,0.0114502431824803,0.0380846001207829
9,-0.00168792449403554,0.00270877708680928,0.0185446366667748,-0.000446826365077868,0.00628308160230517,0.0451239012181759
10,-0.0026618882548064,0.00329047627747059,0.0180030427873135,-0.000768805097322911,-0.000139749769004993,0.0511251017451286
11,-0.00365229044109583,0.00221267878077924,0.0158122479915619,-0.00356537732295692,-0.00503625767305493,0.0529060289263725
12,-0.00330408965237439,0.000377500808099285,0.0130395153537393,-0.00626083835959435,-0.00385142862796783,0.0512793771922588
13,-0.00199306826107204,-0.00101094238925725,0.0110384812578559,-0.00761811481788754,0.00300108292140067,0.0475316420197487
14,-0.000828027492389083,-0.00207351800054312,0.00980115588754416,-0.0087685938924551,0.0105362897738814,0.0419620759785175
15,0.000807373144198209,-0.00284807593561709,0.0107276644557714,-0.00984543561935425,0.0171242821961641,0.0355084910988808
16,0.00176009116694331,-0.00289086089469492,0.0135428244248033,-0.010703319683671,0.0214553717523813,0.0308217201381922
17,-4.7473381528107E-06,-0.00128497008699924,0.0145928226411343,-0.0117625240236521,0.0200454536825418,0.0314394943416119
18,-0.00367891415953636,0.00120311882346869,0.0122901545837522,-0.0135898562148213,0.0139567237347364,0.0367267541587353
19,-0.00752423005178571,0.00269330060109496,0.00844496488571167,-0.0158491600304842,0.00757285719737411,0.0410101525485516
20,-0.00997224170714617,0.00412653759121895,0.0062775956466794,-0.0155372507870197,0.00375614804215729,0.0407704375684261
21,-0.00959958229213953,0.00761396996676922,0.00857350137084723,-0.0103969983756542,0.00283473124727607,0.0382271595299244
22,-0.00718913087621331,0.0119463140144944,0.0142120812088251,-0.00401934003457427,0.00245072459802032,0.0365888737142086
23,-0.00533938454464078,0.0138171147555113,0.0184339284896851,-0.00199319235980511,0.00153233797755092,0.0356621220707893
24,-0.00567909143865108,0.0125924302265048,0.0185965467244387,-0.00516106048598886,0.000982963712885976,0.0331123992800713
25,-0.0079948715865612,0.0106580099090934,0.0173496752977371,-0.010115665383637,-0.000108738931885455,0.0289818271994591
26,-0.0113922730088234,0.0096968999132514,0.0178468693047762,-0.0139073003083467,-0.00313857034780085,0.0270608477294445
27,-0.0153079638257623,0.00910269189625978,0.0186558645218611,-0.0172844156622887,-0.00853933021426201,0.0301822442561388
28,-0.0180263705551624,0.00833640899509192,0.0177070405334234,-0.0213273894041777,-0.0141768455505371,0.036932110786438
29,-0.0168435983359814,0.00825350638478994,0.0159977432340384,-0.0238208565860987,-0.0154339205473661,0.0432576350867748
30,-0.0132524752989411,0.00766616268083453,0.0136837903410196,-0.0245189312845469,-0.0114378733560443,0.0448584854602814
31,-0.0116649037227035,0.00505100563168526,0.00995196402072906,-0.0249024648219347,-0.00536856986582279,0.0421743728220463
32,-0.0124797895550728,0.00258383806794882,0.00617769733071327,-0.0233148727566004,0.00094324437668547,0.0400566719472408
33,-0.0137896500527859,0.00200755381956697,0.00329352938570082,-0.019153555855155,0.0051741492934525,0.0400803126394749
34,-0.0146594550460577,0.00257413391955197,0.000574791803956032,-0.0148713178932667,0.00465083634480834,0.0396504625678062
35,-0.0139909302815795,0.00294096721336246,-0.000918224628549069,-0.0127558801323175,0.00238079531118274,0.035312507301569
36,-0.0117036467418075,0.00269439024850726,0.000781684182584286,-0.0126858539879322,0.00280703906901181,0.0268895775079727
37,-0.00963360071182251,0.00288002006709576,0.00506045948714018,-0.0125165209174156,0.00470321718603373,0.0190143771469593
38,-0.00943382363766432,0.00276052043773234,0.00925816316157579,-0.0124223027378321,0.00545371230691671,0.0141103239730001
39,-0.0107667595148087,0.00112461613025516,0.0116116842254996,-0.0136622311547399,0.00448365183547139,0.0114274686202407
40,-0.0127918357029557,-0.000611548079177737,0.0117309549823403,-0.0153567055240273,0.0013379588490352,0.0112362671643496
41,-0.0149507503956556,-0.000964023172855377,0.0102716442197561,-0.0165477581322193,-0.00257824058644474,0.0127566447481513
42,-0.0163127705454826,-0.000401043333113194,0.00846794992685318,-0.0174202676862478,-0.00465242750942707,0.0139464633539319
43,-0.0165649522095919,-5.91440002608579E-05,0.00717352982610464,-0.0189155340194702,-0.0041655614040792,0.0146285919472575
44,-0.0158899519592524,-0.000458462018286809,0.00690516782924533,-0.0218847021460533,-0.0020125035662204,0.0157770961523056
45,-0.0144736608490348,-0.00198035361245275,0.00621282216161489,-0.0261862315237522,0.00058168638497591,0.0167377889156342
46,-0.0130723332986236,-0.00382223003543913,0.00290909875184298,-0.0302274487912655,0.00225870963186026,0.0165229700505733
47,-0.0128022423014045,-0.00304115493781865,-0.00242909765802324,-0.0324445106089115,0.0010130659211427,0.0170545224100351
48,-0.0132970614358783,0.00200431072153151,-0.0060547417961061,-0.0326057523488998,-0.00220695463940501,0.0214478224515915
49,-0.012944963760674,0.00883782934397459,-0.00550886802375317,-0.0311515182256699,-0.00329050095751882,0.0296794474124908
50,-0.0112471533939242,0.0140202017500997,-0.00301906652748585,-0.0282261036336422,-0.00162126077339053,0.0390651002526283
51,-0.00860211998224258,0.0162032693624496,-0.000627992441877723,-0.0244189202785492,0.000860488566104323,0.0463417656719685
52,-0.00558191817253828,0.0157950315624475,0.00235446472652256,-0.0219984576106071,0.00289122061803937,0.0487790666520596
53,-0.00324271526187658,0.0145663125440478,0.00602139439433813,-0.0217197239398956,0.0031667142175138,0.0470082946121693
54,-0.0029041871894151,0.0134914964437485,0.00873608980327845,-0.0208800751715899,0.00185156241059303,0.0433348454535007
55,-0.00494900485500693,0.0122059686109424,0.009676368907094,-0.017222061753273,-0.000820272660348564,0.038361132144928
56,-0.00835585873574018,0.0108538717031479,0.00989065039902925,-0.0127699077129364,-0.00603664433583617,0.0322519466280937
57,-0.0117114018648863,0.00995790585875511,0.0105776432901621,-0.010634739883244,-0.0128470715135336,0.0266073066741228
58,-0.0135091096162796,0.0103906719014049,0.0120636634528637,-0.00947369821369648,-0.0173908974975348,0.0243656504899263
59,-0.0131005672737956,0.01246109418571,0.0140982158482075,-0.00659916270524263,-0.0170902237296104,0.0262973234057426
60,-0.012016368098557,0.0155863678082824,0.0169676896184683,-0.00171741575468332,-0.0144068021327257,0.0308909751474857
61,-0.012368313036859,0.0186305530369282,0.020337913185358,0.00368135143071413,-0.0137397684156895,0.0360450446605682
62,-0.013425069861114,0.0194487813860178,0.0220381282269955,0.00582607556134462,-0.0138465622439981,0.0384407453238964
63,-0.0129165947437286,0.0172907169908285,0.020083487033844,0.00154590490274131,-0.01006168872118,0.037025086581707
64,-0.0117319775745273,0.0152947492897511,0.0145392129197717,-0.00645464332774282,-0.0027821147814393,0.0359283834695816
65,-0.0120952427387238,0.0168430041521788,0.00778374308720231,-0.0121003435924649,0.00435778638347983,0.0393214523792267
66,-0.0137510793283582,0.0204987898468971,0.00334687205031514,-0.0126504609361291,0.00994347222149372,0.0451176352798939
67,-0.0150025328621268,0.0220302473753691,0.00217110477387905,-0.0106661384925246,0.0139372674748302,0.0477126576006413
68,-0.0153421554714441,0.0201475154608488,0.00116660294588655,-0.0102032925933599,0.0147404419258237,0.0455187372863293
69,-0.0158944595605135,0.0183100569993258,-0.00153669936116785,-0.0108863497152925,0.00956377759575844,0.0428280644118786
70,-0.0166239701211452,0.0198527369648218,-0.00324895861558616,-0.00933247711509466,-0.000696770206559449,0.0435278825461864
71,-0.0156559981405735,0.0235423911362886,-0.000577149563468993,-0.00486790295690298,-0.00971004739403725,0.0462655052542686
72,-0.0126264095306396,0.0270501766353846,0.00600907858461142,0.000847968913149089,-0.0130835883319378,0.0483739599585533
73,-0.00987733993679285,0.0309201311320066,0.0131061831489205,0.00657060975208879,-0.0135078774765134,0.0501545332372189
74,-0.00866824388504028,0.0351800434291363,0.0183442309498787,0.010531603358686,-0.0144091760739684,0.0519479773938656
75,-0.00734449084848166,0.0367229841649532,0.0211755931377411,0.0103891175240278,-0.0145878531038761,0.0515077523887157
76,-0.00467900605872273,0.0345893800258636,0.0216257628053427,0.00727928150445223,-0.0116789229214191,0.0488789975643158
77,-0.00213082693517208,0.0319901034235954,0.0201988890767097,0.00551574677228928,-0.00639754487201571,0.0484045185148716
78,-0.00169807684142143,0.0300761796534061,0.0184380114078522,0.00623758230358362,-0.000701098586432636,0.0508411265909672
79,-0.00398789532482624,0.0278505850583315,0.0172422789037228,0.00734170712530613,0.00149708951357752,0.0521262101829052
80,-0.0080054821446538,0.0263830181211233,0.0157566722482443,0.00785669311881065,-0.0037961124908179,0.0513917915523052
81,-0.0111309243366122,0.0264073386788368,0.0128876538947225,0.00749618466943502,-0.0121831260621548,0.0507633090019226
82,-0.0115304356440902,0.0265003498643637,0.00854973495006561,0.00586305977776647,-0.0157278012484312,0.0502519719302654
83,-0.00912303477525711,0.0258329249918461,0.00510935299098492,0.00335391866974533,-0.0118687190115452,0.048703994601965
84,-0.00447424314916134,0.0255120135843754,0.00542831839993596,0.00163240893743932,-0.00346142938360572,0.0463710054755211
85,1.91789240489015E-05,0.0264215916395187,0.00899349711835384,0.00264868466183543,0.00266958307474852,0.0443766750395298
86,0.00207788660191,0.0277195982635021,0.0129877096042037,0.00572077184915543,0.00224376819096506,0.0426758378744125
87,0.00246744090691209,0.0274941585958004,0.0151610150933266,0.00706180650740862,-0.00158287934027612,0.039140660315752
88,0.00253753131255507,0.02541508898139,0.0154799008741975,0.00487156864255667,-0.00436357548460364,0.0335347503423691
89,0.00216492009349167,0.0226588901132345,0.0159807596355677,0.000984860584139824,-0.00499175535514951,0.0284795891493559
90,0.000901009945664555,0.0187059585005045,0.0168272443115711,-0.00343969184905291,-0.00395769393071532,0.0250662118196487
91,-0.000710326596163213,0.0139369089156389,0.0152266342192888,-0.00811550486832857,-0.00201499694958329,0.0244649611413479
92,-0.00253168283961713,0.0108000235632062,0.0105322189629078,-0.0117287589237094,-0.000816850108094513,0.0293900724500418
93,-0.00569980358704925,0.0104023730382323,0.00507614389061928,-0.013043767772615,-0.00178521568886936,0.0391682386398315
94,-0.00943984929472208,0.012321169488132,0.000544078124221414,-0.0121139697730541,-0.00431388011202216,0.0482868514955044
95,-0.0112851168960333,0.0158599223941565,-0.00126308144535869,-0.00972598977386951,-0.00685866409912705,0.051776148378849
96,-0.010871903039515,0.0197264980524778,0.000966105959378183,-0.00767215434461832,-0.00925491563975811,0.0489792004227638
97,-0.0090806083753705,0.0213810950517654,0.00516109075397253,-0.00814574863761663,-0.0118471523746848,0.0420839376747608
98,-0.00653723068535328,0.0192207079380751,0.00854310020804405,-0.0103239454329014,-0.0129685215651989,0.0338864624500275
99,-0.00388650828972459,0.0147367622703314,0.011281356215477,-0.0104208998382092,-0.0111191794276237,0.026522733271122
100,-0.00152204418554902,0.0101778004318476,0.0141891790553927,-0.00734605733305216,-0.00764579745009542,0.020399896427989
101,0.000457885616924614,0.0062743229791522,0.015624888241291,-0.00417584413662553,-0.0042147315107286,0.0152269806712866
102,0.00220419256947935,0.00390848703682423,0.0148343462496996,-0.00232615345157683,-0.000148594612255692,0.0128698833286762
103,0.00247766473330557,0.00429831771180034,0.0136270076036453,-0.000345416076015681,0.00350928027182817,0.0162362884730101
104,-0.000393699709093198,0.00710328062996268,0.0127664022147655,0.00260096974670887,0.00287235504947603,0.0247016940265894
105,-0.00518763856962323,0.0106420731171966,0.0110944611951709,0.0056956266053021,-0.00239141518250108,0.0335674807429314
106,-0.00796436611562967,0.0132777960970998,0.00850452575832605,0.00670538889244199,-0.00665646605193615,0.038371566683054
107,-0.00681703165173531,0.0149266207590699,0.00639709830284119,0.00371828395873308,-0.00594218680635095,0.0390243977308273
108,-0.00457150628790259,0.016689682379365,0.00483076181262732,-0.0021117574069649,-0.00310591119341552,0.0390067994594574
109,-0.00366175267845392,0.0185635797679424,0.0030591506510973,-0.00781536381691694,-0.00134844542481005,0.0401057414710522
110,-0.00363761465996504,0.0196340437978506,0.00146331323776394,-0.0114828497171402,-0.00106925424188375,0.0415534600615501
111,-0.003139803186059,0.0194973647594452,0.00183467660099268,-0.0127515075728297,-0.000750511360820383,0.042261678725481
112,-0.0017918071243912,0.0181100890040398,0.00494236219674349,-0.0131242582574487,0.000285815971437842,0.0410679318010807
113,-0.000869276409503073,0.0163079313933849,0.00938027258962393,-0.0137378256767988,-0.000503571063745767,0.0381629094481468
114,0.000191996005014516,0.0153603050857782,0.0142508875578642,-0.0135438870638609,-0.00265127280727029,0.0341789871454239
115,0.00229530222713947,0.0147323664277792,0.0183046292513609,-0.0118125025182962,-0.00317881139926612,0.0291849784553051
116,0.00292419455945492,0.0125141255557537,0.0196182336658239,-0.00967169087380171,-0.00277613056823611,0.0238243788480759
117,4.96491229569074E-05,0.00846890080720186,0.0180389527231455,-0.00819572154432535,-0.00383684411644936,0.0179970096796751
118,-0.00466322246938944,0.00446674972772598,0.0149452835321426,-0.00663044210523367,-0.00655851326882839,0.0112499231472611
119,-0.00823774747550488,0.00197947258129716,0.0105396928265691,-0.00465570064261556,-0.00931704137474298,0.00486585544422269
120,-0.00869285222142935,0.00209431000985205,0.00447226176038384,-0.00318565871566534,-0.0100730154663324,0.0022578735370189
121,-0.00540039967745543,0.00535103678703308,-0.000834112812299281,-0.00230138818733394,-0.00694461399689317,0.00719470158219337
122,-5.98668630118482E-05,0.00926645845174789,-0.00356566952541471,-0.00217264238744974,-0.00117745681200176,0.018437422811985
123,0.00436322204768658,0.010713241994381,-0.0046120653860271,-0.00272314646281302,0.00377409043721855,0.0293643679469824
124,0.00720492843538523,0.0104845846071839,-0.00325224734842777,-0.0018980581080541,0.00692781805992126,0.0356635451316834
125,0.00968887470662594,0.0106258504092693,0.00196591555140913,0.00153608981054276,0.00890974514186382,0.0365923792123795
126,0.0115690138190985,0.0099407359957695,0.00916728377342224,0.00496035534888506,0.00957003235816956,0.0315435528755188
127,0.0117623331025243,0.00758929690346122,0.0151516841724515,0.00544997164979577,0.00872504897415638,0.0236898194998503
128,0.0101721463724971,0.00577677274122834,0.0182256586849689,0.00291375117376447,0.00620407005771995,0.0193889830261469
129,0.00676470901817083,0.00541903031989932,0.0177267920225859,-0.00219665328040719,0.00147851416841149,0.0201827064156532
130,0.00266953953541815,0.00534985074773431,0.0145803261548281,-0.00845539849251509,-0.00433610286563635,0.0227659791707993
131,0.000501405040267855,0.00515072792768478,0.0114192524924874,-0.0124773597344756,-0.00844796560704708,0.0247821193188429
132,0.000898254103958607,0.00520043214783072,0.0106044309213758,-0.0123759349808097,-0.00982160493731499,0.0261355377733707
133,0.00204720278270543,0.00526078650727868,0.0126982852816582,-0.00976480729877949,-0.00934753753244877,0.0265241786837578
134,0.00179414439480752,0.00424742605537176,0.0165308807045221,-0.00763368792831898,-0.00857280287891626,0.0245330054312944
135,-0.000847840623464435,0.00148418801836669,0.0193064343184233,-0.00724161742255092,-0.00943437684327364,0.0195589251816273
136,-0.00321364286355674,-0.00234519271180034,0.0191183872520924,-0.00727243395522237,-0.0100276255980134,0.013038469478488
137,-0.00176260492298752,-0.00584549177438021,0.0170364156365395,-0.00623969547450542,-0.0063170101493597,0.00692245317623019
138,0.00191537837963551,-0.00790841039270163,0.0145073980093002,-0.00414916500449181,0.000936018885113299,0.00267307413741946
139,0.00410453416407108,-0.00780186615884304,0.0119444709271193,-0.0019056930905208,0.00785216130316257,0.0018538647564128
140,0.00385160511359572,-0.0056656333617866,0.00923053175210953,-0.000584499619435519,0.0106892334297299,0.00493700616061687
141,0.00158086395822465,-0.00244026375003159,0.00564418686553836,-0.000966941122896969,0.00679025473073125,0.0104846907779574
142,-0.00172169040888548,0.00147696980275214,0.00112256803549826,-0.00288530415855348,-0.00173066055867821,0.0164098534733057
143,-0.00403820164501667,0.00619296496734023,-0.00246571283787489,-0.00417319545522332,-0.00831579603254795,0.0221638064831495
144,-0.00407350668683648,0.0105090076103807,-0.00343445246107876,-0.00316157657653093,-0.00993704050779343,0.0276095420122147
145,-0.00218725414015353,0.0115065649151802,-0.00177981692831963,-0.00215123733505607,-0.00901306327432394,0.0295934770256281
146,3.47145796695258E-05,0.00777343288064003,0.00150210433639586,-0.00422812346369028,-0.0081803547218442,0.0258332788944244
147,0.000794871593825519,0.00190478703007102,0.00467530218884349,-0.00824157800525427,-0.00905160792171955,0.019797446206212
148,-0.000450467894552276,-0.0017317293677479,0.00636820355430245,-0.0109345931559801,-0.0134132001549006,0.0169268772006035
149,-0.00219485792331398,-0.001860675169155,0.00746819982305169,-0.0124258799478412,-0.0194571260362864,0.0173357017338276
150,-0.00232384423725307,-0.00117933773435652,0.00969552528113127,-0.013908832333982,-0.0207796096801758,0.0165019687265158
151,-0.00159389374312013,-0.00138495792634785,0.0112624214962125,-0.0134288724511862,-0.0177658628672361,0.0135825388133526
152,-0.00117162603419274,-0.00136507058050483,0.0102772442623973,-0.00983226951211691,-0.0165964979678392,0.0111088333651423
153,1.8691325749387E-05,-0.000753694155719131,0.00836321711540222,-0.00510248355567455,-0.017348125576973,0.00921758636832237
154,0.00108581804670393,-0.00154894532170147,0.00535055249929428,-0.00219329027459025,-0.0180243030190468,0.00663449242711067
155,0.000895912584383041,-0.00464084278792143,0.000826085510198027,-0.00218093232251704,-0.0176158640533686,0.00381034193560481
156,0.00106657284777611,-0.00757498200982809,-0.0026374920271337,-0.00345598557032645,-0.0139128621667624,0.00229454413056374
157,0.00193047022912651,-0.00758300116285682,-0.00426549324765801,-0.00504295714199543,-0.00825590081512928,0.00177925347816199
158,0.00277692824602127,-0.00424409518018365,-0.00470711151137948,-0.00607334030792117,-0.00396969029679894,0.00119754893239588
159,0.00407643243670464,0.000672559079248458,-0.00344460341148078,-0.00508148223161697,-0.00148077157791704,0.00123436842113733
160,0.00561188207939267,0.00544507941231132,-0.000914466101676226,-0.00218733190558851,-0.00124601041898131,0.00322551745921373
161,0.00573466857895255,0.00876973103731871,0.00222716410644352,0.00089291128097102,-0.00408779643476009,0.00714773405343294
162,0.00394667498767376,0.00941319111734629,0.0064092855900526,0.0025867645163089,-0.00815788470208645,0.0117238136008382
163,0.00255158985964954,0.00836539920419455,0.0109320124611259,0.00324933486990631,-0.0100838532671332,0.0159596391022205
164,0.00271323369815946,0.00679137883707881,0.014055360108614,0.00315119582228363,-0.00813226401805878,0.0180007461458445
165,0.00244078645482659,0.00458168191835284,0.0145624382421374,0.00103780592326075,-0.00516426889225841,0.0161945801228285
166,0.000286490074358881,0.00243989238515496,0.0116698890924454,-0.00357951293699443,-0.00601859111338854,0.0122293280437589
167,-0.00296331103891134,0.000694409478455782,0.00612742640078068,-0.00971096102148294,-0.0109162200242281,0.00852894224226475
168,-0.00530001800507307,-0.000613995536696166,0.000680945115163922,-0.0152485258877277,-0.0160164963454008,0.0052635152824223
169,-0.00517201470211148,-0.00175725284498185,-0.00253840861842036,-0.0184183288365602,-0.0181018374860287,0.000848539988510311
170,-0.0028243837878108,-0.00387914478778839,-0.00309459469281137,-0.0184855926781893,-0.015383617952466,-0.00530586391687393
171,0.00108122394885868,-0.00609063915908337,-0.00135186000261456,-0.0151355983689427,-0.00741525972262025,-0.0102972192689776
172,0.00593401957303286,-0.00647808844223619,0.00172343221493065,-0.00960973370820284,0.00316781969740987,-0.0102167874574661
173,0.00970887392759323,-0.00554380286484957,0.00486531062051654,-0.00428863847628236,0.01160594727844,-0.00512641901150346
174,0.0112459370866418,-0.00453936494886875,0.00745345652103424,-0.00106127641629428,0.0152773195877671,0.00112876540515572
175,0.0118495337665081,-0.00336296856403351,0.00976061075925827,-0.00036663023638539,0.0156844239681959,0.0059661827981472
176,0.0125275710597634,-0.00176427303813398,0.0116753848269582,-0.00151532189920545,0.0157513990998268,0.00901232473552227
177,0.0128437392413616,0.000679772812873125,0.0125243114307523,-0.00341174029745162,0.0151130640879273,0.0110437031835318
178,0.0122745158150792,0.00451948074623942,0.0121029308065772,-0.00420618988573551,0.0115412073209882,0.0135348243638873
179,0.0107421604916453,0.00834098178893328,0.0102447783574462,-0.00351639185100794,0.00587205728515983,0.0151913417503238
180,0.00879027973860502,0.0100249396637082,0.00725204031914473,-0.00297664455138147,0.00119787757284939,0.0127647621557117
181,0.00776407495141029,0.00920826848596334,0.00576767697930336,-0.00229873927310109,0.000577685423195362,0.00615611625835299
182,0.00814404711127281,0.006932373624295,0.0076671689748764,0.000208254015888087,0.00354574108496308,-0.000676813069730997
183,0.0091877831146121,0.00508067570626736,0.0103742517530918,0.00422508455812931,0.00561263086274266,-0.0026068976148963
184,0.0108867855742574,0.00532124564051628,0.0109209911897779,0.00776903005316854,0.00617624586448073,0.00183093163650483
185,0.0136751215904951,0.00741841224953532,0.0100682303309441,0.00920531433075666,0.00879712123423815,0.00888403691351414
186,0.0165308434516191,0.00874778907746077,0.00979232881218195,0.00768408877775073,0.0134262191131711,0.0132315112277865
187,0.0176232028752565,0.00718175852671266,0.0103438422083855,0.00373021909035742,0.016541063785553,0.0121565377339721
188,0.0155649650841951,0.00328210764564574,0.00975400488823652,-0.00142399431206286,0.0153580205515027,0.00671492051333189
189,0.0099268602207303,-0.000537034356966615,0.00539594423025846,-0.00703098112717271,0.0100746350362897,0.000816659012343735
190,0.00299723958596587,-0.00111005920916796,-0.00116221467033029,-0.0107513573020697,0.00469887908548117,-0.000772531726397574
191,-0.00166821118909866,0.00187775469385087,-0.00587905803695321,-0.0109005169942975,0.000786546152085066,0.00345272803679109
192,-0.00254314695484936,0.00476112356409431,-0.00759551301598549,-0.00947747565805912,-0.00498110754415393,0.0103849750012159
193,0.000435937196016312,0.00471021654084325,-0.0058415150269866,-0.00816002860665321,-0.0110835656523705,0.0154291447252035
194,0.00635936157777905,0.00231842766515911,-0.000882275751791894,-0.00683419639244676,-0.0106140114367008,0.0160814486443996
195,0.0127188405022025,-0.000952427973970771,0.00430820276960731,-0.00619777804240584,-0.00236901105381548,0.0125058246776462
196,0.0169017184525728,-0.00391724705696106,0.00711868051439524,-0.00648058345541358,0.00732692983001471,0.00708293402567506
197,0.0176449250429869,-0.00541767012327909,0.0069509781897068,-0.00665157847106457,0.013250594958663,0.00345912831835449
198,0.014940126799047,-0.00555665651336312,0.00446704775094986,-0.00654637673869729,0.0139472428709269,0.00317297270521522
199,0.00970131158828735,-0.00516763888299465,0.00149419670924544,-0.00627655256539583,0.00962088815867901,0.00485410913825035
200,0.00346244196407497,-0.00483974115923047,-0.000331429066136479,-0.00527339847758412,0.00286958832293749,0.00638754339888692
201,-0.00180254341103137,-0.00512857688590884,-0.00098426837939769,-0.00368235656060278,-0.00251568946987391,0.00584692088887095
202,-0.00456247245892882,-0.00593359675258398,-0.00128224072977901,-0.0030782874673605,-0.00449733901768923,0.00323286489583552
203,-0.00449302047491074,-0.00595416920259595,-0.00177071301732212,-0.00429887045174837,-0.00306309480220079,0.00169666076544672
204,-0.00290703237988055,-0.00483377184718847,-0.00225372053682804,-0.00601815199479461,0.000563286303076893,0.00289762718603015
205,-0.00172088970430195,-0.0040331557393074,-0.00203503831289709,-0.0062956428155303,0.00420382525771856,0.00491106323897839
206,-0.00024377579393331,-0.00393887609243393,-0.000338762154569849,-0.00399385625496507,0.00703898025676608,0.00631591863930225
207,0.00258338451385498,-0.00413988716900349,0.00240149581804872,-0.000696830218657851,0.00901761464774609,0.00598709285259247
208,0.00487276399508119,-0.004862607922405,0.00483952090144157,0.000365602754754946,0.00903478171676397,0.00289211212657392
209,0.00471676047891378,-0.00586410239338875,0.00584847806021571,-0.00142841855995357,0.00650562113150954,-0.00124297197908163
210,0.00244116806425154,-0.00543291121721268,0.00445107882842422,-0.00370927201583982,0.00155305687803775,-0.0020252198446542
211,0.000282419583527371,-0.00176169897895306,0.00137019378598779,-0.00420873379334807,-0.00375688285566866,0.00300152762793005
212,-0.000117502786451951,0.00429216818884015,-0.00173711567185819,-0.00317141902633011,-0.0062796208076179,0.0109894517809153
213,0.000701862620189786,0.0101522821933031,-0.00366692198440433,-0.00235834578052163,-0.00608227774500847,0.0177212599664927
214,0.00228503439575434,0.0136857843026519,-0.00301740504801273,-0.00294226314872503,-0.0041847238317132,0.0202734544873238
215,0.0033863668795675,0.014069608412683,0.000204321098863147,-0.00421988125890493,-0.00295449141412973,0.0179224982857704
216,0.00247000833041966,0.0119637083262205,0.00424566399306059,-0.0044127618893981,-0.00504282908514142,0.0123347882181406
217,0.000985211227089167,0.00859305635094643,0.00797230843454599,-0.00326013937592506,-0.0068225460126996,0.00485155638307333
218,7.95457090134732E-05,0.00423392094671726,0.0107379769906402,-0.00274051981978118,-0.00555528420954943,-0.00419019209221005
219,-0.00161974295042455,-0.00106554117519408,0.0113436495885253,-0.00433269282802939,-0.00446869898587465,-0.0131708392873406
220,-0.00408122735098004,-0.00458085210993886,0.0101307751610875,-0.00518752215430141,-0.0052808322943747,-0.017693193629384
221,-0.00539793074131012,-0.00419879099354148,0.00873135961592197,-0.0019783794414252,-0.00580470636487007,-0.016154995188117
222,-0.00532496580854058,-0.00225349981337786,0.00728573277592659,0.00375020527280867,-0.00426864484325051,-0.013328043743968
223,-0.00448149209842086,-0.00157744775060564,0.00612940080463886,0.00919718574732542,-0.00142330233938992,-0.0136369671672583
224,-0.00329384789802134,-0.00278814835473895,0.00632479647174478,0.0128613589331508,0.000246754585532472,-0.0171085633337498
225,-0.00252285553142428,-0.00477065471932292,0.00763674220070243,0.013722418807447,-0.000909970898646861,-0.0205818954855204
226,-0.00211489666253328,-0.00559597462415695,0.0085698151960969,0.0119615150615573,-0.00333317532204092,-0.019975233823061
227,-0.00182002119254321,-0.00486284727230668,0.00725375907495618,0.00839535985141993,-0.00497303623706102,-0.0147519716992974
228,-0.00180122116580606,-0.00349071412347257,0.00354664702899754,0.00385058484971523,-0.00574538530781865,-0.00776066351681948
229,-0.00212276936508715,-0.00158540322445333,-0.00053766299970448,0.000151262356666848,-0.00641038361936808,-0.000633811869192868
230,-0.00240587908774614,0.00082925270544365,-0.0030437873210758,-0.000970524677541107,-0.00633054180070758,0.00577592570334673
231,-0.00227819732390344,0.00246531725861132,-0.00366067630238831,-0.000571064010728151,-0.00453640334308147,0.00913496036082506
232,-0.00152590614743531,0.00328343291766942,-0.00309483567252755,9.87703629107273E-07,-0.00213878089562058,0.00825974717736244
233,0.000554364814888686,0.00521750235930085,-0.00102023349609226,0.00211358908563852,0.000895240227691829,0.00461117038503289
234,0.00344756222330034,0.00797735154628754,0.00259301112964749,0.00597367435693741,0.00481455773115158,0.000112134774099104
235,0.0045158052816987,0.00983462110161781,0.00575748085975647,0.00945348106324673,0.0059472918510437,-0.00331395049579442
236,0.00198410102166235,0.0110420854762197,0.0073842890560627,0.011377583257854,0.00132464710623026,-0.00471460074186325
237,-0.00334166805259883,0.0116208111867309,0.00825021229684353,0.0112616280093789,-0.00739903328940272,-0.00566333904862404
238,-0.00876177567988634,0.0100144762545824,0.00914910063147545,0.00842981785535812,-0.0166567899286747,-0.00802881550043821
239,-0.0113747799769044,0.00564738130196929,0.0100968312472105,0.00313125015236437,-0.0235006995499134,-0.0118272826075554
240,-0.0101747717708349,0.000738014350645244,0.0105057042092085,-0.00223580421879888,-0.0258582588285208,-0.0151347834616899
241,-0.00702255917713046,-0.00191740144509822,0.00942064449191093,-0.00440550316125155,-0.0239968337118626,-0.0153656722977757
242,-0.00440403586253524,-0.00170722184702754,0.0067918598651886,-0.00164067058358341,-0.0198380760848522,-0.0118503766134381
243,-0.00197475752793252,-0.000163324220920913,0.00474408082664013,0.00433782720938325,-0.0131283272057772,-0.00734920147806406
244,0.000583421904593706,0.000299982348224148,0.00429734494537115,0.00937012489885092,-0.00411487370729446,-0.00506965583190322
245,0.000980592449195683,-0.00138252833858132,0.00363415479660034,0.0105770314112306,0.00385795487090945,-0.0055494480766356
246,-0.00165549013763666,-0.00336138065904379,0.00181077572051436,0.00835336372256279,0.00787792541086674,-0.00753306038677692
247,-0.00470343977212906,-0.00261682830750942,0.00043000336154364,0.00613076239824295,0.00861938297748566,-0.0085256565362215
248,-0.0051506687887013,0.000966742285527289,0.000605278182774782,0.0064106578938663,0.00917290709912777,-0.00669727474451065
249,-0.00309247546829283,0.00475031975656748,0.00111751689109951,0.00907055102288723,0.0106944590806961,-0.00261143501847982
250,-0.000966606137808412,0.00714399060234427,0.000523326511029154,0.0129067916423082,0.0120425662025809,0.00191039068158716
251,-0.00043685597484,0.00888535380363464,3.49218025803566E-05,0.0165406744927168,0.0115410704165697,0.00557024078443646
252,-0.00193976145237684,0.0109246438369155,0.00229006842710078,0.0193170104175806,0.00728629529476166,0.00857688020914793
253,-0.00501199997961521,0.0131841767579317,0.00687370682135224,0.0208742339164019,-0.0011206844355911,0.0115948095917702
254,-0.0080259945243597,0.0146774323657155,0.0105182249099016,0.0204397086054087,-0.0113800680264831,0.0133921187371016
255,-0.00964724272489548,0.0137797081843019,0.0113664623349905,0.0172183867543936,-0.0205518193542957,0.0117872161790729
256,-0.0100571922957897,0.0104194218292832,0.00981942564249039,0.0117857847362757,-0.0259375888854265,0.00752949342131615
257,-0.00977953989058733,0.00671398360282183,0.00667921034619212,0.0063169957138598,-0.0242580845952034,0.00393765000626445
258,-0.00849529448896647,0.00432312209159136,0.0022814548574388,0.00215207389555871,-0.0155503079295158,0.0019385467749089
259,-0.00602597324177623,0.00385289988480508,-0.00280460226349533,-0.000804008857812732,-0.00474772043526173,6.26908076810651E-05
260,-0.00314280553720891,0.00506660947576165,-0.0065867742523551,-0.00278190965764225,0.00492873601615429,-0.00117705878801644
261,-0.000799612374976277,0.00568331824615598,-0.00787142012268305,-0.00478532537817955,0.0133597841486335,-0.00127437547780573
262,-0.000656659598462284,0.00423194980248809,-0.00850956421345472,-0.00691028451547027,0.0158681068569422,-0.000687687541358173
263,-0.00360384257510304,0.00206915102899075,-0.00988360494375229,-0.00729159964248538,0.00797374453395605,0.000916257500648499
264,-0.00735277542844415,0.00073046114994213,-0.0104187121614814,-0.0056464858353138,-0.00421381462365389,0.00295640318654478
265,-0.00953230913728476,0.000872077769599855,-0.00919999647885561,-0.00335493846796453,-0.012908804230392,0.00524477148428559
266,-0.00926404912024736,0.00182837306056172,-0.0077754664234817,-0.000953701790422201,-0.0166796408593655,0.00751114916056395
267,-0.00632047792896628,0.00175972934812307,-0.00684755807742476,0.00171336310449988,-0.0156054859980941,0.0076124113984406
268,-0.00206026271916926,-6.95563867338933E-05,-0.00486809434369206,0.00462858704850078,-0.00988362170755863,0.00485107954591513
269,0.00116738385986537,-0.0029638756532222,-0.000690786459017545,0.00690879579633474,-0.00386352930217981,0.000684161321260035
270,0.00194116483908147,-0.00584862707182765,0.00450572092086077,0.00764128100126982,-0.00340341567061841,-0.00374392489902675
271,0.000368729612091556,-0.00846095196902752,0.00802560616284609,0.00655889511108398,-0.00949407182633877,-0.00869931560009718
272,-0.00224224245175719,-0.0109066208824515,0.00832880102097988,0.0034166791010648,-0.0188587009906769,-0.0145196337252855
273,-0.00406575808301568,-0.0118057811632752,0.0059307892806828,-0.00144878879655153,-0.026705676689744,-0.0195337329059839
274,-0.00381640810519457,-0.0101006217300892,0.00148107984568924,-0.00726118171587586,-0.0283925961703062,-0.0215581115335226
275,-0.00145593599881977,-0.00726509699597955,-0.00430608447641134,-0.012746118940413,-0.0218258779495955,-0.0202706959098578
276,0.00142303190659732,-0.00585435563698411,-0.0102215223014355,-0.0165071431547403,-0.010304743424058,-0.017124542966485
277,0.00327583821490407,-0.00680709350854158,-0.0152422888204455,-0.018933217972517,0.000552170269656926,-0.0145308068022132
278,0.00446552271023393,-0.00891669001430273,-0.0177264511585236,-0.0206157155334949,0.00784143153578043,-0.0138893686234951
279,0.00581618584692478,-0.0106842061504722,-0.016253761947155,-0.0202829204499722,0.0105935530737042,-0.0137783316895366
280,0.00701922550797462,-0.0115267261862755,-0.011794869787991,-0.0173275861889124,0.00948949530720711,-0.0121075920760632
281,0.00736632710322738,-0.0114621743559837,-0.0060942592099309,-0.0134099926799536,0.00655512977391481,-0.00869712233543396
282,0.00551502639427781,-0.0109566263854504,-0.00122004561126232,-0.0110450787469745,0.00146196875721216,-0.00496102264150977
283,0.000877659127581865,-0.00972073804587126,0.000515681167598814,-0.0116520551964641,-0.00672525819391012,-0.00271281925961375
284,-0.00423088436946273,-0.00650774175301194,-0.000343604711815715,-0.0135263474658132,-0.0150298122316599,-0.00241264258511364
285,-0.00755390897393227,-0.00239290320314467,-0.00210612057708204,-0.0142319845035672,-0.0201507061719894,-0.00314200134016573
286,-0.0088790450245142,-0.000677649630233645,-0.00416660401970148,-0.0137303164228797,-0.0224641393870115,-0.00449667405337095
287,-0.0083761690184474,-0.002294642617926,-0.00502219330519438,-0.0129236439242959,-0.0237197708338499,-0.00610045855864882
288,-0.00626814877614379,-0.00529820751398802,-0.00363247259519994,-0.0124432286247611,-0.0243840161710978,-0.00775741226971149
289,-0.00330791971646249,-0.00789125449955463,-0.00206913542933762,-0.0124308494850993,-0.0234223026782274,-0.0103784631937742
290,-0.000115905662823934,-0.00908163189888,-0.00301113515160978,-0.0125219281762838,-0.0190936215221882,-0.0135973179712892
291,0.00302125886082649,-0.008580407127738,-0.00592455267906189,-0.0121018709614873,-0.0107920691370964,-0.0155135309323668
292,0.00489268498495221,-0.0072435736656189,-0.00890996959060431,-0.0110931778326631,-0.00129370926879346,-0.0158541537821293
293,0.00460233120247722,-0.00628184201195836,-0.0110208764672279,-0.0100463461130857,0.00651339627802372,-0.0160601530224085
294,0.00295160501264036,-0.00561709469184279,-0.0118423942476511,-0.00842502433806658,0.0113526126369834,-0.0159178301692009
295,0.000539011613000184,-0.00468593603000045,-0.0125351920723915,-0.00592613639310002,0.0108094625174999,-0.0146251441910863
296,-0.00189019646495581,-0.00428098952397704,-0.0138575257733464,-0.00460320385172963,0.0059336218982935,-0.014188845641911
297,-0.0038319774903357,-0.00574806099757552,-0.0150016322731972,-0.00664484407752752,0.00102775974664837,-0.0171124450862408
298,-0.00578661449253559,-0.00822083838284016,-0.0150864161550999,-0.0106335040181875,-0.00251593091525137,-0.0223671104758978
299,-0.00809707120060921,-0.00924280378967524,-0.0129001932218671,-0.0133542586117983,-0.00658796215429902,-0.0260117296129465
300,-0.0104551687836647,-0.0083483625203371,-0.00800005812197924,-0.0133163724094629,-0.0130809051916003,-0.0252839829772711
301,-0.0113564310595393,-0.0072453455068171,-0.00208382541313767,-0.0101017830893397,-0.0196669455617666,-0.020983187481761
302,-0.00963085610419512,-0.0071300957351923,0.00219602603465319,-0.0050607961602509,-0.0222377814352512,-0.0164363477379084
303,-0.00612193951383233,-0.00720284599810839,0.00346890860237181,-0.00134976941626519,-0.0211909580975771,-0.0143968351185322
304,-0.00246910564601421,-0.00607913359999657,0.0024004215374589,-0.000991110107861459,-0.0196386426687241,-0.01387077011168
305,0.000561401015147567,-0.0031885236967355,0.000900402781553566,-0.00293049868196249,-0.0176930855959654,-0.0109214838594198
306,0.00261235074140131,0.000582355540245771,-0.000140118281706236,-0.00471079768612981,-0.0147487493231893,-0.00451901974156499
307,0.0037609594874084,0.00397054851055145,-0.00118830928113312,-0.00582727883011103,-0.0115125076845288,0.00200381223112345
308,0.0044329846277833,0.00626628519967198,-0.0029861144721508,-0.00742594758048654,-0.00790337566286325,0.00536912214010954
309,0.00443170592188835,0.00613961601629853,-0.00622956128790975,-0.0105751724913716,-0.00362966884858906,0.00392328063026071
310,0.00374607346020639,0.00307856453582644,-0.0103079350665212,-0.0150823639705777,0.00142921996302903,-0.0018537457799539
311,0.00304734753444791,-0.0010466065723449,-0.0134881995618343,-0.0182283241301775,0.00644270796328783,-0.00855539180338383
312,0.00227164034731686,-0.00367564870975912,-0.0147296404466033,-0.0171586908400059,0.00972458068281412,-0.0123952124267817
313,-5.12026381329633E-05,-0.0038306419737637,-0.0145594999194145,-0.0125794503837824,0.00912589579820633,-0.0129634011536837
314,-0.00403272267431021,-0.00246109580621123,-0.0132069420069456,-0.00758980168029666,0.00245677283965051,-0.0122269941493869
315,-0.00686452444642782,-0.000878166814800352,-0.00936333555728197,-0.00414472399279475,-0.00789783243089914,-0.011080383323133
316,-0.00657441141083837,-2.87483926513232E-05,-0.00402883486822248,-0.00340952142141759,-0.0164843369275332,-0.00979065988212824
317,-0.00383132346905768,-0.0002544482704252,1.3695124835067E-05,-0.00557020539417863,-0.0208888463675976,-0.0088480468839407
318,-0.000235954401432537,-0.00121211796067655,0.00246939971111715,-0.00808745995163918,-0.0212392751127481,-0.00843284092843533
319,0.00215681665576994,-0.00296108797192574,0.00376531388610601,-0.00864868797361851,-0.0177367366850376,-0.00933767203241587
320,0.00296503910794854,-0.0049145664088428,0.0046647503040731,-0.00713810557499528,-0.00955280289053917,-0.0122464187443256
321,0.00317635503597558,-0.00554480357095599,0.00544178392738104,-0.00528205325827003,0.00116936943959445,-0.015833668410778
322,0.00243585323914886,-0.00526272458955646,0.00374895334243774,-0.00603360030800104,0.00815096963196993,-0.0188259314745665
323,0.000318972626700997,-0.00663129100576043,-0.0023693076800555,-0.0115420501679182,0.00822287146002054,-0.0226462557911873
324,-0.00259124394506216,-0.0101159466430545,-0.0115267653018236,-0.020097566768527,0.00271887029521167,-0.0277615301311016
325,-0.00534298038110137,-0.0125486720353365,-0.0190407522022724,-0.0258307978510857,-0.00553671410307288,-0.0304700341075659
326,-0.00676428899168968,-0.0121178925037384,-0.021232919767499,-0.02626783400774,-0.0123741673305631,-0.0286832936108112
327,-0.00651916908100247,-0.01054990850389,-0.0191712994128466,-0.0245793834328651,-0.0140227619558573,-0.024684390053153
328,-0.00544716697186232,-0.00964550580829382,-0.0160404201596975,-0.0227101799100637,-0.0114815682172775,-0.0205230172723532
329,-0.00394656090065837,-0.0090637281537056,-0.0137686878442764,-0.0196596179157496,-0.00951112527400255,-0.0170666109770536
330,-0.00251371040940285,-0.00796832237392664,-0.0123510016128421,-0.0147761916741729,-0.00904478412121534,-0.0147228986024857
331,-0.00241384096443653,-0.00678493361920118,-0.010727564804256,-0.00993778556585312,-0.00780058512464166,-0.0128836669027805
332,-0.00392592791467905,-0.00544923823326826,-0.00814765505492687,-0.00743032619357109,-0.00773519789800048,-0.0111571652814746
333,-0.00584033038467169,-0.00356586161069572,-0.00514787156134844,-0.00712381536141038,-0.0112993912771344,-0.010761609300971
334,-0.00704197818413377,-0.00322200381197035,-0.0033511056099087,-0.00887251738458872,-0.0154413478448987,-0.0137309785932302
335,-0.00735746184363961,-0.00625740643590689,-0.00379486498422921,-0.0133440103381872,-0.0171055588871241,-0.0194124430418015
336,-0.00661408994346857,-0.0107653765007854,-0.00588837219402194,-0.0190151892602444,-0.0160610899329185,-0.0237355958670378
337,-0.00405163457617164,-0.0134493783116341,-0.00739809311926365,-0.0224934630095959,-0.0115880835801363,-0.0237617511302233
338,-0.000119102995085996,-0.0128401862457395,-0.00723116705194116,-0.0220544338226318,-0.00482812849804759,-0.0197700578719378
339,0.00338025274686515,-0.0103132147341967,-0.00710029480978847,-0.0192429181188345,0.000470713595859706,-0.0138515895232558
340,0.00566208595409989,-0.00869595911353827,-0.0082601560279727,-0.0167639534920454,0.00326793896965683,-0.00919002387672663
341,0.00724704470485449,-0.00914569571614265,-0.00960515160113573,-0.0152324251830578,0.00500677805393934,-0.00844489317387342
342,0.00884018279612064,-0.0108027365058661,-0.00996263232082129,-0.0142265716567636,0.00525572150945663,-0.011935974471271
343,0.00972752552479506,-0.0121519174426794,-0.00977103970944881,-0.0137313054874539,0.00233475863933563,-0.0165014155209064
344,0.00878657307475805,-0.0119093973189592,-0.008757040835917,-0.013181496411562,-0.00215432979166508,-0.0181289426982403
345,0.00730241183191538,-0.01053805090487,-0.00639064144343138,-0.0135334236547351,-0.00417201267555356,-0.0177721716463566
346,0.00710793677717447,-0.00943981017917395,-0.00495250802487135,-0.0163731463253498,-0.00239688297733665,-0.0183903407305479
347,0.00781146716326475,-0.00958035700023174,-0.00683042732998729,-0.021129734814167,0.00139423669315875,-0.0201235115528107
348,0.00867593009024858,-0.0107371127232909,-0.0106357363983989,-0.0254894066601992,0.00526596698909998,-0.0219106525182724
349,0.00998998247087002,-0.0125393560156226,-0.0130088636651635,-0.0276516396552324,0.00866350531578064,-0.0238155499100685
350,0.0113399559631944,-0.0148342540487647,-0.0120809366926551,-0.0274655390530825,0.0101289274170995,-0.0265756081789732
351,0.011524885892868,-0.0162117276340723,-0.00886048469692469,-0.0250029247254133,0.00782109331339598,-0.0294679272919893
352,0.0104113407433033,-0.0159375574439764,-0.0059964507818222,-0.0210829395800829,0.00321815954521298,-0.0317310951650143
353,0.009602933190763,-0.0140902912244201,-0.00395925808697939,-0.0169931072741747,0.000215830586967058,-0.0326676331460476
354,0.0102127492427826,-0.0105597283691168,-0.00122012558858842,-0.0129496986046433,0.00132140272762626,-0.0306566711515188
355,0.0108954040333629,-0.00670715235173702,0.00129505444783717,-0.00954350177198648,0.00420432258397341,-0.0258709024637938
356,0.0102664846926928,-0.00478152092546225,0.000908370013348758,-0.00923767779022455,0.00523123890161514,-0.0209041237831116
357,0.00938372779637575,-0.00429056026041508,-0.00278126914054155,-0.0131623279303312,0.00520319398492575,-0.0170523915439844
358,0.00970910675823689,-0.00279242778196931,-0.00745003717020154,-0.0189104955643415,0.00570269115269184,-0.0133082456886768
359,0.0105748465284705,-0.00122293783351779,-0.0112796016037464,-0.0241793021559715,0.00518587557598948,-0.0101947961375117
360,0.0108088105916977,-0.00206175097264349,-0.0138958711177111,-0.0274834837764502,0.00339111848734319,-0.0100881978869438
361,0.0107105812057853,-0.00515246577560902,-0.0152525920420885,-0.0286850221455097,0.00188850937411189,-0.0146972835063934
362,0.0107000377029181,-0.00887110456824303,-0.0170054491609335,-0.0305171012878418,-0.000343831576174125,-0.0225530788302422
363,0.0100620351731777,-0.0114314220845699,-0.0201122742146254,-0.0341455079615116,-0.00477716838940978,-0.0285895280539989
364,0.00830184482038021,-0.0122830960899591,-0.0220593418926001,-0.0377443134784698,-0.0099188880994916,-0.0298650320619345
365,0.00643071858212352,-0.012502652592957,-0.0208775158971548,-0.0397027730941772,-0.0142817003652453,-0.0283016469329596
366,0.00558082619681954,-0.0131301302462816,-0.0179641507565975,-0.0399384424090385,-0.0188273452222347,-0.0273525658994913
367,0.00531183229759336,-0.0135224610567093,-0.0161534119397402,-0.0388721711933613,-0.0247708521783352,-0.0277659315615892
368,0.00474224705249071,-0.0121599826961756,-0.0174290128052235,-0.036754447966814,-0.0311683230102062,-0.0272895097732544
369,0.00417030556127429,-0.0093514584004879,-0.0220069363713264,-0.0350614227354527,-0.034763041883707,-0.0254140142351389
370,0.00392733933404088,-0.00676753651350737,-0.0290111601352692,-0.0360543616116047,-0.0348075553774834,-0.0248771272599697
371,0.0037961034104228,-0.00523394159972668,-0.0362461060285568,-0.0394245944917202,-0.0341793708503246,-0.0280923172831535
372,0.00385777209885418,-0.0052415351383388,-0.0411888137459755,-0.0431854650378227,-0.0346555188298225,-0.0354722328484058
373,0.0044474950991571,-0.00731794023886323,-0.043641272932291,-0.0476861037313938,-0.0359533131122589,-0.0458729602396488
374,0.00524157332256436,-0.0100648682564497,-0.0454393066465855,-0.0532930232584476,-0.0382491946220398,-0.055279515683651
375,0.00522051844745874,-0.0112136984243989,-0.0486942380666733,-0.0582497976720333,-0.0437877364456654,-0.0595230609178543
376,0.00465806340798736,-0.0111506879329681,-0.0534795261919498,-0.0626543834805489,-0.052075631916523,-0.0602674633264542
377,0.00480205332860351,-0.011933627538383,-0.0577385127544403,-0.0686604753136635,-0.058696310967207,-0.0627688765525818
378,0.00494998972862959,-0.0131036061793566,-0.0604591928422451,-0.0751527324318886,-0.0640320926904678,-0.0673007518053055
379,0.00393770495429635,-0.0124137876555324,-0.0619970671832561,-0.0779374018311501,-0.0718401074409485,-0.0695618093013763
380,0.00291191996075213,-0.00997299887239933,-0.0619527734816074,-0.0755216330289841,-0.0803577452898026,-0.0688907951116562
381,0.00256423186510801,-0.0078429477289319,-0.0602920353412628,-0.0701557695865631,-0.0860864296555519,-0.0682239830493927
382,0.00246877153404057,-0.00779472570866346,-0.0581847466528416,-0.0658415481448174,-0.0883197486400604,-0.0704192221164703
383,0.00342928571626544,-0.0105822570621967,-0.057042308151722,-0.0668885633349419,-0.0880122855305672,-0.0782575085759163
384,0.00551124382764101,-0.0143525646999478,-0.0582115910947323,-0.0734773501753807,-0.0887622237205505,-0.091459795832634
385,0.00716930069029331,-0.0159618444740772,-0.0611328333616257,-0.0813551470637321,-0.093548595905304,-0.10578116774559
386,0.00845710653811693,-0.0142115782946348,-0.0630861222743988,-0.0863094255328178,-0.0999337658286095,-0.116467915475369
387,0.0106172626838088,-0.0101313181221485,-0.0621330142021179,-0.0863043516874313,-0.103068344295025,-0.121125251054764
388,0.012503401376307,-0.00605974905192852,-0.0590724162757397,-0.0829587504267693,-0.10272291302681,-0.121071547269821
389,0.0123125556856394,-0.00358868995681405,-0.0555775314569473,-0.079153798520565,-0.102778926491737,-0.119277775287628
390,0.0114851044490933,-0.00306570623070002,-0.0525412037968636,-0.0768387466669083,-0.10519627481699,-0.11897711455822
391,0.0119554186239839,-0.00411043409258127,-0.0513375774025917,-0.0769035443663597,-0.108797572553158,-0.121044650673866
392,0.0126446578651667,-0.00575300771743059,-0.0528976023197174,-0.0789468809962273,-0.112888030707836,-0.123744934797287
393,0.0118620600551367,-0.00748054403811693,-0.0561007000505924,-0.0825734212994576,-0.119032174348831,-0.126713678240776
394,0.0102800251916051,-0.00840948242694139,-0.0578339397907257,-0.0851740762591362,-0.12547567486763,-0.129483297467232
395,0.00964561570435762,-0.00845457147806883,-0.0561092719435692,-0.0848203748464584,-0.127020224928856,-0.132970452308655
396,0.00964913330972195,-0.0092319305986166,-0.0540634915232658,-0.0850690975785255,-0.124515570700169,-0.140248939394951
397,0.00901812687516212,-0.0112072043120861,-0.0559353977441788,-0.0899814590811729,-0.123520314693451,-0.151082441210747
398,0.00777497794479132,-0.0131446393206716,-0.0609663017094135,-0.0987974926829338,-0.124948255717754,-0.161456376314163
399,0.00629904447123408,-0.0140036726370454,-0.0656904578208923,-0.107159502804279,-0.125320121645927,-0.167542606592178
400,0.00486415345221758,-0.0140967592597008,-0.0690997540950775,-0.112285576760769,-0.123921871185303,-0.16865648329258
401,0.00406738137826324,-0.0133415255695581,-0.0724750980734825,-0.11424558609724,-0.124287538230419,-0.166149914264679
402,0.00421579740941525,-0.0116840302944183,-0.075896143913269,-0.114451467990875,-0.127438008785248,-0.163195431232452
403,0.00517077371478081,-0.01087527256459,-0.0778113231062889,-0.114994205534458,-0.129929631948471,-0.163397952914238
404,0.00705607421696186,-0.0115673337131739,-0.0771685466170311,-0.115718610584736,-0.128916442394257,-0.16622631251812
405,0.00936727784574032,-0.0123413586989045,-0.0745886266231537,-0.114969924092293,-0.126087054610252,-0.168297275900841
406,0.011373607441783,-0.0120682688429952,-0.07109335064888,-0.112979337573051,-0.124617055058479,-0.167659223079681
407,0.0134725645184517,-0.0116497054696083,-0.0670567080378532,-0.111123993992805,-0.12288523465395,-0.165923953056335
408,0.0146648185327649,-0.0130595266819,-0.0642881765961647,-0.110038295388222,-0.120231755077839,-0.165718510746956
409,0.0125101739540696,-0.0157322715967894,-0.0645836591720581,-0.10843338817358,-0.120883978903294,-0.166751086711884
410,0.00808541383594275,-0.01643374748528,-0.06607636064291,-0.104212403297424,-0.124177113175392,-0.166227474808693
411,0.00507384911179543,-0.0134206591174006,-0.0653660520911217,-0.0973785743117332,-0.123988337814808,-0.161236122250557
412,0.00459631904959679,-0.00893939007073641,-0.0621070563793182,-0.0909895524382591,-0.119065821170807,-0.152543038129807
413,0.00666833575814962,-0.00668798200786114,-0.0582591034471989,-0.0880262926220894,-0.111265145242214,-0.144376501441002
414,0.0112218055874109,-0.00751496199518442,-0.0545531585812569,-0.0874477028846741,-0.10097898542881,-0.139112383127213
415,0.0158095043152571,-0.00914514996111393,-0.0506269633769989,-0.0852671563625336,-0.0923946276307106,-0.13582569360733
416,0.0180493947118521,-0.00965081248432398,-0.0456138364970684,-0.0789408087730408,-0.0898666679859161,-0.131862685084343
417,0.0182377118617296,-0.00915546249598265,-0.0390261076390743,-0.069960318505764,-0.0893186703324318,-0.125066176056862
418,0.0176617410033941,-0.00816857535392046,-0.0333309546113014,-0.0628525391221046,-0.0841559842228889,-0.115759178996086
419,0.0170141104608774,-0.00660596089437604,-0.0326219163835049,-0.0613257475197315,-0.0742392167448998,-0.106006123125553
420,0.0163452420383692,-0.00435157818719745,-0.0364375524222851,-0.0635524466633797,-0.0633463338017464,-0.0975263491272926
421,0.0153840677812696,-0.00144573522266001,-0.0392563343048096,-0.0642207339406013,-0.0547071434557438,-0.0903128758072853
422,0.0137247778475285,0.0019064845982939,-0.038948867470026,-0.0619210228323936,-0.0509502775967121,-0.0837264731526375
423,0.0112058585509658,0.00547748571261764,-0.0381085686385632,-0.058566190302372,-0.0518835373222828,-0.0772613659501076
424,0.00873054843395948,0.00827739480882883,-0.0367973670363426,-0.0557226240634918,-0.0529356598854065,-0.0708672404289246
425,0.00705567374825478,0.00869750417768955,-0.0333019085228443,-0.0534377433359623,-0.0498966909945011,-0.0646344050765038
426,0.00585237424820662,0.00728985900059342,-0.0287680942565203,-0.0485514774918556,-0.0437157824635506,-0.0572959333658218
427,0.00451859133318067,0.00603940756991506,-0.0251430030912161,-0.0388803482055664,-0.0378900244832039,-0.0488208457827568
428,0.00277392170391977,0.00535565381869674,-0.022559717297554,-0.0271666143089533,-0.0333638116717339,-0.0408374853432179
429,0.000838630425278097,0.00443957140669227,-0.020762762054801,-0.0180167835205793,-0.0296098254621029,-0.0338093787431717
430,-0.000763918680604547,0.00388579280115664,-0.0201058369129896,-0.0134056191891432,-0.0266304388642311,-0.0272504687309265
431,-0.00179433636367321,0.00581306358799338,-0.0205584466457367,-0.0106490831822157,-0.0248019453138113,-0.0193389281630516
432,-0.00274369912222028,0.00976711045950651,-0.0209912825375795,-0.00699863489717245,-0.0242143757641315,-0.00893143005669117
433,-0.00362998293712735,0.0131394751369953,-0.0197791680693626,-0.00333970529027283,-0.0229952577501535,0.00225625326856971
434,-0.00346708577126265,0.0148461638018489,-0.0161678791046143,-0.000489316531457007,-0.0181855484843254,0.0127337872982025
435,-0.00154636078514159,0.0149905672296882,-0.0108575625345111,0.00231992430053651,-0.00853919237852097,0.0221344232559204
436,0.00110995140857995,0.0146067459136248,-0.00622078962624073,0.0053405063226819,0.00132240739185363,0.0302670579403639
437,0.00258187600411475,0.0150478351861238,-0.00343832070939243,0.00859564542770386,0.00568516366183758,0.0369429960846901
438,0.00213488633744419,0.0161215309053659,-0.000430551473982632,0.0131065156310797,0.0069581107236445,0.0418368726968765
439,0.000706402468495071,0.017410647124052,0.00410419935360551,0.0203060619533062,0.00932252872735262,0.0460610426962376
440,1.53920245793415E-05,0.0182524882256985,0.00952628906816244,0.0292437467724085,0.0129887126386166,0.0499986298382282
441,0.000378874508896843,0.0173369720578194,0.0150265516713262,0.0366094894707203,0.0176259819418192,0.051954735070467
442,0.000738738046493381,0.015572969801724,0.0187092535197735,0.0402465164661407,0.0226759128272533,0.0524456277489662
443,0.000266901537543163,0.014990946277976,0.0188866630196571,0.0404649749398232,0.0266002714633942,0.0536387898027897
444,-0.00107806036248803,0.01564128883183,0.0168964751064777,0.0395610071718693,0.0287250410765409,0.055500004440546
445,-0.00257167220115662,0.0165092423558235,0.015466327778995,0.0398541465401649,0.030423516407609,0.0568623244762421
446,-0.00440084654837847,0.0174498185515404,0.015016826801002,0.0423069484531879,0.0318822972476482,0.0585481226444244
447,-0.00731800775974989,0.017908463254571,0.0137458527460694,0.0458501130342484,0.0317440330982208,0.0617037937045097
448,-0.00980292819440365,0.0168128255754709,0.0122157400473952,0.048055998980999,0.032499298453331,0.0655308291316032
449,-0.0100560784339905,0.0152973523363471,0.013277305290103,0.0489159971475601,0.0371765941381454,0.0701440051198006
450,-0.00939926039427519,0.0148968929424882,0.0160507168620825,0.0497014187276363,0.0422418676316738,0.0765843391418457
451,-0.00987413991242647,0.0148379513993859,0.016943508759141,0.0499413385987282,0.0436618216335773,0.0843366086483002
452,-0.0109372502192855,0.0143411196768284,0.0152787137776613,0.0491903126239777,0.0434631668031216,0.0913993120193481
453,-0.0106967333704233,0.0139276245608926,0.0132634500041604,0.0482857897877693,0.0448451079428196,0.095795139670372
454,-0.00854915007948875,0.0141264442354441,0.0131293050944805,0.0483534298837185,0.0476699508726597,0.0975936278700829
455,-0.00541281839832664,0.0151692535728216,0.0161566436290741,0.0496310405433178,0.0522555559873581,0.0974447950720787
456,-0.00266494485549629,0.0168152265250683,0.0225372593849897,0.0523713827133179,0.0603517144918442,0.095732294023037
457,-0.000941364327445626,0.018367774784565,0.0301481410861015,0.0576230846345425,0.0698214545845985,0.093883790075779
458,-0.000402050674892962,0.0192940253764391,0.0359173864126205,0.0647259056568146,0.0758168324828148,0.0923962220549583
459,-0.0015404523583129,0.0199314840137959,0.039540022611618,0.0715059340000153,0.0759637281298637,0.0911397486925125
460,-0.00385144213214517,0.0208678524941206,0.042743869125843,0.0767929330468178,0.071777768433094,0.0909682437777519
461,-0.00536193884909153,0.0218966603279114,0.0465255826711655,0.0804784446954727,0.0682379901409149,0.0922129973769188
462,-0.0047556166537106,0.0222584158182144,0.0505771860480309,0.0826663225889206,0.07020653039217,0.0936200022697449
463,-0.0027731959708035,0.0212654825299978,0.0535462349653244,0.083883635699749,0.0778247490525246,0.0933093950152397
464,-0.000358610705006868,0.019126508384943,0.0541319437325001,0.085429310798645,0.0882184058427811,0.0904665812849998
465,0.00237525743432343,0.0171066764742136,0.0525990724563599,0.0880066752433777,0.0973639711737633,0.0860208198428154
466,0.00397406565025449,0.0162375830113888,0.0505839250981808,0.0907570645213127,0.100429244339466,0.0826154723763466
467,0.00299579557031393,0.0157381407916546,0.048798281699419,0.0917254611849785,0.0973905324935913,0.082537941634655
468,0.000862290733493865,0.0145898805931211,0.0462359562516212,0.0900994539260864,0.0924923419952393,0.0861737206578255
469,1.51297990669264E-05,0.0128814913332462,0.0430914722383022,0.0868484750390053,0.0891566276550293,0.0917306393384933
470,0.00151479861233383,0.0111231841146946,0.0423252806067467,0.0834074467420578,0.0896213799715042,0.097089447081089
471,0.0042243436910212,0.00991494115442038,0.0453978665173054,0.0801404640078545,0.0923675894737244,0.101818479597569
472,0.0061851292848587,0.00931568909436464,0.0496679395437241,0.0758021995425224,0.0928217694163322,0.105213604867458
473,0.0065870713442564,0.00908366777002811,0.0524018481373787,0.0706265196204185,0.0896108001470566,0.106591396033764
474,0.005357900634408,0.00899921171367168,0.0526470765471458,0.0672788470983505,0.0859958752989769,0.106884159147739
475,0.00232168054208159,0.00836544390767813,0.0494780354201794,0.0673808231949806,0.0846632048487663,0.106555208563805
476,-0.00210924143902957,0.0072105685248971,0.0442557968199253,0.0709063187241554,0.0850032716989517,0.104828529059887
477,-0.00611193804070354,0.00739185977727175,0.0408389382064343,0.0768678039312363,0.0857861191034317,0.101718947291374
478,-0.00804903265088797,0.00902653764933348,0.0404229536652565,0.0821743533015251,0.0868369415402412,0.0974779725074768
479,-0.00780495489016175,0.00909951888024807,0.0411625318229198,0.0847330093383789,0.0887086540460587,0.0920474454760551
480,-0.00610694801434875,0.00597064336761832,0.0419731549918652,0.0853279680013657,0.0917923152446747,0.0855302959680557
481,-0.00319653726182878,0.00178074068389833,0.0445457249879837,0.0862690880894661,0.0970492586493492,0.0791779607534409
482,0.000776894856244326,-7.13392146280967E-05,0.049913689494133,0.0898372307419777,0.104351386427879,0.0764592364430428
483,0.00417039124295115,0.00137159356381744,0.055015254765749,0.0941668152809143,0.110181294381619,0.0786929503083229
484,0.00545624317601323,0.00517037464305758,0.0572117008268833,0.095050111413002,0.111337170004845,0.0834599584341049
485,0.00489557720720768,0.0108060706406832,0.0572293028235435,0.0920952931046486,0.107483580708504,0.0895116776227951
486,0.00321808969601989,0.0164967868477106,0.0565583966672421,0.0878115966916084,0.0998054593801498,0.0962816774845123
487,0.000994483707472682,0.0193663090467453,0.0567328594624996,0.0842523798346519,0.0898532569408417,0.101136036217213
488,-0.000986571190878749,0.0186225716024637,0.0579398237168789,0.0818784460425377,0.07955551892519,0.101564057171345
489,-0.00208523403853178,0.0152941783890128,0.0577809140086174,0.0788789764046669,0.0738189965486526,0.0974695086479187
490,-0.00230034161359072,0.0113455392420292,0.0546778328716755,0.0740003511309624,0.0781268179416656,0.0922108739614487
491,-0.00228736503049731,0.00981623027473688,0.0499507486820221,0.0696745291352272,0.089345209300518,0.0904939845204353
492,-0.00301667652092874,0.011746539734304,0.0462563149631023,0.0686013102531433,0.0978784635663033,0.0923459678888321
493,-0.00468947691842914,0.0139205008745193,0.045278538018465,0.0691783055663109,0.0988259613513947,0.0929677486419678
494,-0.0061272825114429,0.0125748235732317,0.0463262647390366,0.0674533545970917,0.0944498926401138,0.0889242142438889
495,-0.00603422988206148,0.00774602545425296,0.0478775538504124,0.0627505332231522,0.0898563414812088,0.080987311899662
496,-0.0050105401314795,0.00208908482454717,0.0487106926739216,0.0589461363852024,0.087787814438343,0.072681225836277
497,-0.00455012544989586,-0.00246434030123055,0.0483219176530838,0.059233982115984,0.0881474018096924,0.0668135583400726
498,-0.00483296392485499,-0.00540524953976274,0.0477671585977077,0.0621153227984905,0.0909009575843811,0.0628098100423813
499,-0.00494869705289602,-0.00614311173558235,0.04783621057868,0.0655049607157707,0.0945077538490295,0.059787392616272
500,-0.00309534836560488,-0.00431009475141764,0.0481447093188763,0.0695276632905006,0.0959861725568771,0.0582243278622627
501,0.00187922024633735,-0.00145293585956097,0.0491611696779728,0.0736947357654572,0.0955941751599312,0.0575716979801655
502,0.0078188544139266,0.000674211187288165,0.0511284209787846,0.0771339312195778,0.0944055318832397,0.0575027987360954
503,0.0111015131697059,0.00197111582383513,0.0523071400821209,0.0786667540669441,0.0901407226920128,0.0585994310677052
504,0.0108202584087849,0.00361769273877144,0.0516001544892788,0.0771646052598953,0.0825717225670815,0.0612422972917557
505,0.00865599233657122,0.00697926664724946,0.0496348068118095,0.0745392739772797,0.0757656469941139,0.0652875676751137
506,0.00676569622009993,0.011170213110745,0.04768917709589,0.072780504822731,0.0735533088445663,0.0684593468904495
507,0.00605451781302691,0.0132592273876071,0.0470322966575623,0.0708340629935265,0.0753817185759544,0.0687453150749207
508,0.0056083551608026,0.0127825541421771,0.0478592365980148,0.0688193663954735,0.0773212760686874,0.068715788424015
509,0.00457793101668358,0.0113189592957497,0.0492469295859337,0.067503921687603,0.077261671423912,0.0705169886350632
510,0.00320842093788087,0.00925291888415813,0.0503198578953743,0.0658800154924393,0.0755474269390106,0.0720353052020073
511,0.0023171161301434,0.00682908110320568,0.0509642846882343,0.0642336681485176,0.0748062580823898,0.071607694029808
512,0.00230601406656206,0.00482810754328966,0.0513998009264469,0.0640202611684799,0.0773614197969437,0.070007398724556
513,0.00252247485332191,0.00380606949329376,0.0512377880513668,0.0652648657560349,0.0803653821349144,0.0690382868051529
514,0.00208342378027737,0.00325385830365121,0.0499652586877346,0.0659983158111572,0.0804147124290466,0.0692068412899971
515,0.00115788308903575,0.00259517761878669,0.0484400317072868,0.0643552094697952,0.0784473195672035,0.0690289214253426
516,0.000199612681171857,0.00243636383675039,0.048080749809742,0.0609117411077023,0.0754178464412689,0.0670401379466057
517,-0.00181030353996903,0.00174665497615933,0.0487622581422329,0.0568795055150986,0.0705948621034622,0.0616539493203163
518,-0.00576612167060375,-0.00167979893740267,0.04862991720438,0.0527087189257145,0.0645455345511436,0.0527156367897987
519,-0.0103608630597591,-0.00617932295426726,0.0462436974048615,0.0498667359352112,0.0580478943884373,0.0445818230509758
520,-0.0128652174025774,-0.00775961671024561,0.0433442294597626,0.0493371374905109,0.0524768196046352,0.0418797731399536
521,-0.0112960170954466,-0.00518903927877545,0.0432075634598732,0.0500786677002907,0.0517865605652332,0.0443513318896294
522,-0.00665042735636234,-0.000251380290137604,0.0452930703759193,0.0519303753972054,0.0578111484646797,0.0491777062416077
523,-0.00145644240546972,0.00444486411288381,0.0459560267627239,0.0554562471807003,0.0670474469661713,0.0541165843605995
524,0.00256857788190246,0.00713936751708388,0.0434544235467911,0.0590065307915211,0.0750829502940178,0.0574805364012718
525,0.00484634097665548,0.00756348809227347,0.0392894186079502,0.0595256574451923,0.0805767402052879,0.0575500167906284
526,0.00602587824687362,0.00655644247308373,0.035925030708313,0.0556133650243282,0.0842012092471123,0.0531825087964535
527,0.00626534083858132,0.00548450741916895,0.0342870019376278,0.049551036208868,0.0844222381711006,0.0464071929454803
528,0.00485524721443653,0.00465950975194573,0.0340949892997742,0.0446476861834526,0.0793258994817734,0.0413865894079208
529,0.00260565127246082,0.00329747889190912,0.0351098291575909,0.042051687836647,0.0735160708427429,0.0402591042220593
530,0.00097209878731519,0.00175218668300658,0.0363958179950714,0.042508989572525,0.0713021755218506,0.0427294969558716
531,4.50736515631434E-05,0.000485633237985894,0.036637581884861,0.0455032959580421,0.0697214901447296,0.0460392311215401
532,-5.72850003663916E-05,-0.000648798595648259,0.0368146449327469,0.0486308932304382,0.0667132064700127,0.0468755438923836
533,0.000244229304371402,-0.00105570023879409,0.0389533787965775,0.0509610548615456,0.0621837489306927,0.0455327108502388
534,-0.000228481207159348,-0.00021908748021815,0.0416143201291561,0.0525421015918255,0.054833322763443,0.0437184609472752
535,-0.000870458723511547,0.00119980808813125,0.041263397783041,0.0525462031364441,0.047211367636919,0.0409560538828373
536,-0.000580908847041428,0.00232757045887411,0.0376029312610626,0.0507398284971714,0.0438619963824749,0.0374092012643814
537,0.000412394787417725,0.00357388285920024,0.0337742939591408,0.0481730252504349,0.0451911985874176,0.0357705876231194
538,0.00171425065491349,0.0052395835518837,0.0322911590337753,0.0455531813204288,0.0494842380285263,0.0371615514159203
539,0.00290753925219178,0.00616062385961413,0.0326584130525589,0.0425957404077053,0.054374948143959,0.0388551652431488
540,0.00352902850136161,0.00497695431113243,0.0331015586853027,0.0390651002526283,0.0577437728643417,0.0370494611561298
541,0.00331427529454231,0.000579094397835433,0.0335168577730656,0.0349407382309437,0.0606685914099216,0.0299653597176075
542,0.00174521852750331,-0.00563807971775532,0.0343195647001266,0.0307151060551405,0.0640484765172005,0.0207072794437408
543,-0.00027114394470118,-0.00904665980488062,0.0348098464310169,0.0283976756036282,0.0669799372553825,0.0161079186946154
544,-0.000861603708472103,-0.00760866282507777,0.0343835689127445,0.028727238997817,0.0689617171883583,0.0193773545324802
545,-0.000148184160934761,-0.00352198351174593,0.032646931707859,0.0297366995364428,0.0685284212231636,0.0274382438510656
546,0.000660849793348461,0.000928026624023914,0.0298710651695728,0.0297427177429199,0.0639770999550819,0.0351916216313839
547,0.000928971450775862,0.00467964308336377,0.0272406246513128,0.0287311654537916,0.056060966104269,0.0391661450266838
548,0.000243334929109551,0.00680435728281736,0.0256064776331186,0.0289997514337301,0.047893863171339,0.0387011244893074
549,-0.000990817323327065,0.00647264067083597,0.0259839687496424,0.0330301634967327,0.0421747341752052,0.0342898815870285
550,-0.00145720108412206,0.00366369215771556,0.0292583052068949,0.0390899181365967,0.0403385646641254,0.027118993923068
551,-0.000716724200174212,0.000209168472792953,0.0339712463319302,0.0432250276207924,0.0423305630683899,0.0213687010109425
552,-0.000546286581084132,-0.0016378560103476,0.03599489107728,0.0432342551648617,0.0444769337773323,0.0205557178705931
553,-0.00285502523183823,-0.00193559611216187,0.0334148369729519,0.039200559258461,0.0436289571225643,0.02301125228405
554,-0.00565297203138471,-0.00228653382509947,0.0308279283344746,0.0333985649049282,0.0419504344463348,0.0246487576514483
555,-0.00685771415010095,-0.00355848856270313,0.0313350148499012,0.0285369642078877,0.0391130410134792,0.0237225703895092
556,-0.00796480756253004,-0.00490109249949455,0.0304365009069443,0.0256242789328098,0.0309356600046158,0.0218524038791656
557,-0.00904526840895414,-0.00534843374043703,0.0249397829174995,0.0241719465702772,0.0204186551272869,0.0206224173307419
558,-0.00823527108877897,-0.0053429682739079,0.0175873767584562,0.0231554564088583,0.0153152709826827,0.0199232064187527
559,-0.00479549216106534,-0.00568895461037755,0.0121134044602513,0.0215160716325045,0.0187655705958605,0.0188475772738457
560,5.58572610316332E-05,-0.00604412984102964,0.00967828743159771,0.0196094326674938,0.0271871816366911,0.0176129341125488
561,0.00375367840752006,-0.00616925954818726,0.00897322315722704,0.0180941764265299,0.0340536832809448,0.0170166045427322
562,0.00459228735417128,-0.00794341135770082,0.00855522695928812,0.0156305152922869,0.0353718437254429,0.0148796355351806
563,0.00264724832959473,-0.0118034444749355,0.00823730044066906,0.0122701916843653,0.0319689474999905,0.00873806606978178
564,-0.000752774300053716,-0.0140817286446691,0.00782964564859867,0.0105915572494268,0.0267006009817123,0.000764390453696251
565,-0.00355551764369011,-0.0119517594575882,0.00687510054558516,0.0118614649400115,0.0216888971626759,-0.0039399266242981
566,-0.00360675947740674,-0.00635072914883494,0.00621222332119942,0.015071127563715,0.0197474677115679,-0.0017804263625294
567,-0.00071214756462723,0.000818678818177432,0.00740812765434384,0.0188062246888876,0.0221660975366831,0.00644140224903822
568,0.00226020975969732,0.00742170307785273,0.01144012901932,0.0224968120455742,0.0261304900050163,0.0153957605361938
569,0.00239378004334867,0.0099934283643961,0.01713852211833,0.0243934001773596,0.0271322075277567,0.0190225280821323
570,-3.96150098822545E-05,0.00740335462614894,0.0218660496175289,0.0231283940374851,0.0235056038945913,0.0172466691583395
571,-0.00339774182066321,0.00255073793232441,0.0245228856801987,0.0208579283207655,0.0179098006337881,0.0154529763385654
572,-0.00683265039697289,-0.00185529165901244,0.0251738820225,0.0196498949080706,0.0138597264885902,0.0164064187556505
573,-0.00906465202569962,-0.005023502279073,0.0233360007405281,0.0198369659483433,0.0126216942444444,0.0190513227134943
574,-0.0083684865385294,-0.00723224645480514,0.0185521170496941,0.0206922199577093,0.0138535657897592,0.0211247373372316
575,-0.0046511716209352,-0.00873330608010292,0.0122239636257291,0.020388837903738,0.0178884826600552,0.0207293517887592
576,-0.000336477300152183,-0.00931496173143387,0.00715793063864112,0.018359849229455,0.0245938375592232,0.0183438062667847
577,0.00192517519462854,-0.00933561287820339,0.00454561877995729,0.0157566610723734,0.0310397762805223,0.0150599991902709
578,0.00147584197111428,-0.00928601063787937,0.00387611263431609,0.0138065600767732,0.0332150831818581,0.0114218546077609
579,-0.00131905521266162,-0.0095810005441308,0.00436236336827278,0.0125860488042235,0.0286003891378641,0.00766126019880176
580,-0.00487667601555586,-0.0112340478226542,0.00483472691848874,0.0107328528538346,0.0195114836096764,0.0022947913967073
581,-0.00660651829093695,-0.0144431721419096,0.00425525847822428,0.00745101273059845,0.0132490834221244,-0.00517994817346334
582,-0.0068079405464232,-0.0175665244460106,0.00158207456115633,0.00346199050545692,0.0125272143632174,-0.0114500494673848
583,-0.00773277133703232,-0.0183940827846527,-0.00338369864039123,-0.000571877229958773,0.0127055374905467,-0.0131084844470024
584,-0.00900738127529621,-0.0158754885196686,-0.00717513076961041,-0.00306710577569902,0.0116094453260303,-0.0100176325067878
585,-0.00909314211457968,-0.0114669734612107,-0.00556474970653653,-0.00102334364783019,0.0110674444586039,-0.00446562981233001
586,-0.00796760618686676,-0.00848377496004105,0.000529837096109986,0.00661140494048595,0.0121645024046302,-0.000811282196082175
587,-0.00570213608443737,-0.00780433882027864,0.00689694378525019,0.0173722803592682,0.0146796153858304,-0.00225983373820782
588,-0.0032595235388726,-0.00681621674448252,0.00994813442230225,0.0263536050915718,0.0151400612667203,-0.0057802083902061
589,-0.0019645041320473,-0.00212389114312828,0.00930819753557444,0.0300769358873367,0.0108009306713939,-0.00501057086512446
590,-0.00106527947355062,0.00848106388002634,0.00825637485831976,0.0296537932008505,0.00497774407267571,0.00336723611690104
591,0.000131237989990041,0.0210193879902363,0.00860061962157488,0.0281265079975128,0.00264737359248102,0.0169078800827265
592,0.000976238341536373,0.0268013402819633,0.00868568662554026,0.0266315713524818,0.00622981321066618,0.0286487191915512
593,0.000424833298893645,0.0226899590343237,0.00682209152728319,0.0245222151279449,0.0135391913354397,0.0332671515643597
594,-0.00135912548284978,0.0128089645877481,0.00359543669037521,0.0213469862937927,0.0194976627826691,0.0318211019039154
595,-0.00265067629516125,0.00204347795806825,0.00073054083622992,0.017045496031642,0.0222440864890814,0.0277522355318069
596,-0.00186667684465647,-0.00660951714962721,-0.000166232013725676,0.0122374417260289,0.0239885598421097,0.0223261136561632
597,0.00124321645125747,-0.0119371768087149,0.00132287491578609,0.00756631465628743,0.026959553360939,0.0152794662863016
598,0.00536409299820662,-0.0147450584918261,0.00368440966121852,0.0034960531629622,0.0303157195448875,0.00605228310450912
599,0.00816348008811474,-0.0163891986012459,0.00573289161548018,0.00116214680019766,0.0305669084191322,-0.00433162553235888
600,0.00757294567301869,-0.0180084351450205,0.00725350994616747,0.000649269961286336,0.0260544996708632,-0.0130587266758084
601,0.00417786324396729,-0.0197436101734638,0.00801203958690166,0.00106394977774471,0.0194570291787386,-0.0179990753531456
602,0.000865764915943146,-0.0195905864238739,0.00787818897515535,0.00236106896772981,0.0142529830336571,-0.018043115735054
603,-0.000256710074609146,-0.0157532058656216,0.00625280430540442,0.00443908665329218,0.0115261934697628,-0.0137307923287153
604,0.00067135930294171,-0.00991996563971043,0.002814736450091,0.00593625893816352,0.00971278920769691,-0.00895126909017563
605,0.00197481084614992,-0.00530403247103095,-0.000844426627736539,0.00658273277804255,0.0063251368701458,-0.00621685385704041
606,0.00268574478104711,-0.00308752083219588,-0.00213999580591917,0.00759535888209939,0.00187482906039804,-0.00418780418112874
607,0.00348369381390512,-0.00332662579603493,-0.000263483118033037,0.00846126675605774,-4.9360631237505E-05,-0.00334306713193655
608,0.00483443401753902,-0.00598850939422846,0.00296444422565401,0.00719915609806776,0.00208359793759882,-0.00569961639121175
609,0.00571244722232223,-0.010053776204586,0.00496927183121443,0.00371132581494749,0.0043408046476543,-0.00976716261357069
610,0.00574958277866244,-0.0128315081819892,0.00467802304774523,0.00127647258341312,0.00267464970238507,-0.011937590315938
611,0.00626535667106509,-0.0117224557325244,0.00268470635637641,0.00283733103424311,0.000209840218303725,-0.0115518290549517
612,0.00790796149522066,-0.00771111762151122,8.54304198583122E-06,0.00708642136305571,0.00234374380670488,-0.0113772545009851
613,0.00979996286332607,-0.00516571616753936,-0.00247498881071806,0.00990488566458225,0.00895750522613525,-0.014401095919311
614,0.0106589961796999,-0.0067450269125402,-0.0046149268746376,0.00851868838071823,0.0166176073253155,-0.0207809954881668
615,0.00923329312354326,-0.0104576656594872,-0.00714500108733773,0.00428973557427526,0.0213018730282784,-0.026970436796546
616,0.00587302260100842,-0.0140226632356644,-0.00967058539390564,0.00018455162353348,0.0200489778071642,-0.0304429270327091
617,0.00285834074020386,-0.0176666229963303,-0.00987492874264717,-0.00306301703676581,0.013388697989285,-0.0322427079081535
618,0.00133339571766555,-0.0208979398012161,-0.00772925838828087,-0.00623523024842143,0.00432427227497101,-0.0329331681132317
619,0.000664836610667408,-0.0221059359610081,-0.00611598510295153,-0.00905039999634027,-0.00338498828932643,-0.0313225872814655
620,-0.000838217907585204,-0.021834148094058,-0.00619315961375833,-0.0106295719742775,-0.00846134405583143,-0.0272407457232475
621,-0.00405491376295686,-0.0218248404562473,-0.00720261782407761,-0.0115550868213177,-0.0121963648125529,-0.0228172671049833
622,-0.00721641769632697,-0.0216315537691116,-0.00903542898595333,-0.0121973557397723,-0.0153288561850786,-0.0196661707013845
623,-0.00829161517322063,-0.0199822802096605,-0.0112322308123112,-0.0117740435525775,-0.0170764699578285,-0.0170186460018158
624,-0.00706902146339417,-0.0171766821295023,-0.0123319793492556,-0.010319079272449,-0.0161043554544449,-0.0144417779520154
625,-0.0045392494648695,-0.0147706475108862,-0.011695796623826,-0.00837045442312956,-0.0130122229456902,-0.0140244765207171
626,-0.00207596062682569,-0.0142382197082043,-0.0100174695253372,-0.00678344257175922,-0.0105628594756126,-0.0175726283341646
627,-0.000888586917426437,-0.01492621563375,-0.00842645298689604,-0.00524674961343408,-0.0103448983281851,-0.0222166404128075
628,-0.0009851687354967,-0.0147216022014618,-0.00679298816248775,-0.00130535312928259,-0.0114927077665925,-0.0235894955694675
629,-0.00126643653493375,-0.0129885654896498,-0.00470168795436621,0.00500282412394881,-0.0130476225167513,-0.0210136696696281
630,-0.00114247272722423,-0.0105574335902929,-0.00341938179917634,0.0103402780368924,-0.0143471546471119,-0.0163446497172117
631,-0.00128137832507491,-0.00840196385979652,-0.00459090573713183,0.0116345165297389,-0.0155402841046453,-0.0119678424671292
632,-0.00291937380097806,-0.00651271641254425,-0.00739460811018944,0.00988527853041887,-0.0184583067893982,-0.00792644079774618
633,-0.00624904735013843,-0.00500008929520845,-0.00840169005095959,0.00956529937684536,-0.0225146003067493,-0.0030298326164484
634,-0.00969438999891281,-0.00564365042373538,-0.00639699911698699,0.011061105877161,-0.0246091783046722,-0.000313646683935076
635,-0.0116187864914536,-0.00859720725566149,-0.00396179873496294,0.0111825009807944,-0.025086484849453,-0.00423277728259563
636,-0.0115192448720336,-0.0107223121449351,-0.0027927418705076,0.00912226364016533,-0.0256707966327667,-0.0142526384443045
637,-0.0088079459965229,-0.00893570203334093,-0.00246490514837205,0.0060357409529388,-0.0247937068343163,-0.0240157134830952
638,-0.0041191722266376,-0.00437646638602018,-0.0036229903344065,0.00307546276599169,-0.0220310129225254,-0.0282017607241869
639,3.33603929902893E-05,-0.00132464745547622,-0.00555643392726779,0.0014731592964381,-0.0199485197663307,-0.0285288114100695
640,0.00287688570097089,-0.00163418694864959,-0.00537232216447592,0.000814318191260099,-0.018515458330512,-0.0291545800864697
641,0.00543341832235456,-0.00361007521860301,-0.00376428873278201,-0.000996542745269835,-0.0160919185727835,-0.0310595873743296
642,0.00819626543670893,-0.00518531817942858,-0.00360414455644786,-0.00439011864364147,-0.0134117649868131,-0.0339663699269295
643,0.010688959620893,-0.00610967958346009,-0.00629463559016585,-0.00936215929687023,-0.012181575410068,-0.038890790194273
644,0.0115013578906655,-0.00684801582247019,-0.0122371278703213,-0.015639953315258,-0.0142188491299748,-0.0449203364551067
645,0.01006462238729,-0.007009566295892,-0.0193549916148186,-0.0208372082561255,-0.0197634734213352,-0.0488615930080414
646,0.00763896852731705,-0.00655195210129023,-0.0240618363022804,-0.0230787061154842,-0.0270157475024462,-0.0507074370980263
647,0.00494179921224713,-0.00673497607931495,-0.0255942270159721,-0.0232527442276478,-0.0359792560338974,-0.054112758487463
648,0.00140264991205186,-0.00783526804298162,-0.0264367163181305,-0.0238059852272272,-0.0487126111984253,-0.0604856312274933
649,-0.00248548318631947,-0.00934685301035643,-0.028570368885994,-0.0264094937592745,-0.0653577074408531,-0.0693973153829575
650,-0.00418644212186337,-0.011468505486846,-0.031234847381711,-0.0312008038163185,-0.0809363648295403,-0.0816493928432465
651,-0.00246869982220232,-0.0135763958096504,-0.033708393573761,-0.0379098430275917,-0.0892929285764694,-0.0953003838658333
652,-5.06550350110047E-06,-0.0144500005990267,-0.0377437993884087,-0.0464265495538712,-0.0921065509319305,-0.10559119284153
653,-0.00029985822038725,-0.0134817892685533,-0.0452010743319988,-0.0561632849276066,-0.097333624958992,-0.109468027949333
654,-0.00343407574109733,-0.0110510746017098,-0.0542757287621498,-0.0650911331176758,-0.107875138521194,-0.1077546402812
655,-0.00690562510862947,-0.0079390462487936,-0.0607862398028374,-0.0703918039798737,-0.120229825377464,-0.104314364492893
656,-0.00868908688426018,-0.00377935310825706,-0.0628906413912773,-0.0717083588242531,-0.130405560135841,-0.102972008287907
657,-0.00838243402540684,0.00138484640046954,-0.062434297055006,-0.072341687977314,-0.137597277760506,-0.105572991073132
658,-0.00732862064614892,0.00496766809374094,-0.0626702159643173,-0.0762670710682869,-0.145169004797935,-0.112254403531551
659,-0.00681247329339385,0.00433972897008061,-0.0658919438719749,-0.085870198905468,-0.15581239759922,-0.12339835613966
660,-0.00611518463119864,-0.000767442223150283,-0.0720700845122337,-0.100650131702423,-0.167349174618721,-0.138659968972206
661,-0.00451126648113132,-0.00848234351724386,-0.0789690762758255,-0.11711997538805,-0.175632700324059,-0.154675751924515
662,-0.00350300106219947,-0.0161968450993299,-0.0846264734864235,-0.131507977843285,-0.179829731583595,-0.168430045247078
663,-0.00417132396250963,-0.0207721404731274,-0.0880564972758293,-0.141135483980179,-0.182300835847855,-0.179451435804367
664,-0.00640363525599241,-0.0201336350291967,-0.090776652097702,-0.147539734840393,-0.186789602041245,-0.188970997929573
665,-0.009701332077384,-0.0160984508693218,-0.0961722135543823,-0.155215799808502,-0.195662528276443,-0.199409767985344
666,-0.0110924961045384,-0.0114847207441926,-0.1055843308568,-0.164898365736008,-0.206145972013474,-0.212275832891464
667,-0.00889476947486401,-0.0075203743763268,-0.120813846588135,-0.176209047436714,-0.21545521914959,-0.227549985051155
668,-0.00694632157683373,-0.00505986902862787,-0.142541572451591,-0.189155220985413,-0.225624829530716,-0.243206396698952
669,-0.00794661603868008,-0.00375841930508614,-0.161218374967575,-0.198171362280846,-0.237332209944725,-0.253989696502686
670,-0.0096763214096427,-0.00328413955867291,-0.162032380700111,-0.197960540652275,-0.24647743999958,-0.256484299898148
671,-0.0101430648937821,-0.00490008573979139,-0.142637088894844,-0.192504078149796,-0.249195277690887,-0.253719598054886
672,-0.0103545794263482,-0.00790799595415592,-0.117285043001175,-0.187422454357147,-0.248152032494545,-0.24955977499485
673,-0.011475115083158,-0.00999748613685369,-0.100879989564419,-0.183393076062202,-0.249554753303528,-0.244207888841629
674,-0.0129661057144403,-0.00910134986042976,-0.0954123362898827,-0.179049327969551,-0.254180938005447,-0.23487950861454
675,-0.0150211472064257,-0.0040572676807642,-0.094584159553051,-0.172459974884987,-0.259313672780991,-0.219236627221107
676,-0.0174473375082016,0.00258543016389012,-0.0942383259534836,-0.164028406143188,-0.263689339160919,-0.201071754097939
677,-0.0187984351068735,0.00662104645743966,-0.0946090221405029,-0.156581610441208,-0.26706263422966,-0.188163265585899
678,-0.0182693004608154,0.00583927892148495,-0.0963473469018936,-0.151262864470482,-0.268377184867859,-0.185087367892265
679,-0.0149963181465864,0.00112325453665107,-0.0989924073219299,-0.148243889212608,-0.265919923782349,-0.18984180688858
680,-0.00987667217850685,-0.00341926934197545,-0.103203445672989,-0.148599416017532,-0.261547684669495,-0.196095213294029
681,-0.00672832271084189,-0.00502796936780214,-0.110512875020504,-0.15330944955349,-0.260322749614716,-0.200128138065338
682,-0.00866747926920652,-0.00554871745407581,-0.119567565619946,-0.159912347793579,-0.265290409326553,-0.201515257358551
683,-0.0154638029634953,-0.00577331986278296,-0.126223057508469,-0.162784487009048,-0.275085061788559,-0.198447078466415
684,-0.0237189196050167,-0.00203862693160772,-0.128352105617523,-0.160264849662781,-0.283658117055893,-0.190358817577362
685,-0.0294994693249464,0.00695080542936921,-0.127135291695595,-0.155640557408333,-0.285105675458908,-0.181056410074234
686,-0.030949741601944,0.0165484212338924,-0.124766521155834,-0.151579305529594,-0.277951002120972,-0.17430055141449
687,-0.0280986409634352,0.0223469715565443,-0.122899889945984,-0.149797707796097,-0.262989401817322,-0.171034172177315
688,-0.0225859768688679,0.0242234915494919,-0.122295036911964,-0.150656908750534,-0.244053184986115,-0.170743852853775
689,-0.0175935011357069,0.024220822378993,-0.122605413198471,-0.150694102048874,-0.227577909827232,-0.171025916934013
690,-0.0152667379006743,0.0244841426610947,-0.122019156813622,-0.146631926298141,-0.217137545347214,-0.168324217200279
691,-0.0162178743630648,0.0283888448029757,-0.120361648499966,-0.140258207917213,-0.214084014296532,-0.161328509449959
692,-0.0211101081222296,0.0408727861940861,-0.120608076453209,-0.135976523160934,-0.219821617007256,-0.151812717318535
693,-0.0278896130621433,0.062270388007164,-0.123170115053654,-0.133935824036598,-0.229642108082771,-0.14178854227066
694,-0.0327512733638287,0.0834650099277496,-0.12443333119154,-0.129020363092422,-0.233711689710617,-0.130165562033653
695,-0.0339610576629639,0.0911763161420822,-0.121333323419094,-0.116709686815739,-0.226680189371109,-0.114776872098446
696,-0.0315495282411575,0.0818612277507782,-0.114159435033798,-0.0985143557190895,-0.210660189390183,-0.0972527414560318
697,-0.0270518977195024,0.0638245791196823,-0.105362005531788,-0.0817404612898827,-0.191858500242233,-0.0818943008780479
698,-0.0223400685936213,0.0411226116120815,-0.0966723412275314,-0.0730173215270042,-0.174786046147347,-0.0717220008373261
699,-0.0185425709933043,0.0132459374144673,-0.0896785259246826,-0.07435492426157,-0.161639019846916,-0.0675941035151482
700,-0.0149660920724273,-0.0125476717948914,-0.0848950296640396,-0.0803279802203178,-0.152972266077995,-0.0678528994321823
701,-0.0104116266593337,-0.0252319052815437,-0.0802107900381088,-0.0799669250845909,-0.145768642425537,-0.0677783787250519
702,-0.00640470208600163,-0.0225050132721663,-0.074003629386425,-0.0695105642080307,-0.137392416596413,-0.0636926293373108
703,-0.00525310821831226,-0.012751174159348,-0.0668410733342171,-0.0571257285773754,-0.129221946001053,-0.0576756447553635
704,-0.00651893438771367,-0.00550741096958518,-0.0632757097482681,-0.0524620451033115,-0.123038820922375,-0.0550173558294773
705,-0.00740635301917791,-0.00462686363607645,-0.0717477947473526,-0.057701613754034,-0.118246451020241,-0.0580619089305401
706,-0.00619808910414577,-0.00896107777953148,-0.0924136713147163,-0.0677072405815125,-0.111822180449963,-0.0636670514941216
707,-0.00257886364124715,-0.0144982757046819,-0.109321996569633,-0.0742644444108009,-0.101574189960957,-0.0661209747195244
708,0.00404582591727376,-0.0182725470513105,-0.105414643883705,-0.0730558186769485,-0.0899685397744179,-0.0630268603563309
709,0.011241665109992,-0.0201663374900818,-0.0809200629591942,-0.0657205581665039,-0.0783090814948082,-0.0560437999665737
710,0.0135157564654946,-0.0188535563647747,-0.0506940856575966,-0.0533034540712833,-0.064158633351326,-0.044996365904808
711,0.00909882131963968,-0.0115473465994,-0.0275163184851408,-0.036327451467514,-0.0479651093482971,-0.0287041440606117
712,0.00138512044213712,0.000608889269642532,-0.0146082965657115,-0.0191246643662453,-0.0344320461153984,-0.0108800567686558
713,-0.00554532371461391,0.0129432631656528,-0.00932767614722252,-0.0059297657571733,-0.0273192021995783,0.00277239945717156
714,-0.0105183022096753,0.0222376044839621,-0.00806529261171818,0.00382039323449135,-0.0250147636979818,0.0121479304507375
715,-0.0144431618973613,0.0285996813327074,-0.00895591452717781,0.0137650649994612,-0.0224554259330034,0.0236330311745405
716,-0.0165543481707573,0.034310981631279,-0.00999227818101645,0.0263268984854221,-0.0145841371268034,0.0414008647203445
717,-0.0154866026714444,0.0395332276821136,-0.00942463520914316,0.0390771925449371,0.000321311206789687,0.0603310167789459
718,-0.0119867930188775,0.0401606820523739,-0.00832162611186504,0.045840784907341,0.0181153621524572,0.071817584335804
719,-0.00799409672617912,0.0340255536139011,-0.00831115711480379,0.0435832887887955,0.0325179286301136,0.0738701671361923
720,-0.00508340913802385,0.0256579779088497,-0.0085303857922554,0.0360829569399357,0.0416230373084545,0.0723020061850548
721,-0.00314365397207439,0.0202140603214502,-0.00602762214839458,0.0299436412751675,0.0489576160907745,0.0736551731824875
722,-0.00110285531263798,0.0185176935046911,-0.000764711119700223,0.0286983177065849,0.0548973269760609,0.0807195603847504
723,0.00125928188208491,0.0187504161149263,0.00380313792265952,0.0312408227473497,0.0552193857729435,0.0914736837148666
724,0.00361348176375031,0.0186824630945921,0.00666995067149401,0.0344532541930676,0.0523948706686497,0.0997959822416306
725,0.00576700456440449,0.0200027376413345,0.00901197548955679,0.0375036187469959,0.0540979169309139,0.10313556343317
726,0.00734332669526339,0.0260954927653074,0.011494692414999,0.0421303920447826,0.0620956160128117,0.104775957763195
727,0.00840199645608664,0.0318429544568062,0.0147778186947107,0.0479879900813103,0.0739705860614777,0.105323918163776
728,0.0094519080594182,0.0290128998458385,0.018979124724865,0.0529579184949398,0.0879939869046211,0.102631732821465
729,0.0102662686258554,0.0196707788854837,0.0236098021268845,0.0570385977625847,0.10095601528883,0.0979969352483749
730,0.0100976340472698,0.0108428969979286,0.0290865954011679,0.0615165717899799,0.109855636954308,0.0937362983822823
731,0.00764053547754884,0.00330250104889274,0.0355773456394672,0.0653111636638641,0.114980146288872,0.0891118124127388
732,0.00242285802960396,-0.00348658580332994,0.041161872446537,0.067526787519455,0.117245569825172,0.0837108865380287
733,-0.00332870008423924,-0.00522087514400482,0.0442648492753506,0.0713097974658012,0.117389656603336,0.0814476981759071
734,-0.00651150941848755,-0.00112743955105543,0.045771773904562,0.0793038532137871,0.117959856987,0.086749255657196
735,-0.00520659936591983,0.00373673159629107,0.0474641285836697,0.0898536518216133,0.121687412261963,0.0993064790964127
736,-7.25412101019174E-05,0.00639995560050011,0.049771711230278,0.0985649079084396,0.127341330051422,0.114167407155037
737,0.00671606883406639,0.00843940209597349,0.0522655993700027,0.10303096473217,0.131646856665611,0.126145213842392
738,0.0135536277666688,0.0112237995490432,0.0546642169356346,0.104092106223106,0.134152933955193,0.133572086691856
739,0.0182970874011517,0.0124742006883025,0.0557705387473106,0.101735480129719,0.135580241680145,0.137071087956429
740,0.0196762699633837,0.0116794994100928,0.055953461676836,0.0978198572993279,0.136912301182747,0.139586016535759
741,0.0189755707979202,0.0107232984155416,0.0576929524540901,0.0961927995085716,0.140732973814011,0.143826261162758
742,0.0176990330219269,0.00871010962873697,0.0606072433292866,0.0964931696653366,0.147388055920601,0.146518886089325
743,0.0172158069908619,0.0047111171297729,0.0633546859025955,0.0971673503518105,0.154848292469978,0.143284603953362
744,0.0185763519257307,0.000474560161819682,0.066992811858654,0.0986529365181923,0.162868738174438,0.135726287961006
745,0.0201699174940586,-0.00188849191181362,0.0707606673240662,0.0999898985028267,0.169358655810356,0.128704816102982
746,0.0188665334135294,-0.000733272056095302,0.0713358446955681,0.0996184796094894,0.170251041650772,0.125398769974709
747,0.0138356797397137,0.00562838651239872,0.0679833367466927,0.0989000052213669,0.165730372071266,0.126311987638474
748,0.00792278442531824,0.015383935533464,0.0648663491010666,0.100430488586426,0.159691527485847,0.130085274577141
749,0.00433081761002541,0.0213333647698164,0.0668221488595009,0.103773914277554,0.156810134649277,0.13431952893734
750,0.00346346106380224,0.0185163877904415,0.0734708085656166,0.10657574981451,0.159600555896759,0.136844143271446
751,0.00493579404428601,0.00923534110188484,0.08060023188591,0.10881470143795,0.166044890880585,0.136961951851845
752,0.00785897951573133,-0.000172040105098858,0.0842725113034248,0.111665681004524,0.171288654208183,0.135486721992493
753,0.00945089384913445,-0.00511216232553124,0.0821194872260094,0.114361979067326,0.170860350131989,0.133705288171768
754,0.00873734150081873,-0.00518415402621031,0.0752445161342621,0.116170555353165,0.164590284228325,0.132331565022469
755,0.0078530190512538,-0.000932015769649297,0.0678557828068733,0.117466747760773,0.157409429550171,0.130836933851242
756,0.00805847719311714,0.00556296808645129,0.0629630386829376,0.117588974535465,0.154805272817612,0.128111153841019
757,0.0104487519711256,0.00957895815372467,0.0609896630048752,0.115883588790894,0.157942071557045,0.124120712280273
758,0.0166310574859381,0.00787870679050684,0.0615113452076912,0.113172344863415,0.162535637617111,0.120399191975594
759,0.0232258010655642,0.00133496941998601,0.0638427287340164,0.110740952193737,0.164269879460335,0.118732981383801
760,0.0235648285597563,-0.00719029689207673,0.0674616470932961,0.108292102813721,0.162881702184677,0.118377171456814
761,0.0167058762162924,-0.0150265200063586,0.0717607438564301,0.104450218379498,0.159868463873863,0.116738803684711
762,0.00841295719146729,-0.0189772322773933,0.0759739652276039,0.100569948554039,0.157264515757561,0.114757508039474
763,0.00361542240716517,-0.0166917536407709,0.0800760090351105,0.100164189934731,0.156364753842354,0.116955168545246
764,0.00173240923322737,-0.00879540853202343,0.0842247158288956,0.104883886873722,0.155455529689789,0.124783053994179
765,0.000369242945453152,0.00045939686242491,0.0872754827141762,0.111682705581188,0.153309211134911,0.133387565612793
766,-0.00107500341255218,0.00414594542235136,0.0866985395550728,0.112827576696873,0.151963740587235,0.135754570364952
767,-0.00324226100929081,-0.00120723096188158,0.0811695978045464,0.103594549000263,0.15154105424881,0.127767860889435
768,-0.00607282482087612,-0.0106822811067104,0.0733786225318909,0.0911595895886421,0.149526610970497,0.110643200576305
769,-0.00687640439718962,-0.0169830992817879,0.0686678066849709,0.0877730324864388,0.145216807723045,0.0917499959468842
770,-0.00350683322176337,-0.0159955434501171,0.0702279806137085,0.0941797718405724,0.141040921211243,0.0799324810504913
771,0.00177531421650201,-0.00578551786020398,0.0753283575177193,0.0997599437832832,0.139458015561104,0.0779470056295395
772,0.00456070387735963,0.014354377053678,0.07918930798769,0.10031483322382,0.139590501785278,0.0836935862898827
773,0.00330213247798383,0.0408630110323429,0.0804079622030258,0.101383686065674,0.140232846140862,0.0957751497626305
774,-0.000194560474483296,0.0615499168634415,0.0796311274170876,0.105026945471764,0.14193357527256,0.113171987235546
775,-0.0016724755987525,0.0662111267447472,0.0795651972293854,0.109852947294712,0.147231668233871,0.131902620196342
776,0.0016717683756724,0.0575011633336544,0.0824645683169365,0.11464723944664,0.157279118895531,0.144511833786964
777,0.00741271115839481,0.0420959144830704,0.0856185704469681,0.115670748054981,0.1668571382761,0.147371247410774
778,0.0129002099856734,0.0232019703835249,0.085688091814518,0.111243069171906,0.171580836176872,0.143303200602531
779,0.0187930352985859,0.00441839778795838,0.0831646844744682,0.104530587792397,0.17312553524971,0.134476810693741
780,0.024390147998929,-0.00970221124589443,0.0802309289574623,0.0997697114944458,0.172100603580475,0.123137377202511
781,0.026763966307044,-0.0178127493709326,0.0784465447068214,0.0989198163151741,0.167342215776443,0.113533295691013
782,0.0263154022395611,-0.0223568752408028,0.0787488520145416,0.0996643304824829,0.16078507900238,0.106313779950142
783,0.0274359323084354,-0.0247553195804358,0.0803366303443909,0.0984402745962143,0.154019683599472,0.100051380693913
784,0.0311629641801119,-0.022331241518259,0.0808766707777977,0.0952654331922531,0.145972654223442,0.0955304503440857
785,0.0323769077658653,-0.0141456536948681,0.0796369686722755,0.09258171916008,0.138289049267769,0.0929364189505577
786,0.0282347965985537,-0.00586984865367413,0.0781159326434135,0.0904331877827644,0.135830417275429,0.0903506353497505
787,0.0208018142729998,-0.0010182490805164,0.0774588584899902,0.0867585688829422,0.137436226010323,0.0877430289983749
788,0.0120135825127363,0.00226703425869346,0.076655812561512,0.0815499126911163,0.136100515723228,0.085517942905426
789,0.00398251973092556,0.00284684938378632,0.0753759071230888,0.0771521478891373,0.13081668317318,0.0806049555540085
790,-0.000588981900364161,-0.000859725347254425,0.0753538385033607,0.0748628228902817,0.126512929797173,0.0727904066443443
791,-0.00203502434305847,-0.00718205701559782,0.0758992433547974,0.0725652799010277,0.125110372900963,0.0668039321899414
792,-0.00370389665476978,-0.0139262303709984,0.0733920037746429,0.0674364939332008,0.123794510960579,0.0650240927934647
793,-0.00661843735724688,-0.0185794085264206,0.0672450289130211,0.0617814771831036,0.120097734034061,0.065695695579052
794,-0.00849160738289356,-0.0196427684277296,0.0614238828420639,0.0602264702320099,0.114384077489376,0.0671234503388405
795,-0.00778208905830979,-0.0170963611453772,0.059091717004776,0.0630944669246674,0.107963219285011,0.0700286403298378
796,-0.00488303415477276,-0.0112045826390386,0.0596857778728008,0.0697609037160873,0.103402964770794,0.0760318636894226
797,-0.000774372252635658,-0.00366348447278142,0.0612707883119583,0.0790825039148331,0.103860646486282,0.0842128098011017
798,0.0044858786277473,0.0020088404417038,0.064131535589695,0.0870766490697861,0.109605140984058,0.0907136052846909
799,0.0105541879311204,0.00406215572729707,0.069159060716629,0.0900164693593979,0.116165295243263,0.0914014205336571
800,0.0148023441433907,0.00336882472038269,0.0735257044434547,0.0862011164426804,0.117419943213463,0.0853811800479889
801,0.0157420318573713,-0.000437134032836184,0.0734060928225517,0.0787507966160774,0.112136289477348,0.0771725028753281
802,0.0148723954334855,-0.00627439748495817,0.0677307397127151,0.0739735811948776,0.103363126516342,0.0699001774191856
803,0.0144443716853857,-0.011163636110723,0.0585036054253578,0.0724976360797882,0.0958475098013878,0.0608000606298447
804,0.0157031044363976,-0.0153899844735861,0.0499984100461006,0.0686661377549171,0.0961162596940994,0.0496090427041054
805,0.0172511991113424,-0.0185580048710108,0.0456663966178894,0.0604700595140457,0.105223499238491,0.0422983840107918
806,0.0171786900609732,-0.0167376939207315,0.0469105765223503,0.0535404346883297,0.115420088171959,0.0432792827486992
807,0.0160791948437691,-0.00871384982019663,0.0524953715503216,0.0524183511734009,0.119704060256481,0.0505039840936661
808,0.015029557980597,0.000586845737416297,0.058298334479332,0.0544500611722469,0.118265874683857,0.0584136657416821
809,0.0134843327105045,0.00520994979888201,0.0613480322062969,0.0555699057877064,0.114004962146282,0.0629974231123924
810,0.011528642848134,0.00454199593514204,0.06191511079669,0.0547940246760845,0.108119383454323,0.0639926940202713
811,0.0119997747242451,0.00154397147707641,0.0604458153247833,0.0531944260001183,0.100177273154259,0.0620373263955116
812,0.0169690921902657,-0.00238410430029035,0.056428849697113,0.0526325218379498,0.0895305573940277,0.0572327710688114
813,0.0227955654263496,-0.00654565077275038,0.0508350282907486,0.0530036874115467,0.0794432312250137,0.0513606928288937
814,0.0240100957453251,-0.00889233686029911,0.0471524707973003,0.0531703270971775,0.0764438882470131,0.04660290107131
815,0.0206311270594597,-0.00860337633639574,0.0484077036380768,0.0539538450539112,0.0822891294956207,0.0429178923368454
816,0.0158101785928011,-0.00722411507740617,0.052845910191536,0.0561907365918159,0.0906045436859131,0.0400574766099453
817,0.01116216275841,-0.00623584538698196,0.0555085763335228,0.0578279830515385,0.0949700474739075,0.0382781252264977
818,0.00759235071018338,-0.00524600502103567,0.0538433976471424,0.0553624592721462,0.0953271016478539,0.0372013375163078
819,0.00463444134220481,-0.00512361852452159,0.0482861809432507,0.0479745641350746,0.0923826768994331,0.0364001728594303
820,0.00124878261703998,-0.00933452509343624,0.0408733263611794,0.0372423753142357,0.0864996239542961,0.0346099473536015
821,-0.00136849761474878,-0.0161574240773916,0.0346343778073788,0.0266343001276255,0.0799871832132339,0.0329223908483982
822,-0.00127144495490938,-0.018924118950963,0.0317583121359348,0.0220923945307732,0.0746973007917404,0.0351713113486767
823,0.00135561276692897,-0.0155095579102635,0.032116487622261,0.0251542292535305,0.0721056535840034,0.0397975146770477
824,0.00402970379218459,-0.0101879592984915,0.0336261317133904,0.0311580542474985,0.0718996226787567,0.041484322398901
825,0.00537363346666098,-0.00776414945721626,0.0352867357432842,0.0370647087693214,0.0719591304659843,0.0398300997912884
826,0.00585801480337977,-0.00872430484741926,0.0373410806059837,0.0418248064815998,0.0716996118426323,0.0384037531912327
827,0.0052408748306334,-0.0108760455623269,0.0386763699352741,0.0435302443802357,0.0712045058608055,0.0390308611094952
828,0.00350022944621742,-0.0131756300106645,0.0379997827112675,0.0416852757334709,0.0701799392700195,0.039954774081707
829,0.00236201728694141,-0.0157084222882986,0.0363693051040173,0.0378390774130821,0.0684407576918602,0.0387477949261665
830,0.00315231387503445,-0.0182267837226391,0.0361281372606754,0.0339897125959396,0.0657358914613724,0.0352046340703964
831,0.00462988764047623,-0.0209404062479734,0.0374933816492558,0.0317515283823013,0.0618168748915195,0.0304949935525656
832,0.00426013674587011,-0.0230718739330769,0.0385282263159752,0.0320303849875927,0.0572895370423794,0.0261182151734829
833,0.00162932078819722,-0.0228303018957376,0.0387004278600216,0.0349894501268864,0.0548411086201668,0.0233066789805889
834,-0.00158197176642716,-0.0207972731441259,0.0384991951286793,0.0391697995364666,0.0556132234632969,0.0211533419787884
835,-0.00387304881587625,-0.017724622040987,0.0368472523987293,0.0414135530591011,0.0570120736956596,0.0177911799401045
836,-0.00458666495978832,-0.0121966917067766,0.0326562039554119,0.0384073220193386,0.0567329749464989,0.0151614965870976
837,-0.00512296566739678,-0.00456308899447322,0.0269043315201998,0.0308528393507004,0.0531020686030388,0.0180055536329746
838,-0.00650430098176003,0.00130781496409327,0.0230915378779173,0.0259015522897244,0.0452915318310261,0.0266236048191786
839,-0.0069589545018971,0.00224524666555226,0.0237231440842152,0.0271068811416626,0.0357261709868908,0.0339212976396084
840,-0.00567141128703952,-0.00243929238058627,0.0268128644675016,0.0288825649768114,0.0278685297816992,0.0330643765628338
841,-0.00367489480413496,-0.0100056482478976,0.0289982594549656,0.0278940312564373,0.0246246811002493,0.0267944261431694
842,-0.00148067693226039,-0.0151128889992833,0.0288486685603857,0.0266033671796322,0.027487326413393,0.023239454254508
843,0.000984278973191977,-0.0160670410841703,0.0275063309818506,0.0259808879345655,0.0348795093595982,0.025088107213378
844,0.0037143100053072,-0.0141234006732702,0.0258747357875109,0.0241246242076159,0.0423033349215984,0.0280923414975405
845,0.00596999004483223,-0.00998065993189812,0.0225419942289591,0.0193803180009127,0.0449147075414658,0.0271924901753664
846,0.00708878180012107,-0.0045178746804595,0.0169326234608889,0.0123072490096092,0.0425643362104893,0.0215801857411861
847,0.00718586659058928,-0.000476656976388767,0.011147859506309,0.00522774690762162,0.0398324988782406,0.0134504279121757
848,0.0067643728107214,-0.00186167052015662,0.00828417018055916,0.000523699971381575,0.0398850589990616,0.00388415949419141
849,0.00868065189570189,-0.00921353604644537,0.00912076886743307,-0.0013590999878943,0.0410619676113129,-0.00615215487778187
850,0.0147271072492003,-0.0183432288467884,0.0113980360329151,-0.000981869059614837,0.0399321392178535,-0.013217774219811
851,0.0183582790195942,-0.0241700168699026,0.0123451733961701,0.00213139900006354,0.0335273556411266,-0.0135877430438995
852,0.0131771732121706,-0.0246295649558306,0.0117860175669193,0.00731851905584335,0.0219319574534893,-0.00829142425209284
853,0.00350392167456448,-0.021390350535512,0.0130020752549171,0.0130318533629179,0.011743051931262,-0.00303806457668543
854,-0.00358710996806622,-0.0178291089832783,0.0172900669276714,0.0180789325386286,0.00939818378537893,-0.00200480502098799
855,-0.00603058934211731,-0.016171807423234,0.0216975789517164,0.020933473482728,0.0146210547536612,-0.00361527549102902
856,-0.00532112270593643,-0.0165562331676483,0.0241811070591211,0.0224231388419867,0.0227174535393715,-0.00295590166933835
857,-0.00435265060514212,-0.0165238790214062,0.0247144140303135,0.0233267601579428,0.0281980093568563,0.00137666636146605
858,-0.00462582614272833,-0.0138938827440143,0.0235864389687777,0.0212915502488613,0.028807682916522,0.00635013729333878
859,-0.00565391685813665,-0.0111962985247374,0.0214013662189245,0.0155308339744806,0.0255503915250301,0.0099293440580368
860,-0.00625959550961852,-0.0111780427396297,0.0188482720404863,0.00798905268311501,0.0209357906132936,0.0123912747949362
861,-0.00548945739865303,-0.0131634855642915,0.0161884259432554,0.00108478125184774,0.0176211073994637,0.0132204918190837
862,-0.0041914451867342,-0.0164831876754761,0.0130706615746021,-0.00334980199113488,0.0150717347860336,0.0102983508259058
863,-0.00353662227280438,-0.021335793659091,0.0104703307151794,-0.00446279300376773,0.0117969326674938,0.00342928781174123
864,-0.00321789248846471,-0.025798887014389,0.0100612929090858,-0.00165542354807258,0.00866567809134722,-0.0035817192401737
865,-0.00310867582447827,-0.0258147027343512,0.0112361870706081,0.00391738070175052,0.00671310536563396,-0.00699545023962855
866,-0.0039764023385942,-0.0204543843865395,0.0115724923089147,0.00827296078205109,0.00613815383985639,-0.0071697230450809
867,-0.00514758704230189,-0.0139167057350278,0.0103457923978567,0.00843213964253664,0.00817378703504801,-0.00665247021242976
868,-0.00481016375124455,-0.0107174646109343,0.00975809805095196,0.00451449956744909,0.0119508840143681,-0.00728555442765355
869,-0.00369495199993253,-0.0114979855716228,0.0113131664693356,-0.00117942795623094,0.0125755481421947,-0.00827341247349977
870,-0.00375522836111486,-0.013540567830205,0.0137046473100781,-0.00543096521869302,0.00806745979934931,-0.007956862449646
871,-0.00439178105443716,-0.0144576588645577,0.014877594076097,-0.00707420147955418,0.00206387485377491,-0.00808404386043549
872,-0.00438470859080553,-0.0150625882670283,0.0140073737129569,-0.00711266091093421,-0.00128943065647036,-0.0120059568434954
873,-0.00412602629512548,-0.0184077844023705,0.0115395979955792,-0.00614608312025666,-0.000309333816403523,-0.0204528756439686
874,-0.00330468453466892,-0.0241414066404104,0.00876931846141815,-0.00331217655912042,0.00448734546080232,-0.0297060944139957
875,-0.00120116653852165,-0.0262255035340786,0.00667164847254753,0.00166528252884746,0.0106370346620679,-0.0332369916141033
876,0.000905652821529657,-0.0206239186227322,0.00491771940141916,0.00602790992707014,0.0138859124854207,-0.0283779390156269
877,0.00197337125428021,-0.0126013848930597,0.00266988319344819,0.00666541652753949,0.0112734651193023,-0.0203449297696352
878,0.00277084903791547,-0.0108528286218643,-0.000523624126799405,0.00330895255319774,0.00472094025462866,-0.0158301144838333
879,0.00323499878868461,-0.0166097618639469,-0.00432455120608211,-0.0023733654525131,-0.00164880242664367,-0.016520582139492
880,0.00289680692367256,-0.0236502215266228,-0.00667621102184057,-0.00640208413824439,-0.00568496948108077,-0.0196133460849524
881,0.00259631965309381,-0.0263427812606096,-0.00559571897611022,-0.00539356051012874,-0.00676009152084589,-0.0212385430932045
882,0.00267585786059499,-0.0240578558295965,-0.00157360616140068,-0.0019328756025061,-0.00519491452723742,-0.0202447101473808
883,0.00198271381668746,-0.0185414589941502,0.00320452707819641,-0.000583623943384737,-0.00400354294106364,-0.0173892918974161
884,-0.000105762555904221,-0.0114241540431976,0.00674193957820535,-0.00112240936141461,-0.00591735448688269,-0.0131789986044168
885,-0.0019255664665252,-0.00512770377099514,0.00972448848187923,-0.000717652204912156,-0.00844283029437065,-0.00927175767719746
886,-0.00178631115704775,-0.00287291430868208,0.0126610212028027,-0.000655428855679929,-0.00824095029383898,-0.00878766365349293
887,0.000117827621579636,-0.00571275083348155,0.012306465767324,-0.00382391572929919,-0.00592739041894674,-0.0127038601785898
888,0.0028189686127007,-0.0106902550905943,0.00763683300465345,-0.00810599979013205,-0.00309517327696085,-0.0187897905707359
889,0.00678309705108404,-0.0153755266219378,0.0026113863568753,-0.0107958437874913,-0.00014590319187846,-0.0255141369998455
890,0.0140598407015204,-0.0203006584197283,-0.000173827254911885,-0.0127530805766582,0.00259593734517694,-0.03266841173172
891,0.0216411370784044,-0.024738596752286,-0.00172208074945956,-0.0135459620505571,0.00300418050028384,-0.0387233607470989
892,0.0220759212970734,-0.0268044769763947,-0.00223048869520426,-0.0104792676866055,-0.000671762914862484,-0.0410301089286804
893,0.0145924733951688,-0.0252264775335789,-6.10786228207871E-05,-0.00279302848502994,-0.00584058556705713,-0.0381014086306095
894,0.00535681890323758,-0.0186442788690329,0.00312643917277455,0.00677755614742637,-0.00856328383088112,-0.0305211655795574
895,-0.00163346179760993,-0.00939030386507511,0.0031963037326932,0.0139770908281207,-0.00985326990485191,-0.0207236371934414
896,-0.00620408309623599,-0.00317673827521503,0.000453760294476524,0.0153133850544691,-0.0129151782020926,-0.0132544366642833
897,-0.00878097768872976,-0.000319648825097829,-0.00218718219548464,0.00933187454938889,-0.0169198401272297,-0.0113882999867201
898,-0.010046093724668,0.00241480628028512,-0.00467588240280747,-0.00198480091057718,-0.0198551584035158,-0.0139960898086429
899,-0.0102014308795333,0.00407169479876757,-0.00808088574558496,-0.0136498706415296,-0.0211842600256205,-0.018124146386981
900,-0.00826384220272303,0.00333099788986146,-0.0119780097156763,-0.0207014996558428,-0.0201255828142166,-0.0214631482958794
901,-0.00396306393668056,0.00155051832552999,-0.0145213166251779,-0.0216024443507195,-0.0161005835980177,-0.0229157600551844
902,0.00156408885959536,0.000445818790467456,-0.0137492753565311,-0.0187696292996407,-0.0110410777851939,-0.0223562475293875
903,0.00590961705893278,0.00176695780828595,-0.0098901791498065,-0.0156521592289209,-0.00922360457479954,-0.0206314045935869
904,0.00689752073958516,0.00521340174600482,-0.00509853754192591,-0.0140048991888762,-0.0116142649203539,-0.0192248821258545
905,0.00509866233915091,0.00622999668121338,-0.00154181092511863,-0.0131404139101505,-0.0150183280929923,-0.0186974462121725
906,0.00275691086426377,0.00134490185882896,-0.000560027256142348,-0.0121383806690574,-0.0162904895842075,-0.0189732499420643
907,0.0018474399112165,-0.00564049324020743,-0.00210209679789841,-0.011190571822226,-0.0136588048189878,-0.0190770979970694
908,0.00270609860308468,-0.0090692900121212,-0.00472160615026951,-0.0105856498703361,-0.00838834885507822,-0.0176578592509031
909,0.00427266908809543,-0.00796932075172663,-0.00612476374953985,-0.010562158189714,-0.00316617800854146,-0.0152518851682544
910,0.00558360433205962,-0.00444677751511335,-0.00541248405352235,-0.011071527376771,0.000434408895671368,-0.0134199149906635
911,0.0064861630089581,0.00011939370597247,-0.00348732504062355,-0.010792825371027,0.0023046238347888,-0.0121658146381378
912,0.00686120335012674,0.0062847682274878,-0.00124180666171014,-0.00789988227188587,0.00275057856924832,-0.00925851985812187
913,0.0049748751334846,0.0116404490545392,-0.00143955484963954,-0.00428633205592632,-0.000220895235543139,-0.00467527518048882
914,0.000482737988932058,0.0124142104759812,-0.00630959123373032,-0.00406047236174345,-0.00758908176794648,-0.00118469970766455
915,-0.00342709547840059,0.00952246785163879,-0.0126781025901437,-0.00758027052506804,-0.0153743829578161,-0.000529025099240243
916,-0.00521389301866293,0.0055799437686801,-0.0161334257572889,-0.0108930356800556,-0.0224615857005119,-0.002734120702371
917,-0.00647195335477591,0.00202134717255831,-0.0154524119570851,-0.0106359105557203,-0.0325727909803391,-0.00640655122697353
918,-0.00783393811434507,-0.000517524196766317,-0.011944324709475,-0.00832662172615528,-0.0443859696388245,-0.0114384666085243
919,-0.00790855009108782,-0.000822660396806896,-0.00719633884727955,-0.00689798779785633,-0.0505501478910446,-0.0191462878137827
920,-0.00488942535594106,0.00131005828734487,-0.00273192161694169,-0.00751133682206273,-0.0461147427558899,-0.028320824727416
921,0.000552967714611441,0.00288713374175131,-0.000788195466157049,-0.00928787514567375,-0.0347436815500259,-0.0344046056270599
922,0.00486310850828886,0.00174708489794284,-0.00203694147057831,-0.0098393214866519,-0.0247009731829166,-0.0341406427323818
923,0.00534341717138886,-0.00117848883382976,-0.00482677947729826,-0.00965247768908739,-0.0200056247413158,-0.0298091769218445
924,0.00285778706893325,-0.00196757330559194,-0.00683223176747561,-0.0111265536397696,-0.0174903441220522,-0.0251154620200396
925,0.000463316333480179,0.0028534191660583,-0.00651874206960201,-0.0129974195733666,-0.0133821330964565,-0.0194271430373192
926,-0.000302363041555509,0.011123813688755,-0.00414276262745261,-0.0116950999945402,-0.00896308943629265,-0.0104187335819006
927,-2.99328603432514E-05,0.0180818326771259,-0.00161819683853537,-0.00704000284895301,-0.0064377523958683,0.00102497171610594
928,0.0012184283696115,0.0197692159563303,-0.00061217084294185,-0.00301164225675166,-0.00505859311670065,0.0101123964414001
929,0.00309009640477598,0.0148564390838146,-0.00110537011642009,-0.00310338684357703,-0.00394977862015367,0.0117745846509933
930,0.00343786762095988,0.00780332228168845,-0.00186234014108777,-0.00627727340906858,-0.00522174686193466,0.00635540019720793
931,0.000571850163396448,0.00341759482398629,-0.00260794605128467,-0.00924006011337042,-0.0117808664217591,-0.00122419069521129
932,-0.005263801664114,0.00048532712389715,-0.00567924603819847,-0.011607420630753,-0.0235947873443365,-0.00803738087415695
933,-0.0114611526951194,-0.00339944497682154,-0.0117116989567876,-0.0142932739108801,-0.0355566926300526,-0.0146846454590559
934,-0.0143016297370195,-0.00643390510231256,-0.0169766899198294,-0.015827901661396,-0.0404313318431377,-0.021539444103837
935,-0.0126047097146511,-0.00501867989078164,-0.0183698348701,-0.0152987670153379,-0.0365701206028461,-0.0268524270504713
936,-0.00837430637329817,0.000475693406770006,-0.0158210676163435,-0.0147466668859124,-0.029436532407999,-0.0276952143758535
937,-0.00431356346234679,0.00547572411596775,-0.0108240619301796,-0.0150391338393092,-0.0251194275915623,-0.022185817360878
938,-0.00238562352024019,0.0066302977502346,-0.00640234583988786,-0.0148405339568853,-0.0255101826041937,-0.0124758463352919
939,-0.00277998205274343,0.00462386664003134,-0.00533793307840824,-0.0139092756435275,-0.0283973906189203,-0.00286090956069529
940,-0.00379854650236666,0.00223460141569376,-0.0075810207054019,-0.0126672200858593,-0.0306232161819935,0.00326131982728839
941,-0.00404449971392751,0.000243850372498855,-0.010466187261045,-0.0108365761116147,-0.0307292267680168,0.00261914869770408
942,-0.00299423816613853,-0.00231421599164605,-0.0107132019475102,-0.0088029382750392,-0.0282954480499029,-0.00507591990754008
943,-2.19266003114171E-05,-0.00367425265721977,-0.00808408763259649,-0.00793129112571478,-0.0244059301912785,-0.0145830195397139
944,0.00408890331164002,0.000203086383407936,-0.00533485738560557,-0.00842709001153708,-0.0219835434108973,-0.0196684561669827
945,0.00616612145677209,0.00767298461869359,-0.00511373253539205,-0.00957151968032122,-0.0239431858062744,-0.0198825597763062
946,0.00473046628758311,0.0107521302998066,-0.00811588391661644,-0.0103831188753247,-0.0300297494977713,-0.0192363150417805
947,0.00210450054146349,0.00613190792500973,-0.0114871617406607,-0.0102189537137747,-0.0361396670341492,-0.0199286062270403
948,0.000523156893905252,-0.00228756945580244,-0.0125867994502187,-0.0103947799652815,-0.0391008071601391,-0.0215870197862387
949,4.32939959864598E-05,-0.00997456256300211,-0.0136962234973907,-0.0130227478221059,-0.0382631532847881,-0.0227880999445915
950,-0.00022617747890763,-0.0137235280126333,-0.0180651973932981,-0.0185583662241697,-0.0355535484850407,-0.0223891381174326
951,-0.000585663190577179,-0.0128089003264904,-0.0232385117560625,-0.0246535465121269,-0.0342204049229622,-0.0202732253819704
952,0.000223912225919776,-0.0103865554556251,-0.0240236558020115,-0.0284442249685526,-0.0321299731731415,-0.0163467098027468
953,0.00253391545265913,-0.00884187594056129,-0.0197203159332275,-0.0277364253997803,-0.0255273282527924,-0.00999999418854713
954,0.00443156389519572,-0.00697907991707325,-0.0134378280490637,-0.022321717813611,-0.0177004691213369,-0.00241464585997164
955,0.00681707728654146,-0.00348607357591391,-0.00785512663424015,-0.0157877486199141,-0.0141294160857797,0.00363471126183867
956,0.0118095595389605,0.00127544533461332,-0.00414954451844096,-0.0108496621251106,-0.0170834437012672,0.00623964425176382
957,0.0164187867194414,0.00695099169388413,-0.00303402403369546,-0.00773138971999288,-0.0243725664913654,0.00280911638401449
958,0.0169824454933405,0.0124082807451487,-0.00393941858783364,-0.00607131887227297,-0.0289376173168421,-0.00712033128365874
959,0.0140298558399081,0.0143947815522552,-0.00493713701143861,-0.0048525775782764,-0.0265582352876663,-0.018545288592577
960,0.00979608576744795,0.0115541880950332,-0.0050898902118206,-0.00436266837641597,-0.0207785852253437,-0.0262771639972925
961,0.00559875555336475,0.00559734040871263,-0.00425800587981939,-0.00535322027280927,-0.0170769598335028,-0.0271367859095335
962,0.00102349661756307,-0.000191295854165219,-0.00278450921177864,-0.00707566924393177,-0.0191597361117601,-0.0195765998214483
963,-0.00526197021827102,-0.00284912087954581,-0.00320190051570535,-0.0101140234619379,-0.0278737917542458,-0.00854497961699963
964,-0.0126990685239434,-0.00310201500542462,-0.00676535116508603,-0.0147369327023625,-0.0384504571557045,-0.00218850979581475
965,-0.0180294513702393,-0.00168708642013371,-0.00945333577692509,-0.0174198262393475,-0.0439664833247662,-0.00147307896986604
966,-0.0192751847207546,0.00127407407853752,-0.00847441516816616,-0.0172852948307991,-0.0428715497255325,-0.00242240796796978
967,-0.017383148893714,0.00336979329586029,-0.00658593885600567,-0.016951447352767,-0.038547970354557,-0.00295074516907334
968,-0.0137810269370675,0.00355016859248281,-0.0060208635404706,-0.0162844844162464,-0.0332348234951496,-0.00347159919328988
969,-0.00973953399807215,0.00271653267554939,-0.00636055180802941,-0.015236672013998,-0.0280050244182348,-0.00542531721293926
970,-0.00570989679545164,0.00269697280600667,-0.00677618943154812,-0.0143055319786072,-0.023575846105814,-0.00829562358558178
971,-0.00164310948457569,0.00500390725210309,-0.00633547687903047,-0.0114501165226102,-0.019245570525527,-0.0112869245931506
972,0.00120843690820038,0.00744368974119425,-0.00531334849074483,-0.00623502722010016,-0.0151469325646758,-0.0157192666083574
973,0.00174645066726953,0.00752849504351616,-0.00507094850763679,-0.00133272295352072,-0.0124812638387084,-0.021062433719635
974,0.000172881598700769,0.00709670130163431,-0.00583906751126051,0.0005946378223598,-0.0121956253424287,-0.0243448279798031
975,-0.00193581671919674,0.00856178160756826,-0.00663277553394437,-0.00140190788079053,-0.0148816797882319,-0.0242427475750446
976,-0.00168647000100464,0.0103423623368144,-0.00649453978985548,-0.00595890078693628,-0.0206232089549303,-0.0226792488247156
977,0.00188182038255036,0.0100279850885272,-0.00405573844909668,-0.0103583242744207,-0.0273287110030651,-0.0218933075666428
