,AF3,AF4,Fp1,Fp2,AF7,AF8
0,-0.0117559395730495,-0.00635362649336457,-0.00514629017561674,-0.0158581584692001,-0.00786104891449213,0.00763009581714869
1,-0.0112189957872033,-0.00134419032838196,-0.00725456047803164,-0.0122931441292167,-0.00719484686851501,0.0134655740112066
2,-0.00850671995431185,0.00407874910160899,-0.00712917977944016,-0.00789631623774767,-0.00474109128117561,0.0203031394630671
3,-0.00532542634755373,0.00907149817794561,-0.00511816656216979,-0.00287639582529664,-0.00212684646248817,0.0265696253627539
4,-0.00268601742573082,0.0118757709860802,-0.00167427805718035,0.00191379454918206,0.000159641931531951,0.0287906415760517
5,0.000189983213203959,0.0114161493256688,0.00261267111636698,0.00630888110026717,0.00375508307479322,0.0249944124370813
6,0.00340281939134002,0.00890794675797224,0.00661530671641231,0.0113073447719216,0.00877089332789183,0.0179083216935396
7,0.00528915459290147,0.00692790513858199,0.00887199398130178,0.0159104224294424,0.0128389671444893,0.0125778364017606
8,0.00480837374925613,0.00693809427320957,0.00791710801422596,0.0162738300859928,0.0135834747925401,0.0114325191825628
9,0.00303453369997442,0.00706551596522331,0.00404037674888968,0.0109991654753685,0.0116249993443489,0.0128215933218598
10,0.00166446855291724,0.00544789340347052,0.000623194850049913,0.00430030096322298,0.00962333101779222,0.0130199799314141
11,0.0010477143805474,0.00314408424310386,0.000718859198968858,0.000293901277473196,0.00749383727088571,0.00883777625858784
12,0.000785730953793973,0.00193726399447769,0.00391242653131485,-0.00113978132139891,0.00396379036828876,0.00131961680017412
13,0.000280917680356652,0.0024675449822098,0.00743427779525518,-0.00245743710547686,-0.000184469085070305,-0.00513663096353412
14,-0.00172613316681236,0.00410975003615022,0.00977608095854521,-0.00394396064803004,-0.0055263270623982,-0.00624463008716702
15,-0.00536473980173469,0.005723612383008,0.011364234611392,-0.00307695032097399,-0.0127019491046667,-0.00069259520387277
16,-0.00854752957820892,0.0060209957882762,0.0110553242266178,-4.44032120867632E-05,-0.0185937844216824,0.00700276345014572
17,-0.00925620831549168,0.00478947255760431,0.0082159386947751,0.0028500750195235,-0.0200043357908726,0.0109331514686346
18,-0.00720729539170861,0.00354215130209923,0.00597219122573733,0.00504024419933558,-0.0160570088773966,0.0103619266301394
19,-0.00415558274835348,0.00278174807317555,0.00637754471972585,0.00524765392765403,-0.00771772861480713,0.00727099040523171
20,-0.0024582389742136,0.00188657070975751,0.00698533002287149,0.00231095706112683,0.00116040569264442,0.00380028132349253
21,-0.00256402534432709,0.00130669632926583,0.00433923257514834,-0.00222191889770329,0.00592698622494936,0.00285462173633277
22,-0.00344435079023242,0.00158586632460356,-0.00128510489594191,-0.0066981166601181,0.00637303432449698,0.00542636821046472
23,-0.00436145300045609,0.00260957074351609,-0.00629757158458233,-0.0101503236219287,0.00553078530356288,0.010117526166141
24,-0.00532887782901526,0.00434114364907146,-0.00865085236728191,-0.011697418987751,0.00349803362041712,0.0151114417240024
25,-0.00582163734361529,0.00723435264080763,-0.00816198904067278,-0.0105640990659595,-0.000233654020121321,0.0194254294037819
26,-0.00537047488614917,0.0103581920266151,-0.00499671930447221,-0.00682638678699732,-0.00359333003871143,0.0226337984204292
27,-0.00463466392830014,0.0112635921686888,-0.000523668189998716,-0.00187009724322706,-0.00528606120496988,0.02456209436059
28,-0.00364991906099021,0.0108017129823565,0.00391078926622868,0.00381747703067958,-0.00458872225135565,0.0263430383056402
29,-0.0027400953695178,0.012469906359911,0.0072930445894599,0.00968140177428722,-0.00189747929107398,0.0283745117485523
30,-0.00270533422008157,0.0156924892216921,0.008815573528409,0.0133756417781115,0.000613111886195838,0.0286921747028828
31,-0.00318905734457076,0.0162408780306578,0.00842733215540648,0.0131160663440824,0.00185303774196655,0.0254916492849588
32,-0.00372205465100706,0.0129755083471537,0.00630393205210567,0.00953957624733448,0.00130081793759018,0.0193270742893219
33,-0.00412089377641678,0.00929712876677513,0.00451500387862325,0.00535171572118998,-0.00201527611352503,0.0131029263138771
34,-0.00485962210223079,0.0079193701967597,0.00567683065310121,0.00204904796555638,-0.00887140911072493,0.00892877951264381
35,-0.00709974253550172,0.00753487739712,0.00914839562028646,-0.00107651646248996,-0.0194114129990339,0.00654484797269106
36,-0.0105160651728511,0.00596638722345233,0.0116441436111927,-0.00421566190198064,-0.0318236835300922,0.00597384106367826
37,-0.012552966363728,0.00296081928536296,0.0105281583964825,-0.00664658052846789,-0.0405361317098141,0.00605533923953772
38,-0.0109885185956955,-0.000971083645708859,0.00674025574699044,-0.00793116725981236,-0.0397666990756989,0.00251195370219648
39,-0.00617578951641917,-0.00487627368420362,0.0028926795348525,-0.00893159676343203,-0.0289256852120161,-0.0064441435970366
40,-0.000885698827914894,-0.00680946512147784,-0.000304255110677332,-0.00977037381380796,-0.0131449587643147,-0.0149747123941779
41,0.00185410468839109,-0.00567547976970673,-0.00345450080931187,-0.00954574625939131,-0.000215656298678368,-0.015434492379427
42,0.00233042403124273,-0.00264189951121807,-0.00701804319396615,-0.00929607171565294,0.00588535238057375,-0.00830234307795763
43,0.00237834057770669,0.000322242791298777,-0.0111544812098145,-0.00997482612729073,0.00671103177592158,-0.000465601187897846
44,0.00169378460850567,0.00221035350114107,-0.0146162826567888,-0.0103630069643259,0.00460842670872808,0.00430187536403537
45,-0.000675120856612921,0.00198035384528339,-0.0159790646284819,-0.0104086743667722,0.000199123431229964,0.00589190423488617
46,-0.00457363575696945,-0.000321680388879031,-0.0158581603318453,-0.0108741419389844,-0.00591439101845026,0.00533895520493388
47,-0.00771684851497412,-0.00118159619159997,-0.0147455194965005,-0.00936105940490961,-0.0108888484537601,0.00661351671442389
48,-0.00734102074056864,0.0028391252271831,-0.0121871661394835,-0.0038740006275475,-0.011971527710557,0.0129111604765058
49,-0.00417794426903129,0.0108736176043749,-0.00845599640160799,0.00154246564488858,-0.0100097013637424,0.0214467570185661
50,-0.00158838171046227,0.0174907110631466,-0.00458167400211096,0.00194408639799804,-0.00842543411999941,0.0271175503730774
51,-0.0011068310122937,0.018967043608427,-0.0015147605445236,-0.00093946501147002,-0.00997490435838699,0.0294649545103312
52,-0.00111360859591514,0.0172772109508514,0.00085687090177089,-0.0029878702480346,-0.0142323179170489,0.0306209940463305
53,-0.000233369108173065,0.0151782305911183,0.00356044364161789,-0.00309058255515993,-0.018964983522892,0.0298847053200006
54,0.00103807484265417,0.013769012875855,0.00737606035545468,-0.0010661460692063,-0.0219327993690968,0.0261547528207302
55,0.0020183261949569,0.0134304948151112,0.011599694378674,0.00236539891920984,-0.0213854387402534,0.0212309155613184
56,0.00187638483475894,0.0133000044152141,0.0141299674287438,0.00417809002101421,-0.0194185879081488,0.0174230504781008
57,0.000286033930024132,0.0120029635727406,0.0140941133722663,0.00269286311231554,-0.0197042431682348,0.0153021747246385
58,-0.00165203306823969,0.00908738654106855,0.0126604130491614,-0.000183047202881426,-0.0217898394912481,0.0132593018934131
59,-0.00278844265267253,0.00500424532219768,0.0112293427810073,-0.00174061593133956,-0.0222447663545609,0.00888732075691223
60,-0.00217856420204043,0.00127802300266922,0.0106780473142862,-0.000278259569313377,-0.0180027429014444,0.00258576567284763
61,0.000544511422049254,-0.00116297358181328,0.0106856403872371,0.00339799257926643,-0.00917272176593542,-0.00345888012088835
62,0.00373068358749151,-0.00273364852182567,0.00930636376142502,0.00704394141212106,0.000159926174092107,-0.00692583667114377
63,0.00508327223360538,-0.00263559352606535,0.00569111714139581,0.0103070503100753,0.00662976037710905,-0.00534637784585357
64,0.00433287769556046,-0.000176648027263582,0.00184700812678784,0.0126978298649192,0.0104073453694582,-9.63387865340337E-05
65,0.00304204365238547,0.00284308916889131,0.000131512060761452,0.0120460353791714,0.0117322038859129,0.00431083934381604
66,0.00205540331080556,0.00435974542051554,0.000764714612159878,0.0075474651530385,0.00938935205340385,0.00601625815033913
67,0.00120332255028188,0.00474623264744878,0.00197198824025691,0.00083623913815245,0.0036313752643764,0.00666529312729836
68,0.000882329361047596,0.00554329436272383,0.00227918429300189,-0.00542192114517093,-0.00160473200958222,0.00858692452311516
69,0.000937005213927478,0.00673815794289112,0.00120038562454283,-0.0089896060526371,-0.00283848633989692,0.0123575087636709
70,0.000208047407795675,0.0086998688057065,-0.00120213232003152,-0.00953019130975008,-0.00159641040954739,0.0164892952889204
71,-0.00131027027964592,0.0116576673462987,-0.00336532643996179,-0.00825990457087755,-0.000931805523578078,0.0192928742617369
72,-0.00240265368483961,0.0130446944385767,-0.00320730032399297,-0.00659204507246614,-0.00188629992771894,0.0201302114874125
73,-0.00202985829673707,0.0111976666375995,-8.60128930071369E-05,-0.00593859422951937,-0.00309848389588296,0.0180001072585583
74,-0.000135176102048717,0.0065512303262949,0.00503390235826373,-0.00660010660067201,-0.00225528702139854,0.0122633902356029
75,0.00203895219601691,0.000450801220722497,0.00897644367069006,-0.00737306941300631,-0.000610703427810222,0.00574978115037084
76,0.00381236732937396,-0.00444607436656952,0.00926812645047903,-0.00704214489087462,-0.000348733243299648,0.00230268505401909
77,0.00594102870672941,-0.00563874328508973,0.00764695880934596,-0.00533694261685014,0.00108675728552043,0.0023832218721509
78,0.00821095053106546,-0.00303741823881865,0.00627641240134835,-0.00288986414670944,0.00540176127105951,0.00450817728415132
79,0.00906900409609079,0.000752018531784415,0.00547404307872057,5.47163035662379E-05,0.00869146920740604,0.00750820571556687
80,0.00761086493730545,0.00296399765647948,0.00461399322375655,0.00396618200466037,0.00755522586405277,0.0101917730644345
81,0.00492900097742677,0.00306377443484962,0.00303771812468767,0.00805125199258327,0.00437710341066122,0.0124480947852135
82,0.00240430142730474,0.00206214678473771,0.000493088271468878,0.00989820901304483,0.00294950511306524,0.0147187197580934
83,8.97633944987319E-05,0.00121047568973154,-0.00294238608330488,0.00865968130528927,0.00328274979256094,0.0163779575377703
84,-0.0016665052389726,0.00127609039191157,-0.0055109984241426,0.00581166613847017,0.00437648920342326,0.0168482027947903
85,-0.00285617797635496,0.00154886988457292,-0.00606533605605364,0.00253488589078188,0.00579000031575561,0.0163596402853727
86,-0.00426390348002315,0.00137391733005643,-0.0058925817720592,-0.000665792089421302,0.00594398798421025,0.0158941019326448
87,-0.00577743584290147,0.00123791117221117,-0.00602265633642673,-0.00325704854913056,0.00366675341501832,0.0161473769694567
88,-0.00654125632718205,0.00159293576143682,-0.00595492590218782,-0.00429991958662868,9.05113774933852E-05,0.0167788378894329
89,-0.00603192253038287,0.00216658017598093,-0.00506143178790808,-0.00334492465481162,-0.00221795123070478,0.0172327850013971
90,-0.00482808751985431,0.00234990520402789,-0.00393629958853126,-0.00151866930536926,-0.00305771012790501,0.0166345927864313
91,-0.00396276917308569,0.00165137671865523,-0.00280037778429687,0.000245525356149301,-0.0047782976180315,0.0133936619386077
92,-0.00353339640423656,-0.00014238957373891,-0.000747746438719332,0.00199617864564061,-0.00675691990181804,0.00688401982188225
93,-0.0029749299865216,-0.00218393257819116,0.00207669707015157,0.00429017376154661,-0.00676044356077909,0.000501679896842688
94,-0.00197446974925697,-0.00294705736450851,0.00541204027831554,0.00841793138533831,-0.005763771943748,-0.000666795123834163
95,-0.00158666493371129,-0.00230904598720372,0.00866815913468599,0.0128730945289135,-0.0067891082726419,0.00229071988724172
96,-0.00383052509278059,-0.00225435243919492,0.00916596781462431,0.012807909399271,-0.011943344026804,0.00318215414881706
97,-0.0081046549603343,-0.00304945278912783,0.00620771758258343,0.00808018632233143,-0.0187415014952421,0.000435547175584361
98,-0.011358262039721,-0.00218034768477082,0.00243275729008019,0.00376434368081391,-0.0215515792369843,-0.00159508397337049
99,-0.0120989223942161,0.000334426644258201,-0.000872789532877505,0.00186755380127579,-0.0181874725967646,0.000110189139377326
100,-0.0113831637427211,0.00142419745679945,-0.00422056997194886,0.000377369840862229,-0.0121668828651309,0.00410716747865081
101,-0.0104870432987809,-0.000321836996590719,-0.00663436483591795,-0.00212879688479006,-0.00896751880645752,0.00766193401068449
102,-0.00906557030975819,-0.00283931917510927,-0.00673211086541414,-0.00483514182269573,-0.0102377971634269,0.0100982682779431
103,-0.00646805809810758,-0.0028687531594187,-0.00454102410003543,-0.00552241085097194,-0.0127399833872914,0.0138477236032486
104,-0.00313111068680882,3.10243813146371E-05,-0.000863832188770175,-0.00341873336583376,-0.0125088635832071,0.0199531987309456
105,0.000206063486984931,0.00319224153645337,0.00277510564774275,-0.000114274531370029,-0.00896082259714603,0.0245273672044277
106,0.00340363220311701,0.00483419978991151,0.00542499823495746,0.0030270591378212,-0.00452641909942031,0.0244255531579256
107,0.00628313887864351,0.00514589389786124,0.00734998844563961,0.00500618247315288,0.000122699624625966,0.0206062141805887
108,0.0076111163944006,0.00484843412414193,0.00881202798336744,0.00524063920602202,0.00531311705708504,0.0157962962985039
109,0.00615175627171993,0.00471256393939257,0.00956875272095203,0.00418709311634302,0.00873714592307806,0.0126051800325513
110,0.00216458644717932,0.00501389289274812,0.00883844681084156,0.00210800115019083,0.00799345411360264,0.0118776680901647
111,-0.00296812946908176,0.00535171572118998,0.0064219138585031,-0.000377697986550629,0.00281274388544261,0.0127388956025243
112,-0.00769222807139158,0.00525310542434454,0.00391833437606692,-0.0016609012382105,-0.0051049324683845,0.0136112058535218
113,-0.0104827415198088,0.00464873993769288,0.00305851688608527,-0.00111060845665634,-0.0118215642869473,0.0134680476039648
114,-0.0104060117155313,0.00374627322889864,0.00328728253953159,0.000194046486285515,-0.0138256149366498,0.0130396401509643
115,-0.00846679229289293,0.0028537642210722,0.00283513218164444,0.00146946788299829,-0.0116507215425372,0.0131148518994451
116,-0.00707355793565512,0.00211322167888284,0.001307193771936,0.00272453739307821,-0.00836218055337667,0.0135403797030449
117,-0.00764357438310981,0.000614269578363746,-0.000365468469681218,0.00407257582992315,-0.00637485831975937,0.0145577182993293
118,-0.00994294509291649,-0.0016567069105804,-0.00168595078866929,0.00555183226242661,-0.0061520654708147,0.016454579308629
119,-0.0126184839755297,-0.00179207837209105,-0.00269636139273643,0.00679879914969206,-0.00574376527220011,0.0188392717391253
120,-0.014023463241756,0.0018075896659866,-0.00298507162369788,0.0079421391710639,-0.00310168159194291,0.0200988240540028
121,-0.0136150438338518,0.00694589409977198,-0.00209037726745009,0.00890554487705231,0.000916253833565861,0.0175712369382381
122,-0.0118037750944495,0.0100195789709687,-0.000175642839167267,0.00823228154331446,0.00350462784990668,0.0109833450987935
123,-0.0099105890840292,0.00903719663619995,0.00124214857351035,0.0052867098711431,0.00203350861556828,0.00441006571054459
124,-0.00876730680465698,0.00581560377031565,0.000518673390615731,0.00122539466246963,-0.00348056294023991,0.00190505827777088
125,-0.00738422898575664,0.00268398667685688,-0.00211216113530099,-0.00254058255814016,-0.0100734150037169,0.00206945044919848
126,-0.00529703963547945,-0.00129431230016053,-0.00530405109748244,-0.00552395172417164,-0.0137687772512436,-0.000160578681970946
127,-0.00272857071831822,-0.00662361178547144,-0.00670971442013979,-0.00729770213365555,-0.0109272617846727,-0.005673932377249
128,-0.000127246705233119,-0.0107539808377624,-0.00467397319152951,-0.00675124069675803,-0.00272302888333797,-0.00924279075115919
129,0.00111875683069229,-0.012360043823719,-0.00123148341663182,-0.00543103599920869,0.0046156020835042,-0.00741110509261489
130,0.000132813060190529,-0.0125999571755528,0.000101648416602984,-0.00674008810892701,0.0062191397882998,-0.0020169832278043
131,-0.00231181527487934,-0.0118415504693985,-0.00164772162679583,-0.00971511099487543,0.00291020353324711,0.00499752350151539
132,-0.00494953151792288,-0.00929927546530962,-0.00448791543021798,-0.0100968275219202,-0.00113532040268183,0.0132651664316654
133,-0.00779750430956483,-0.00538082234561443,-0.0058157597668469,-0.00692748185247183,-0.00461109355092049,0.0202731285244226
134,-0.0103107150644064,-0.00148147076833993,-0.00397055549547076,-0.00285256188362837,-0.00839016120880842,0.0222870446741581
135,-0.0108600733801723,0.00150134519208223,0.000418851734139025,0.000251386110903695,-0.0113054681569338,0.0194664020091295
136,-0.00979537516832352,0.00257147336378694,0.00427512126043439,0.00199033273383975,-0.0106442412361503,0.0143301151692867
137,-0.00848629884421825,0.00163879885803908,0.00518498755991459,0.00221884902566671,-0.00581242376938462,0.00895419903099537
138,-0.00733768800273538,0.000290480791591108,0.00333718280307949,0.00134450767654926,-1.67200196301565E-05,0.00609798356890678
139,-0.00676995050162077,-0.000342717015882954,0.000174261454958469,0.000552650832105428,0.00303131015971303,0.00693714385852218
140,-0.00736123137176037,-0.000216470696614124,-0.00296202534809709,0.00156540400348604,0.0020852533634752,0.00927398633211851
141,-0.00865146983414888,0.000333128235070035,-0.00446704821661115,0.00517188990488648,-0.000484930060338229,0.0103367250412703
142,-0.00956534966826439,0.000391927547752857,-0.00323306303471327,0.00904272869229317,-0.00137632410041988,0.0095496317371726
143,-0.00902637559920549,5.03983537782915E-05,-0.000166273006470874,0.0104129686951637,3.36125267494936E-05,0.00871459860354662
144,-0.00720989238470793,0.000675149727612734,0.00150636467151344,0.0091642951592803,0.00202299072407186,0.00914250407367945
145,-0.00619536777958274,0.00197117053903639,-0.000424786267103627,0.0063505214639008,0.00218739337287843,0.0103725427761674
146,-0.00675602769479156,0.00367377093061805,-0.00370634393766522,0.00393137196078897,-1.43758677495498E-06,0.0121468789875507
147,-0.00747847091406584,0.00631752656772733,-0.00536296144127846,0.00362818734720349,-0.00307990470901132,0.0136120822280645
148,-0.00742789311334491,0.00781536940485239,-0.00505461357533932,0.00444435467943549,-0.00572690041735768,0.0127050904557109
149,-0.0066655189730227,0.0055791181512177,-0.00346874562092125,0.00421110074967146,-0.00662877643480897,0.00856944918632507
150,-0.00556864636018872,0.000416080700233579,-0.0011657786089927,0.00291971513070166,-0.0043674441985786,0.00237165810540318
151,-0.00457254750654101,-0.00471801217645407,0.00201901467517018,0.00238654483109713,0.000967683270573616,-0.00418829778209329
152,-0.0041990214958787,-0.00793730467557907,0.00628682831302285,0.00373260537162423,0.0073621878400445,-0.00939626153558493
153,-0.00460106506943703,-0.00854469276964664,0.0098166735842824,0.00717958249151707,0.0121198389679194,-0.0103080226108432
154,-0.00483082793653011,-0.00606877077370882,0.010408909060061,0.0125779872760177,0.0135877914726734,-0.00470516132190824
155,-0.00437365937978029,-0.00199215626344085,0.00765682198107243,0.0175487082451582,0.0122915282845497,0.00463357334956527
156,-0.00400743307545781,0.000955230265390128,0.00252075353637338,0.017589034512639,0.0101935071870685,0.0118682384490967
157,-0.00453105801716447,0.0021825865842402,-0.00266093458048999,0.0113814361393452,0.00790975987911224,0.0144234644249082
158,-0.00579241011291742,0.00284932646900415,-0.00565473129972816,0.00260093063116074,0.00499935448169708,0.0136503223329782
159,-0.007335992064327,0.00352165964432061,-0.0070083667524159,-0.00474344799295068,0.00230184569954872,0.0114079564809799
160,-0.00896851345896721,0.00381407677195966,-0.00899636093527079,-0.00954034924507141,0.000882421329151839,0.00893382728099823
161,-0.0105933332815766,0.0030300875660032,-0.0115477191284299,-0.0120436288416386,-5.94512348470744E-05,0.00704145198687911
162,-0.0118514914065599,0.00162411143537611,-0.0117743089795113,-0.0116875031962991,-0.0031377172563225,0.00692416308447719
163,-0.0116696152836084,0.000697416544426233,-0.00805363431572914,-0.00871867407113314,-0.00920484121888876,0.00878218095749617
164,-0.00982534699141979,7.74627042119391E-05,-0.00214283401146531,-0.00436888821423054,-0.0150411119684577,0.00968491192907095
165,-0.00735397404059768,-0.000133884721435606,0.00346347503364086,0.00114447542000562,-0.0168487094342709,0.00737527990713716
166,-0.00491334823891521,0.00086868170183152,0.00727411499246955,0.00650090212002397,-0.0131424097344279,0.00356224994175136
167,-0.00245985738001764,0.00337070599198341,0.00805787462741137,0.00937053840607405,-0.00471979193389416,0.00171179685276002
168,-7.00348828104325E-05,0.00731717282906175,0.00595309771597385,0.010066282004118,0.00469952542334795,0.0045222882181406
169,0.00175691384356469,0.0123522644862533,0.00333720445632935,0.0113737806677818,0.0110585000365973,0.0121058486402035
170,0.00188817095477134,0.0174035467207432,0.00161974271759391,0.0139780044555664,0.0124209932982922,0.0200903005897999
171,-0.000557271298021078,0.018646040931344,-0.000593231874518096,0.0143929775804281,0.00883970595896244,0.0219234209507704
172,-0.00434490200132132,0.0132310567423701,-0.00371155678294599,0.0117847109213471,0.00250540883280337,0.0158498082309961
173,-0.00691716698929667,0.00515104411169887,-0.00485360762104392,0.010902276262641,-0.00408297963440418,0.00611658720299602
174,-0.00711063435301185,-0.000667070387862623,-0.00209793099202216,0.0131771741434932,-0.00901130959391594,-0.00287981913425028
175,-0.00565564259886742,-0.00354443490505219,0.00243845186196268,0.0148335387930274,-0.0102034881711006,-0.00871402118355036
176,-0.00350520550273359,-0.00481313327327371,0.00536318402737379,0.0134031688794494,-0.00661317305639386,-0.0108873210847378
177,-0.00110595836304128,-0.00559679372236133,0.0053053991869092,0.00895835366100073,0.000330469134496525,-0.0107230003923178
178,0.00166219903621823,-0.00590064888820052,0.00357030774466693,0.00353318150155246,0.00864505767822266,-0.00956455245614052
179,0.00444277934730053,-0.00670280260965228,0.00179997028317302,-0.000941184407565743,0.016822811216116,-0.0102418661117554
180,0.006181500852108,-0.00889735016971827,0.000541981367859989,-0.00488791707903147,0.0226893369108438,-0.0148689886555076
181,0.00665134843438864,-0.0104459561407566,-0.000163068034453318,-0.00861768797039986,0.0239735916256905,-0.0197585597634315
182,0.00606524478644133,-0.00886854249984026,-0.000853907607961446,-0.0107600390911102,0.0194526296108961,-0.0192743334919214
183,0.00474807852879167,-0.00424982840195298,-0.00173183321021497,-0.0101925432682037,0.0118035702034831,-0.012668177485466
184,0.00318473554216325,0.000802398950327188,-0.00203441106714308,-0.00789686664938927,0.0062339399009943,-0.00477369595319033
185,0.00149495538789779,0.0036158743314445,-0.00168038439005613,-0.00588252302259207,0.00372614990919828,-0.000922009290661663
186,2.15404106711503E-05,0.00358086498454213,-0.00175106362439692,-0.00445634871721268,0.00264787790365517,-0.00198886357247829
187,-0.000378017022740096,0.00155141518916935,-0.00216354732401669,-0.00226304703392088,0.00406405469402671,-0.0055664530955255
188,0.000372720183804631,-0.00169393990654498,-0.00201767985709012,0.000458615540992469,0.00881463568657637,-0.0101565672084689
189,0.00135278806556016,-0.00571951037272811,-0.00173215323593467,0.000936758471652865,0.0152151109650731,-0.0157433934509754
190,0.00227810419164598,-0.00911043304949999,-0.00215472793206573,-0.00200414774008095,0.0211503021419048,-0.02120690792799
191,0.00289621157571673,-0.0094638429582119,-0.00367868389002979,-0.00508186873048544,0.0241113323718309,-0.0237019844353199
192,0.00184922129847109,-0.00651334738358855,-0.00587378954514861,-0.00533040054142475,0.0222323071211576,-0.0220450237393379
193,-0.00117069820407778,-0.00291756726801395,-0.00701161287724972,-0.00459831906482577,0.0159673038870096,-0.0182921979576349
194,-0.00416272087022662,-0.000388583925087005,-0.00523613765835762,-0.00503869261592627,0.00856190826743841,-0.0136503232643008
195,-0.00546710658818483,0.00268555129878223,-0.00127414090093225,-0.00518625788390636,0.0041391234844923,-0.00682207802310586
196,-0.00484153721481562,0.0080509390681982,0.00154207786545157,-0.0038653863593936,0.00347090302966535,0.00158114673104137
197,-0.00260075205005705,0.0123401014134288,0.00124733266420662,-0.00241604493930936,0.00485870288684964,0.00811749789863825
198,-0.000543176778592169,0.0106118433177471,-0.00100545445457101,-0.00135044427588582,0.00661072973161936,0.0105991177260876
199,-0.000588591967243701,0.0041863382793963,-0.0028775327373296,2.01236616703682E-06,0.00694281095638871,0.00990610662847757
200,-0.00234801601618528,-0.00196557049639523,-0.00358279701322317,0.000911076145712286,0.00541659351438284,0.00773945357650518
201,-0.00449722306802869,-0.00525265419855714,-0.00372094707563519,0.000492581166327,0.0027399763930589,0.00508747436106205
202,-0.0063377246260643,-0.00584062933921814,-0.00321259815245867,9.52469326875871E-06,-0.00014809328422416,0.00328629836440086
203,-0.0072954255156219,-0.00517739448696375,-0.00181970931589603,0.00103058211971074,-0.00132868729997426,0.00351033755578101
204,-0.0070056882686913,-0.0042366748675704,0.000262805609963834,0.00356797245331109,-4.18745148635935E-05,0.00595362624153495
205,-0.00606145057827234,-0.00315402890555561,0.00271514966152608,0.00757310958579183,0.00194079231005162,0.0100451819598675
206,-0.00554345548152924,-0.00257810484617949,0.00445028860121965,0.0127052767202258,0.00269018579274416,0.0139816617593169
207,-0.00591449346393347,-0.00270361336879432,0.00402336567640305,0.0165719091892242,0.0022016167640686,0.0155998794361949
208,-0.00644483137875795,-0.0022572036832571,0.00183190905954689,0.016812726855278,0.00235402537509799,0.0141339525580406
209,-0.00649757869541645,-0.00122203992214054,-0.000533258717041463,0.0131189348176122,0.00405240617692471,0.0100783789530396
210,-0.00639067823067307,-0.000860173953697085,-0.00244436878710985,0.00690649403259158,0.00558566208928823,0.00526342121884227
211,-0.00589204300194979,-0.00095155241433531,-0.00302871642634273,0.00119032117072493,0.0046742563135922,0.00173916190396994
212,-0.00479634245857596,-0.00120776379480958,-0.000706903752870858,-0.0016175617929548,0.000506251933984458,-0.000657949305605143
213,-0.00399419013410807,-0.00238801329396665,0.0035351833794266,-0.0017584515735507,-0.00536522082984447,-0.00248714722692966
214,-0.00363530474714935,-0.0042827483266592,0.00642317160964012,-0.000572279968764633,-0.00949795544147491,-0.00304418290033937
215,-0.00287915277294815,-0.00568436551839113,0.00659552030265331,0.000670292531140149,-0.00898941699415445,-0.00164606410544366
216,-0.00165491492953151,-0.0059951082803309,0.00448446674272418,0.00036957478732802,-0.00419296091422439,0.00167963327839971
217,-0.000482712028315291,-0.00564289838075638,0.000974253402091563,-0.00181971862912178,0.00174201105255634,0.00537508819252253
218,-2.75834790954832E-05,-0.00523806549608707,-0.00250755110755563,-0.00416397396475077,0.00631371792405844,0.00741331558674574
219,-0.000336449971655384,-0.00485428050160408,-0.00469955476000905,-0.00541815347969532,0.00897683575749397,0.00765524571761489
220,-0.000419755349867046,-0.00493934145197272,-0.00528526725247502,-0.00571192754432559,0.00967507623136044,0.0070887878537178
221,0.000219818612094969,-0.00611949432641268,-0.0046345773153007,-0.00419479236006737,0.00964287016540766,0.00567684648558497
222,0.000964225968346,-0.00850716233253479,-0.00207394827157259,-0.000528457981999964,0.00963202957063913,0.00162670074496418
223,0.000125999955344014,-0.0111207729205489,0.00250004534609616,0.00316225970163941,0.00662984885275364,-0.0044790543615818
224,-0.00390823790803552,-0.0105923982337117,0.00523561658337712,0.00544492527842522,-0.0020331044215709,-0.00739570101723075
225,-0.0101469187065959,-0.00646772189065814,0.00220122211612761,0.00568064022809267,-0.0139741543680429,-0.00527259381487966
226,-0.0148183256387711,-0.00303270015865564,-0.00479296315461397,0.00340301659889519,-0.0222905855625868,-0.00143131997901946
227,-0.0148759977892041,-0.00222031259909272,-0.0111389448866248,-0.000423785939346999,-0.0213668197393417,0.00164108548779041
228,-0.0108690159395337,-0.00320829334668815,-0.0146121652796865,-0.00407923571765423,-0.0120716076344252,0.00262874504551291
229,-0.00537957344204187,-0.00466082384809852,-0.0151194566860795,-0.00612355535849929,0.000188252932275645,0.00139746034983546
230,-0.000605598092079163,-0.00533180357888341,-0.0138040482997894,-0.00691825617104769,0.0100029585883021,-0.00111163035035133
231,0.00230892281979322,-0.00460156006738544,-0.0119828023016453,-0.00722017092630267,0.014825620688498,-0.00321655441075563
232,0.00344849028624594,-0.00223918654955924,-0.00957638584077358,-0.00612535187974572,0.0148436306044459,-0.00295298802666366
233,0.00387407839298248,0.000975179020315409,-0.00622600130736828,-0.00244685471989214,0.0112479459494352,-0.000249221979174763
234,0.00455565610900521,0.00341527862474322,-0.00290998490527272,0.00294021377339959,0.00580602930858731,0.00208435347303748
235,0.00474681984633207,0.00338655849918723,-0.00180724309757352,0.00616441341117024,-0.000242978931055404,0.000625121872872114
236,0.00347965606488287,0.000777788867708296,-0.00370540400035679,0.00497316708788276,-0.00572121888399124,-0.00383210508152843
237,0.00121434696484357,-0.00240512425079942,-0.00689708767458797,0.00170133041683584,-0.00891036540269852,-0.0062249843031168
238,-0.00138738786336035,-0.00410361355170608,-0.00955015979707241,-0.00185235240496695,-0.00874367263168097,-0.00294397189281881
239,-0.00329739064909518,-0.00383634958416224,-0.0108252577483654,-0.00632568774744868,-0.00429571093991399,0.00433423835784197
240,-0.00400671875104308,-0.00238494458608329,-0.0112885776907206,-0.0113557148724794,0.00232978025451303,0.0113767683506012
241,-0.00425181817263365,-0.000865655427332968,-0.0120818642899394,-0.0151462284848094,0.00642071850597858,0.0151545889675617
242,-0.00476259365677834,-0.000194230015040375,-0.0122566297650337,-0.0160985495895147,0.00681556109338999,0.0145779214799404
243,-0.00547764450311661,-0.000366949505405501,-0.00959905050694942,-0.0134560987353325,0.00561005435883999,0.0104515226557851
244,-0.00530927022919059,-3.61309103027452E-05,-0.00495381513610482,-0.00778658967465162,0.00332588702440262,0.00492814416065812
245,-0.00404632091522217,0.00153671472799033,-0.00168815429788083,-0.000935654388740659,-0.00110175553709269,0.000245994830038399
246,-0.00257933675311506,0.00296974531374872,-0.000577874307055026,0.00498131895437837,-0.00553690269589424,-0.00211631832644343
247,-0.000754716398660094,0.0032085943967104,-2.98879076581215E-05,0.00802613981068134,-0.00600912608206272,-0.00133241212461144
248,0.00153058930300176,0.0033382133115083,0.00051018683006987,0.0080539844930172,-0.00285958172753453,0.00333754741586745
249,0.00332572590559721,0.00501968199387193,0.000806922384072095,0.00724776228889823,0.000807619770057499,0.0109463520348072
250,0.0042497469112277,0.00900185573846102,0.000774535757955164,0.00669124396517873,0.00331052020192146,0.0175130423158407
251,0.00350668164901435,0.0124875111505389,0.000270641670795158,0.00558772590011358,0.00195626844651997,0.0194694567471743
252,-0.000748954014852643,0.0105308089405298,-0.000607047171797603,0.00348525936715305,-0.00603397563099861,0.016211211681366
253,-0.00771899474784732,0.00348654855042696,-0.00130372529383749,0.000945115752983838,-0.0173194985836744,0.0103668728843331
254,-0.0136094642803073,-0.00300964107736945,-0.000688964850269258,0.000308532355120406,-0.0252781044691801,0.00699681090191007
255,-0.0162739083170891,-0.00539098447188735,0.00125477579422295,0.00294764316640794,-0.0271495189517736,0.00848046783357859
256,-0.0157841835170984,-0.00437991693615913,0.00294580217450857,0.00616009486839175,-0.0230156965553761,0.0115948570892215
257,-0.0124936662614346,-0.00190007826313376,0.00365534983575344,0.0075128129683435,-0.0134023977443576,0.0127088511362672
258,-0.00749170361086726,0.000161810356075875,0.00371631770394742,0.00786565989255905,-0.000333394185872748,0.0110879093408585
259,-0.00263828504830599,0.000709249346982688,0.00361402402631938,0.00887027382850647,0.0121439564973116,0.00701343547552824
260,0.000691612251102924,0.000282642897218466,0.00401087291538715,0.0107979560270905,0.0200948268175125,0.00132630101870745
261,0.00243306043557823,-0.000500823371112347,0.00540064182132483,0.0126043763011694,0.0230394750833511,-0.00404922245070338
262,0.00331259146332741,-0.00154521514195949,0.00750153185799718,0.0133572975173593,0.0232644490897655,-0.00671633705496788
263,0.00448240805417299,-0.00291880173608661,0.0094847958534956,0.0126031488180161,0.0236159171909094,-0.00666646705940366
264,0.00625607371330261,-0.00494390493258834,0.011007615365088,0.0100147323682904,0.0253000445663929,-0.0060491724871099
265,0.00748487981036305,-0.00684625888243318,0.0130067747086287,0.00714474311098456,0.0266678892076015,-0.00534369749948382
266,0.00725668109953403,-0.00716944504529238,0.0170874577015638,0.00688813766464591,0.0261721033602953,-0.00417131138965487
267,0.00528133194893599,-0.0057496759109199,0.0231492854654789,0.00949760060757399,0.0232652742415667,-0.00289093772880733
268,0.00180772738531232,-0.0028796917758882,0.0278281047940254,0.0121389366686344,0.017233619466424,-0.000763250689487904
269,-0.00138487911317497,0.00103497423697263,0.0279383417218924,0.0115431677550077,0.00899806153029203,0.00334646785631776
270,-0.00268768798559904,0.00473137572407722,0.0231763441115618,0.0066168368794024,0.000103242571640294,0.00907729472965002
271,-0.00341511843726039,0.00693357503041625,0.0145499156787992,-0.000620844773948193,-0.00894924439489841,0.0155342733487487
272,-0.00501586962491274,0.00716443918645382,0.00524852005764842,-0.00656396569684148,-0.0146762384101748,0.0212893821299076
273,-0.00666969688609242,0.00594349298626184,-0.000204179756110534,-0.0080236978828907,-0.0127642806619406,0.0247957985848188
274,-0.00666611874476075,0.00489338021725416,1.24279922602E-05,-0.00477042468264699,-0.005363913718611,0.02671511285007
275,-0.00357429939322174,0.00528676807880402,0.00392019050195813,0.000676505966112018,0.00121481122914702,0.0287220310419798
276,0.00115818984340876,0.00772639783099294,0.00742631731554866,0.00617794366553426,0.00340003077872097,0.0308585800230503
277,0.00430467585101724,0.0118470517918468,0.0085748452693224,0.0098558496683836,0.00434639072045684,0.0323718786239624
278,0.00495970156043768,0.0149029036983848,0.0084413206204772,0.00989427138119936,0.00863687973469496,0.0331250913441181
279,0.00350775616243482,0.0146401859819889,0.00675842585042119,0.00639161933213472,0.0127891916781664,0.0325395278632641
280,0.000738391128834337,0.0118930479511619,0.00332132447510958,0.000691243738401681,0.0113035729154944,0.0295215249061584
281,-0.0019699209369719,0.00883162766695023,0.000307036796584725,-0.00588549114763737,0.00513699091970921,0.0245840642601252
282,-0.0042258151806891,0.00609604455530643,-0.00137773028109223,-0.0117899496108294,-0.00270122895017266,0.0195042882114649
283,-0.00566960079595447,0.00356342294253409,-0.001986940857023,-0.0148295145481825,-0.0101786879822612,0.0162083748728037
284,-0.00564496405422688,0.00181234430056065,-0.00146156491246074,-0.0140551421791315,-0.0154657484963536,0.0152629287913442
285,-0.00440970994532108,0.00132908206433058,9.34785493882373E-05,-0.0104380752891302,-0.017452722415328,0.0159795079380274
286,-0.00255727232433856,0.00205389293842018,0.00265333335846663,-0.00458900025114417,-0.0164572838693857,0.0179841499775648
287,-0.000353670329786837,0.00301924184896052,0.00591617310419679,0.00254688365384936,-0.0135989645496011,0.0191576313227415
288,0.00220964499749243,0.00343179027549922,0.00933902803808451,0.00839267205446959,-0.00809104088693857,0.0172931738197804
289,0.00455196760594845,0.00349680869840086,0.011108516715467,0.0100411782041192,0.000321066589094698,0.0135296443477273
290,0.00529140001162887,0.00410459749400616,0.00891518499702215,0.00644746329635382,0.00714094983413816,0.00999761745333672
291,0.00432248134166002,0.00579962879419327,0.00312855094671249,-0.000687378575094044,0.00906337145715952,0.00682075973600149
292,0.00383921386674047,0.00752798654139042,-0.00315799028612673,-0.00830371119081974,0.00870421249419451,0.00343823223374784
293,0.00520692672580481,0.00748313451185822,-0.00722710648551583,-0.0143146868795156,0.00892670080065727,0.00106578262057155
294,0.00718311034142971,0.00522217946127057,-0.00803334731608629,-0.0179808624088764,0.0103883435949683,0.00173210201319307
295,0.00898673385381699,0.00257441168650985,-0.00554965110495687,-0.0196409709751606,0.0130601329728961,0.00545785389840603
296,0.0107403239235282,0.00191245577298105,-0.00153628294356167,-0.0200035143643618,0.015266340225935,0.0105353314429522
297,0.0114952242001891,0.00305859884247184,0.000752866500988603,-0.0193708054721355,0.0147796031087637,0.0151471151039004
298,0.0105473874136806,0.00385140138678253,-0.000558291561901569,-0.0191176366060972,0.0113738356158137,0.0176018476486206
299,0.00887250527739525,0.00360151613131166,-0.0032222899608314,-0.0193068217486143,0.00766411004588008,0.0182918384671211
300,0.00734944269061089,0.0037339951377362,-0.00385786383412778,-0.0173833202570677,0.00618287920951843,0.0189103558659554
301,0.00577178876847029,0.00507011637091637,-0.00244701001793146,-0.0134201748296618,0.00681963050737977,0.0184048935770988
302,0.00363066978752613,0.0052679181098938,-0.000679089454934001,-0.00976583641022444,0.00689317798241973,0.0137406643480062
303,0.000577988568693399,0.00239656306803226,0.000793425540905446,-0.00636681076139212,0.00343292183242738,0.0038269991055131
304,-0.00254698330536485,-0.0016126309055835,0.00226666103117168,-0.00182644126471132,-0.0024190261028707,-0.00842871703207493
305,-0.00491171516478062,-0.0044492045417428,0.00365562457591295,0.00353486533276737,-0.00722486013546586,-0.0175799839198589
306,-0.00664183404296637,-0.00515409046784043,0.00467664794996381,0.00733465142548084,-0.0101811001077294,-0.0205722954124212
307,-0.00737765291705728,-0.00391691457480192,0.00560676818713546,0.00679264729842544,-0.012567201629281,-0.0190210361033678
308,-0.00639049056917429,-0.00211617047898471,0.00605685589835048,0.00157938781194389,-0.0127075035125017,-0.0153538268059492
309,-0.00297687924467027,-0.000242070556851104,0.00587158277630806,-0.00444691954180598,-0.00610364601016045,-0.00999154709279537
310,0.00285684573464096,0.0015936114359647,0.00649518193677068,-0.00635258853435516,0.00757545093074441,-0.00477136392146349
311,0.0086634187027812,0.00267292559146881,0.00809996947646141,-0.0033230388071388,0.0216116029769182,-0.00339039578102529
312,0.0112813161686063,0.00306220958009362,0.00844517629593611,0.000246048322878778,0.0281677078455687,-0.00663952389732003
313,0.010488037019968,0.0035046199336648,0.00614682771265507,-0.000530777266249061,0.0262910798192024,-0.0117052951827645
314,0.00836750771850348,0.0050565111450851,0.00217611412517726,-0.00614466238766909,0.0208674669265747,-0.0142800090834498
315,0.00643002893775702,0.00801196228712797,-0.00201965076848865,-0.0131664630025625,0.0159496646374464,-0.0114770773798227
316,0.00479224510490894,0.0103767393156886,-0.00606964062899351,-0.0180426817387342,0.0115240588784218,-0.00468282727524638
317,0.00363396527245641,0.00980349816381931,-0.00972916651517153,-0.0197450816631317,0.00675471220165491,0.00144412298686802
318,0.00357650546357036,0.00686203874647617,-0.0115802111104131,-0.0188331268727779,0.00344534404575825,0.00416820729151368
319,0.00361350527964532,0.00389074697159231,-0.0114512024447322,-0.0166156403720379,0.00114270800258964,0.00528868194669485
320,0.00161475618369877,0.00132333103101701,-0.01060432754457,-0.0144431535154581,-0.00388994347304106,0.00639908062294126
321,-0.00195442489348352,-0.00143912911880761,-0.0090213268995285,-0.0121791921555996,-0.0112147917971015,0.00662274844944477
322,-0.00413429643958807,-0.00337460543960333,-0.00695571303367615,-0.0090031111612916,-0.0152083933353424,0.00606030970811844
323,-0.00426898756995797,-0.0037025383207947,-0.00558735057711601,-0.00496096536517143,-0.0122934896498919,0.0049094264395535
324,-0.00442963792011142,-0.00354880141094327,-0.00542557518929243,-0.00120370369404554,-0.00627226801589131,0.00196654326282442
325,-0.00494809821248055,-0.00227168062701821,-0.00554537214338779,0.00146238086745143,-0.00294897658750415,-0.00231753312982619
326,-0.0044416175223887,0.000989193678833544,-0.0049362862482667,0.00192486750893295,-0.00253554875962436,-0.00715741468593478
327,-0.00269078556448221,0.00288473791442811,-0.00473326817154884,-0.00181068340316415,-0.00242495979182422,-0.012859090231359
328,-0.000872261822223663,0.000985545571893454,-0.00645900843665004,-0.00933236349374056,-0.00119602249469608,-0.0178429000079632
329,6.03101470915135E-05,-0.00254734652116895,-0.00927235092967749,-0.0176215432584286,0.00149438052903861,-0.0201485846191645
330,0.000334136973833665,-0.0042857825756073,-0.0100942859426141,-0.0227027554064989,0.00425084307789803,-0.0196669194847345
331,0.00033245183294639,-0.00274478481151164,-0.00670893350616097,-0.0211675278842449,0.00451384345069528,-0.0166482981294394
332,0.000811870442703366,0.000827686686534435,-0.000841456290800124,-0.0137830749154091,0.00264971517026424,-0.0119830286130309
333,0.00247921119444072,0.00379023142158985,0.00329702137969434,-0.00554287852719426,0.00179078814107925,-0.00775285996496677
334,0.00404060119763017,0.00442088628187776,0.00316732446663082,-0.00141274731140584,0.00217648572288454,-0.00582236144691706
335,0.00405519781634212,0.00377796497195959,-6.2437575252261E-05,-0.00196630228310823,0.00177706382237375,-0.00697455927729607
336,0.00273686624132097,0.00347378570586443,-0.0032895072363317,-0.00379955442622304,-0.000867916503921151,-0.0110171157866716
337,0.000759402522817254,0.00325335608795285,-0.00469784438610077,-0.00431461539119482,-0.00601561274379492,-0.0160682089626789
338,-0.000840542546939105,0.00300824968144298,-0.00480161281302571,-0.00337916938588023,-0.0106300683692098,-0.0189351178705692
339,-0.00128267786931247,0.0034621893428266,-0.00506220757961273,-0.00248872442170978,-0.0119089754298329,-0.0183689836412668
340,-0.00130045821424574,0.00417886720970273,-0.00622641015797853,-0.00356831471435726,-0.0114453369751573,-0.0156631283462048
341,-0.00206330791115761,0.00404926668852568,-0.00794754270464182,-0.0064245299436152,-0.0110867619514465,-0.0119146658107638
342,-0.00327762239612639,0.00372059131041169,-0.00968436058610678,-0.00914411898702383,-0.0101506700739264,-0.0077598481439054
343,-0.00331184407696128,0.00460948655381799,-0.0111771710216999,-0.0108438562601805,-0.00768924877047539,-0.00471217837184668
344,-0.00153872556984425,0.00624322379007936,-0.0129912476986647,-0.0113112172111869,-0.00370251736603677,-0.00386382453143597
345,0.00105718593113124,0.00684466771781445,-0.016334431245923,-0.0105491038411856,0.000579012790694833,-0.00548685342073441
346,0.00383571488782763,0.00546474428847432,-0.0191587284207344,-0.00944389030337334,0.00392807554453611,-0.010076486505568
347,0.00677579082548618,0.00247337599284947,-0.0170195586979389,-0.00955725554376841,0.00544285960495472,-0.016956614330411
348,0.00902249105274677,-0.000966842926573008,-0.0108230849727988,-0.0116771655157208,0.00320033519528806,-0.0227689314633608
349,0.00983128231018782,-0.00366378808394074,-0.00460715172812343,-0.0130773633718491,-0.00231604184955359,-0.0244442038238049
350,0.00966525357216597,-0.00444483989849687,0.000794781837612391,-0.0110982730984688,-0.00656250258907676,-0.0238293334841728
351,0.00840084627270699,-0.00351638440042734,0.00436151539906859,-0.00801093131303787,-0.00726748118177056,-0.0245866179466248
352,0.00606679497286677,-0.00279213115572929,0.00463200453668833,-0.0061041577719152,-0.00582368578761816,-0.0257176235318184
353,0.0044799568131566,-0.00180119532160461,0.00379122165031731,-0.00434152176603675,-0.00233981129713356,-0.0229913126677275
354,0.00466303946450353,0.000330111797666177,0.00421064533293247,-0.00240312586538494,0.00344023620709777,-0.0158166270703077
355,0.00540333800017834,0.00141430227085948,0.00437667779624462,-0.00182438234332949,0.0092379879206419,-0.00801387149840593
356,0.0050557809881866,-4.07390471082181E-05,0.00118249037768692,-0.00313056516461074,0.0119039220735431,-0.00335088931024075
357,0.0034025521017611,-0.00251221121288836,-0.00559060508385301,-0.00440329825505614,0.0108191687613726,-0.00386402383446693
358,0.00215124781243503,-0.00390944490209222,-0.0119125349447131,-0.00437735160812736,0.00864112842828035,-0.00880803540349007
359,0.00278417021036148,-0.00390376034192741,-0.014675828628242,-0.00516522815451026,0.00769824255257845,-0.0148047227412462
360,0.00471864221617579,-0.00239045359194279,-0.015059114433825,-0.00819342955946922,0.00815868750214577,-0.0176115371286869
361,0.00622237287461758,0.000960426987148821,-0.015321328304708,-0.0119832726195455,0.00963870715349913,-0.015448147431016
362,0.00623908312991261,0.00480354623869061,-0.0161463022232056,-0.0146523304283619,0.0108953602612019,-0.0111961103975773
363,0.00550151197239757,0.00750614237040281,-0.0165533125400543,-0.0148559799417853,0.0100086620077491,-0.00853706058114767
364,0.00515717547386885,0.00857132859528065,-0.0157079212367535,-0.0122922267764807,0.00637449370697141,-0.00882989820092916
365,0.00473168212920427,0.00740364287048578,-0.0138484379276633,-0.00813454762101173,0.000392585119698197,-0.0115589434280992
366,0.00311615155078471,0.00418815854936838,-0.0109184570610523,-0.00384069094434381,-0.00758193852379918,-0.0139329377561808
367,0.00062228471506387,0.000453096901765093,-0.00806625094264746,-0.000652874994557351,-0.0163492579013109,-0.0136389369145036
368,-0.00142507965210825,-0.0031981363426894,-0.00802456866949797,6.91301684128121E-05,-0.0237974431365728,-0.0133469710126519
369,-0.00201597483828664,-0.00673162844032049,-0.010548323392868,-0.00169381650630385,-0.0272563267499208,-0.0171896312385798
370,-0.000766106473747641,-0.00903716869652271,-0.0121082114055753,-0.00390833616256714,-0.0241353064775467,-0.0239555723965168
371,0.00214997003786266,-0.00853954255580902,-0.0106181148439646,-0.00505141168832779,-0.0150975920259953,-0.0280793346464634
372,0.00593717349693179,-0.00536253256723285,-0.00720444321632385,-0.00609853584319353,-0.0046645887196064,-0.0269227866083384
373,0.00845795869827271,-0.00215978198684752,-0.00435792049393058,-0.00815958436578512,0.00207829172722995,-0.0224378556013107
374,0.00810318347066641,-0.000627775210887194,-0.00298939947970212,-0.00964863039553165,0.00393110094591975,-0.0160996671766043
375,0.00571126211434603,-0.000827129755634815,-0.0016294684028253,-0.00876512844115496,0.00350721529684961,-0.00972351059317589
376,0.00244066515006125,-0.00336662377230823,0.00034891496761702,-0.00569982500746846,0.00234166346490383,-0.00673084566369653
377,-0.000590427662245929,-0.00592473987489939,0.00125139183364809,-0.000234186503803357,0.000367056200047955,-0.00677160453051329
378,-0.00187446514610201,-0.00453407783061266,0.000122102457680739,0.00548405526205897,-0.00141258782241493,-0.00712912948802114
379,-0.000891737698111683,-0.00119689712300897,-0.00256312428973615,0.00537384720519185,-0.000910465256310999,-0.00829625129699707
380,0.00162200152408332,-9.67576415860094E-05,-0.00652986811473966,-0.00199121283367276,0.001999466214329,-0.0116557283326983
381,0.00387223064899445,-0.00187163229566067,-0.0112888012081385,-0.0122762564569712,0.00458620209246874,-0.0165678951889277
382,0.00403121765702963,-0.00581290479749441,-0.0159255843609571,-0.0214186981320381,0.00361939193680882,-0.0210703201591969
383,0.00236048456281424,-0.00985957495868206,-0.0190454646945,-0.0262123309075832,-0.00191678095143288,-0.0230896975845099
384,0.00112424127291888,-0.0112529490143061,-0.0192065630108118,-0.0254183951765299,-0.0082519818097353,-0.0217021740972996
385,0.00201802141964436,-0.00856784172356129,-0.0168465692549944,-0.0209095049649477,-0.010157123208046,-0.01723263412714
386,0.00477521726861596,-0.00240282830782235,-0.0137204276397824,-0.0150441564619541,-0.0071273441426456,-0.0115381721407175
387,0.00771486666053534,0.00450200168415904,-0.010825234465301,-0.0088353855535388,-0.00214461446739733,-0.00751002226024866
388,0.00929110683500767,0.00915445387363434,-0.00850914139300585,-0.00313017098233104,0.00221616425551474,-0.00790210161358118
389,0.00945671834051609,0.0101009402424097,-0.00661017093807459,0.000823567155748606,0.00510726030915976,-0.0140457153320313
390,0.00882324296981096,0.00743709271773696,-0.00475249439477921,0.00308699160814285,0.00781734567135572,-0.023963138461113
391,0.00749277789145708,0.00227424595504999,-0.00360459531657398,0.00563100073486567,0.0110674779862165,-0.0337085053324699
392,0.0053149601444602,-0.00355086498893797,-0.00416039070114493,0.0091551411896944,0.0130280600860715,-0.0406303033232689
393,0.00318737863563001,-0.00761601747944951,-0.00563670136034489,0.0112188942730427,0.0127332638949156,-0.0422886721789837
394,0.00239643058739603,-0.00823433790355921,-0.00673237582668662,0.0102512333542109,0.0111844576895237,-0.0359501540660858
395,0.00262610521167517,-0.00630905944854021,-0.0082112355157733,0.00686500128358603,0.00911755301058292,-0.0244734939187765
396,0.00323673710227013,-0.00342056690715253,-0.0109631381928921,0.00238060439005494,0.0069745616056025,-0.0150078246369958
397,0.00427415408194065,0.000453792192274705,-0.0131233464926481,-0.000743480864912272,0.00493152253329754,-0.0104039758443832
398,0.00504339206963778,0.00489065330475569,-0.0121402628719807,-0.00132495909929276,0.00278266379609704,-0.00892943888902664
399,0.00405229814350605,0.00811181683093309,-0.00781505927443504,-0.000134636371512897,-0.0011525466106832,-0.00736894877627492
400,0.000962455756962299,0.00889384094625711,-0.00159025483299047,0.00224570138379931,-0.00999726355075836,-0.0029381460044533
401,-0.00227095303125679,0.00749232387170196,0.00390529492869973,0.00497993547469378,-0.0215975474566221,0.00330530689097941
402,-0.00345343048684299,0.00540468795225024,0.00548779731616378,0.00697346450760961,-0.0277538560330868,0.00729978177696466
403,-0.00245768995955586,0.00428996561095119,0.00301892217248678,0.00790056772530079,-0.0235346369445324,0.00759403640404344
404,-0.00114448287058622,0.00383493932895362,-0.00108526006806642,0.00747115397825837,-0.0125585030764341,0.00587757909670472
405,-0.00148172047920525,0.00264540407806635,-0.00577228842303157,0.0056270188651979,-0.00306865572929382,0.00323445745743811
406,-0.00298776663839817,0.0022954533342272,-0.0110491868108511,0.00354480650275946,0.00156193040311337,-0.000524697301443666
407,-0.00304263643920422,0.00439674686640501,-0.0156299043446779,0.00179718353319913,0.00464761909097433,-0.00612876284867525
408,-0.000663423910737038,0.00536314724013209,-0.017903683707118,-9.72177222138271E-05,0.00863123964518309,-0.013531219214201
409,0.00182822695933282,0.00158082123380154,-0.018234109506011,-0.00214194948785007,0.0120040718466043,-0.0213506724685431
410,0.00215786066837609,-0.00546046392992139,-0.0179900266230106,-0.00391062581911683,0.0124008879065514,-0.0285467077046633
411,0.000651990354526788,-0.0120947100222111,-0.017411720007658,-0.00438022892922163,0.00910025462508202,-0.0342737399041653
412,-0.00137705204542726,-0.0166966877877712,-0.0159288756549358,-0.00311489240266383,0.00345299020409584,-0.0381572246551514
413,-0.00280163669958711,-0.0196920707821846,-0.0128777641803026,-0.0013946439139545,-0.00215879455208778,-0.0409008823335171
414,-0.00319513957947493,-0.0207404922693968,-0.00897989887744188,-0.000364482752047479,-0.00694829877465963,-0.0414187125861645
415,-0.00304328370839357,-0.0190972201526165,-0.00723101804032922,-0.000352190516423434,-0.0111961513757706,-0.0378546081483364
416,-0.00230787065811455,-0.0150467064231634,-0.0087530305609107,-0.00171127903740853,-0.0137635013088584,-0.0312479753047228
417,-0.000600924424361438,-0.00982747972011566,-0.0112048853188753,-0.00438028015196323,-0.0138717042282224,-0.0245742704719305
418,0.00153743242844939,-0.00519511057063937,-0.0131162460893393,-0.00796220730990171,-0.0134619828313589,-0.0200266260653734
419,0.00254623894579709,-0.00285533582791686,-0.0153344934806228,-0.0124688083305955,-0.0157957766205072,-0.0181813389062881
420,0.00201561697758734,-0.00265924725681543,-0.0177041254937649,-0.0167658925056458,-0.0211842712014914,-0.0181338973343372
421,0.00134063372388482,-0.002585852984339,-0.0194298699498177,-0.0193141233175993,-0.0266983639448881,-0.0188258569687605
422,0.000907254870980978,-0.00200359895825386,-0.0215489640831947,-0.0209974180907011,-0.0306789167225361,-0.0209796577692032
423,0.000651934533379972,-0.00164682394824922,-0.0243809372186661,-0.0230612251907587,-0.0334356464445591,-0.0259911492466927
424,0.0013239961117506,-0.00261917733587325,-0.0265000741928816,-0.0256683025509119,-0.0344699248671532,-0.0349028706550598
425,0.00265803514048457,-0.00571074429899454,-0.0272381920367479,-0.0286630280315876,-0.0334924831986427,-0.0472384691238403
426,0.00368701876141131,-0.00942614395171404,-0.0270393751561642,-0.0311612971127033,-0.0333433337509632,-0.0594594813883305
427,0.00394821679219604,-0.0118588395416737,-0.0271361265331507,-0.033123716711998,-0.0374054573476315,-0.068410761654377
428,0.00325972866266966,-0.012490882538259,-0.0288656167685986,-0.034886509180069,-0.0454085394740105,-0.0730754062533379
429,0.00184909859672189,-0.0116377416998148,-0.0318386033177376,-0.0354785360395908,-0.0536816790699959,-0.0734472870826721
430,0.000195768690900877,-0.0109470216557384,-0.0349706560373306,-0.0351089686155319,-0.0585557781159878,-0.0722530782222748
431,-0.000536271138116717,-0.0118753761053085,-0.0376439727842808,-0.0351186543703079,-0.059079397469759,-0.0738045051693916
432,0.00117425422649831,-0.0140772080048919,-0.0389298684895039,-0.035754669457674,-0.0566988587379456,-0.0798505991697311
433,0.00436412636190653,-0.0168683584779501,-0.0393467172980309,-0.0378358103334904,-0.0548191331326962,-0.088759258389473
434,0.00625177286565304,-0.0194337386637926,-0.0413779802620411,-0.0430666096508503,-0.05725933983922,-0.0973586514592171
435,0.00546302041038871,-0.020633690059185,-0.0459418557584286,-0.0513143762946129,-0.0645906925201416,-0.103046722710133
436,0.00234393961727619,-0.0204320661723614,-0.051200944930315,-0.0600622780621052,-0.0744339972734451,-0.105214722454548
437,-0.00145106005948037,-0.0197098180651665,-0.054930068552494,-0.0667214617133141,-0.0840782225131989,-0.105971187353134
438,-0.00413021724671125,-0.0191506743431091,-0.0566103681921959,-0.0710192918777466,-0.091883972287178,-0.109801910817623
439,-0.00491952244192362,-0.0184315089136362,-0.0569829158484936,-0.0743887573480606,-0.0978164970874786,-0.119336165487766
440,-0.0038222773000598,-0.0171440541744232,-0.0566043518483639,-0.0776127800345421,-0.102570347487926,-0.131780162453651
441,-0.00176726409699768,-0.0168287977576256,-0.0557799860835075,-0.0803386047482491,-0.105685658752918,-0.142438367009163
442,-5.5623608204769E-05,-0.0191412027925253,-0.0547832548618317,-0.0819700136780739,-0.105876252055168,-0.149860128760338
443,0.000721922784578055,-0.0232195369899273,-0.0544084571301937,-0.0829257145524025,-0.103893384337425,-0.155559748411179
444,0.000466068275272846,-0.0279567092657089,-0.0562146902084351,-0.0854745209217072,-0.101877823472023,-0.160707145929337
445,-0.000268989155301824,-0.0321437157690525,-0.0603931620717049,-0.09095099568367,-0.101086981594563,-0.165507256984711
446,-0.000362142687663436,-0.0330921784043312,-0.064553365111351,-0.0967645794153214,-0.102441549301147,-0.169801458716393
447,0.000683241349179298,-0.0313055887818336,-0.0661050379276276,-0.0998333320021629,-0.105196826159954,-0.172445029020309
448,0.0029927920550108,-0.0298653468489647,-0.0646526142954826,-0.100720472633839,-0.105806484818459,-0.172542423009872
449,0.00637676101177931,-0.029636213555932,-0.0628567337989807,-0.102583780884743,-0.103147976100445,-0.172029539942741
450,0.00983838178217411,-0.0306356493383646,-0.0634655952453613,-0.107381582260132,-0.0996963903307915,-0.173981800675392
451,0.012063386850059,-0.033189419656992,-0.0659070238471031,-0.113665528595448,-0.097827322781086,-0.179120227694511
452,0.0129530252888799,-0.036480437964201,-0.0675130933523178,-0.118510454893112,-0.0982173606753349,-0.185941308736801
453,0.0135639552026987,-0.0387126244604588,-0.0669342875480652,-0.120270289480686,-0.0993279367685318,-0.192937090992928
454,0.0144409034401178,-0.039335735142231,-0.0651180669665337,-0.119680874049664,-0.099539577960968,-0.199663773179054
455,0.0160460881888866,-0.0391481630504131,-0.0618084818124771,-0.118444949388504,-0.0981189161539078,-0.204826310276985
456,0.0183438807725906,-0.0388078913092613,-0.056809589266777,-0.116559594869614,-0.0941072851419449,-0.206180289387703
457,0.0201202165335417,-0.0388597771525383,-0.053662434220314,-0.113918013870716,-0.0869695097208023,-0.204134270548821
458,0.0208391770720482,-0.0393259078264236,-0.0554318726062775,-0.112874895334244,-0.0783462077379227,-0.201737135648727
459,0.0212022922933102,-0.0388840287923813,-0.0605082884430885,-0.115359768271446,-0.0702701359987259,-0.200149103999138
460,0.021882439032197,-0.0368716195225716,-0.0650523826479912,-0.119884751737118,-0.0628714114427567,-0.197976768016815
461,0.0230193082243204,-0.0346902720630169,-0.0661461502313614,-0.12202013283968,-0.056603979319334,-0.193944871425629
462,0.0238780397921801,-0.0339639037847519,-0.0627343505620956,-0.118359073996544,-0.0524316914379597,-0.188611507415771
463,0.0233114715665579,-0.0349111706018448,-0.0563001371920109,-0.109554126858711,-0.0502639673650265,-0.184523433446884
464,0.021485460922122,-0.0357604958117008,-0.0497510135173798,-0.0983564034104347,-0.0502713024616241,-0.182423964142799
465,0.0196651499718428,-0.0342708751559258,-0.0454082973301411,-0.0882280245423317,-0.0523341484367847,-0.178973719477654
466,0.0185147672891617,-0.0306535921990871,-0.0445976480841637,-0.0823939964175224,-0.053722869604826,-0.171803697943687
467,0.0178971569985151,-0.0279161706566811,-0.0463939495384693,-0.081954687833786,-0.0513200014829636,-0.16379788517952
468,0.0169711988419294,-0.0275214202702045,-0.0473232008516788,-0.0831926986575127,-0.0462742075324059,-0.156473055481911
469,0.0144117837771773,-0.0277411993592978,-0.0455164425075054,-0.0802683457732201,-0.043204702436924,-0.146494492888451
470,0.0100664291530848,-0.0274496115744114,-0.0426425859332085,-0.0724514722824097,-0.0443488545715809,-0.132354825735092
471,0.00573821133002639,-0.0269104167819023,-0.0407997481524944,-0.0631628111004829,-0.0463753081858158,-0.116686128079891
472,0.00303780962713063,-0.0256934799253941,-0.0410623475909233,-0.0565674714744091,-0.04478644952178,-0.104411989450455
473,0.00145944114774466,-0.0238504782319069,-0.0441254563629627,-0.0553334653377533,-0.0408549718558788,-0.0991320386528969
474,0.000203638861421496,-0.023094704374671,-0.0492794401943684,-0.0576788932085037,-0.0388133488595486,-0.100154623389244
475,-4.9819424020825E-05,-0.0237954743206501,-0.0531732141971588,-0.0586603991687298,-0.0383333005011082,-0.103700526058674
476,0.00095316069200635,-0.0247500017285347,-0.0518039464950562,-0.0540409609675407,-0.036969818174839,-0.105106435716152
477,0.00240826024673879,-0.0250322185456753,-0.043992567807436,-0.0442170761525631,-0.0339311920106411,-0.101441033184528
478,0.00347662437707186,-0.0240296069532633,-0.0331153310835361,-0.0341477207839489,-0.0302381049841642,-0.0930456221103668
479,0.00324443983845413,-0.0220508575439453,-0.0246274191886187,-0.0279069952666759,-0.0279539488255978,-0.0816392973065376
480,0.00252059451304376,-0.0197555311024189,-0.0210974160581827,-0.0248898807913065,-0.0257587041705847,-0.0686224177479744
481,0.00312496768310666,-0.0170589108020067,-0.0205856934189796,-0.0215764548629522,-0.0206198953092098,-0.0558212734758854
482,0.00513251032680273,-0.0139578180387616,-0.0192524902522564,-0.0157585069537163,-0.0129939066246152,-0.0451215989887714
483,0.00781335309147835,-0.0116335274651647,-0.0153524130582809,-0.00796969700604677,-0.00516974739730358,-0.0374111905694008
484,0.0102961184456944,-0.0105237485840917,-0.0100254500284791,0.000322445528581738,0.00186639640014619,-0.0319816060364246
485,0.0115340137854218,-0.00892685726284981,-0.00541008170694113,0.00678528845310211,0.00806410517543554,-0.0272630900144577
486,0.0112068131566048,-0.00581040652468801,-0.00336112757213414,0.0083449725061655,0.0129083162173629,-0.0223207958042622
487,0.00986503902822733,-0.00222928705625236,-0.00416602287441492,0.0045555867254734,0.0154665615409613,-0.0164018478244543
488,0.0076571386307478,0.000104905702755786,-0.00670872954651713,-0.00161113822832704,0.0151187665760517,-0.00883517693728209
489,0.00451506394892931,7.80860500526614E-05,-0.00937069300562143,-0.00647998787462711,0.0135028995573521,-0.000497698143590242
490,0.00155316712334752,-0.00225666887126863,-0.00961865391582251,-0.00727252662181854,0.0147498995065689,0.00693546095862985
491,-0.000584797176998109,-0.00566215068101883,-0.00654322234913707,-0.00331297912634909,0.0204927586019039,0.0132001601159573
492,-0.00271121994592249,-0.0091680409386754,-0.00323787424713373,0.00330444262363017,0.0279702004045248,0.0182555634528399
493,-0.00506463274359703,-0.0127863744273782,-0.00175011472310871,0.00966138672083616,0.0343594625592232,0.0213540885597467
494,-0.00637841550633311,-0.0150734521448612,0.000448167062131688,0.0149093540385365,0.0393326506018639,0.0236912183463573
495,-0.00536951888352633,-0.0142074069008231,0.00514491973444819,0.0206805877387524,0.0439154170453548,0.0282623991370201
496,-0.0025475958827883,-0.0104731470346451,0.0101338187232614,0.0289534442126751,0.0481727086007595,0.0360105223953724
497,0.000212229337194003,-0.00500066950917244,0.0132492715492845,0.0390745103359222,0.0510818287730217,0.045020516961813
498,0.00170564779546112,-0.000507590244524181,0.0142154553905129,0.0472779385745525,0.0524008385837078,0.0526589043438435
499,0.00221136747859418,0.00121053145267069,0.0141014512628317,0.0519430078566074,0.0526261031627655,0.0584611594676971
500,0.00226145121268928,0.00151491223368794,0.0143291894346476,0.054428044706583,0.0513105802237988,0.0625511854887009
501,0.0021714624017477,0.00113623263314366,0.0148047609254718,0.0545516796410084,0.0482455976307392,0.0626858323812485
502,0.00195823004469275,0.000680850760545582,0.0152271669358015,0.0523569993674755,0.0450920797884464,0.0589543953537941
503,0.00100009771995246,0.000978228636085987,0.0166603084653616,0.0500607155263424,0.0432719178497791,0.0549621470272541
504,-0.00052136805607006,0.00126526830717921,0.0197744127362967,0.0493406988680363,0.0427910499274731,0.0532504580914974
505,-0.00125164771452546,0.000876761914696544,0.0239512864500284,0.0508578754961491,0.0436447821557522,0.0544472336769104
506,-0.000432106608059257,0.000601236883085221,0.0282244253903627,0.0543264262378216,0.0462819151580334,0.0582622103393078
507,0.000954063201788813,0.000924048363231122,0.0309802815318108,0.0572606734931469,0.0504278093576431,0.0625460520386696
508,0.00102317938581109,0.000786431948654354,0.0316702574491501,0.0590793713927269,0.0551976971328259,0.0648752152919769
509,-0.000715389673132449,-0.000353123847162351,0.0322875790297985,0.0624610744416714,0.0594748444855213,0.0662337094545364
510,-0.00286101480014622,-0.00182510376907885,0.0344129726290703,0.0671177580952644,0.0619018971920013,0.0683976784348488
511,-0.00421643210574985,-0.00273279333487153,0.0364912040531635,0.0700092315673828,0.0622178353369236,0.0713888928294182
512,-0.00435741664841771,-0.00230652070604265,0.0361217670142651,0.069974459707737,0.0620057210326195,0.0742951706051826
513,-0.00362438894808292,-0.00120063871145248,0.0332253277301788,0.068370945751667,0.0615680366754532,0.0757311284542084
514,-0.00355125498026609,-0.000548665004316717,0.0292412228882313,0.0679121986031532,0.0587701387703419,0.0767950266599655
515,-0.00522336550056934,-5.7480443501845E-05,0.0257613826543093,0.0694227144122124,0.0542720817029476,0.0798272415995598
516,-0.00789277814328671,0.0010163385886699,0.0240704026073217,0.0702154040336609,0.0500942468643188,0.0844429358839989
517,-0.010102266445756,0.00295686721801758,0.024612145498395,0.0684356838464737,0.0460005365312099,0.0897917225956917
518,-0.011214604601264,0.00606354651972651,0.0266092382371426,0.0658266022801399,0.0425354689359665,0.0965136885643005
519,-0.0118768094107509,0.0102837020531297,0.0280528757721186,0.064943715929985,0.0397602543234825,0.104398928582668
520,-0.0131339319050312,0.0141985295340419,0.0275529585778713,0.067056380212307,0.0369973219931126,0.11259900778532
521,-0.0147665087133646,0.0173283107578754,0.0258519779890776,0.0710218101739883,0.0358870252966881,0.120593778789043
522,-0.0165422521531582,0.0201829746365547,0.0238845236599445,0.0734541341662407,0.0371755175292492,0.125742539763451
523,-0.0184486694633961,0.0223872736096382,0.0228263698518276,0.0736063197255135,0.0390814691781998,0.125117048621178
524,-0.0187878161668777,0.0242427885532379,0.0244525652378798,0.0740063488483429,0.0401224941015244,0.119272656738758
525,-0.0168020166456699,0.0252827033400536,0.0282088164240122,0.0759620293974876,0.0398981645703316,0.111362136900425
526,-0.0142863988876343,0.0239789374172688,0.0322249792516232,0.0791008472442627,0.0387235060334206,0.10510615259409
527,-0.0125489272177219,0.0203554928302765,0.0354092568159103,0.0822315141558647,0.0371891297399998,0.102309212088585
528,-0.0113317649811506,0.016099726781249,0.0370236299932003,0.0842617675662041,0.036335002630949,0.101399295032024
529,-0.00968099199235439,0.0125797651708126,0.0371434278786182,0.0847322344779968,0.0378977321088314,0.0980531424283981
530,-0.00697324797511101,0.00932751037180424,0.0364364497363567,0.0831077545881271,0.0424828231334686,0.0892778858542442
531,-0.00414178380742669,0.00677599711343646,0.0358766838908196,0.0810079723596573,0.0488322414457798,0.0804302841424942
532,-0.00324999913573265,0.00717107718810439,0.0362004153430462,0.0813722386956215,0.0544022284448147,0.0813150554895401
533,-0.00573490420356393,0.0106440521776676,0.0368088111281395,0.0833634734153748,0.0558675676584244,0.0934539660811424
534,-0.0100858835503459,0.015030600130558,0.0366331674158573,0.0835895836353302,0.0544325485825539,0.108871340751648
535,-0.0130617618560791,0.0187403615564108,0.0353518947958946,0.0810521990060806,0.054900050163269,0.119637526571751
536,-0.0140519980341196,0.0211352035403252,0.0334440544247627,0.0779719203710556,0.05669005215168,0.123737812042236
537,-0.0150168221443892,0.0216892957687378,0.0310750845819712,0.076168566942215,0.056176345795393,0.123079873621464
538,-0.0164593923836946,0.0207905098795891,0.0285214893519878,0.0757326260209084,0.0544319748878479,0.12074837833643
539,-0.0169393289834261,0.0205777157098055,0.0274924784898758,0.07765132188797,0.0543269366025925,0.120098471641541
540,-0.0160460621118546,0.0226966254413128,0.0291194878518581,0.0820186361670494,0.055147685110569,0.122110366821289
541,-0.0155121656134725,0.025813015177846,0.031730130314827,0.0855971500277519,0.054339811205864,0.125180914998055
542,-0.0173389632254839,0.0269413404166698,0.0323994867503643,0.085195817053318,0.0515170730650425,0.127213716506958
543,-0.0206835102289915,0.02577811665833,0.0304285231977701,0.081742562353611,0.049259040504694,0.127229988574982
544,-0.0226132273674011,0.0253119766712189,0.0279395468533039,0.079480841755867,0.0492437295615673,0.126746326684952
545,-0.0212952494621277,0.0268424488604069,0.0283362176269293,0.0812964290380478,0.0509839840233326,0.12720975279808
546,-0.0174594260752201,0.0289702899754047,0.0337075553834438,0.0866424143314362,0.052910290658474,0.127917408943176
547,-0.0138628352433443,0.0306561887264252,0.0414106585085392,0.092248722910881,0.0514989197254181,0.127546608448029
548,-0.0119774555787444,0.0308059640228748,0.0469190180301666,0.0941794514656067,0.0458401329815388,0.125040411949158
549,-0.0113201625645161,0.0287383105605841,0.0487651601433754,0.0914283916354179,0.0401729084551334,0.121045917272568
550,-0.0115061579272151,0.0254769958555698,0.0475049950182438,0.0861593559384346,0.0382127724587917,0.117225259542465
551,-0.0119683556258678,0.0223963800817728,0.0446689799427986,0.0817734897136688,0.0399768874049187,0.114131562411785
552,-0.0122032025828958,0.0199391040951014,0.0424718260765076,0.0800072103738785,0.0426636077463627,0.11149150878191
553,-0.0122615275904536,0.0174828264862299,0.041365172713995,0.0786798596382141,0.044634684920311,0.109420210123062
554,-0.0125316437333822,0.0150104574859142,0.0393843911588192,0.0756235793232918,0.0460885502398014,0.109269134700298
555,-0.0131715871393681,0.0131717277690768,0.0356577932834625,0.0720337778329849,0.047328170388937,0.110582649707794
556,-0.0138100646436214,0.0120026413351297,0.0318438000977039,0.0691896975040436,0.0491240657866001,0.110953859984875
557,-0.0142105342820287,0.0121834371238947,0.0295259822160006,0.0669192150235176,0.050934161990881,0.11135470867157
558,-0.0141725074499846,0.0149596063420177,0.0294938366860151,0.06630739569664,0.0520345643162727,0.114566020667553
559,-0.0139003545045853,0.0197754092514515,0.031139325350523,0.0678224861621857,0.0525979436933994,0.119356393814087
560,-0.0136752324178815,0.0248802974820137,0.0326620899140835,0.0695536881685257,0.0526779070496559,0.122482247650623
561,-0.0125510049983859,0.0290473625063896,0.0329930856823921,0.0702196806669235,0.0531444437801838,0.122599601745605
562,-0.00952876824885607,0.0304644536226988,0.0319344699382782,0.0685437023639679,0.0553474090993404,0.118655793368816
563,-0.00609581591561437,0.0277854166924953,0.0304321628063917,0.0643290355801582,0.0582601353526115,0.112069368362427
564,-0.0045041274279356,0.0232487209141254,0.0311195962131023,0.0621424578130245,0.0591584555804729,0.108793310821056
565,-0.0050147445872426,0.0198389161378145,0.0347203686833382,0.0652393624186516,0.0560888089239597,0.111060708761215
566,-0.00736339436843991,0.0171325374394655,0.0375416800379753,0.0692841932177544,0.0477478094398975,0.112220503389835
567,-0.011039812117815,0.0140653466805816,0.036297645419836,0.0685292184352875,0.0365971811115742,0.107027992606163
568,-0.0140774864703417,0.0123315760865808,0.0316432006657124,0.0628264397382736,0.0287753324955702,0.0997995138168335
569,-0.0146454954519868,0.0131049565970898,0.0267680063843727,0.0553412139415741,0.0274927522987127,0.0950380712747574
570,-0.0128031149506569,0.0146189732477069,0.025052648037672,0.049000833183527,0.0311884079128504,0.0925763919949532
571,-0.00992740504443645,0.0151094822213054,0.0271788910031319,0.0466377250850201,0.0357993990182877,0.0925298631191254
572,-0.00776133872568607,0.0151197649538517,0.0301722604781389,0.0486884713172913,0.0385871455073357,0.0936279520392418
573,-0.00731375301256776,0.0157965142279863,0.0311927776783705,0.0520791076123714,0.0412066020071507,0.0930771604180336
574,-0.00832093320786953,0.0160025544464588,0.030594527721405,0.0548126362264156,0.0443259738385677,0.0903943106532097
575,-0.00981560349464417,0.0147476466372609,0.0299776066094637,0.057023748755455,0.0454193092882633,0.0870955809950829
576,-0.0107068438082933,0.0136659853160381,0.0295602809637785,0.0585283115506172,0.0445542670786381,0.0856354609131813
577,-0.0109046101570129,0.0145390387624502,0.0279430635273457,0.0582753159105778,0.0434059277176857,0.0878911763429642
578,-0.0113967070356011,0.0167488399893045,0.0240870025008917,0.0549031645059586,0.0414195097982883,0.0915402546525002
579,-0.0127513334155083,0.0177186764776707,0.0186853222548962,0.0488345846533775,0.0377796515822411,0.0914211794734001
580,-0.0145560204982758,0.0163027867674828,0.013730788603425,0.0426281504333019,0.0340150035917759,0.0867830067873001
581,-0.0162533335387707,0.0144369900226593,0.0113289961591363,0.0389892794191837,0.0313427411019802,0.0826116502285004
582,-0.0173856262117624,0.0137835312634707,0.0107367737218738,0.037910021841526,0.0282568149268627,0.0818767175078392
583,-0.0175082366913557,0.0141044361516833,0.00991066638380289,0.0377465263009071,0.0244301036000252,0.0839949101209641
584,-0.0167824290692806,0.0157189648598433,0.00981216039508581,0.0388177484273911,0.0210702624171972,0.0889401584863663
585,-0.0157330501824617,0.0180436372756958,0.0113742249086499,0.040856346487999,0.0179359018802643,0.0938397794961929
586,-0.0142238512635231,0.0187868047505617,0.0136745041236281,0.042885847389698,0.0152729246765375,0.0933865234255791
587,-0.0128281032666564,0.0174328330904245,0.0159000176936388,0.0452891029417515,0.0123013975098729,0.0860580131411552
588,-0.0132423518225551,0.0149768879637122,0.0164563152939081,0.0455803908407688,0.00665188254788518,0.0732168480753899
589,-0.0147238057106733,0.0132451578974724,0.0142726814374328,0.0405738800764084,2.13081384572433E-05,0.0582719929516315
590,-0.0149534270167351,0.0144985280930996,0.0110558187589049,0.0334250777959824,-0.00157199520617723,0.0497003458440304
591,-0.0129671674221754,0.0176470223814249,0.00935011822730303,0.029091440141201,0.00597416190430522,0.053737036883831
592,-0.00972409266978502,0.0194908585399389,0.0097613362595439,0.0281671099364758,0.0170686952769756,0.0654860958456993
593,-0.00782344676554203,0.0192978959530592,0.0106777884066105,0.0290316045284271,0.0209523998200893,0.0758922398090363
594,-0.00796080287545919,0.0178750697523355,0.0105701554566622,0.0302365012466908,0.016812352463603,0.0800446271896362
595,-0.00890970509499311,0.015510069206357,0.00892611872404814,0.0305467583239079,0.0117078591138124,0.077668085694313
596,-0.00957549549639225,0.0124795585870743,0.00628106575459242,0.0287516638636589,0.00988367293030024,0.0707780569791794
597,-0.0089215999469161,0.00917822122573853,0.00417830515652895,0.0246594734489918,0.0119186090305448,0.0622509680688381
598,-0.00775807676836848,0.00637952424585819,0.00324392854236066,0.0203293561935425,0.0150968423113227,0.0567778274416924
599,-0.00746802939102054,0.00566253019496799,0.00395311415195465,0.0187183134257793,0.017188785597682,0.0574515797197819
600,-0.00755659257993102,0.00864071119576693,0.00680466741323471,0.0198911745101213,0.0193377416580915,0.0615024194121361
601,-0.00822671223431826,0.0135192824527621,0.0102571034803987,0.0217777211219072,0.021006140857935,0.0636839717626572
602,-0.0100600393489003,0.0154420007020235,0.0127750402316451,0.0244842357933521,0.0202556978911161,0.0612448677420616
603,-0.0115917716175318,0.0136535372585058,0.0143585735931993,0.0274578463286161,0.0170614402741194,0.0554568655788898
604,-0.0120678087696433,0.0114021562039852,0.014757870696485,0.027427839115262,0.0128955515101552,0.050795990973711
605,-0.0117109101265669,0.0112544484436512,0.0136982090771198,0.0234630759805441,0.0112322838976979,0.0512279607355595
606,-0.0108636356890202,0.0138441631570458,0.0115326410159469,0.0185360722243786,0.0130179142579436,0.0569233931601048
607,-0.0106221428140998,0.0171484500169754,0.00889605935662985,0.0160235911607742,0.0141302952542901,0.0640107616782188
608,-0.0107530159875751,0.0180242732167244,0.00756714260205626,0.017161076888442,0.0125421043485403,0.0666797682642937
609,-0.0101239532232285,0.0150927333161235,0.00908066239207983,0.0208515357226133,0.010109486989677,0.0623220689594746
610,-0.00914214644581079,0.0102220745757222,0.0111357569694519,0.0242382362484932,0.00758760701864958,0.0549082793295383
611,-0.00959276594221592,0.00711496686562896,0.00947242695838213,0.0242144875228405,0.00359635474160314,0.049640353769064
612,-0.0119430301710963,0.00824206788092852,0.00518037378787994,0.0212084706872702,-0.00127147254534066,0.0485288575291634
613,-0.0142513085156679,0.0124214896932244,0.00315829319879413,0.018050218001008,-0.00412676343694329,0.0503245964646339
614,-0.0146964685991406,0.015309133566916,0.0033926097676158,0.0149569548666477,-0.00431839562952518,0.0512809604406357
615,-0.0136472461745143,0.0139516135677695,0.00287253968417645,0.0117680765688419,-0.00267615192569792,0.049310140311718
616,-0.0120551446452737,0.00899320933967829,0.00275515462271869,0.00985346734523773,0.00293873785994947,0.0437042117118835
617,-0.00896060653030872,0.00373465032316744,0.00622252514585853,0.010187185369432,0.0149007672443986,0.0359076261520386
618,-0.00429699616506696,0.00133992335759103,0.0112588983029127,0.0126350503414869,0.0289326608181,0.0291740708053112
619,-0.000433699286077172,0.000850383192300797,0.0132075753062963,0.0154226263985038,0.0379512719810009,0.0236804652959108
620,0.00158532883506268,-5.76534912397619E-05,0.0124425543472171,0.0157007239758968,0.039826825261116,0.0198329500854015
621,0.00185872078873217,-0.00087395153241232,0.0122244162485003,0.0121098356321454,0.0357252694666386,0.0185924302786589
622,-6.97693612892181E-05,-0.000172684609424323,0.0140294646844268,0.00742981629446149,0.0272951330989599,0.0189052540808916
623,-0.00384003552608192,0.0021113099064678,0.0163801610469818,0.00563748925924301,0.0167698729783297,0.0206151977181435
624,-0.00767475366592407,0.00496138632297516,0.0164423752576113,0.00663184793666005,0.00716690206900239,0.0234209056943655
625,-0.00914665870368481,0.00695034489035606,0.0145060736685991,0.00773536134511232,0.00209039077162743,0.0254714675247669
626,-0.0076860929839313,0.00837439484894276,0.0122400941327214,0.00789851695299149,0.00130956049542874,0.0265957061201334
627,-0.00561157753691077,0.0104099828749895,0.00914134737104177,0.00674610305577517,0.00105732737574726,0.0277983397245407
628,-0.00489886198192835,0.0110111124813557,0.00563353998586535,0.00453216955065727,0.00116573227569461,0.0286344140768051
629,-0.00527350604534149,0.0079076299443841,0.00356022361665964,0.00291250413283706,0.0037883180193603,0.0274049304425716
630,-0.00602217810228467,0.00260347244329751,0.00342030427418649,0.00269360630773008,0.00730760954320431,0.0228439625352621
631,-0.00684218807145953,-0.00157672073692083,0.00519903190433979,0.00363870919682086,0.00903700571507216,0.0168177057057619
632,-0.0071789394132793,-0.0027439072728157,0.00861474964767694,0.00465969648212194,0.0100489621981978,0.0130119854584336
633,-0.00725120631977916,-0.00151704193558544,0.0115892039611936,0.00473065581172705,0.0119109880179167,0.0130386464297771
634,-0.00733230635523796,0.00122794730123132,0.0118585526943207,0.00416418630629778,0.013669173233211,0.0159742645919323
635,-0.00681741163134575,0.00554823083803058,0.00912667717784643,0.00320062274113297,0.0139503059908748,0.0201396048069
636,-0.00562695739790797,0.0103453835472465,0.00492381537333131,0.00158332544378936,0.0140373725444078,0.0240843296051025
637,-0.00427987799048424,0.0126436445862055,0.00175492977723479,-2.1909998395131E-05,0.0168290566653013,0.0267091039568186
638,-0.00311308447271585,0.0108187226578593,0.00109650334343314,-0.000451668369350955,0.0220966916531324,0.0271465331315994
639,-0.00206669373437762,0.00691025657579303,0.00273715937510133,0.000990096712484956,0.0267065316438675,0.0252133999019861
640,-0.00139564054552466,0.00326404045335948,0.00528703164309263,0.00375351146794856,0.02755375392735,0.0206046011298895
641,-0.0020098490640521,-0.000286090158624575,0.00640587834641337,0.00580132706090808,0.0225617233663797,0.0131154675036669
642,-0.00396738108247519,-0.00389216444455087,0.00632379343733191,0.00638035358861089,0.012875565327704,0.00413314579054713
643,-0.00556220579892397,-0.00724776927381754,0.00852103903889656,0.00678405817598104,0.00436533382162452,-0.00596537766978145
644,-0.00539660081267357,-0.00974263623356819,0.0129475500434637,0.00741145806387067,0.0017172668594867,-0.0142245376482606
645,-0.00359294889494777,-0.0103527568280697,0.0159386154264212,0.00732701225206256,0.00392294442281127,-0.015892131254077
646,-0.0018781207036227,-0.0094652408733964,0.015499890781939,0.00651682773604989,0.00715822726488113,-0.0120263267308474
647,-0.00240881857462227,-0.00820991024374962,0.0112416511401534,0.0056288386695087,0.0089953513815999,-0.00530530698597431
648,-0.00461633782833815,-0.00765694444999099,0.00546408863738179,0.00407552812248468,0.0104166073724627,0.00192858930677176
649,-0.00637165457010269,-0.00790867395699024,0.00192339904606342,0.000545134011190385,0.0121974069625139,0.00712177995592356
650,-0.00681276340037584,-0.00750607764348388,0.00120841548778117,-0.00405508698895574,0.012806162238121,0.0105486633256078
651,-0.00648897094652057,-0.00481205526739359,0.00145598617382348,-0.00707998499274254,0.0102435862645507,0.0135178938508034
652,-0.00605637673288584,-0.00113635160960257,0.00187739566899836,-0.00802353117614985,0.00511199096217752,0.0154477907344699
653,-0.00502780918031931,4.28101338911802E-05,0.00254747923463583,-0.00916264019906521,0.000947809661738575,0.0151563687250018
654,-0.0032210003118962,-0.00113634113222361,0.0029194294475019,-0.0126203130930662,-0.00014764626394026,0.0135535188019276
655,-0.00128591770771891,-0.0023250007070601,0.00384710915386677,-0.0171739924699068,0.00261964881792665,0.0121720945462585
656,0.000491691520437598,-0.00277378386817873,0.00679849786683917,-0.0196270141750574,0.00908397138118744,0.0114187775179744
657,0.0013695074012503,-0.00290902424603701,0.0106950905174017,-0.0193400625139475,0.0151420449838042,0.0107013480737805
658,0.000688253378029913,-0.0033009194303304,0.0129011189565063,-0.0187983419746161,0.016639394685626,0.00831542816013098
659,-0.000492505962029099,-0.00339932413771749,0.0121515244245529,-0.0192719586193562,0.0143066225573421,0.00438560405746102
660,-0.000783303054049611,-0.00339969876222312,0.00914052315056324,-0.0203611962497234,0.0108080599457026,9.07413141248981E-06
661,-0.000232761143706739,-0.00496015977114439,0.00603932701051235,-0.0211340561509132,0.00880676787346601,-0.005138601642102
662,-0.000137287483084947,-0.00753281405195594,0.00536065129563212,-0.018062561750412,0.00987792387604713,-0.00827800948172808
663,-0.000945087347645313,-0.00898751150816679,0.00632029352709651,-0.0103415763005614,0.0110403588041663,-0.00709095597267151
664,-0.00122465973254293,-0.00932354014366865,0.00670475419610739,-0.0032192945946008,0.0094973286613822,-0.00598971545696259
665,-0.000448469130787998,-0.00936494022607803,0.00670720124617219,0.000520650472026318,0.00596558395773172,-0.00806942209601402
666,0.000179132533958182,-0.00869972910732031,0.00644742324948311,0.00274483463726938,0.0006515221321024,-0.0102739213034511
667,0.000259965163422748,-0.0074338992126286,0.00587495230138302,0.00456036906689405,-0.00407872023060918,-0.0100807305425406
668,-0.000406233855756,-0.00702433660626411,0.00618104916065931,0.00544270919635892,-0.00473662745207548,-0.00867656711488962
669,-0.00214971671812236,-0.0075158653780818,0.00765456119552255,0.00480322819203138,-0.00336498231627047,-0.00748455710709095
670,-0.00380164454691112,-0.00761794438585639,0.0095938416197896,0.00260380981490016,-0.00343504431657493,-0.00750425923615694
671,-0.00495060672983527,-0.00767020927742124,0.0120407938957214,0.000284552836092189,-0.00533441780135036,-0.0103123895823956
672,-0.00490467669442296,-0.00859652925282717,0.0158023238182068,0.000324401364196092,-0.00613703997805715,-0.0152799226343632
673,-0.00209329859353602,-0.00987010728567839,0.0191707573831081,0.00189293641597033,-0.00391262350603938,-0.0188682395964861
674,0.00139041163492948,-0.0107909701764584,0.0179144851863384,0.000922587350942194,-0.00239525246433914,-0.0191593635827303
675,0.00283124088309705,-0.0112114176154137,0.0115500334650278,-0.00390667095780373,-0.00335768610239029,-0.0174102354794741
676,0.00250099739059806,-0.00997183378785849,0.00446803634986281,-0.00926898326724768,-0.00509929377585649,-0.0109246633946896
677,0.00144469900988042,-0.00599084747955203,0.00179463671520352,-0.0114148566499352,-0.00643398938700557,0.00329648703336716
678,0.000875570229254663,0.00065238552633673,0.00418989453464746,-0.0104969516396523,-0.0048602782189846,0.018835561349988
679,0.00164102355483919,0.0080577889457345,0.00708758737891912,-0.00895507447421551,0.000543592381291091,0.0277768932282925
680,0.00274643185548484,0.0126395644620061,0.00762233417481184,-0.00757792359218001,0.00658409157767892,0.0284815523773432
681,0.00249296124093235,0.012916998937726,0.00709366891533136,-0.00643585342913866,0.00952982902526855,0.0228684414178133
682,0.00115116476081312,0.0100426701828837,0.00742061296477914,-0.00655385572463274,0.00937121175229549,0.0134314186871052
683,0.000398372852941975,0.00629905145615339,0.00934920180588961,-0.00699426513165236,0.00934802275151014,0.00396496383473277
684,0.000946657441090792,0.00366674130782485,0.0119693148881197,-0.00492545124143362,0.0115239303559065,-0.000988133484497666
685,0.00185098499059677,0.00192714878357947,0.0135385524481535,8.66346381371841E-05,0.0152830351144075,-0.00119166099466383
686,0.00158296420704573,6.59272845950909E-05,0.0141740310937166,0.00553389266133308,0.0191769283264875,-0.000307029549730942
687,0.000248884025495499,-0.00163384072948247,0.0153605621308088,0.00847906619310379,0.0214596558362246,-0.000528421835042536
688,-0.00116180558688939,-0.00208785082213581,0.0159552507102489,0.00788840185850859,0.0184832867234945,-0.000726837897673249
689,-0.00266062188893557,-0.000850112817715853,0.0139400605112314,0.005421148147434,0.00883557554334402,0.00119466241449118
690,-0.00350415846332908,0.00101025286130607,0.0104119153693318,0.0033259647898376,-0.00177715008612722,0.00425642030313611
691,-0.00248633651062846,0.00149807392153889,0.00706506380811334,0.00197232933714986,-0.0075871697627008,0.00449099065735936
692,-0.000328500638715923,0.000404831662308425,0.00366755318827927,0.00113098742440343,-0.00860040169209242,0.000314278848236427
693,0.00184646516572684,-0.00120535679161549,0.000465959019493312,0.00100810639560223,-0.00579751888290048,-0.00718212267383933
694,0.00410817516967654,-0.00361477653495967,-0.000662689039018005,0.0011209825752303,0.000396622635889798,-0.0161575749516487
695,0.00543517014011741,-0.00656468840315938,0.000763474614359438,0.000856873986776918,0.00574784027412534,-0.0221705604344606
696,0.00402660388499498,-0.00806223973631859,0.00256080203689635,-0.000264887348748744,0.00414715800434351,-0.0213093385100365
697,0.000999849755316973,-0.00693723745644093,0.00246599549427629,-0.00295590446330607,-0.00384900067001581,-0.0155170252546668
698,-0.00214523263275623,-0.00464284280315042,-0.000348694855347276,-0.00750256003811955,-0.0121941864490509,-0.0103879487141967
699,-0.00583871826529503,-0.00254292716272175,-0.00524012744426727,-0.0121276080608368,-0.017637824639678,-0.00775451213121414
700,-0.00851212255656719,8.96511628525332E-05,-0.00929105095565319,-0.0148430773988366,-0.0186020694673061,-0.00646812096238136
701,-0.0078163854777813,0.00280301133170724,-0.00958839617669582,-0.0168384853750467,-0.0144319161772728,-0.00848154723644257
702,-0.00453131133690476,0.00464492291212082,-0.00620977953076363,-0.0175854749977589,-0.00765674561262131,-0.0123097095638514
703,-0.000550161115825176,0.00769824534654617,-0.00143122929148376,-0.0143523085862398,-0.00117814296390861,-0.0120903057977557
704,0.003552001202479,0.0120581584051251,0.00166540464852005,-0.00982422195374966,0.00389400194399059,-0.00948908738791943
705,0.00792749412357807,0.0134682059288025,0.00212620804086328,-0.00822689384222031,0.00819525774568319,-0.00995811354368925
706,0.011706848628819,0.0113404951989651,0.00137725530657917,-0.00811570137739182,0.0104259895160794,-0.0115553736686707
707,0.0125041911378503,0.00779631594195962,-0.000308534770738333,-0.00715352827683091,0.00650087557733059,-0.0120028173550963
708,0.00969919934868813,0.00340517866425216,-0.00160977651830763,-0.00604190491139889,-0.00316933076828718,-0.0143903791904449
709,0.00591224431991577,0.00010745576582849,0.000633735617157072,-0.00490499846637249,-0.0126416273415089,-0.0180657003074884
710,0.00325339334085584,-0.00113809446338564,0.00544496346265078,-0.0034326296299696,-0.0182502437382936,-0.0201188661158085
711,0.00191493716556579,-0.00163976452313364,0.00814509484916925,-0.00200150883756578,-0.0209202542901039,-0.020051334053278
712,0.00193172553554177,-0.00182293110992759,0.00730500090867281,-0.000204280702746473,-0.0223785955458879,-0.018283536657691
713,0.00269337394274771,-0.00170093961060047,0.00505974655970931,0.00145966839045286,-0.0240688510239124,-0.0160762276500463
714,0.00308130448684096,-0.00209379987791181,0.00221559451892972,0.00012264285760466,-0.0258789025247097,-0.0145941246300936
715,0.00274995970539749,-0.00326456828042865,-0.00216945121064782,-0.0061062597669661,-0.025938518345356,-0.0138737084344029
716,0.00203487579710782,-0.00392146036028862,-0.00714856246486306,-0.0142260557040572,-0.023634061217308,-0.0132845463231206
717,0.00200091395527124,-0.00361950509250164,-0.00957741774618626,-0.0195559523999691,-0.0184882450848818,-0.0141058582812548
718,0.00323431566357613,-0.00386984786018729,-0.0087634390220046,-0.0213383100926876,-0.00983178522437811,-0.0180795844644308
719,0.00445740204304457,-0.00595213798806071,-0.00781390815973282,-0.0218827035278082,-6.32216761005111E-05,-0.0237207487225533
720,0.00409388961270452,-0.00880227703601122,-0.00892194919288158,-0.0226698890328407,0.00611579418182373,-0.0272466652095318
721,0.00208419398404658,-0.0093624060973525,-0.0111647071316838,-0.022762244567275,0.00542145501822233,-0.0258739646524191
722,0.000350935297319666,-0.00578898657113314,-0.0115958256646991,-0.0205837339162827,0.000232645616051741,-0.0193651709705591
723,0.00148322561290115,0.000208707191632129,-0.00789291691035032,-0.0168278608471155,-0.00327544868923724,-0.0108303232118487
724,0.00586318597197533,0.00518008228391409,-0.00225726212374866,-0.0137697523459792,-0.00297183147631586,-0.00577299809083343
725,0.011087765917182,0.00757375964894891,0.000920712016522884,-0.0128189949318767,-0.00157083373051137,-0.00815208535641432
726,0.0140106678009033,0.00836373399943113,0.000230395598919131,-0.0136636542156339,-0.00232404400594532,-0.0160675551742315
727,0.0136675834655762,0.00848019681870937,-0.00268815527670085,-0.0146639840677381,-0.00543418154120445,-0.0236161295324564
728,0.0114623615518212,0.00728291971608996,-0.00600297003984451,-0.0149539336562157,-0.0090253921225667,-0.0276850443333387
729,0.00796549860388041,0.00371074746362865,-0.00860125012695789,-0.014603029936552,-0.0127558615058661,-0.0279128737747669
730,0.0039887516759336,-0.000425704143708572,-0.00890868250280619,-0.0129991648718715,-0.0154075166210532,-0.0244143176823854
731,0.00166783784516156,-0.00145772192627192,-0.00699744326993823,-0.0108530484139919,-0.0156982205808163,-0.0197635367512703
732,0.000725077581591904,-0.00058116961736232,-0.005761977750808,-0.0104142995551229,-0.0157752633094788,-0.0172853041440248
733,-0.000262604327872396,-0.00123064185027033,-0.00633095158264041,-0.0116210859268904,-0.0172669757157564,-0.0170226842164993
734,-0.000839403190184385,-0.00274851405993104,-0.0067869289778173,-0.0123994201421738,-0.0194744355976582,-0.016687948256731
735,-0.000633179268334061,-0.00340931070968509,-0.00594417611137033,-0.0117003340274096,-0.0210743471980095,-0.0139365727081895
736,0.000545422080904245,-0.00439927633851767,-0.00474987039342523,-0.0113542880862951,-0.0195320546627045,-0.0117906564846635
737,0.00281806522980332,-0.00709641352295876,-0.004484623670578,-0.0125234806910157,-0.0146909970790148,-0.0149391638115048
738,0.00512937223538756,-0.00973156094551086,-0.00511542614549398,-0.0135119650512934,-0.0106263943016529,-0.020103057846427
739,0.00663644634187222,-0.0113004045560956,-0.00560729671269655,-0.0151230711489916,-0.0100128334015608,-0.0240666754543781
740,0.00772912194952369,-0.0125769302248955,-0.00559232151135802,-0.0194413643330336,-0.0109012862667441,-0.0281713362783194
741,0.00926726683974266,-0.0120268790051341,-0.00577749125659466,-0.0242342110723257,-0.00933117512613535,-0.030886085703969
742,0.0112541364505887,-0.00762281427159905,-0.00625867210328579,-0.0251714289188385,-0.0046429093927145,-0.0278639309108257
743,0.0134876435622573,-0.00088981626322493,-0.00586088513955474,-0.0214547384530306,0.000676123425364494,-0.0188988111913204
744,0.015646044164896,0.00412604631856084,-0.00446363957598805,-0.0165805723518133,0.00447753351181746,-0.0103241326287389
745,0.0163600724190474,0.00506405718624592,-0.00333599816076458,-0.0135953351855278,0.0047365827485919,-0.00843268260359764
746,0.0151991862803698,0.00310734426602721,-0.002212795894593,-0.0115862041711807,0.00134831096511334,-0.0131241893395782
747,0.0134031772613525,0.000662473670672625,0.000130051907035522,-0.00831894762814045,-0.00303475093096495,-0.0200596507638693
748,0.0123198265209794,-0.00074901623884216,0.00288425665348768,-0.00419342098757625,-0.00739199155941606,-0.0254871863871813
749,0.0122840898111463,-0.000652707938570529,0.00434847502037883,-0.00224864878691733,-0.0130128199234605,-0.0280735976994038
750,0.0122441733255982,0.000888600770849735,0.00477881589904428,-0.00347061082720757,-0.0199777223169804,-0.0272490493953228
751,0.0107323182746768,0.00324551993981004,0.00516299344599247,-0.00513189285993576,-0.0272178538143635,-0.0224083531647921
752,0.00760133191943169,0.00491839647293091,0.00507424399256706,-0.0059974011965096,-0.033045407384634,-0.0151130529120564
753,0.00459460401907563,0.00505435606464744,0.00348234153352678,-0.00622091861441731,-0.0349293947219849,-0.007393644656986
754,0.00315421097911894,0.00548364408314228,0.000468333688331768,-0.00424085417762399,-0.0323624648153782,-0.00048773069283925
755,0.00370707525871694,0.00795372109860182,-0.00223684450611472,-0.000487993791466579,-0.0262243188917637,0.00307487510144711
756,0.00561941042542458,0.0100595010444522,-0.00344889471307397,0.0014999374980107,-0.0169230662286282,0.00120702234562486
757,0.0068939421325922,0.00863070972263813,-0.00428876141086221,-0.000378735101548955,-0.00687652360647917,-0.00532342679798603
758,0.00667108548805118,0.00300074182450771,-0.00638238480314612,-0.00599383562803268,-0.000285472226096317,-0.0146880559623241
759,0.00568266771733761,-0.00444707227870822,-0.00972008239477873,-0.0138322403654456,0.00146541954018176,-0.0248576160520315
760,0.00525777647271752,-0.00892896391451359,-0.0119160553440452,-0.0200494602322578,0.00121073261834681,-0.0319789238274097
761,0.00653006276115775,-0.00878263916820288,-0.0107455505058169,-0.0220385417342186,0.00174377858638763,-0.0332338884472847
762,0.00889449845999479,-0.00652687950059772,-0.00741347204893827,-0.0210020244121552,0.0025284041184932,-0.0298696868121624
763,0.0106347110122442,-0.00443256134167314,-0.00474786898121238,-0.0189875084906816,0.00137567124329507,-0.0245203971862793
764,0.0110988290980458,-0.00339493644423783,-0.00408022664487362,-0.0176323391497135,-0.00153619411867112,-0.0197118818759918
765,0.0108321467414498,-0.00375389051623642,-0.00464559905230999,-0.017499690875411,-0.0038927944842726,-0.0174230933189392
766,0.0101293278858066,-0.00518648978322744,-0.00438040122389793,-0.0179294627159834,-0.00556995533406734,-0.017579598352313
767,0.00861915480345488,-0.00661872513592243,-0.00219441275112331,-0.0183208454400301,-0.00939081236720085,-0.0186668243259192
768,0.00648348219692707,-0.00774133950471878,0.000320251128869131,-0.0190429780632257,-0.0159555766731501,-0.0202236212790012
769,0.00555489351972938,-0.00852146930992603,0.00142329395748675,-0.0199357662349939,-0.0214337948709726,-0.0220369193702936
770,0.00614590616896749,-0.00865093432366848,0.00105029682163149,-0.0194884091615677,-0.0243805777281523,-0.0237960163503885
771,0.0060334331355989,-0.00942052900791168,-0.00130442949011922,-0.0181696936488152,-0.0267411340028048,-0.0269352979958057
772,0.00451374333351851,-0.0114508951082826,-0.00571783818304539,-0.0177757553756237,-0.0283103007823229,-0.0319877192378044
773,0.00274140923283994,-0.0132816722616553,-0.00946903601288795,-0.0181191060692072,-0.0269836932420731,-0.0372691750526428
774,0.00196533161215484,-0.0139359598979354,-0.00974384322762489,-0.0180640202015638,-0.0211102496832609,-0.040312934666872
775,0.00217415113002062,-0.0131364483386278,-0.0077669732272625,-0.0179424546658993,-0.0133151933550835,-0.0390456467866898
776,0.00246719270944595,-0.0102489432319999,-0.00642482656985521,-0.0184296742081642,-0.00850096344947815,-0.0337632820010185
777,0.00218384643085301,-0.00555753894150257,-0.00714459409937263,-0.0198108125478029,-0.00843184627592564,-0.0276668891310692
778,0.000337251229211688,-0.00169221393298358,-0.0106558734551072,-0.0232855547219515,-0.0130797056481242,-0.0250083338469267
779,-0.00287379557266831,-0.000364368228474632,-0.015290716663003,-0.0271462928503752,-0.0203099213540554,-0.0249328799545765
780,-0.00510758813470602,0.0015096093993634,-0.0180329047143459,-0.0271479021757841,-0.0270528439432383,-0.0202737599611282
781,-0.0040387618355453,0.00563710322603583,-0.0178485307842493,-0.0242260117083788,-0.031733650714159,-0.0110580343753099
782,-3.4744411095744E-05,0.00794547703117132,-0.0150944888591766,-0.0221466273069382,-0.0339053645730019,-0.00571771897375584
783,0.00378756877034903,0.00682069361209869,-0.011965743266046,-0.0212230011820793,-0.0350984111428261,-0.00659954966977239
784,0.00515618780627847,0.00480747129768133,-0.0113503038883209,-0.0208665896207094,-0.0367072224617004,-0.0104874670505524
785,0.00516507588326931,0.00272913160733879,-0.0128289479762316,-0.0214447937905788,-0.0379250310361385,-0.0157249271869659
786,0.00579067645594478,0.000100863151601516,-0.0138682844117284,-0.0226948149502277,-0.0377031117677689,-0.0217144284397364
787,0.00666661700233817,-0.00199505197815597,-0.0137563040480018,-0.0236655324697495,-0.0363581813871861,-0.0274927839636803
788,0.00608581071719527,-0.00274407840333879,-0.0130540616810322,-0.0244889706373215,-0.0347090065479279,-0.0329789556562901
789,0.0036896662786603,-0.00326667306944728,-0.0116840824484825,-0.0259590558707714,-0.033052571117878,-0.038391750305891
790,0.00139692611992359,-0.00387981883250177,-0.00976000912487507,-0.027350589632988,-0.0300849489867687,-0.0430697277188301
791,0.000830431468784809,-0.00377006642520428,-0.00867240224033594,-0.0280731599777937,-0.0245193801820278,-0.0457834042608738
792,0.00152308645192534,-0.00253640348091722,-0.00952838826924562,-0.0284332018345594,-0.0185397062450647,-0.0449211671948433
793,0.00238896766677499,-0.000606832909397781,-0.0118031809106469,-0.0286679957062006,-0.0158583000302315,-0.0413502044975758
794,0.00217540981248021,0.000548742536921054,-0.0155008984729648,-0.0300488322973251,-0.019320173189044,-0.0387156531214714
795,0.000429846841143444,-0.00032074810587801,-0.0206873863935471,-0.0339424461126328,-0.028411628678441,-0.0399001501500607
796,-0.00129827100317925,-0.0028432123363018,-0.0254144538193941,-0.0392901711165905,-0.038046807050705,-0.0448636040091515
797,-0.00129317410755903,-0.00577443093061447,-0.0279528219252825,-0.0443246699869633,-0.0436459481716156,-0.0518307201564312
798,0.000464943033875898,-0.00850126333534718,-0.0279723312705755,-0.0490092150866985,-0.0442153811454773,-0.0598272643983364
799,0.00233403313905001,-0.0102690849453211,-0.0273114405572414,-0.0535406358540058,-0.0437569953501225,-0.0666183531284332
800,0.00298231141641736,-0.0105753727257252,-0.0293731354176998,-0.0579375736415386,-0.0484077110886574,-0.0701530277729034
801,0.0034152225125581,-0.0100040016695857,-0.0338203944265842,-0.0620480440557003,-0.0575359798967838,-0.0723186731338501
802,0.00521621899679303,-0.00898748077452183,-0.0372653566300869,-0.0654707551002502,-0.0648791864514351,-0.0759074687957764
803,0.0081411711871624,-0.00848173629492521,-0.0387929193675518,-0.0690362229943275,-0.0680681616067886,-0.0829049199819565
804,0.0102301444858313,-0.00930065754801035,-0.0402092076838017,-0.0732426196336746,-0.070877343416214,-0.0929412543773651
805,0.0100254938006401,-0.0102706123143435,-0.042786967009306,-0.0768315047025681,-0.0766886621713638,-0.102218352258205
806,0.0078799007460475,-0.0104987807571888,-0.0465492196381092,-0.0793498232960701,-0.0846930369734764,-0.108114570379257
807,0.00439498107880354,-0.0107199782505631,-0.0520514324307442,-0.0822092071175575,-0.0934998169541359,-0.111277177929878
808,0.000461898220237345,-0.0108825312927365,-0.0585198365151882,-0.0856791511178017,-0.102335527539253,-0.1133032143116
809,-0.00196053204126656,-0.0106628201901913,-0.0627814829349518,-0.08889489620924,-0.108740441501141,-0.11632975935936
810,-0.00191059161443263,-0.0107265189290047,-0.0644025057554245,-0.0928290411829948,-0.111416861414909,-0.121688768267632
811,-0.000900807499419898,-0.0112754199653864,-0.0665755346417427,-0.098546490073204,-0.11378188431263,-0.128201931715012
812,-0.00050059542991221,-0.0119076147675514,-0.0698225647211075,-0.104320965707302,-0.118499591946602,-0.134200498461723
813,-0.000521579931955785,-0.0124171013012528,-0.0714357495307922,-0.107476599514484,-0.123386651277542,-0.139359563589096
814,-0.000494294275995344,-0.0135070150718093,-0.0706720724701881,-0.10845922678709,-0.125824183225632,-0.145492613315582
815,0.000682079524267465,-0.0160870105028152,-0.0697397291660309,-0.111516207456589,-0.124926291406155,-0.155817434191704
816,0.00433762278407812,-0.0194009300321341,-0.0713140666484833,-0.119657479226589,-0.122465841472149,-0.170458152890205
817,0.00964561104774475,-0.0219206884503365,-0.0758130997419357,-0.130912646651268,-0.121879510581493,-0.185619622468948
818,0.0144432028755546,-0.02432931214571,-0.081215113401413,-0.142229780554771,-0.123795904219151,-0.199192091822624
819,0.0172061119228601,-0.0282274913042784,-0.0854558497667313,-0.151901483535767,-0.126685470342636,-0.210832238197327
820,0.0182221010327339,-0.0324156209826469,-0.0863799303770065,-0.157606288790703,-0.128898456692696,-0.218851447105408
821,0.0188288427889347,-0.0351296775043011,-0.0821615606546402,-0.159301042556763,-0.129746273159981,-0.223532140254974
822,0.0194083992391825,-0.0370769016444683,-0.0746350437402725,-0.160316601395607,-0.130359426140785,-0.227556392550468
823,0.0194804631173611,-0.0375469848513603,-0.0687735304236412,-0.161455631256104,-0.132050260901451,-0.231371328234673
824,0.0185685027390718,-0.0354820303618908,-0.0680006965994835,-0.161771893501282,-0.135019853711128,-0.234754160046577
825,0.017106868326664,-0.0348060913383961,-0.0712469294667244,-0.161799713969231,-0.137370467185974,-0.239049091935158
826,0.016189131885767,-0.0385550409555435,-0.0751595199108124,-0.161375656723976,-0.138131454586983,-0.24573527276516
827,0.0161202475428581,-0.0439473055303097,-0.0774139985442162,-0.160733789205551,-0.139103814959526,-0.25622484087944
828,0.0166727043688297,-0.0470254793763161,-0.0777044072747231,-0.161748573184013,-0.140404343605042,-0.269175171852112
829,0.0177850592881441,-0.0470153503119946,-0.0782908201217651,-0.166088551282883,-0.14024643599987,-0.279715359210968
830,0.0192697029560804,-0.046311192214489,-0.0822205096483231,-0.17359222471714,-0.138373658061028,-0.283860772848129
831,0.0212378371506929,-0.0463091172277927,-0.0889624133706093,-0.181205853819847,-0.135055914521217,-0.28056874871254
832,0.0237376075237989,-0.0460354387760162,-0.0943859815597534,-0.184594720602036,-0.129858687520027,-0.271317571401596
833,0.0251688733696938,-0.0456164963543415,-0.0956415310502052,-0.182077929377556,-0.12369629740715,-0.259593427181244
834,0.0248116999864578,-0.0464208982884884,-0.0922032818198204,-0.175982847809792,-0.117269121110439,-0.249148219823837
835,0.0241159070283175,-0.0488993935286999,-0.0857002660632133,-0.170963376760483,-0.110078945755959,-0.241908252239227
836,0.0242193564772606,-0.0509033910930157,-0.0796021819114685,-0.169288128614426,-0.102483443915844,-0.236479312181473
837,0.0250710211694241,-0.0492558144032955,-0.0765360295772552,-0.168428540229797,-0.0969161242246628,-0.229824051260948
838,0.0256000459194183,-0.0448951832950115,-0.07659862190485,-0.165650770068169,-0.0939783230423927,-0.220823049545288
839,0.0257546789944172,-0.0409504026174545,-0.0765439048409462,-0.159724101424217,-0.0895090773701668,-0.209731474518776
840,0.0264815036207438,-0.0381127223372459,-0.0733461305499077,-0.1501355022192,-0.0829176530241966,-0.197415009140968
841,0.0266886781901121,-0.0356616526842117,-0.0672322064638138,-0.138209268450737,-0.0784599408507347,-0.185416087508202
842,0.0251707993447781,-0.0330880135297775,-0.0591772273182869,-0.126424565911293,-0.0766890347003937,-0.174161925911903
843,0.0225592292845249,-0.0306642018258572,-0.0510655045509338,-0.117225430905819,-0.0764613598585129,-0.163990959525108
844,0.0193217005580664,-0.0285015814006329,-0.0452918782830238,-0.111312061548233,-0.0784828811883926,-0.15528579056263
845,0.016561146825552,-0.0258544068783522,-0.0427928529679775,-0.108307726681232,-0.0806417912244797,-0.147788092494011
846,0.0157616697251797,-0.0227295141667128,-0.043339092284441,-0.107763893902302,-0.0788135230541229,-0.141625419259071
847,0.0168225802481174,-0.0201266966760159,-0.0449735447764397,-0.106166034936905,-0.071086548268795,-0.135408043861389
848,0.0188385304063559,-0.0187913291156292,-0.0453406684100628,-0.099088542163372,-0.0584985986351967,-0.127317279577255
849,0.0205185990780592,-0.0177949331700802,-0.0432162433862686,-0.0867588147521019,-0.0445638783276081,-0.11911940574646
850,0.0209770258516073,-0.016936955973506,-0.0393138378858566,-0.0733397603034973,-0.0326325744390488,-0.114740781486034
851,0.020913502201438,-0.0183955430984497,-0.0364174507558346,-0.0627273693680763,-0.0239960066974163,-0.114512659609318
852,0.0207533575594425,-0.021441750228405,-0.0354379788041115,-0.0564677752554417,-0.0190583523362875,-0.113420814275742
853,0.019954277202487,-0.0228462386876345,-0.0344607196748257,-0.0550011470913887,-0.01770862005651,-0.107438698410988
854,0.0178605001419783,-0.0225072931498289,-0.0328895188868046,-0.0576187521219254,-0.0186183135956526,-0.0979640707373619
855,0.0143604297190905,-0.0223088674247265,-0.0319007486104965,-0.0607885457575321,-0.0198136623948812,-0.0883818045258522
856,0.0105177043005824,-0.022166334092617,-0.0317314080893993,-0.0605678893625736,-0.0199014917016029,-0.0799129232764244
857,0.00683993613347411,-0.020767193287611,-0.0316083692014217,-0.0556748621165752,-0.0192792899906635,-0.071157842874527
858,0.0028665300924331,-0.0185228195041418,-0.0306784827262163,-0.0482725985348225,-0.0186760984361172,-0.061080314218998
859,-0.00118150049820542,-0.0156025402247906,-0.0280164200812578,-0.0407732836902142,-0.0171203967183828,-0.0487032346427441
860,-0.00385196856223047,-0.0098264068365097,-0.0234745051711798,-0.0328020416200161,-0.0130715230479836,-0.0313534885644913
861,-0.00388350244611502,-0.00106347899418324,-0.0182303730398417,-0.0250140018761158,-0.00614611525088549,-0.00969926826655865
862,-0.00204415153712034,0.00691346731036901,-0.0141759673133492,-0.0202355198562145,0.00180362875107676,0.0106716295704246
863,-2.5709316105349E-05,0.0107473712414503,-0.0117843188345432,-0.0192367769777775,0.00820700637996197,0.0251030866056681
864,0.00111175619531423,0.0104332827031612,-0.00948954280465841,-0.0195984467864037,0.0123335542157292,0.0335387960076332
865,0.00127068138681352,0.00842028576880693,-0.00687011191621423,-0.0190520770847797,0.0150760505348444,0.038386557251215
866,0.00150114775169641,0.00738971261307597,-0.00494150444865227,-0.0170955881476402,0.0181184206157923,0.0411206968128681
867,0.0020763948559761,0.00831978116184473,-0.00476892665028572,-0.0131673738360405,0.0215188898146153,0.0422706566751003
868,0.00168387067969888,0.00988654419779778,-0.00641278410330415,-0.00664165336638689,0.023686658591032,0.0424596443772316
869,0.0003416653489694,0.0105728935450315,-0.00733696622774005,0.0020099061075598,0.0265191830694675,0.0425775162875652
870,-0.0015520416200161,0.0110112866386771,-0.00622125761583447,0.0113772600889206,0.0309850014746189,0.0442716740071774
871,-0.00499284546822309,0.012276217341423,-0.00450523383915424,0.0198091119527817,0.0332430303096771,0.0491871908307076
872,-0.00934523437172174,0.0134133649989963,-0.00279888068325818,0.0265516117215157,0.0328269489109516,0.0571534521877766
873,-0.0127598624676466,0.0144893554970622,-0.00150904210750014,0.0315399803221226,0.0321948193013668,0.0667426884174347
874,-0.0146930469200015,0.0165085010230541,-0.000907675421331078,0.0346319824457169,0.0322538875043392,0.0768889784812927
875,-0.015486721880734,0.0174648817628622,-8.10032579465769E-05,0.0361426994204521,0.0334936827421188,0.086561031639576
876,-0.0153808621689677,0.0158939640969038,0.00162769760936499,0.0368162356317043,0.0363340340554714,0.0936990156769753
877,-0.0146533539518714,0.0129663096740842,0.00437650363892317,0.0381795652210712,0.0407389663159847,0.096359446644783
878,-0.0136941373348236,0.00950409937649965,0.00838022958487272,0.0421728119254112,0.0452834218740463,0.0946039333939552
879,-0.0125559344887733,0.0057997964322567,0.0135433869436383,0.0489764139056206,0.0481696613132954,0.0910263210535049
880,-0.0113281104713678,0.00236484408378601,0.0186932999640703,0.0564170777797699,0.048976007848978,0.0884299501776695
881,-0.0103444717824459,-0.000102185207651928,0.0216371938586235,0.0616345927119255,0.0478430353105068,0.086721695959568
882,-0.00974665023386478,-0.000907545909285545,0.0215060710906982,0.0637599527835846,0.046360868960619,0.0848212018609047
883,-0.00924087967723608,0.000108225314761512,0.0196173395961523,0.0638798400759697,0.0477658621966839,0.0838346108794212
884,-0.00883734878152609,0.00211743591353297,0.0178308468312025,0.0624817162752151,0.0529744662344456,0.0853482335805893
885,-0.00960905011743307,0.00455308612436056,0.0171004235744476,0.0598833188414574,0.0586408674716949,0.0894788131117821
886,-0.0118299592286348,0.00797987543046474,0.0171173047274351,0.0578294098377228,0.0613603629171848,0.0969559624791145
887,-0.01339649874717,0.0125861717388034,0.0177353415638208,0.058334331959486,0.0629211217164993,0.108555428683758
888,-0.0124975703656673,0.0183232016861439,0.0200399085879326,0.062273770570755,0.0664096474647522,0.121874585747719
889,-0.0105637526139617,0.0250854734331369,0.0245988294482231,0.0682839900255203,0.0694655478000641,0.132980942726135
890,-0.0106027321889997,0.0310436449944973,0.0298026856034994,0.0736258178949356,0.0682700201869011,0.140140160918236
891,-0.0132106682285666,0.034256462007761,0.0341524928808212,0.0779930725693703,0.0637780874967575,0.144516050815582
892,-0.0160449594259262,0.0351162403821945,0.0373068675398827,0.0822867304086685,0.0598590932786465,0.147605031728745
893,-0.0167336277663708,0.0350450538098812,0.0386679247021675,0.0853099673986435,0.0591203346848488,0.148918718099594
894,-0.0157018043100834,0.0343654192984104,0.0381518602371216,0.0862992629408836,0.0606700219213963,0.147702842950821
895,-0.0148918181657791,0.0327176973223686,0.0373059436678886,0.0874122083187103,0.0627254843711853,0.14564336836338
896,-0.0148501237854362,0.0308222528547049,0.0367635414004326,0.0895926654338837,0.0649024471640587,0.143964022397995
897,-0.0155793614685535,0.0289048794656992,0.0351013913750649,0.0906791836023331,0.0657312572002411,0.141256660223007
898,-0.0169664956629276,0.0257547218352556,0.0324871055781841,0.0905711278319359,0.0645690932869911,0.137182131409645
899,-0.0177919827401638,0.0220384802669287,0.0309623647481203,0.0910836234688759,0.0640712678432465,0.133549124002457
900,-0.0172749161720276,0.0198624320328236,0.0315179415047169,0.0925811156630516,0.0667213499546051,0.132653847336769
901,-0.0160139761865139,0.0202325116842985,0.0340555496513844,0.0949655100703239,0.0719992816448212,0.136241674423218
902,-0.015029663220048,0.0223499815911055,0.0369463376700878,0.097388781607151,0.0755307972431183,0.14349353313446
903,-0.0154684940353036,0.0234749689698219,0.0373500883579254,0.0978093519806862,0.0733192041516304,0.149980559945107
904,-0.0169901549816132,0.0218815263360739,0.0361972525715828,0.096803680062294,0.0684830918908119,0.151864483952522
905,-0.0179297067224979,0.0186250135302544,0.0367462001740932,0.0968819484114647,0.0669489800930023,0.14923457801342
906,-0.0181552935391665,0.0163260418921709,0.0381824895739555,0.0980496630072594,0.0691944435238838,0.145215064287186
907,-0.0189960971474648,0.015812125056982,0.0372598990797997,0.0977229773998261,0.0714325755834579,0.142105147242546
908,-0.0209716390818357,0.0150135569274426,0.0338762104511261,0.0940436944365501,0.0718647092580795,0.138630092144012
909,-0.0227589644491673,0.0142461955547333,0.0310472529381514,0.0897158160805702,0.0711366608738899,0.134853705763817
910,-0.0227722730487585,0.015454949811101,0.0304958410561085,0.0883235707879066,0.0703657418489456,0.133151456713676
911,-0.0205648988485336,0.0172588229179382,0.0321717485785484,0.0890641510486603,0.0720136165618896,0.133814141154289
912,-0.0168491899967194,0.0172006022185087,0.0363203696906567,0.0898824036121368,0.0765218660235405,0.135207280516624
913,-0.0132084935903549,0.0157792158424854,0.0423088632524014,0.0908997729420662,0.0803296267986298,0.136439591646194
914,-0.0108376070857048,0.0158960334956646,0.0473213382065296,0.0932210236787796,0.0803906694054604,0.138055235147476
915,-0.0100012738257647,0.018786882981658,0.049437902867794,0.0972758904099464,0.0763632580637932,0.139685675501823
916,-0.0102909905835986,0.0218733604997396,0.0497236177325249,0.100988313555717,0.0698106214404106,0.139405354857445
917,-0.0109175657853484,0.0216644629836082,0.0494575574994087,0.100780785083771,0.0638517066836357,0.135992839932442
918,-0.0116396388038993,0.0179703962057829,0.0488204769790173,0.0978899374604225,0.0610402897000313,0.131608217954636
919,-0.0125551279634237,0.0140973050147295,0.0481482148170471,0.0975208431482315,0.0617074258625507,0.129844561219215
920,-0.0135946217924356,0.0123937232419848,0.0465902164578438,0.0994502827525139,0.0647424384951591,0.129424512386322
921,-0.0142434109002352,0.0113068297505379,0.0429022908210754,0.099137157201767,0.069214940071106,0.126797214150429
922,-0.0136719066649675,0.00883010867983103,0.0388331711292267,0.0961774364113808,0.0740987285971642,0.122699178755283
923,-0.012611947953701,0.00585029134526849,0.0362835302948952,0.0927596762776375,0.0762366354465485,0.120012082159519
924,-0.0126398131251335,0.00430801929906011,0.0347458012402058,0.0899052619934082,0.0732778087258339,0.120215341448784
925,-0.0135984644293785,0.00475120451301336,0.0337294265627861,0.0884133726358414,0.0682491734623909,0.123161062598228
926,-0.0149221671745181,0.00599698768928647,0.0335474871098995,0.0885007083415985,0.0666801929473877,0.127221912145615
927,-0.0167813897132874,0.0069712707772851,0.0350214540958405,0.0896290168166161,0.069849006831646,0.130966380238533
928,-0.0178161822259426,0.00768121611326933,0.0380367636680603,0.0902877822518349,0.0735947340726852,0.133444860577583
929,-0.0168502684682608,0.00793101545423269,0.0404054969549179,0.0884241238236427,0.0731984674930573,0.132916629314423
930,-0.0157249253243208,0.00748993456363678,0.0406871438026428,0.0839608758687973,0.0671733915805817,0.128953188657761
931,-0.0159328319132328,0.00698644947260618,0.0394340604543686,0.079139769077301,0.0575564503669739,0.123245738446712
932,-0.0160248465836048,0.0075691444799304,0.0380797013640404,0.0767854750156403,0.0493107177317142,0.118337914347649
933,-0.0138918617740273,0.00970842689275742,0.0379160307347775,0.0775004774332047,0.0474290065467358,0.116257421672344
934,-0.00998619105666876,0.0127508044242859,0.0381569042801857,0.0785032957792282,0.0522533804178238,0.116383455693722
935,-0.00699122156947851,0.0155176557600498,0.0373866148293018,0.0775293484330177,0.0595572218298912,0.116287015378475
936,-0.00681670196354389,0.0174088887870312,0.0360915884375572,0.0762045457959175,0.0636993497610092,0.116079427301884
937,-0.00935760699212551,0.0181914642453194,0.035067655146122,0.0765221640467644,0.0618123300373554,0.117088340222836
938,-0.0128758512437344,0.0172154046595097,0.0350160710513592,0.077610932290554,0.0569601617753506,0.117130115628242
939,-0.0158001743257046,0.0150595856830478,0.0363096110522747,0.0779466331005096,0.0527506098151207,0.114240728318691
940,-0.0173388253897429,0.0134506952017546,0.0370149426162243,0.0769655928015709,0.049961544573307,0.110104911029339
941,-0.0168155916035175,0.0133105348795652,0.0356319509446621,0.0752905160188675,0.050248347222805,0.107159845530987
942,-0.0151840439066291,0.0139884259551764,0.0334468521177769,0.0738701373338699,0.0544036328792572,0.105896145105362
943,-0.0140272472053766,0.0141459703445435,0.0323987752199173,0.0729337558150291,0.0604560673236847,0.104865066707134
944,-0.0130006168037653,0.0139349335804582,0.033037893474102,0.0724599808454514,0.0662807002663612,0.103051111102104
945,-0.0115502597764134,0.0144040044397116,0.0338926464319229,0.0728409141302109,0.0698114410042763,0.101027354598045
946,-0.0101348347961903,0.01563361287117,0.0339087508618832,0.0753324329853058,0.0697667002677917,0.0991756096482277
947,-0.00966804940253496,0.017240509390831,0.033714797347784,0.0792723596096039,0.0658291280269623,0.0963993966579437
948,-0.0104029113426805,0.01813611574471,0.0345073975622654,0.0811405256390572,0.0587944015860558,0.0924618691205978
949,-0.0110633298754692,0.0181279201060534,0.0365143939852715,0.079884946346283,0.0514474026858807,0.0897267907857895
950,-0.0106661673635244,0.018827298656106,0.0376992449164391,0.0773393139243126,0.0462152510881424,0.0893690437078476
951,-0.00961547344923019,0.0198445841670036,0.0365439243614674,0.0744815021753311,0.0435494258999825,0.0896850675344467
952,-0.00912966392934322,0.0192796532064676,0.0342546068131924,0.0714311748743057,0.0422016754746437,0.0886441096663475
953,-0.00982998311519623,0.0165962167084217,0.032844565808773,0.0685574635863304,0.0415983013808727,0.0848952606320381
954,-0.0107157323509455,0.013626997359097,0.0331726521253586,0.0669123753905296,0.0422577857971191,0.0797249302268028
955,-0.0107901897281408,0.0131856873631477,0.0346655137836933,0.066365122795105,0.0436209999024868,0.0758677273988724
956,-0.0102340700104833,0.01579475030303,0.0363931246101856,0.0657678246498108,0.0449026189744473,0.0746577605605125
957,-0.00955277215689421,0.0194990877062082,0.037642415612936,0.0657456442713737,0.0456338226795197,0.0768392309546471
958,-0.00879323482513428,0.0212652646005154,0.03740543872118,0.0669631063938141,0.0458073206245899,0.0816716849803925
959,-0.00729904230684042,0.0193954668939114,0.0346621125936508,0.0681480765342712,0.0474455617368221,0.086686298251152
960,-0.00516171520575881,0.0150993140414357,0.0295708253979683,0.0679235234856606,0.0517853647470474,0.0892557054758072
961,-0.00413362542167306,0.0101979970932007,0.0238377880305052,0.0659727677702904,0.0559986010193825,0.0876463502645493
962,-0.00555130606517196,0.00616172654554248,0.0191650465130806,0.0622373558580875,0.0569885969161987,0.0827922597527504
963,-0.00827744230628014,0.00499233417212963,0.0166302733123302,0.0578874982893467,0.0547971539199352,0.0780736207962036
964,-0.00916536897420883,0.00757638597860932,0.0176551248878241,0.0549350492656231,0.0517883934080601,0.0754672586917877
965,-0.00726951891556382,0.0120175592601299,0.0212432481348515,0.0526911020278931,0.0495679825544357,0.07361950725317
966,-0.00555828539654613,0.0149495247751474,0.0231125243008137,0.0488011613488197,0.0464814119040966,0.0705888867378235
967,-0.00565816927701235,0.0152301713824272,0.0217208620160818,0.0444204919040203,0.0415029749274254,0.0677180588245392
968,-0.00624791765585542,0.0154282758012414,0.0194823741912842,0.043612077832222,0.0371756665408611,0.0683190077543259
969,-0.00688179209828377,0.0177540220320225,0.0184783879667521,0.0460724905133247,0.0349584557116032,0.0716603472828865
970,-0.00814645085483789,0.0196361467242241,0.0189212784171104,0.0465509556233883,0.0334043614566326,0.0728194266557693
971,-0.00989383086562157,0.0173486359417439,0.0200018249452114,0.0431575961410999,0.0322598777711391,0.0694849714636803
972,-0.0116076022386551,0.0122722554951906,0.0209904070943594,0.0400001779198647,0.0318917408585548,0.0647810846567154
