,AF3,AF4,Fp1,Fp2,AF7,AF8
0,1.2789567335858E-05,-0.00371491955593228,0.0148962046951056,0.0292349122464657,0.0259883813560009,0.0386481285095215
1,-0.0009869618806988,-0.00360016361810267,0.0109298480674624,0.0223893541842699,0.0285216104239225,0.034828457981348
2,-0.00255023129284382,-0.00467816647142172,0.00758514693006873,0.0159001033753157,0.0298239700496197,0.0279428586363792
3,-0.00259059551171958,-0.00493513001129031,0.00844756420701742,0.0141479801386595,0.0307847298681736,0.0209141559898853
4,-0.000950990186538547,-0.00527937756851316,0.0133309401571751,0.0154688488692045,0.032517533749342,0.0129441805183887
5,0.00159012619405985,-0.00666997348889709,0.019394313916564,0.0157018639147282,0.0363517329096794,0.00350290909409523
6,0.00415902677923441,-0.00770621001720428,0.023473035544157,0.0140231233090162,0.0403505638241768,-0.00339787732809782
7,0.00639788154512644,-0.00748531566932797,0.0256468281149864,0.0135543067008257,0.041388675570488,-0.003318254603073
8,0.00843755528330803,-0.00678920140489936,0.0285340603441,0.0167355164885521,0.0402071513235569,0.00302029284648597
9,0.0102050378918648,-0.00510860001668334,0.0309076495468616,0.0209300424903631,0.0385927557945251,0.010720175690949
10,0.011337973177433,-0.00324582494795322,0.0285906251519918,0.0207462981343269,0.0363641977310181,0.0154489278793335
11,0.0107535729184747,-0.00393722578883171,0.0213548503816128,0.0149536551907659,0.0311294980347157,0.0170448571443558
12,0.00743922684341669,-0.00637848954647779,0.0135588906705379,0.00794553942978382,0.0204949323087931,0.0178220942616463
13,0.00234552519395947,-0.00769280502572656,0.00891418661922216,0.00424209795892239,0.00774143449962139,0.0184270460158587
14,-0.0020327081438154,-0.00680209556594491,0.00728032132610679,0.00387862627394497,-9.63981801760383E-05,0.0181528478860855
15,-0.0039533176459372,-0.00473674573004246,0.00637023616582155,0.00440409081056714,0.000208883531740867,0.0168063957244158
16,-0.00323769426904619,-0.00327309663407505,0.00567340524867177,0.00542183639481664,0.00716012390330434,0.015224882401526
17,-0.00125940423458815,-0.00275341887027025,0.00628315145149827,0.00755788153037429,0.0161343850195408,0.0142086390405893
18,-4.09899112128187E-05,-0.0028509022668004,0.00758251221850514,0.00944053661078215,0.0215761195868254,0.0125644532963634
19,0.000432321889093146,-0.00393543671816587,0.00799148064106703,0.0099358344450593,0.0226030573248863,0.00900002848356962
20,0.00139573740307242,-0.00533855753019452,0.0077429604716599,0.0101808877661824,0.0218925457447767,0.0049046934582293
21,0.00212071463465691,-0.00591956218704581,0.00756951980292797,0.00955769326537848,0.0194067284464836,0.00179874466266483
22,0.00151922146324068,-0.00610418152064085,0.00701471697539091,0.00581355579197407,0.0146236857399344,-0.000436456728493795
23,0.000239970933762379,-0.00602085608989,0.00579096842557192,0.000459669274277985,0.00910912547260523,-0.000980629003606737
24,-0.00102166854776442,-0.00560256419703364,0.00430154800415039,-0.00304011697880924,0.00324477371759713,0.000739438983146101
25,-0.00217151129618287,-0.00654362980276346,0.00297968555241823,-0.0039729573763907,-0.00246315449476242,0.00113897980190814
26,-0.00343825249001384,-0.00986551679670811,0.00288498890586197,-0.00283791567198932,-0.00709823006764054,-0.0039698644541204
27,-0.00466043967753649,-0.0140171116217971,0.00545751117169857,0.000397854397306219,-0.0107947997748852,-0.0126799093559384
28,-0.00501651084050536,-0.016815934330225,0.00959963910281658,0.00433439435437322,-0.0132381832227111,-0.0187470782548189
29,-0.00478212162852287,-0.0171637330204248,0.0123569453135133,0.0064966008067131,-0.0137725034728646,-0.0178430993109941
30,-0.00481110624969006,-0.0150085864588618,0.0122750662267208,0.00465528620406985,-0.0114745926111937,-0.010756304487586
31,-0.00502830091863871,-0.0104711651802063,0.00963463168591261,-0.00102345459163189,-0.00654282048344612,-0.00155247689690441
32,-0.00514316791668534,-0.00398770160973072,0.00634143687784672,-0.0061039924621582,-0.00110047799535096,0.00666950969025493
33,-0.00514867808669806,0.0024848475586623,0.00460342597216368,-0.00629437249153852,0.00264979852363467,0.0133830485865474
34,-0.00497474940493703,0.00695073185488582,0.00459741288796067,-0.00198118248954415,0.00438244361430407,0.0185188353061676
35,-0.00471552088856697,0.00941998511552811,0.00524891633540392,0.0027614701539278,0.00552196241915226,0.0201100241392851
36,-0.00438264477998018,0.00956805888563395,0.00518964137881994,0.00466329464688897,0.00579302711412311,0.016492260619998
37,-0.00379791995510459,0.00710639776661992,0.00330724311061203,0.00400011334568262,0.0041449754498899,0.00942262541502714
38,-0.00263610854744911,0.00453989719972014,0.000779351335950196,0.00208923243917525,0.00293904286809266,0.00280020292848349
39,-0.000252096855547279,0.00391647778451443,-0.000612433068454266,-0.00119580677710474,0.00535078998655081,-0.00106631591916084
40,0.00242105801589787,0.00405052863061428,-0.00145971577148885,-0.00590579165145755,0.01020931545645,-0.00333111407235265
41,0.00340278050862253,0.00366716412827373,-0.00284822145476937,-0.00955806765705347,0.012921953573823,-0.00554497027769685
42,0.00249254796653986,0.00367020606063306,-0.00412177434191108,-0.00982528086751699,0.0114826560020447,-0.00739462953060865
43,0.000748052669223398,0.00466017704457045,-0.00388066400773823,-0.00847688410431147,0.00877867173403502,-0.00837270729243755
44,-0.00130488444119692,0.00430841976776719,-0.0027325632981956,-0.00940535869449377,0.00759392371401191,-0.00893738120794296
45,-0.00353764346800745,0.000404466467443854,-0.00295130535960197,-0.0139631386846304,0.00727164279669523,-0.00987304002046585
46,-0.00520917680114508,-0.00418689753860235,-0.00434534903615713,-0.018366975709796,0.00628984486684203,-0.0101076336577535
47,-0.00557045824825764,-0.00518544670194387,-0.00423610489815474,-0.0175218041986227,0.00531469238922,-0.00829643290489912
48,-0.00438435841351748,-0.00263881497085094,-0.0015984809724614,-0.0107027273625135,0.00547583913430572,-0.00512411259114742
49,-0.00127201422583312,0.000445099372882396,0.00232049403712153,-0.00152251520194113,0.0064102727919817,-0.00248018302954733
50,0.00313470629043877,0.00116806128062308,0.00616245716810226,0.00520713627338409,0.00744810979813337,-0.00304869073443115
51,0.00592785608023405,-0.00118656700942665,0.00823311600834131,0.0067127775400877,0.00657123560085893,-0.00757342716678977
52,0.00575140165165067,-0.00451717525720596,0.00770736252889037,0.00470496853813529,0.00240772543475032,-0.0134637234732509
53,0.00479330494999886,-0.00667388457804918,0.00657234899699688,0.00290828756988049,-0.0022672472987324,-0.0182947907596827
54,0.00390442344360054,-0.00749098928645253,0.00661486247554421,0.00231133867055178,-0.00462753372266889,-0.0211643688380718
55,0.00168284389656037,-0.00699680484831333,0.00728400703519583,0.00159410235937685,-0.00560612604022026,-0.0209565069526434
56,-0.00176259165164083,-0.00563122425228357,0.00717108603566885,-0.000638054043520242,-0.00765100726857781,-0.0173456054180861
57,-0.00469112489372492,-0.00470512639731169,0.00634237844496965,-0.00340332137420774,-0.0108569785952568,-0.0113418838009238
58,-0.00611275853589177,-0.00319432257674634,0.00575494207441807,-0.00418218830600381,-0.0121807781979442,-0.00491267116740346
59,-0.00626489473506808,0.000375173753127456,0.00479651568457484,-0.00389533140696585,-0.00994892045855522,-0.00132104882504791
60,-0.00580366607755423,0.00327074411325157,0.00265810103155673,-0.00575413648039103,-0.00624102260917425,-0.0020779212936759
61,-0.00555292749777436,0.00292724231258035,-0.00066749268444255,-0.0104753822088242,-0.00320789427496493,-0.00502230506390333
62,-0.00547878071665764,0.0013117752969265,-0.00439637526869774,-0.0156489182263613,-0.000724019948393106,-0.0069165569730103
63,-0.00474162073805928,0.00043399928836152,-0.00755587127059698,-0.0196564830839634,0.00144088035449386,-0.00731548760086298
64,-0.0033169430680573,-0.000266424351138994,-0.0101163554936647,-0.0229458995163441,0.00204222532920539,-0.00809367839246988
65,-0.00222217664122581,-0.00204323069192469,-0.0114220222458243,-0.0256704185158014,0.000402242236305028,-0.0104034906253219
66,-0.00264543644152582,-0.00575167266651988,-0.0105746109038591,-0.0279112495481968,-0.00265199434943497,-0.014330854639411
67,-0.00404251832515001,-0.0102119157090783,-0.00780214415863156,-0.0287085361778736,-0.0047872606664896,-0.0187256969511509
68,-0.00405292259529233,-0.0122880795970559,-0.00416738027706742,-0.0254888068884611,-0.00266537885181606,-0.021204587072134
69,-0.0020815203897655,-0.0101231895387173,-0.000687586492858827,-0.0179191920906305,0.0023759757168591,-0.0198882687836885
70,0.000346111395629123,-0.00447814539074898,0.00327862799167633,-0.00864661484956741,0.00487052975222468,-0.0146839413791895
71,0.00201326934620738,0.00200536684133112,0.00766396010294557,-0.00121831137221307,0.00268620322458446,-0.00724636577069759
72,0.001554308924824,0.00554808881133795,0.00913955923169851,0.000528029690030962,-0.00397868826985359,-0.00103223253972828
73,-0.000958470511250198,0.00446638092398643,0.00558850914239883,-0.00432103173807263,-0.0129649192094803,0.000867740949615836
74,-0.00306375743821263,0.00100087514147162,-0.000174524029716849,-0.0113494293764234,-0.0193469505757093,-0.0018966959323734
75,-0.00421983143314719,-0.00270854565314949,-0.00452568987384439,-0.0159454923123121,-0.0221585836261511,-0.00787725578993559
76,-0.00572336604818702,-0.00667876563966274,-0.00703297508880496,-0.0186500586569309,-0.0235855001956224,-0.0147490184754133
77,-0.00649732863530517,-0.00975904520601034,-0.00850475765764713,-0.0209157168865204,-0.0218686461448669,-0.0187625233083963
78,-0.00477453274652362,-0.00964910909533501,-0.00925448164343834,-0.0212103892117739,-0.0151577591896057,-0.0176659021526575
79,-0.00158993049990386,-0.00663157552480698,-0.00946977734565735,-0.0186732951551676,-0.00680691050365567,-0.0147147178649902
80,0.000541150686331093,-0.00344091863371432,-0.00930112786591053,-0.014713135547936,-0.00183455541264266,-0.0148954624310136
81,0.000925829343032092,-0.00107560190372169,-0.00871782656759024,-0.010725574567914,-0.00175236351788044,-0.0181343406438828
82,0.000439247378380969,0.00268389354459941,-0.00750067131593823,-0.00731053715571761,-0.00456947414204478,-0.0195656511932611
83,-0.00130386755336076,0.00714416522532701,-0.00601821346208453,-0.00596872018650174,-0.00882205087691545,-0.0169081389904022
84,-0.00462916726246476,0.00812056194990873,-0.00571794435381889,-0.00914045237004757,-0.0142395766451955,-0.0133261494338512
85,-0.00846441555768251,0.00491339527070522,-0.00807246658951044,-0.0170078277587891,-0.0195401478558779,-0.0126672396436334
86,-0.0119310095906258,9.60168981691822E-05,-0.0120697412639856,-0.0255831275135279,-0.0229504220187664,-0.01563635841012
87,-0.0143106225878,-0.00337808742187917,-0.0150366220623255,-0.0301840156316757,-0.0250573121011257,-0.0193780995905399
88,-0.0147636458277702,-0.00344207393936813,-0.0154744908213615,-0.0293359197676182,-0.0278671011328697,-0.0204542018473148
89,-0.0131904063746333,-0.000641598307993263,-0.0134337190538645,-0.024810116738081,-0.0316644422709942,-0.0180506575852633
90,-0.0103083727881312,0.00257299724034965,-0.0105593614280224,-0.0202179756015539,-0.0343611538410187,-0.0141740329563618
91,-0.00706286216154695,0.00517055718228221,-0.00887415558099747,-0.0181925781071186,-0.0340313389897347,-0.0107872653752565
92,-0.00404668413102627,0.00823844596743584,-0.00934464205056429,-0.0185504574328661,-0.0310912262648344,-0.00763957062736154
93,-0.0016769029898569,0.0113937854766846,-0.0117188487201929,-0.0202647391706705,-0.0269909221678972,-0.00507773039862514
94,-0.00110559188760817,0.0120597276836634,-0.0147493714466691,-0.023375540971756,-0.0242841597646475,-0.00580469472333789
95,-0.00267430790700018,0.00967663154006004,-0.0169177912175655,-0.0273332204669714,-0.0255830734968185,-0.0109498891979456
96,-0.00514263520017266,0.00644781859591603,-0.0181978158652782,-0.0310562681406736,-0.0308797024190426,-0.0186653602868319
97,-0.00770426960662007,0.00399738177657127,-0.0204440392553806,-0.0350483357906342,-0.0388182811439037,-0.0272070672363043
98,-0.00991061422973871,0.00258164573460817,-0.0246382486075163,-0.0402625203132629,-0.0480364188551903,-0.0359293594956398
99,-0.011492938734591,0.00122077227570117,-0.0298640746623278,-0.0465588830411434,-0.0571223087608814,-0.0450567565858364
100,-0.0125514371320605,-0.00103040062822402,-0.0345629639923573,-0.0522919148206711,-0.065019503235817,-0.0541817769408226
101,-0.0127726076170802,-0.00334264361299574,-0.0378102399408817,-0.0558288805186749,-0.0708105266094208,-0.060963112860918
102,-0.0119364149868488,-0.00472377520054579,-0.0398794114589691,-0.0577488914132118,-0.074227936565876,-0.0644731745123863
103,-0.00978823471814394,-0.00484716333448887,-0.0404020734131336,-0.0590339861810207,-0.0757330432534218,-0.0670743882656097
104,-0.00679132807999849,-0.00378299178555608,-0.0391989573836327,-0.0603260025382042,-0.0766880586743355,-0.0712028220295906
105,-0.00470781931653619,-0.00217898143455386,-0.0384947694838047,-0.0626194402575493,-0.0796440467238426,-0.0766820758581162
106,-0.00420701503753662,-0.000478062749607489,-0.0401876382529736,-0.0658128932118416,-0.0859988331794739,-0.0816241800785065
107,-0.0048613422550261,0.00100470171310008,-0.0436560735106468,-0.0689078867435455,-0.0939423143863678,-0.0849528685212135
108,-0.00661746924743056,0.00178946589585394,-0.047349851578474,-0.0714395344257355,-0.100924000144005,-0.087287649512291
109,-0.00931575708091259,0.00163071148563176,-0.0508546456694603,-0.073827251791954,-0.107639320194721,-0.0900165364146233
110,-0.012049182318151,0.00099300011061132,-0.0546740405261517,-0.076163224875927,-0.116315089166164,-0.0934785380959511
111,-0.0136774247512221,0.000530253630131483,-0.0582604072988033,-0.0777367725968361,-0.125907465815544,-0.0968829020857811
112,-0.014392570592463,-0.00106980663258582,-0.0604755580425262,-0.0792660564184189,-0.132849246263504,-0.101845547556877
113,-0.014129376038909,-0.00491220504045486,-0.0603832006454468,-0.082640565931797,-0.13539445400238,-0.111222088336945
114,-0.0116974720731378,-0.00846501532942057,-0.0581864714622498,-0.0885013714432716,-0.135903656482697,-0.123711571097374
115,-0.00790104083716869,-0.00905579049140215,-0.0569659732282162,-0.0962579771876335,-0.138422220945358,-0.135227113962173
116,-0.00513083999976516,-0.00625026877969503,-0.0595184490084648,-0.104766048491001,-0.144157946109772,-0.143464326858521
117,-0.00502425618469715,-0.00165791041217744,-0.0653059408068657,-0.112935498356819,-0.152039393782616,-0.148770749568939
118,-0.00761954626068473,0.0010463820071891,-0.0717499479651451,-0.120482884347439,-0.16000147163868,-0.152602836489677
119,-0.0118250399827957,3.09017013933044E-05,-0.0767399147152901,-0.128005027770996,-0.165795847773552,-0.156778752803802
120,-0.0160595178604126,-0.00296025234274566,-0.0802335813641548,-0.135317504405975,-0.169611394405365,-0.162506401538849
121,-0.0182724222540855,-0.00589794106781483,-0.0828295648097992,-0.141382545232773,-0.17276294529438,-0.169579371809959
122,-0.0169914588332176,-0.00807500351220369,-0.0847693160176277,-0.146146804094315,-0.175465956330299,-0.17680712044239
123,-0.0130746113136411,-0.00986994057893753,-0.0865867659449577,-0.150133416056633,-0.177813529968262,-0.183080270886421
124,-0.00865680072456598,-0.0117534138262272,-0.0880350545048714,-0.153346613049507,-0.179865673184395,-0.188514426350594
125,-0.0046279146336019,-0.01318393740803,-0.0882244259119034,-0.155226275324821,-0.182110637426376,-0.193104282021523
126,-0.00120010855607688,-0.0137987220659852,-0.0879060253500938,-0.156038627028465,-0.185599684715271,-0.195922285318375
127,0.00127287616487592,-0.013463550247252,-0.087994322180748,-0.15670670568943,-0.189275592565537,-0.195837870240211
128,0.00180163164623082,-0.0124518806114793,-0.0877721980214119,-0.157816737890244,-0.191671252250671,-0.192893788218498
129,-0.000438512244727463,-0.011766460724175,-0.087123230099678,-0.160082012414932,-0.193596735596657,-0.188770279288292
130,-0.0042113633826375,-0.0114573165774345,-0.0871820077300072,-0.163416743278503,-0.195373237133026,-0.185488313436508
131,-0.00793229229748249,-0.0116673512384295,-0.0889054760336876,-0.166811913251877,-0.196067631244659,-0.185036331415176
132,-0.0108488565310836,-0.0128906182944775,-0.0916160419583321,-0.169399976730347,-0.195123061537743,-0.187249317765236
133,-0.012597412802279,-0.0136972442269325,-0.0933720394968987,-0.169487968087196,-0.193908467888832,-0.187914878129959
134,-0.0138201080262661,-0.0123770777136087,-0.0939906165003777,-0.165433630347252,-0.195844128727913,-0.183316990733147
135,-0.0142157934606075,-0.00965195149183273,-0.0942255333065987,-0.15842042863369,-0.200261577963829,-0.17483825981617
136,-0.0124295931309462,-0.00689485063776374,-0.0937003046274185,-0.150939136743546,-0.202000603079796,-0.16565015912056
137,-0.00942876096814871,-0.00423612724989653,-0.0927049666643143,-0.144485726952553,-0.199477836489677,-0.157411813735962
138,-0.00713430996984243,-0.00152469403110445,-0.0924439206719399,-0.140431925654411,-0.194079160690308,-0.15112891793251
139,-0.00616565113887191,0.000567171780858189,-0.0936506390571594,-0.139195173978806,-0.18652580678463,-0.146527916193008
140,-0.00644709262996912,0.00283588329330087,-0.0949189364910126,-0.137925043702126,-0.178176537156105,-0.141833439469337
141,-0.00723599269986153,0.00709516974166036,-0.0937186181545258,-0.13409112393856,-0.170845448970795,-0.136617109179497
142,-0.00835532695055008,0.0100758941844106,-0.0909485146403313,-0.130078569054604,-0.166659131646156,-0.132367476820946
143,-0.00944339856505394,0.00812877435237169,-0.0887800678610802,-0.128644213080406,-0.164970591664314,-0.129367098212242
144,-0.00875598564743996,0.00414628256112337,-0.086520791053772,-0.128739878535271,-0.161264911293983,-0.126138925552368
145,-0.00622920319437981,0.00169769674539566,-0.0834710225462914,-0.128417372703552,-0.154230520129204,-0.121345236897469
146,-0.0043176431208849,0.000810332770925015,-0.0798297673463821,-0.12607054412365,-0.147147446870804,-0.114487431943417
147,-0.00492509454488754,0.000509337056428194,-0.0744658857584,-0.119993515312672,-0.143103003501892,-0.105301320552826
148,-0.00765556609258056,0.000837332161609083,-0.0670590326189995,-0.110268622636795,-0.141623333096504,-0.0938278436660767
149,-0.0108673796057701,0.00205557141453028,-0.0601331926882267,-0.0994339510798454,-0.138457909226418,-0.0815067961812019
150,-0.0133718987926841,0.00322877452708781,-0.055821567773819,-0.0902820900082588,-0.13074466586113,-0.0711442902684212
151,-0.0146682076156139,0.00265403790399432,-0.0535423830151558,-0.0844343304634094,-0.119035661220551,-0.0657090023159981
152,-0.0140254711732268,8.09321045380784E-06,-0.0517298318445683,-0.081900879740715,-0.103728860616684,-0.0657021477818489
153,-0.0113685829564929,-0.00249878503382206,-0.0497789494693279,-0.0802044942975044,-0.0872749760746956,-0.0669610127806664
154,-0.00853621866554022,-0.00246235425584018,-0.0486793778836727,-0.0763346999883652,-0.0760984495282173,-0.0639108940958977
155,-0.00751466164365411,-0.000412228691857308,-0.049801729619503,-0.0710439085960388,-0.0730870217084885,-0.0565607585012913
156,-0.0084387706592679,0.00101952999830246,-0.0523091033101082,-0.0673625618219376,-0.0742444470524788,-0.0505364611744881
157,-0.0103015499189496,-0.000285560090560466,-0.0534116551280022,-0.0660268440842628,-0.0740900039672852,-0.0504979640245438
158,-0.0123155610635877,-0.00457685627043247,-0.0518500134348869,-0.0658268928527832,-0.069346010684967,-0.0560659654438496
159,-0.013952218927443,-0.0085328733548522,-0.0485449098050594,-0.0642983838915825,-0.0608881004154682,-0.061610572040081
160,-0.0141833731904626,-0.00788985751569271,-0.0446203723549843,-0.0586365908384323,-0.052575308829546,-0.0619510896503925
161,-0.0121906828135252,-0.00306976796127856,-0.0409303158521652,-0.0497531369328499,-0.0458804666996002,-0.0576335601508617
162,-0.00877554807811975,0.0014722803607583,-0.0373811572790146,-0.0419245138764381,-0.0388296768069267,-0.0518278628587723
163,-0.00556581420823932,0.0018569101812318,-0.0332400649785995,-0.0369975380599499,-0.0300153438001871,-0.0466993488371372
164,-0.00383490696549416,-0.000264778034761548,-0.0292478147894144,-0.0335208140313625,-0.0213140770792961,-0.0426885522902012
165,-0.0036841940600425,-0.00041586349834688,-0.0263832043856382,-0.0306172352284193,-0.0158201493322849,-0.038386769592762
166,-0.00357070588506758,0.000976839102804661,-0.0237323362380266,-0.0282038189470768,-0.0136540969833732,-0.0319528430700302
167,-0.00207025767304003,0.00127636839170009,-0.0203383006155491,-0.0259745959192514,-0.0116036627441645,-0.0236658751964569
168,0.000514688319526613,0.000657015712931752,-0.0156064862385392,-0.0232151839882135,-0.00748795224353671,-0.0152201550081372
169,0.00277756177820265,0.000284787936834618,-0.00856392458081245,-0.0187437981367111,-0.00265466724522412,-0.00699769100174308
170,0.00375161319971085,8.12520465842681E-06,-0.00121880322694778,-0.0127276703715324,0.00154311850201339,0.00100244069471955
171,0.0036124074831605,-0.000548950978554785,0.00185068976134062,-0.00638932688161731,0.00577492592856288,0.00781330466270447
172,0.00280320388264954,-0.00104998762253672,-8.22308647911996E-05,-0.00075906771235168,0.0112624913454056,0.0126987434923649
173,0.00199881801381707,-0.000843647052533925,-0.0033820434473455,0.0036020374391228,0.0202900674194098,0.0176319889724255
174,0.00161413650494069,0.000360301986802369,-0.00567790679633617,0.00802469160407782,0.0329409278929234,0.0253855865448713
175,0.00108962948434055,0.00217189965769649,-0.00645349780097604,0.014629952609539,0.0447432063519955,0.0356209278106689
176,0.000117839088488836,0.00446439813822508,-0.0051458952948451,0.0231241099536419,0.0527477450668812,0.0461665727198124
177,-0.00138441799208522,0.00696850335225463,-0.00312623172067106,0.0301004741340876,0.057085894048214,0.0543645136058331
178,-0.0033068077173084,0.00834248680621386,-0.00235053477808833,0.0322089232504368,0.0580580830574036,0.0576252602040768
179,-0.0047755385749042,0.00785394012928009,-0.0012540731113404,0.0304699148982763,0.0562897138297558,0.0566062517464161
180,-0.00521316286176443,0.00668143481016159,0.00335780531167984,0.0296845454722643,0.0522641539573669,0.0551498346030712
181,-0.0050960686057806,0.00564941577613354,0.0117523884400725,0.0327603444457054,0.046309694647789,0.054687924683094
182,-0.00564054353162646,0.00370069593191147,0.0201241113245487,0.0376834608614445,0.0402043350040913,0.0522590652108192
183,-0.00714903883635998,0.000913997180759907,0.0247450154274702,0.0413385331630707,0.0365921221673489,0.0463287569582462
184,-0.0087951272726059,-0.000539056840352714,0.0263558309525251,0.0441653281450272,0.0355446599423885,0.0409721061587334
185,-0.00975242257118225,0.000343951862305403,0.0280648842453957,0.0491037257015705,0.0353339575231075,0.0417857803404331
186,-0.00882805231958628,0.00318766920827329,0.0312966071069241,0.0566965490579605,0.0371738374233246,0.0499113127589226
187,-0.00585652608424425,0.00688867084681988,0.0346254147589207,0.0634825900197029,0.0440413467586041,0.0614831186830997
188,-0.0027893555816263,0.00979884900152683,0.0355106219649315,0.0667492672801018,0.0546169877052307,0.0728323981165886
189,-0.00121539691463113,0.0109248589724302,0.033404428511858,0.0672610402107239,0.0640129595994949,0.083012767136097
190,-0.00103475910145789,0.0102788060903549,0.0304009970277548,0.0677959099411964,0.0698095709085464,0.091151587665081
191,-0.00143434409983456,0.0102647747844458,0.028665617108345,0.0701654925942421,0.0727402865886688,0.0962312743067741
192,-0.00151529791764915,0.0119681525975466,0.0281278099864721,0.0720746368169785,0.0748892724514008,0.0973260328173637
193,-0.00119441247079521,0.0117205362766981,0.027846721932292,0.0718098804354668,0.0781405493617058,0.0937367007136345
194,-0.000552649318706244,0.00845784600824118,0.0286503098905087,0.0718982368707657,0.0836977660655975,0.0876836180686951
195,0.000128835221403278,0.00573824578896165,0.0318306460976601,0.0740853324532509,0.0909301862120628,0.0837168022990227
196,-0.000748354650568217,0.00542032113298774,0.0364830009639263,0.0775816217064857,0.0957554280757904,0.0844753459095955
197,-0.00314171123318374,0.00595319969579577,0.0406254082918167,0.0804415717720985,0.0961304157972336,0.0880097970366478
198,-0.00514935329556465,0.00566893490031362,0.0436315461993217,0.0812728479504585,0.0944062024354935,0.091026671230793
199,-0.0065671568736434,0.00481639103963971,0.0458847880363464,0.081009604036808,0.0923525616526604,0.0929463431239128
200,-0.00729732308536768,0.00384272029623389,0.0478040724992752,0.0803128257393837,0.0918661281466484,0.0940591916441917
201,-0.0062755779363215,0.00260465499013662,0.0491036772727966,0.0784478411078453,0.0951657369732857,0.0947608426213264
202,-0.00466146040707827,0.00168462377041578,0.0488769300282002,0.0760040208697319,0.0991620570421219,0.0968565046787262
203,-0.00502549577504396,0.00237054517492652,0.0471817851066589,0.0748515352606773,0.0972850993275642,0.101194605231285
204,-0.00758817745372653,0.00478632934391499,0.0446660295128822,0.0756866112351418,0.0894655212759972,0.105445079505444
205,-0.00987172592431307,0.00672834925353527,0.0416699163615704,0.076867863535881,0.08464764803648,0.105951316654682
206,-0.00936604291200638,0.00607325974851847,0.039666835218668,0.0767932534217834,0.0892969593405724,0.101897388696671
207,-0.00641257781535387,0.0036998784635216,0.040755670517683,0.076864629983902,0.0985740497708321,0.0967899411916733
208,-0.00353103247471154,0.0016961187357083,0.0445579402148724,0.0790510773658752,0.104798667132854,0.0940356701612473
209,-0.00170020491350442,0.00127183995209634,0.0492441318929195,0.0833700075745583,0.107235848903656,0.0941614136099815
210,-0.000315165932988748,0.00227418704889715,0.0536470822989941,0.0886964201927185,0.109158836305141,0.0960416123270988
211,0.000825549243018031,0.00380876171402633,0.0569841042160988,0.093690037727356,0.112298481166363,0.0985020846128464
212,0.00163356715347618,0.00598984863609076,0.0594436042010784,0.0978251621127129,0.115456350147724,0.10195454210043
213,0.00203646835871041,0.00868285819888115,0.0614498257637024,0.101956970989704,0.116397194564343,0.107587046921253
214,0.00221855030395091,0.0111557943746448,0.0628117397427559,0.106928400695324,0.115291498601437,0.11392018944025
215,0.00198202393949032,0.0130828348919749,0.0632107853889465,0.110954329371452,0.113345198333263,0.11670944839716
216,0.00101823476143181,0.0129807656630874,0.0622461959719658,0.110705070197582,0.110309049487114,0.114023603498936
217,0.000192020976101048,0.010098434984684,0.0608776174485683,0.105744414031506,0.107327252626419,0.107654005289078
218,-0.000272930104983971,0.00631033536046743,0.0603966377675533,0.0992059931159019,0.106189288198948,0.100933104753494
219,-0.00135162158403546,0.00299776601605117,0.0601364895701408,0.0937507823109627,0.105767391622067,0.0967688411474228
220,-0.00266666780225933,0.000540111272130162,0.059838779270649,0.0902467742562294,0.104160502552986,0.0953666567802429
221,-0.00301846861839294,-0.000911232375074178,0.0605870001018047,0.0889239907264709,0.100935116410255,0.094546265900135
222,-0.00277019548229873,-0.00219640322029591,0.0617288835346699,0.0879871845245361,0.0965130180120468,0.0922032967209816
223,-0.00206025503575802,-0.0032499295193702,0.0616198033094406,0.0862207412719727,0.094249501824379,0.0890484303236008
224,-0.000551887846086174,-0.00277560111135244,0.0597340017557144,0.0855243057012558,0.0971436053514481,0.0878133252263069
225,4.0793718653731E-05,-0.0011127240722999,0.05555360019207,0.0854283273220062,0.102433361113071,0.0888553187251091
226,-0.000912479881662875,0.000660317484289408,0.0502560548484325,0.0836285129189491,0.107441306114197,0.0904646590352058
227,-0.00128261838108301,0.00262832012958825,0.0466390997171402,0.0811483040452003,0.112733975052834,0.0923531278967857
228,-0.000455335102742538,0.00438985507935286,0.0448897033929825,0.0795091986656189,0.11801977455616,0.0944888293743134
229,0.000547349220141768,0.00488515105098486,0.0447989106178284,0.0789043381810188,0.122317425906658,0.0955510437488556
230,0.00132376304827631,0.00392139330506325,0.0484717227518559,0.0796993970870972,0.125345960259438,0.094795286655426
231,0.00137526344042271,0.00214726640842855,0.0552389957010746,0.0818969532847404,0.125800922513008,0.0934234634041786
232,0.00102505425456911,0.000934385985601693,0.0608759708702564,0.0853042155504227,0.122634679079056,0.0935356542468071
233,0.00142545718699694,0.000455617235274985,0.063145212829113,0.088843084871769,0.117658048868179,0.094378262758255
234,0.00237700785510242,-0.000929429195821285,0.0633959919214249,0.0906685069203377,0.112365283071995,0.0924902781844139
235,0.00294249854050577,-0.00319196796044707,0.0640972405672073,0.0908557698130608,0.106198348104954,0.0873997807502747
236,0.00314620486460626,-0.00439689308404922,0.0657399967312813,0.0907498747110367,0.10034291446209,0.0826483443379402
237,0.00305420276708901,-0.0036825779825449,0.0659637898206711,0.090472549200058,0.0966711416840553,0.0817205831408501
238,0.0021672248840332,-0.00124307756777853,0.0630200654268265,0.0903139039874077,0.0940436869859695,0.085589773952961
239,0.00102750607766211,0.00253055128268898,0.0586242862045765,0.0914507135748863,0.0911688357591629,0.092303529381752
240,0.000756920140702277,0.00683442456647754,0.056249313056469,0.0948391035199165,0.088939256966114,0.0992308109998703
241,0.00110029720235616,0.0118332672864199,0.0572507083415985,0.0999724194407463,0.0876354873180389,0.105304434895515
242,0.00131814507767558,0.0161324627697468,0.0589232221245766,0.102435931563377,0.0865068510174751,0.10865929722786
243,0.00211855908855796,0.0159403160214424,0.0580787844955921,0.0981550589203835,0.0861483886837959,0.107027493417263
244,0.0040383068844676,0.0119496444240212,0.0548750869929791,0.0889982879161835,0.0879063531756401,0.101175546646118
245,0.00565088074654341,0.00862131081521511,0.0510229803621769,0.0795693323016167,0.0908151939511299,0.0938952714204788
246,0.00544159021228552,0.00731706246733665,0.047009352594614,0.0722539275884628,0.0916566327214241,0.087462954223156
247,0.00316545437090099,0.00579449255019426,0.0425243340432644,0.0670270025730133,0.0890444591641426,0.082844965159893
248,-0.000227345095481724,0.00269144726917148,0.0383240506052971,0.0634912550449371,0.0848572850227356,0.0793082043528557
249,-0.00297756865620613,-0.000468523270683363,0.0362680479884148,0.0615119487047195,0.0808644890785217,0.075405165553093
250,-0.00430742045864463,-0.00202840892598033,0.0373718366026878,0.0607554689049721,0.077400304377079,0.0719782337546349
251,-0.00409876275807619,-0.00169131415896118,0.0413196384906769,0.061317466199398,0.0755619406700134,0.0717218294739723
252,-0.0024142658803612,-0.000651233771350235,0.0460641086101532,0.0629732385277748,0.0758873745799065,0.0742554068565369
253,-0.000706701073795557,-0.000313200172968209,0.0483316145837307,0.0647582784295082,0.0763707458972931,0.0758126676082611
254,-0.000214409883483313,-0.000618447666056454,0.0466694869101048,0.0661201253533363,0.0754978060722351,0.0738717168569565
255,-0.000212613580515608,-0.00119834812358022,0.0431510359048843,0.0665608644485474,0.0744351670145988,0.0696574449539185
256,0.000731339794583619,-0.00163556623738259,0.0411232896149158,0.0664915069937706,0.0741255730390549,0.0665301382541656
257,0.00281677092425525,-0.0017961694393307,0.0412841811776161,0.0670820698142052,0.0745682120323181,0.066343642771244
258,0.00479094125330448,-0.00289656384848058,0.0417489744722843,0.068004883825779,0.0758499801158905,0.0676424130797386
259,0.00552876899018884,-0.0052465321496129,0.0410935208201408,0.0680987313389778,0.0769803822040558,0.067330926656723
260,0.00530931446701288,-0.006719043944031,0.0399480536580086,0.0682310983538628,0.0776672288775444,0.0643922761082649
261,0.00501353666186333,-0.00644796527922153,0.0396498665213585,0.069419801235199,0.07881148904562,0.0599756613373756
262,0.00465033622458577,-0.0058271293528378,0.0404504388570786,0.0699844807386398,0.0800279825925827,0.0558411329984665
263,0.00367831741459668,-0.00484813423827291,0.0412727855145931,0.0678006038069725,0.0804517567157745,0.0545808710157871
264,0.00272528640925884,-0.00288784154690802,0.0409887507557869,0.0632111951708794,0.0807390734553337,0.0575967878103256
265,0.00271246302872896,-0.000356927630491555,0.0395003706216812,0.0585835687816143,0.0812906920909882,0.0627822875976563
266,0.00266314833424985,0.00316763552837074,0.0374824963510036,0.0551958419382572,0.0799368321895599,0.0671271979808807
267,0.000599258812144399,0.00600079772993922,0.0346930958330631,0.0516330190002918,0.0729472115635872,0.0692098140716553
268,-0.00344523880630732,0.00577191496267915,0.0299444682896137,0.0465830862522125,0.0603734590113163,0.0682514905929565
269,-0.00666779931634665,0.00509853241965175,0.0247031580656767,0.041836179792881,0.0491029471158981,0.0650226697325706
270,-0.00716654770076275,0.00607527187094092,0.0224257688969374,0.0397241413593292,0.0443627052009106,0.0618333481252193
271,-0.00566379120573401,0.00712425727397203,0.024002293124795,0.0400259606540203,0.0445343516767025,0.060003038495779
272,-0.00303917773999274,0.00679690856486559,0.0274591688066721,0.0410371199250221,0.0473540239036083,0.058385293930769
273,0.000669528788421303,0.00440325727686286,0.0312153454869986,0.0421100147068501,0.0529144182801247,0.0549444891512394
274,0.00470441812649369,0.000111041714262683,0.0345700345933437,0.0439512580633163,0.0599823333323002,0.0500402227044106
275,0.00739623559638858,-0.00482972944155335,0.036008570343256,0.0458384230732918,0.0654882416129112,0.0453503951430321
276,0.00806586630642414,-0.00873011630028486,0.0346117056906223,0.0460748337209225,0.0683542266488075,0.0417542345821857
277,0.00735507532954216,-0.0104103237390518,0.0318613462150097,0.0448642745614052,0.0689157098531723,0.0388842858374119
278,0.00597464898601174,-0.0100806569680572,0.0303289648145437,0.0434037335216999,0.0672440901398659,0.0352764092385769
279,0.00443557370454073,-0.00873553939163685,0.0310311987996101,0.0418584048748016,0.0630979463458061,0.0307894758880138
280,0.00295103969983757,-0.00746042281389236,0.0320619158446789,0.0397348217666149,0.0568544752895832,0.0264465808868408
281,0.00142443389631808,-0.00696852384135127,0.0312752909958363,0.0377318225800991,0.0509054288268089,0.023227421566844
282,0.000374304188881069,-0.00670934608206153,0.0293229594826698,0.0376444086432457,0.0472687780857086,0.0230279620736837
283,0.000600008701439947,-0.00507865706458688,0.027923634275794,0.0404838100075722,0.0466326586902142,0.0278969723731279
284,0.00194568932056427,-0.00140115374233574,0.0279246177524328,0.0455401614308357,0.0494133718311787,0.0373849831521511
285,0.0031262522097677,0.00245416653342545,0.0290529783815145,0.0494432412087917,0.0543643422424793,0.0472482927143574
286,0.00346163031645119,0.00432172743603587,0.029811067506671,0.0482695139944553,0.0587248876690865,0.0526730045676231
287,0.00323573173955083,0.00421218993142247,0.0288969650864601,0.042243454605341,0.0596561655402184,0.0518534146249294
288,0.00203762901946902,0.00311226537451148,0.026140483096242,0.0355579443275929,0.055428434163332,0.0453397445380688
289,0.000127870283904485,0.00269080861471593,0.0225218329578638,0.0315911136567593,0.0482141003012657,0.0351504497230053
290,-0.00148899084888399,0.00374829513020813,0.0194092318415642,0.0291189476847649,0.0426610708236694,0.0244824234396219
291,-0.0030754366889596,0.00442064693197608,0.0164585243910551,0.0251808948814869,0.0400292314589024,0.0174727253615856
292,-0.00527541618794203,0.00342723866924644,0.0116497818380594,0.0200961120426655,0.0373953990638256,0.0169041901826859
293,-0.00735279964283109,0.00127744709607214,0.00602771900594234,0.0169971995055676,0.0331902243196964,0.0215321257710457
294,-0.00757601950317621,-0.00112339574843645,0.00406396389007568,0.0172798987478018,0.029595360159874,0.0280488543212414
295,-0.00563938496634364,-0.00239241681993008,0.00674234936013818,0.018512150272727,0.028475807979703,0.033669114112854
296,-0.00274946447461843,-0.00109890510793775,0.0114480843767524,0.0188990347087383,0.0290814414620399,0.0367774181067944
297,-2.71948883892037E-05,0.00238062418065965,0.0163794346153736,0.0197194721549749,0.0294590834528208,0.0370315536856651
298,0.00173096416983753,0.0056107803247869,0.0203467421233654,0.0217314567416906,0.0284454990178347,0.0348669402301311
299,0.00264503946527839,0.00672141090035439,0.0222100596874952,0.0231264643371105,0.0272129997611046,0.0304320529103279
300,0.00347162457183003,0.00605176389217377,0.0218064375221729,0.0223227292299271,0.0272444002330303,0.0244261138141155
301,0.00442882906645536,0.00504273781552911,0.0201398581266403,0.0202057436108589,0.0276406668126583,0.018990145996213
302,0.00555595103651285,0.00429983623325825,0.018073471263051,0.0184056833386421,0.0270351935178041,0.015689430758357
303,0.00707193650305271,0.00376746011897922,0.0159427579492331,0.0179196707904339,0.0258861035108566,0.0142261618748307
304,0.00874315574765205,0.00361791858449578,0.0142556764185429,0.0190616305917501,0.0246483813971281,0.0131172491237521
305,0.0102246254682541,0.00369652197696269,0.0133713148534298,0.0210716910660267,0.0231076795607805,0.0112629728391767
306,0.0114514492452145,0.00308917928487062,0.0125322220847011,0.0219267848879099,0.0224907603114843,0.00890113413333893
307,0.0119927441701293,0.000517648993991315,0.0107109118252993,0.0199702847748995,0.0241877231746912,0.00686194514855742
308,0.0114027243107557,-0.00388389057479799,0.00818282552063465,0.0165776256471872,0.0268052592873573,0.00549725769087672
309,0.0100210327655077,-0.00756436120718718,0.00621184147894382,0.0153382066637278,0.027884716168046,0.00379937607795
310,0.0088751669973135,-0.00889769569039345,0.00640721432864666,0.0162732619792223,0.0277182329446077,-0.00123603316023946
311,0.00838404521346092,-0.00910110678523779,0.00867546256631613,0.0158653128892183,0.0271572656929493,-0.0101917581632733
312,0.00765733094885945,-0.00957413576543331,0.0109445191919804,0.0141174616292119,0.025395642966032,-0.0173683781176806
313,0.00597685109823942,-0.00940896943211555,0.0117729185149074,0.0136947343125939,0.0219712182879448,-0.0176268070936203
314,0.00386940850876272,-0.00658573722466826,0.0103029198944569,0.0138386357575655,0.0160043947398663,-0.012166915461421
315,0.00341509305872023,-0.00191837747115642,0.00669632665812969,0.0111793456599116,0.00885798223316669,-0.00505313137546182
316,0.00580931873992085,0.00246676453389227,0.00380058120936155,0.00583366490900517,0.00563622685149312,0.00209553609602153
317,0.00890213530510664,0.00609278585761786,0.00411161780357361,0.0012097783619538,0.00823599193245173,0.0102925598621368
318,0.0102865817025304,0.00835349690169096,0.00648241769522429,-0.00109659950248897,0.0129474988207221,0.0188564490526915
319,0.010020132176578,0.00870404578745365,0.0085528613999486,-0.00152862106915563,0.0153314089402556,0.0245895236730576
320,0.00950895436108112,0.00789553020149469,0.00893354322761297,-0.000779154652263969,0.0144308460876346,0.0254569668322802
321,0.00924971606582403,0.00693532545119524,0.00717680342495441,0.000902152387425303,0.0119451973587275,0.0228705368936062
322,0.00905583798885345,0.00661070412024856,0.00509056122973561,0.00375918834470212,0.0105491383001208,0.0199533812701702
323,0.00850560888648033,0.00643438566476107,0.00398189295083284,0.00652570882812142,0.0111552197486162,0.0171724818646908
324,0.00705806398764253,0.00511602032929659,0.00307217193767428,0.00759795401245356,0.0114863757044077,0.0133287543430924
325,0.00585394725203514,0.00285394606180489,0.00272852508351207,0.00744565203785896,0.0116365328431129,0.00953610427677631
326,0.00634267646819353,0.000406677951104939,0.00324299396015704,0.00679205125197768,0.0144787020981312,0.00726528326049447
327,0.00835989788174629,-0.00149247760418803,0.0040127313695848,0.00619714660570025,0.0198467746376991,0.00632629357278347
328,0.010835874825716,-0.0017411079024896,0.00428580678999424,0.00629726937040687,0.023803573101759,0.00608993927016854
329,0.0125467190518975,-7.77865425334312E-05,0.00312748341821134,0.00696950452402234,0.0230585634708405,0.00611506728455424
330,0.0127517450600863,0.00230308319441974,0.00121173670049757,0.00765449972823262,0.0184667836874723,0.00561145273968577
331,0.0123489033430815,0.00355889601632953,0.000198114983504638,0.00800110772252083,0.0140874106436968,0.00387577014043927
332,0.0127305714413524,0.00268768961541355,0.000528834876604378,0.00835478398948908,0.0133129199966788,0.000594933633692563
333,0.0131046986207366,0.000779229565523565,0.00127352855633944,0.00920034013688564,0.0152927804738283,-0.00427418062463403
334,0.0121018029749393,-0.000109016269561835,0.00116100627928972,0.0101480958983302,0.0159858837723732,-0.00933835748583078
335,0.0101213455200195,0.000730479077901691,-0.000121467812277842,0.0101606147363782,0.0134656364098191,-0.0121053149923682
336,0.00849007442593575,0.00223483541049063,-0.00152242870535702,0.00912871211767197,0.00985563825815916,-0.0110646458342671
337,0.00821402948349714,0.00307840178720653,-0.00131194642744958,0.00923343747854233,0.00727644097059965,-0.0074846213683486
338,0.00832981243729591,0.00398421380668879,0.000819041568320245,0.0113563053309917,0.00376892182976007,-0.00456786202266812
339,0.00700578186661005,0.00522193545475602,0.00310823600739241,0.0118207046762109,-0.00341874454170465,-0.00457517243921757
340,0.00513683585450053,0.00491608446463943,0.0041518067009747,0.00752331549301744,-0.0113655868917704,-0.00718023907393217
341,0.00516371754929423,0.00364285870455205,0.00352390226908028,-0.00044354161946103,-0.0139152677729726,-0.0101047484204173
342,0.00706820841878653,0.00329423719085753,0.000942807353567332,-0.00908961798995733,-0.0100308386608958,-0.0115240840241313
343,0.00857223756611347,0.00393649935722351,-0.00287927291356027,-0.0153439491987228,-0.00445553660392761,-0.0105002606287599
344,0.00831852480769157,0.00521172629669309,-0.00582257937639952,-0.0176024865359068,-0.00110367650631815,-0.00679740495979786
345,0.00651379954069853,0.00666940771043301,-0.00603524269536138,-0.0160998348146677,-0.00069351599086076,-0.00151771202217788
346,0.00392629392445087,0.00675770314410329,-0.00394713645800948,-0.0129554392769933,-0.00252425507642329,0.00248343171551824
347,0.00186221464537084,0.00391777185723186,-0.00196060515008867,-0.0120265232399106,-0.0044145523570478,0.00226545496843755
348,0.00056371686514467,-0.000480187212815508,-0.00230653746984899,-0.0147381778806448,-0.00522260507568717,-0.000960738980211318
349,-0.000589042610954493,-0.00277840089984238,-0.00505149131640792,-0.0175432376563549,-0.00615524221211672,-0.00304765393957496
350,-0.000541864545084536,-0.00194639631081373,-0.00759371463209391,-0.016931863501668,-0.00634671980515122,-0.00287420419044793
351,0.000575937563553452,-0.00134288938716054,-0.00826463010162115,-0.0144783668220043,-0.00546468188986182,-0.00392526807263494
352,8.12886864878237E-05,-0.00280165439471602,-0.00915583502501249,-0.0130494432523847,-0.0069078910164535,-0.00962763372808695
353,-0.00185851624701172,-0.00373764336109161,-0.0114801954478025,-0.0115937143564224,-0.0116273388266563,-0.0187498480081558
354,-0.00260137836448848,-0.00311752990819514,-0.0127982450649142,-0.00879842415452003,-0.0167210008949041,-0.027961129322648
355,-0.00206549209542573,-0.00333969155326486,-0.0117771066725254,-0.00697746407240629,-0.019879836589098,-0.0360954962670803
356,-0.00134218798484653,-0.00558182410895824,-0.0101082557812333,-0.00892738439142704,-0.0213142521679401,-0.0425937920808792
357,-0.00057909288443625,-0.00821395870298147,-0.00933985412120819,-0.0139570916071534,-0.0237249508500099,-0.0455630831420422
358,-0.000118792369903531,-0.00966069474816322,-0.00960991624742746,-0.018932893872261,-0.0290341302752495,-0.0440681017935276
359,-0.000262889923760667,-0.00965339597314596,-0.0111293802037835,-0.0221119802445173,-0.0363067090511322,-0.0395297296345234
360,-0.00115589343477041,-0.00840575248003006,-0.014141689054668,-0.0241115596145391,-0.0441736541688442,-0.0343046709895134
361,-0.00296871643513441,-0.00679104775190353,-0.0171373300254345,-0.0260687060654163,-0.0513132885098457,-0.0301510542631149
362,-0.00431606872007251,-0.0049215448088944,-0.0178492106497288,-0.0275585036724806,-0.0547116361558437,-0.0269124768674374
363,-0.00388528406620026,-0.00174218835309148,-0.0170206762850285,-0.0282618161290884,-0.05174870043993,-0.0244792979210615
364,-0.00268290797248483,0.00157136272173375,-0.0172643940895796,-0.0296082478016615,-0.0437319502234459,-0.0249005928635597
365,-0.00143409823067486,0.00228834664449096,-0.0184824503958225,-0.0326671302318573,-0.0344739258289337,-0.0292733497917652
366,2.60731412708992E-05,0.000670916400849819,-0.0196265187114477,-0.0372332185506821,-0.0285198017954826,-0.035356055945158
367,0.000895644305273891,-0.000928383378777653,-0.0215699691325426,-0.0423720590770245,-0.0296833775937557,-0.0404208526015282
368,0.000519894936587662,-0.00106243113987148,-0.0251531377434731,-0.0472950264811516,-0.0373418405652046,-0.0442074835300446
369,-0.000463441654574126,0.000409496831707656,-0.0297367163002491,-0.0517062209546566,-0.0469033308327198,-0.047568790614605
370,-0.00199371250346303,0.00251309829764068,-0.0346154943108559,-0.0556196570396423,-0.0551866553723812,-0.0506566390395164
371,-0.004953698720783,0.00400540605187416,-0.0400086343288422,-0.0593341141939163,-0.0631900504231453,-0.0534480474889278
372,-0.00880568381398916,0.00415492337197065,-0.0456436946988106,-0.0634111613035202,-0.0722547546029091,-0.0566089563071728
373,-0.0112392231822014,0.00326295383274555,-0.0497712157666683,-0.0677666515111923,-0.0813087746500969,-0.0610574819147587
374,-0.0109024932608008,0.00246143853291869,-0.0510065332055092,-0.0709851756691933,-0.0898716151714325,-0.0669869780540466
375,-0.00894668605178595,0.0022971099242568,-0.0506049059331417,-0.0727822184562683,-0.0991417691111565,-0.0743537023663521
376,-0.00718475924804807,0.00270462688058615,-0.0510257259011269,-0.0742319226264954,-0.109618462622166,-0.0826100334525108
377,-0.00641873897984624,0.00369534152559936,-0.0530148558318615,-0.0756419226527214,-0.120059169828892,-0.0900076776742935
378,-0.00654013035818934,0.00483245588839054,-0.0560417585074902,-0.0776439309120178,-0.128496080636978,-0.0955260992050171
379,-0.00761850271373987,0.00463801063597202,-0.0602116174995899,-0.0813337340950966,-0.134837836027145,-0.100137896835804
380,-0.0099214157089591,0.0015134469140321,-0.0651557743549347,-0.0861045643687248,-0.140643298625946,-0.104746669530869
381,-0.0121350903064013,-0.00397559255361557,-0.0686047822237015,-0.0900999903678894,-0.145389884710312,-0.109641894698143
382,-0.012031327933073,-0.00895686913281679,-0.0689342692494392,-0.0928638875484467,-0.147692278027534,-0.116173632442951
383,-0.00957071129232645,-0.0116530228406191,-0.0680000931024551,-0.0969585031270981,-0.149289950728416,-0.125632554292679
384,-0.00637993682175875,-0.01284309476614,-0.0690868049860001,-0.105023004114628,-0.152749598026276,-0.137372255325317
385,-0.00330216228030622,-0.0137869790196419,-0.072842001914978,-0.115313895046711,-0.157918363809586,-0.14933954179287
386,-0.00106192438397557,-0.0153628131374717,-0.0772174000740051,-0.123891867697239,-0.162992775440216,-0.159754872322083
387,0.000252599827945232,-0.0171260107308626,-0.0801317170262337,-0.128848433494568,-0.16559325158596,-0.166854962706566
388,0.00140086677856743,-0.0174417514353991,-0.0821631550788879,-0.131586492061615,-0.1651771068573,-0.169568985700607
389,0.0019645735155791,-0.0155163398012519,-0.0851902216672897,-0.13436758518219,-0.164586737751961,-0.1691774725914
390,0.00138053926639259,-0.0122064426541328,-0.0883952453732491,-0.136550202965736,-0.166074767708778,-0.167140021920204
391,-5.77932678424986E-06,-0.00967984646558762,-0.0896178558468819,-0.136504769325256,-0.169586017727852,-0.16433297097683
392,-0.00128005188889802,-0.00925780739635229,-0.0888814032077789,-0.135927259922028,-0.174097925424576,-0.164317548274994
393,-0.00138041540049016,-0.0105103459209204,-0.0878056734800339,-0.138670057058334,-0.178058803081512,-0.171984285116196
394,-2.08953151741298E-05,-0.0128260618075728,-0.0866823270916939,-0.145419374108315,-0.180037766695023,-0.186536908149719
395,0.00212380941957235,-0.0153907118365169,-0.085006982088089,-0.152502208948135,-0.17985126376152,-0.200594663619995
396,0.00379877723753452,-0.0163015648722649,-0.0840515643358231,-0.15728548169136,-0.179352328181267,-0.208044648170471
397,0.00389821454882622,-0.0160308536142111,-0.0853608176112175,-0.160903304815292,-0.180188119411469,-0.209074571728706
398,0.00254725804552436,-0.0173655413091183,-0.0880272909998894,-0.163619190454483,-0.180851504206657,-0.205974206328392
399,0.00118832709267735,-0.019850691780448,-0.0896733030676842,-0.163663297891617,-0.179599270224571,-0.199910178780556
400,0.000933993025682867,-0.0210804045200348,-0.0889172479510307,-0.160402610898018,-0.177522122859955,-0.192501679062843
401,0.0015664838720113,-0.0208967383950949,-0.0869330242276192,-0.156169846653938,-0.175916403532028,-0.187281385064125
402,0.00245218956843019,-0.0208339411765337,-0.0860239118337631,-0.15473173558712,-0.175030529499054,-0.187801957130432
403,0.00331206945702434,-0.0219679176807404,-0.0866151675581932,-0.156748682260513,-0.174882933497429,-0.193597108125687
404,0.00367613392882049,-0.0252475328743458,-0.0880192443728447,-0.159500688314438,-0.174752235412598,-0.202316626906395
405,0.00313407462090254,-0.0306871738284826,-0.0900098085403442,-0.160803869366646,-0.173809990286827,-0.211953699588776
406,0.00220559071749449,-0.0350012183189392,-0.0920769944787025,-0.160167530179024,-0.172268450260162,-0.218371331691742
407,0.0015483011957258,-0.0353774130344391,-0.094228520989418,-0.157990157604218,-0.169906318187714,-0.218749552965164
408,0.000697165727615356,-0.0328875966370106,-0.0976715609431267,-0.155464649200439,-0.166568323969841,-0.214794352650642
409,-0.000374397495761514,-0.0285172797739506,-0.101075321435928,-0.15213380753994,-0.16275991499424,-0.208434104919434
410,0.000443481549154967,-0.0221633203327656,-0.0997588261961937,-0.146727859973907,-0.156472653150558,-0.200921535491943
411,0.00428155995905399,-0.0153594948351383,-0.0915617793798447,-0.13996846973896,-0.146191239356995,-0.193304598331451
412,0.00864688772708178,-0.0107674710452557,-0.0801085904240608,-0.13291272521019,-0.135919734835625,-0.185507923364639
413,0.0104800732806325,-0.00991060491651297,-0.0713229179382324,-0.127474188804626,-0.130845636129379,-0.178188428282738
414,0.00957200303673744,-0.0119357174262404,-0.0678244903683662,-0.126183182001114,-0.131129086017609,-0.171824336051941
415,0.00855311378836632,-0.0136634754016995,-0.0669911950826645,-0.126604676246643,-0.131226480007172,-0.163585379719734
416,0.00947914831340313,-0.0125777116045356,-0.0654378980398178,-0.123284667730331,-0.125829711556435,-0.150897860527039
417,0.0106411762535572,-0.00946734473109245,-0.0634039491415024,-0.115958824753761,-0.116771288216114,-0.136663153767586
418,0.00978676788508892,-0.00641597574576736,-0.0618480257689953,-0.107882760465145,-0.109338045120239,-0.124970838427544
419,0.00747502408921719,-0.0035182973369956,-0.0607386976480484,-0.101259663701057,-0.104962430894375,-0.115953296422958
420,0.00526923406869173,-0.000255000370088965,-0.0610304400324821,-0.0976568609476089,-0.100891627371311,-0.108645766973495
421,0.00445967260748148,0.000904250598978251,-0.0625442937016487,-0.0969803780317307,-0.0939310640096664,-0.103768177330494
422,0.00563949998468161,-0.00131344306282699,-0.0628102198243141,-0.0969878882169724,-0.0845955386757851,-0.101586952805519
423,0.00815160945057869,-0.00436808541417122,-0.0603346675634384,-0.0958968624472618,-0.0769877433776855,-0.100794903934002
424,0.0106194075196981,-0.0067474665120244,-0.0562977902591228,-0.0937716066837311,-0.0743585973978043,-0.100099414587021
425,0.0114414123818278,-0.00879581831395626,-0.0521039962768555,-0.0904398411512375,-0.075888380408287,-0.0985044836997986
426,0.00967193301767111,-0.0102679906412959,-0.0478222258388996,-0.0847292020916939,-0.0776389762759209,-0.0948533341288567
427,0.00638083508238196,-0.0102651258930564,-0.0436912178993225,-0.0767772495746613,-0.0758867487311363,-0.0877715721726418
428,0.00386641779914498,-0.00901483558118343,-0.0399332158267498,-0.068115234375,-0.0690974220633507,-0.0774676129221916
429,0.00304601457901299,-0.00787143874913454,-0.0362553521990776,-0.060502503067255,-0.0594167597591877,-0.0673515871167183
430,0.00391583517193794,-0.00654348498210311,-0.0325339324772358,-0.0553287453949451,-0.0503518618643284,-0.060579277575016
431,0.00625713262706995,-0.00370560609735549,-0.0293973777443171,-0.0527380034327507,-0.0424772053956985,-0.0574242360889912
432,0.00904614105820656,-0.000172968255355954,-0.0277466997504234,-0.0509054623544216,-0.0349995568394661,-0.0565849915146828
433,0.011477142572403,0.00106053322087973,-0.0277471747249365,-0.0476834550499916,-0.0274857953190804,-0.0576883517205715
434,0.0134183326736093,-0.00155601371079683,-0.028500210493803,-0.0425117649137974,-0.0192978270351887,-0.0600980035960674
435,0.0148425875231624,-0.00574694387614727,-0.0272948406636715,-0.0352067574858665,-0.0103200525045395,-0.0599143765866756
436,0.0145050110295415,-0.00907362438738346,-0.0226976480334997,-0.0271014906466007,-0.0013078588526696,-0.0543197616934776
437,0.0110554313287139,-0.0111266681924462,-0.0174633152782917,-0.0212608221918345,0.00583586888387799,-0.0439497493207455
438,0.00590538373216987,-0.0116440420970321,-0.0147555712610483,-0.018190449103713,0.00984893832355738,-0.0305007863789797
439,0.00216378597542644,-0.00985659100115299,-0.0146704278886318,-0.0160081256181002,0.0126181663945317,-0.0167792830616236
440,0.00130075891502202,-0.00535416277125478,-0.01489323284477,-0.0135781159624457,0.016478655859828,-0.0050696968100965
441,0.00145497242920101,-0.000528836506418884,-0.0135966977104545,-0.0106211705133319,0.0208031497895718,0.00361901032738388
442,2.32206530199619E-05,0.00112874840851873,-0.0110690118744969,-0.0068623460829258,0.0230641476809978,0.00899352040141821
443,-0.00290144770406187,-0.000478732865303755,-0.00898895692080259,-0.00285397050902247,0.0219692382961512,0.0123135354369879
444,-0.00532140815630555,-0.00281368638388813,-0.00830386579036713,0.000438370218034834,0.0197447128593922,0.0159303117543459
445,-0.00580224208533764,-0.0021325412672013,-0.00786669459193945,0.00285966717638075,0.0199596621096134,0.0219339784234762
446,-0.00529131898656487,0.00213101296685636,-0.00700523750856519,0.00420628348365426,0.0220211837440729,0.0292635038495064
447,-0.00564341619610786,0.00489423936232924,-0.00603245059028268,0.00540543394163251,0.0225274655967951,0.0334215685725212
448,-0.00640106480568647,0.00316965370438993,-0.00491335801780224,0.0079325009137392,0.0222522187978029,0.0311967171728611
449,-0.00548890139907599,-0.000658981327433139,-0.00329417618922889,0.0115937888622284,0.0255567878484726,0.0245235580950975
450,-0.00270577892661095,-0.00277258758433163,-0.00048269412945956,0.0153811676427722,0.0329064540565014,0.0194013733416796
451,7.15463611413725E-05,-0.00126652617473155,0.00346993329003453,0.0183423198759556,0.0394254252314568,0.0203392617404461
452,0.00160109682474285,0.00213266676291823,0.0073578036390245,0.0198659040033817,0.041105329990387,0.0264667868614197
453,0.00185276113916188,0.00464132754132152,0.00987210031598806,0.0205236561596394,0.0396496132016182,0.0349776931107044
454,0.00132589973509312,0.00563042145222425,0.010486432351172,0.0219676364213228,0.0399095378816128,0.0454717725515366
455,0.000818389700725675,0.00595198664814234,0.00985736772418022,0.0249299816787243,0.0435618869960308,0.0574803240597248
456,0.000945286825299263,0.00571831921115518,0.00936311017721891,0.0280067101120949,0.04952048137784,0.0677646398544312
457,0.00170209491625428,0.00446662912145257,0.0099041573703289,0.0303522571921349,0.0572322271764278,0.0740936100482941
458,0.00242083799093962,0.00267426855862141,0.0119957681745291,0.0338931605219841,0.0647775083780289,0.0781294852495193
459,0.00260446453467011,0.0016528267879039,0.0153195504099131,0.0397648699581623,0.0694790035486221,0.081519179046154
460,0.00264856801368296,0.00280572846531868,0.0180163662880659,0.0461821258068085,0.0713497176766396,0.0836426094174385
461,0.00286179641261697,0.0057536936365068,0.0186145156621933,0.0510023459792137,0.0723530426621437,0.0837713778018951
462,0.0031068951357156,0.00804841890931129,0.0180658772587776,0.0539570637047291,0.0742575377225876,0.0821954756975174
463,0.00336041301488876,0.00838193017989397,0.0187674034386873,0.0562004707753658,0.0774577856063843,0.0801742300391197
464,0.00351583724841475,0.00761351408436894,0.0216177999973297,0.0580333881080151,0.0807569101452827,0.0788737088441849
465,0.00345729314722121,0.00678904401138425,0.0255750939249992,0.0591008551418781,0.0827577337622643,0.0785847753286362
466,0.00300854071974754,0.00614564120769501,0.0296337883919477,0.0599184818565845,0.082773320376873,0.079538106918335
467,0.00175420904997736,0.00553293852135539,0.0335138849914074,0.0615870952606201,0.0816403105854988,0.0818939879536629
468,-0.000474762986414135,0.00451894849538803,0.0368672609329224,0.0652511790394783,0.0807828828692436,0.0847475975751877
469,-0.00282513187266886,0.00405118055641651,0.0386388413608074,0.070380337536335,0.0803770646452904,0.0864538177847862
470,-0.00368152349255979,0.00501427799463272,0.0383298918604851,0.0744380578398705,0.0807718336582184,0.0854666456580162
471,-0.00267543760128319,0.00500814570114017,0.036889273673296,0.0758543983101845,0.0819528251886368,0.0815487653017044
472,-0.000740448536816984,0.00228202482685447,0.0358515903353691,0.0745968967676163,0.0835767239332199,0.0758874714374542
473,0.000758263980969787,-0.00117406609933823,0.0365317426621914,0.0715200677514076,0.0853075608611107,0.0703473016619682
474,0.000762292824219912,-0.00158472196199,0.0387958437204361,0.0685309618711472,0.0863537415862083,0.0689636543393135
475,0.000144594494486228,0.00230320380069315,0.0405873544514179,0.0667567700147629,0.087566040456295,0.0750393122434616
476,-5.65376612939872E-05,0.00705502042546868,0.0402727350592613,0.0657952129840851,0.0891632959246635,0.0858335420489311
477,-0.000160029157996178,0.00896779727190733,0.0388099811971188,0.0657593980431557,0.0900581032037735,0.0953779444098473
478,-0.000473277847049758,0.00758675346150994,0.0374771915376186,0.0672008395195007,0.0906732901930809,0.100044794380665
479,-0.000712733250111341,0.00463303364813328,0.0366716012358665,0.0703889802098274,0.0922687351703644,0.100685097277164
480,-0.000726598838809878,0.00179859856143594,0.0374558717012405,0.0755720809102058,0.0960944667458534,0.100627943873405
481,-0.000777646899223328,-5.21301990374923E-05,0.0411482155323029,0.0819529294967651,0.101826727390289,0.10170840471983
482,-0.000453864224255085,-0.000168440223205835,0.0479801036417484,0.0879457518458366,0.106524631381035,0.103639833629131
483,0.000570928736124188,0.00163650186732411,0.0549763478338718,0.0917455181479454,0.107495412230492,0.104325339198112
484,0.00197589164599776,0.00434948178008199,0.0577860772609711,0.0916134640574455,0.106454767286778,0.101018399000168
485,0.00301689119078219,0.0064594536088407,0.0551399514079094,0.0876943245530128,0.105709224939346,0.0940577015280724
486,0.00231257965788245,0.00689495913684368,0.0491932332515717,0.0824175179004669,0.104004360735416,0.0869781449437141
487,0.000192708859685808,0.0057191951200366,0.0441145710647106,0.0780914723873138,0.102576211094856,0.0824074521660805
488,-0.00145571341272444,0.0041021965444088,0.0423366576433182,0.0753385052084923,0.103509984910488,0.0809934809803963
489,-0.00209689233452082,0.00355371669866145,0.0429200604557991,0.0741670504212379,0.104436442255974,0.0827917829155922
490,-0.00216714525595307,0.00501400092616677,0.045065525919199,0.0754683166742325,0.103252030909061,0.0875984504818916
491,-0.00205659517087042,0.00756388297304511,0.0485823825001717,0.0791722014546394,0.100570671260357,0.0945398062467575
492,-0.00172996008768678,0.00953751988708973,0.0529280565679073,0.0835427045822144,0.0979564487934113,0.102140359580517
493,-0.000496452383231372,0.0115317841991782,0.0569692812860012,0.0871185436844826,0.0973899662494659,0.10820184648037
494,0.00137538684066385,0.0135575290769339,0.058673981577158,0.0882558077573776,0.0995309725403786,0.110325492918491
495,0.00256285676732659,0.012894144281745,0.0575484894216061,0.0864206701517105,0.103010758757591,0.108544297516346
496,0.00235958839766681,0.00891142152249813,0.0545978397130966,0.0834648236632347,0.10601594299078,0.104269713163376
497,0.00107258767820895,0.00542490230873227,0.05067228525877,0.0819390118122101,0.107282094657421,0.0991727560758591
498,-0.000605462701059878,0.00562310637906194,0.0470576025545597,0.0820843800902367,0.106779895722866,0.0951983630657196
499,-0.00211744313128293,0.00731215439736843,0.0448903366923332,0.0819649770855904,0.105800859630108,0.0929390117526054
500,-0.00269201095215976,0.00730503350496292,0.0440237447619438,0.0811359882354736,0.105012364685535,0.092623308300972
501,-0.00185596442315727,0.00568868964910507,0.0434595197439194,0.0799690410494804,0.103925980627537,0.0934704393148422
502,-1.42883427542984E-05,0.0042187450453639,0.0433419235050678,0.0788985267281532,0.103256665170193,0.0938860550522804
503,0.00199609971605241,0.00396493123844266,0.0440013706684113,0.0789225473999977,0.103559173643589,0.0935945957899094
504,0.00331394001841545,0.00452714925631881,0.0449439063668251,0.0805277153849602,0.10319834202528,0.0928804725408554
505,0.00379211106337607,0.00521845323964953,0.0472406707704067,0.0830787494778633,0.101608499884605,0.09120724350214
506,0.00377007364295423,0.00556940911337733,0.0520284362137318,0.084925502538681,0.100007504224777,0.0884398147463799
507,0.00283496617339551,0.00540193635970354,0.0573442131280899,0.0853867307305336,0.0975657477974892,0.0867633372545242
508,0.000683115387801081,0.00495452107861638,0.0597766824066639,0.0842848643660545,0.0910787060856819,0.0871130228042603
509,-0.00181861186865717,0.00423235027119517,0.0585171356797218,0.0805438309907913,0.0797235295176506,0.0865003019571304
510,-0.00327749433927238,0.00314473430626094,0.056231401860714,0.0746556669473648,0.0698374137282372,0.0832378268241882
511,-0.0029968312010169,0.00261536962352693,0.0549056157469749,0.0697892382740974,0.0678789764642715,0.0806629806756973
512,-0.00173602311406285,0.00346063170582056,0.0537354946136475,0.0681744292378426,0.0705548077821732,0.0821500718593597
513,-1.49114175655996E-05,0.00529797840863466,0.0518240965902805,0.0682326108217239,0.0733704790472984,0.086916908621788
514,0.00234229653142393,0.00744603248313069,0.0493030287325382,0.067527212202549,0.0780251920223236,0.0924489572644234
515,0.00459684571251273,0.00909426715224981,0.0466922149062157,0.0660955905914307,0.0851359516382217,0.0965735167264938
516,0.00549050746485591,0.00961676985025406,0.0445033498108387,0.0656392648816109,0.0910545364022255,0.0981494188308716
517,0.00482603581622243,0.00840928684920073,0.0435611046850681,0.0677920430898666,0.0930211469531059,0.0976481065154076
518,0.00276262406259775,0.00554078863933682,0.0439810231328011,0.0711022838950157,0.0903396531939507,0.0952096953988075
519,-0.000668994267471135,0.0031863187905401,0.044421099126339,0.0718192830681801,0.0822741538286209,0.0898264423012733
520,-0.00358188757672906,0.00352457026019692,0.044875755906105,0.0701596513390541,0.0718469545245171,0.0819628313183784
521,-0.00385855347849429,0.00650395872071385,0.0455449596047401,0.0684018433094025,0.0647709369659424,0.0735036134719849
522,-0.00138327898457646,0.00997244287282228,0.0454238019883633,0.0666274055838585,0.0633272677659988,0.0662277340888977
523,0.00262713292613626,0.0114793041720986,0.0453363582491875,0.0657092183828354,0.0664907023310661,0.0617750734090805
524,0.0057685119099915,0.0103362528607249,0.046967126429081,0.0666917413473129,0.0710236951708794,0.0599288046360016
525,0.00603863876312971,0.00751680508255959,0.0501923561096191,0.0687067359685898,0.0723169818520546,0.05845857411623
526,0.00325914309360087,0.00401610461995006,0.0525238402187824,0.0705372467637062,0.0672352910041809,0.0557580776512623
527,-0.000551540753804147,0.000192365085240453,0.0510184764862061,0.0708197131752968,0.0590150468051434,0.0526170171797276
528,-0.00195966800674796,-0.00280496850609779,0.0467426739633083,0.0689168199896812,0.0563048310577869,0.0521916523575783
529,7.40342075005174E-05,-0.00315907341428101,0.0437767840921879,0.065888911485672,0.0625552237033844,0.0570284314453602
530,0.00321883917786181,-0.000748138700146228,0.0432042591273785,0.0623026415705681,0.0731640309095383,0.0656012892723084
531,0.00530350720509887,0.00323159131221473,0.0428568050265312,0.057901855558157,0.0819670110940933,0.0740682408213615
532,0.00619322899729013,0.00820419378578663,0.0415484644472599,0.0535251535475254,0.0847049057483673,0.0806521773338318
533,0.00651514297351241,0.0130119491368532,0.0390326865017414,0.0496949777007103,0.0805994644761086,0.084963358938694
534,0.00652076723054051,0.0157064609229565,0.0349312834441662,0.0459435135126114,0.0731280073523521,0.0859909504652023
535,0.00602856604382396,0.0152904242277145,0.030230276286602,0.0426315367221832,0.0668039545416832,0.0831310898065567
536,0.00492592388764024,0.0123715363442898,0.0269323922693729,0.0405112728476524,0.0631676688790321,0.0772054642438889
537,0.00367227871902287,0.00924061611294746,0.0258148498833179,0.0393786989152431,0.0602991059422493,0.070327065885067
538,0.00275425100699067,0.00730068515986204,0.0258778780698776,0.0385865420103073,0.0553678348660469,0.0635413378477097
539,0.00199030572548509,0.0051961513236165,0.0259746536612511,0.038044597953558,0.0482795126736164,0.0555353201925755
540,0.000949331501033157,0.00201256875880063,0.0258216261863709,0.0383394584059715,0.0419915951788425,0.0462987795472145
541,-0.000368448323570192,-0.000753256259486079,0.0258384924381971,0.0402310341596603,0.0391487553715706,0.0383215360343456
542,-0.00111139193177223,-0.00153141492046416,0.0273606050759554,0.0437700264155865,0.0403850078582764,0.033572006970644
543,6.48701898171566E-05,0.0015091976383701,0.0310708452016115,0.0472597517073154,0.0445761978626251,0.0333951897919178
544,0.00271703163161874,0.00811874028295279,0.0345907025039196,0.0480256080627441,0.0489332042634487,0.0380806811153889
545,0.00500113656744361,0.013017944060266,0.035559918731451,0.0459322072565556,0.0501785948872566,0.0451885685324669
546,0.00661921454593539,0.012634358368814,0.0343742966651917,0.0426078513264656,0.0476418696343899,0.0505233183503151
547,0.00780822243541479,0.0082519706338644,0.0323889367282391,0.0391112193465233,0.0442417748272419,0.0513851530849934
548,0.00774412928149104,0.00241777277551591,0.0307971555739641,0.0373562797904015,0.0425486899912357,0.0485648438334465
549,0.00640855869278312,-0.00286242109723389,0.0298325084149837,0.0388306006789207,0.04208654910326,0.0434625670313835
550,0.0054985866881907,-0.00662481458857656,0.0297501105815172,0.0423285290598869,0.0421160757541656,0.0365166589617729
551,0.00637204851955175,-0.00853546429425478,0.0315078161656857,0.0451194904744625,0.0441141203045845,0.0291483961045742
552,0.00814920756965876,-0.00860040821135044,0.0340471863746643,0.0446189977228642,0.0484292060136795,0.0235258378088474
553,0.00922268163412809,-0.00682383868843317,0.0340633504092693,0.0402241684496403,0.0529327467083931,0.0218369625508785
554,0.00982153601944447,-0.00319607509300113,0.0303781293332577,0.0345415621995926,0.0558138079941273,0.0258626006543636
555,0.0106364004313946,0.00128643563948572,0.0257738307118416,0.0295533332973719,0.0558851286768913,0.0344109795987606
556,0.0110153062269092,0.00506447162479162,0.0227257646620274,0.024776142090559,0.0529162138700485,0.0434958823025227
557,0.0100037204101682,0.00736820138990879,0.0207331925630569,0.0204306337982416,0.0481443591415882,0.0500972829759121
558,0.00741518521681428,0.00818164460361004,0.0191403105854988,0.0175791550427675,0.04337527602911,0.0535551384091377
559,0.0039452058263123,0.00735348556190729,0.0180835612118244,0.0159983318299055,0.0395898558199406,0.0538686588406563
560,0.000531143799889833,0.00486454833298922,0.0174707043915987,0.0145769780501723,0.0362772606313229,0.050919521600008
561,-0.00224488927051425,0.00261011742986739,0.0176485888659954,0.0143726598471403,0.0324532799422741,0.0467092618346214
562,-0.00444841990247369,0.00229410757310689,0.0188476871699095,0.0173304826021194,0.0276341158896685,0.0440075471997261
563,-0.00681927287951112,0.00215234258212149,0.0200846735388041,0.021620836108923,0.0222245436161757,0.0417468398809433
564,-0.0093420734629035,0.000953596900217235,0.0200922768563032,0.0238562058657408,0.0177500415593386,0.0375839099287987
565,-0.0102592837065458,0.000961838173680007,0.0197971221059561,0.0244604516774416,0.0159436855465174,0.0330056361854076
566,-0.00864069070667028,0.00310374842956662,0.0208489913493395,0.0256422813981771,0.0166091192513704,0.0307399276643991
567,-0.00540154194459319,0.00596799049526453,0.0227635465562344,0.0282961297780275,0.0187967400997877,0.0313736945390701
568,-0.0016374965198338,0.00961947161704302,0.0250424779951572,0.0328879244625568,0.022801510989666,0.0336684547364712
569,0.00157157611101866,0.0134588349610567,0.0280042309314013,0.0370113998651505,0.0284845978021622,0.0337367467582226
570,0.00416753627359867,0.0139559926465154,0.0308539103716612,0.0370060838758945,0.0346481651067734,0.0285530406981707
571,0.00663178274407983,0.0102687878534198,0.0313243083655834,0.0337978675961494,0.0387941375374794,0.0201679635792971
572,0.00801724009215832,0.00519760232418776,0.027700012549758,0.0296252574771643,0.0387121140956879,0.0111673818901181
573,0.00728096207603812,0.000547506846487522,0.0211657769978046,0.0258997827768326,0.0357523038983345,0.00349010666832328
574,0.00494701135903597,-0.00283261924050748,0.0155057674273849,0.025097269564867,0.0327633321285248,0.00028741275309585
575,0.00244568381458521,-0.00465816305950284,0.0137558653950691,0.0272604692727327,0.0311129651963711,0.00235236342996359
576,0.000821008812636137,-0.00551781943067908,0.0149417985230684,0.0292318165302277,0.0307148322463036,0.0076215947046876
577,-0.000128033076180145,-0.00585779268294573,0.0156225776299834,0.0281580798327923,0.0300861988216639,0.0137548921629786
578,-0.000327211193507537,-0.0042781587690115,0.0146301109343767,0.0244082640856504,0.0282278787344694,0.0204153452068567
579,0.000685386417899281,0.000292507815174758,0.0127149308100343,0.0203778352588415,0.0252858679741621,0.027700912207365
580,0.00205414253287017,0.00563947018235922,0.0102378167212009,0.0170178432017565,0.0212789159268141,0.0334319956600666
581,0.00273973238654435,0.00947596505284309,0.00846735388040543,0.0145943220704794,0.0169716775417328,0.0361510440707207
582,0.00281063956208527,0.0111855920404196,0.00789298675954342,0.0129933385178447,0.014004691503942,0.0360057093203068
583,0.0028768063057214,0.0103824660181999,0.00687098409980536,0.0112702371552587,0.0127320634201169,0.0328464135527611
584,0.00264223362319171,0.0070592388510704,0.00533454213291407,0.0093631474301219,0.0113675743341446,0.0267846025526524
585,0.00157026655506343,0.00276730465702713,0.00548986671492457,0.00836624577641487,0.00823324359953403,0.0198920108377934
586,0.000437213166151196,0.00018684912356548,0.00833077635616064,0.00946237612515688,0.0045504872687161,0.0159101728349924
587,0.000255348189966753,0.000812161481007934,0.0121463453397155,0.0128973610699177,0.0031227027066052,0.0170014258474112
588,0.000151450178236701,0.00348502793349326,0.0142037263140082,0.0167909506708384,0.00261572585441172,0.0211238674819469
589,-0.00169165024999529,0.00622455449774861,0.0140822175890207,0.0192019380629063,-0.000820774992462248,0.0246261227875948
590,-0.0055106240324676,0.0081695569679141,0.0130246859043837,0.0197441317141056,-0.00664170226082206,0.0259689930826426
591,-0.00973882712423801,0.00856582261621952,0.0106798410415649,0.0170370638370514,-0.0114123728126287,0.0244669727981091
592,-0.0119722494855523,0.00786842033267021,0.00688322260975838,0.0107480548322201,-0.0133367329835892,0.0203011073172092
593,-0.0109451031312346,0.00764412060379982,0.00352115882560611,0.00436709821224213,-0.0118392137810588,0.0150210987776518
594,-0.00682529481127858,0.00758186308667064,0.00245366850867867,0.00154796440619975,-0.00649960804730654,0.009255176410079
595,-0.000500905734952539,0.00591271789744496,0.00381361762993038,0.00377582549117506,0.00182428350672126,0.00349864736199379
596,0.00607317732647061,0.00328828860074282,0.00667398981750011,0.0112550184130669,0.011649145744741,0.000378188764443621
597,0.0110611272975802,0.002976861782372,0.0100189363583922,0.0212190952152014,0.0208136327564716,0.00183291744906455
598,0.0132431639358401,0.00488063832744956,0.0127078350633383,0.0283370576798916,0.0248889215290546,0.00614116666838527
599,0.0123512176796794,0.0056864432990551,0.0137522779405117,0.0295972190797329,0.0223178192973137,0.0101088574156165
600,0.0095671359449625,0.00373668200336397,0.0131324864923954,0.0255327094346285,0.0166771672666073,0.0113539192825556
601,0.00595617713406682,-0.000775618595071137,0.0109230102971196,0.0186478141695261,0.0102377235889435,0.00906936451792717
602,0.00250526866875589,-0.00588511675596237,0.00694383447989821,0.0115504721179605,0.0037290770560503,0.0043132952414453
603,0.000340824335580692,-0.0090721445158124,0.0026157358661294,0.00513154920190573,-0.0012102962937206,-0.000568049901630729
604,-0.000716834154445678,-0.00979032553732395,-0.000282492983387783,-0.00061951408861205,-0.00470142671838403,-0.00285901478491724
605,-0.00140105711761862,-0.00855014845728874,-0.00139034423045814,-0.00517871277406812,-0.00813454668968916,-0.000454361957963556
606,-0.00204145931638777,-0.00599368661642075,-0.00146921153645962,-0.0084916427731514,-0.0114086866378784,0.00540160527452827
607,-0.002861054148525,-0.00316279265098274,-0.00183234736323357,-0.011085482314229,-0.0134981786832213,0.0102594522759318
608,-0.00404231203719974,-0.000758380396291614,-0.00332115264609456,-0.0124353496357799,-0.0140648176893592,0.0116159748286009
609,-0.00528056500479579,0.000851699849590659,-0.00563959078863263,-0.0114076333120465,-0.0135304965078831,0.0105585437268019
610,-0.00591700756922364,0.000845171336550266,-0.0071493168361485,-0.00818360596895218,-0.0121271554380655,0.00867722928524017
611,-0.0056240176782012,-0.00140866707079113,-0.00686412444338202,-0.00442672381177545,-0.00975988246500492,0.00587972858920693
612,-0.00439392635598779,-0.0048431484028697,-0.00605284934863448,-0.000913012598175555,-0.00690969498828053,0.00213613896630704
613,-0.00330835860222578,-0.00777163403108716,-0.00562385888770223,0.00251795910298824,-0.00559088354930282,-0.00143176573328674
614,-0.00313606928102672,-0.00941559951752424,-0.0042981575243175,0.00530660105869174,-0.00772863533347845,-0.00436181062832475
615,-0.00300150946713984,-0.00934255495667458,-0.0013124217512086,0.00637381244450808,-0.0127953495830297,-0.00678159343078732
616,-0.00250799092464149,-0.00774579355493188,0.00253178947605193,0.00555085856467485,-0.0184257291257381,-0.00818768609315157
617,-0.00234105577692389,-0.00569737842306495,0.00540483044460416,0.00308482488617301,-0.0236463285982609,-0.00820328947156668
618,-0.00342609942890704,-0.00418966822326183,0.00473885610699654,-0.00170250562950969,-0.0289739836007357,-0.00774884643033147
619,-0.0059531731531024,-0.00376491341739893,0.00111756776459515,-0.00725254695862532,-0.0332264266908169,-0.00734922708943486
620,-0.00841808412224054,-0.00379213993437588,-0.00175611698068678,-0.00910292193293571,-0.0338877774775028,-0.00601672567427158
621,-0.00872828811407089,-0.00264738011173904,-0.00252897711470723,-0.00660006096586585,-0.0284048337489367,-0.00443261908367276
622,-0.0064800726249814,-0.00139996479265392,-0.00292877666652203,-0.00341839948669076,-0.0170186869800091,-0.00506953336298466
623,-0.00252424809150398,-0.0026110743638128,-0.00381570286117494,-0.000802538474090397,-0.00420126598328352,-0.00855142902582884
624,0.00235220114700496,-0.00602164212614298,-0.00415052194148302,0.00142979028169066,0.005989252589643,-0.0140162296593189
625,0.00649514375254512,-0.0102289896458387,-0.0039296611212194,0.00189734296873212,0.010902720503509,-0.0196649003773928
626,0.0079282047227025,-0.0128567861393094,-0.00415830407291651,0.000569557014387101,0.00811971537768841,-0.0220076404511929
627,0.00657625216990709,-0.0117931887507439,-0.0047943671233952,-0.0014325458323583,-0.000976564595475793,-0.0195804927498102
628,0.00393840437754989,-0.00901620369404554,-0.00571391871199012,-0.00454918527975678,-0.0112087028101087,-0.0152903208509088
629,0.00127643463201821,-0.00744730979204178,-0.00719077838584781,-0.00912784785032272,-0.0194664429873228,-0.0117402328178287
630,-0.000428091094363481,-0.00680005829781294,-0.00883370358496904,-0.0136670209467411,-0.0258293505758047,-0.00852299574762583
631,-0.000845238857436925,-0.00584492506459355,-0.0102607710286975,-0.0168753750622272,-0.0305161084979773,-0.00544791109859943
632,-0.000653293391223997,-0.00483095366507769,-0.0116424560546875,-0.0186756066977978,-0.0329323448240757,-0.00346392579376698
633,-0.000356529606506228,-0.0042278622277081,-0.012738193385303,-0.019349368289113,-0.0324885807931423,-0.00275302398949862
634,0.000336255878210068,-0.00408288324251771,-0.0120459478348494,-0.0190836079418659,-0.0293922368437052,-0.00280013075098395
635,0.00205291784368455,-0.00467232102528214,-0.00724752712994814,-0.0174523666501045,-0.0235753078013659,-0.0038137175142765
636,0.00411466928198934,-0.00646043615415692,0.00202243542298675,-0.0138752218335867,-0.0152016896754503,-0.00660595577210188
637,0.00444417307153344,-0.00842156913131475,0.0117064071819186,-0.00841638538986444,-0.00853664986789227,-0.00978938955813646
638,0.00192748720292002,-0.00813465751707554,0.0155719155445695,-0.00254876562394202,-0.0107148950919509,-0.0108178369700909
639,-0.00215205713175237,-0.00511546526104212,0.0115106394514441,0.000546839204616845,-0.0221361238509417,-0.00992644857615232
640,-0.00553078297525644,-0.000521430454682559,0.00301806721836329,-0.00125242443755269,-0.0349725596606731,-0.00822465308010578
641,-0.00752887828275561,0.00498363096266985,-0.00693319551646709,-0.00723088905215263,-0.0442774184048176,-0.00604228070005775
642,-0.00886634923517704,0.0093005895614624,-0.0173574779182673,-0.0150997722521424,-0.0503941364586353,-0.00441067107021809
643,-0.0100201806053519,0.00947617460042238,-0.0253925658762455,-0.021799560636282,-0.0528739504516125,-0.00343861407600343
644,-0.01008584164083,0.00661641266196966,-0.0281742233783007,-0.0254789683967829,-0.0515272282063961,-0.00182750483509153
645,-0.00767316110432148,0.00471577513962984,-0.026354743167758,-0.0266861524432898,-0.049242902547121,0.00143878080416471
646,-0.00339403701946139,0.00640105968341231,-0.0226210448890924,-0.0263804104179144,-0.0477175787091255,0.00687787355855107
647,0.000754630658775568,0.0118387518450618,-0.0198425725102425,-0.0256938524544239,-0.0461259558796883,0.013313309289515
648,0.00312289991416037,0.0169312823563814,-0.0194768719375134,-0.0259041022509336,-0.0452970899641514,0.018001327291131
649,0.00345314713194966,0.0173954218626022,-0.0194596536457539,-0.0261914860457182,-0.0454782247543335,0.0203032623976469
650,0.00240169325843453,0.014343885704875,-0.0177226066589355,-0.025428768247366,-0.0452875010669231,0.0220331139862537
651,3.15789111482445E-05,0.010731715708971,-0.0158596448600292,-0.0244490243494511,-0.0454242937266827,0.0229924041777849
652,-0.00321298977360129,0.00777081167325377,-0.0158942025154829,-0.0242299865931273,-0.0473795756697655,0.021066777408123
653,-0.00568128004670143,0.00596004724502563,-0.0171464867889881,-0.0248100254684687,-0.0503273978829384,0.0175885874778032
654,-0.00600601732730865,0.00570880761370063,-0.0174405295401812,-0.0260664224624634,-0.0518973544239998,0.0165172722190619
655,-0.00458405166864395,0.00702341971918941,-0.0155449910089374,-0.0278402306139469,-0.0514934919774532,0.0190524850040674
656,-0.00282350508496165,0.00989691633731127,-0.011461466550827,-0.0287059787660837,-0.0497749336063862,0.0234780218452215
657,-0.00214728876017034,0.0130655569955707,-0.0059203440323472,-0.0282252877950668,-0.0464930273592472,0.0263410117477179
658,-0.00342503236606717,0.0142998741939664,-0.000570910458918661,-0.0281333327293396,-0.0429158583283424,0.0249572899192572
659,-0.00559805566444993,0.0138688748702407,0.0026919620577246,-0.029058588668704,-0.0416640266776085,0.0212932135909796
660,-0.00744552630931139,0.0131155680865049,0.00271009467542171,-0.0304470211267471,-0.0429600365459919,0.0187636725604534
661,-0.00965978484600782,0.0118405325338244,0.000139092458994128,-0.0308205019682646,-0.045473538339138,0.0182273332029581
662,-0.0123813543468714,0.0099001657217741,-0.00280833500437438,-0.028804125264287,-0.0478117801249027,0.0192409548908472
663,-0.0144493095576763,0.00767691992223263,-0.004588657990098,-0.0262171812355518,-0.0484585985541344,0.0204869918525219
664,-0.0153665216639638,0.00553501350805163,-0.00550232501700521,-0.0258244071155787,-0.0473885796964169,0.0193903129547834
665,-0.0152154732495546,0.0043712011538446,-0.00735688675194979,-0.0276592429727316,-0.0452499650418758,0.0147519567981362
666,-0.013324317522347,0.00549577083438635,-0.0104910489171743,-0.0294601209461689,-0.0409125499427319,0.00916947424411774
667,-0.0091115515679121,0.00867552869021893,-0.0122290896251798,-0.029162785038352,-0.0336650907993317,0.0067864446900785
668,-0.00457506999373436,0.0107200797647238,-0.0114466277882457,-0.0274215824902058,-0.0270114913582802,0.00864913687109947
669,-0.00226488895714283,0.00921587646007538,-0.0104225352406502,-0.0259754676371813,-0.0251281429082155,0.0122115723788738
670,-0.00176886969711632,0.00612862594425678,-0.0101323248818517,-0.0242140423506498,-0.0273649618029594,0.0147995036095381
671,-0.00226033222861588,0.00372946169227362,-0.0093972897157073,-0.0215789638459682,-0.0312767289578915,0.0143957063555717
672,-0.0037748790346086,0.0018543932819739,-0.0079348087310791,-0.0192378200590611,-0.0356965251266956,0.0103359455242753
673,-0.00509411981329322,-0.00034359417622909,-0.00622890051454306,-0.017995385453105,-0.0385324284434319,0.00396594405174255
674,-0.00552175939083099,-0.00285462546162307,-0.0047587831504643,-0.0175960958003998,-0.0380019433796406,-0.00276901107281446
675,-0.00592252658680081,-0.00306292437016964,-0.00448001734912395,-0.0173010602593422,-0.0353569723665714,-0.00711348233744502
676,-0.007447917945683,-0.000366833701264113,-0.00664440868422389,-0.017807999625802,-0.0334858782589436,-0.00741278333589435
677,-0.0108329933136702,0.00185292318928987,-0.0106884334236383,-0.0199406575411558,-0.0346571914851666,-0.00527170533314347
678,-0.0150914555415511,0.0015775035135448,-0.0142715945839882,-0.023518031463027,-0.0392462834715843,-0.00443714996799827
679,-0.0179014187306166,-0.00132833723910153,-0.0155822597444057,-0.0285511240363121,-0.0447108596563339,-0.00751376012340188
680,-0.0178030449897051,-0.00495443446561694,-0.0138143301010132,-0.0339836739003658,-0.0479054562747478,-0.0121863400563598
681,-0.0155903985723853,-0.00633828807622194,-0.0100164031609893,-0.0377539731562138,-0.0484755821526051,-0.013395887799561
682,-0.0134905893355608,-0.00512636546045542,-0.00664983130991459,-0.0377896875143051,-0.0481056235730648,-0.00860923249274492
683,-0.0123681724071503,-0.00297145219519734,-0.00537309749051929,-0.0339249595999718,-0.0477133467793465,0.000385969586204737
684,-0.011117797344923,-0.00141304940916598,-0.00657265214249492,-0.0294298212975264,-0.0457486473023891,0.00899273343384266
685,-0.0094206789508462,-0.00128207018133253,-0.0089107770472765,-0.0271888766437769,-0.0411404259502888,0.0131503520533443
686,-0.00790957547724247,-0.00266515510156751,-0.0097024654969573,-0.0269653331488371,-0.0359150245785713,0.0118790585547686
687,-0.00655948836356401,-0.00445222109556198,-0.00845862552523613,-0.027156226336956,-0.0328538455069065,0.0073771495372057
688,-0.00541396485641599,-0.00521482573822141,-0.00758863799273968,-0.0265248063951731,-0.0333675742149353,0.00207499926909804
689,-0.00440899003297091,-0.00486390851438046,-0.0078553082421422,-0.0249793436378241,-0.0358566604554653,-0.00340170064009726
690,-0.00272783869877458,-0.00343484408222139,-0.00785058457404375,-0.0230111144483089,-0.0366689674556255,-0.00793733727186918
691,-5.55280821572524E-05,-4.21461954829283E-05,-0.00730540230870247,-0.0208668187260628,-0.0344203524291515,-0.00920277461409569
692,0.00271555897779763,0.0048575708642602,-0.00646454142406583,-0.0187237579375505,-0.0309413820505142,-0.00618696492165327
693,0.00484658917412162,0.00857902877032757,-0.00467523792758584,-0.0168509259819984,-0.0279850792139769,-0.000822290836367756
694,0.00624110735952854,0.00946071464568377,-0.00212679873220623,-0.0148483430966735,-0.0251846145838499,0.00348983984440565
695,0.00653648423030972,0.00767181534320116,-0.000416191382100806,-0.0115329930558801,-0.0220299493521452,0.00480003422126174
696,0.00573902390897274,0.00439271796494722,-0.000641622813418508,-0.00698141567409039,-0.0198634099215269,0.0027961905580014
697,0.00470223603770137,0.00155180250294507,-0.003201215993613,-0.00426590489223599,-0.0200069732964039,-0.00267721433192492
698,0.00385741400532424,-0.00138971419073641,-0.00701179262250662,-0.00616985792294145,-0.0223259385675192,-0.0109338350594044
699,0.00304385297931731,-0.00577967194840312,-0.00907034892588854,-0.0116414790973067,-0.0252316910773516,-0.0188076570630074
700,0.00250925007276237,-0.00996916368603706,-0.00776165956631303,-0.0177738163620234,-0.0269366465508938,-0.0223506335169077
701,0.00241636717692018,-0.0120662357658148,-0.00415305327624083,-0.0215959027409554,-0.0283850338310003,-0.0200602244585752
702,0.00209545926190913,-0.0119889583438635,-0.000527022930327803,-0.0220080632716417,-0.0314467065036297,-0.0140787418931723
703,0.000794562743976712,-0.0106659727171063,0.000820815504994243,-0.0213340539485216,-0.0359785705804825,-0.00906928535550833
704,-0.000897572725079954,-0.00986386928707361,-0.000694735383149236,-0.0220254901796579,-0.0398806780576706,-0.00880128052085638
705,-0.00183490721974522,-0.0109116574749351,-0.00380481965839863,-0.024143360555172,-0.0400261431932449,-0.0129234436899424
706,-0.00228329445235431,-0.0129542825743556,-0.00738666346296668,-0.0269759129732847,-0.0353233702480793,-0.0176751054823399
707,-0.00232653482817113,-0.0139382611960173,-0.010352018289268,-0.0292029529809952,-0.0275841616094112,-0.0201979279518127
708,-0.00114003533963114,-0.0129393814131618,-0.0113836424425244,-0.0294418558478355,-0.0195575207471848,-0.0211741048842669
709,0.00120115047320724,-0.00988270621746778,-0.0102875493466854,-0.0281390827149153,-0.0134021369740367,-0.0216619521379471
710,0.00365268462337554,-0.00513331918045878,-0.00740654673427343,-0.02539355866611,-0.0104462252929807,-0.0204542074352503
711,0.00474943034350872,-0.000549899821635336,-0.00308832898736,-0.0213097091764212,-0.0117285838350654,-0.0182987246662378
712,0.00410539843142033,0.00269754743203521,0.00218721036799252,-0.0174503177404404,-0.0166331939399242,-0.017531955614686
713,0.00254435813985765,0.00472553027793765,0.00678978627547622,-0.0142174242064357,-0.023396261036396,-0.0171801671385765
714,0.00115499086678028,0.00508127547800541,0.00877142883837223,-0.0106072695925832,-0.0295212995260954,-0.0149046713486314
715,0.00106983364094049,0.00392247503623366,0.00859336089342833,-0.00623199250549078,-0.0316844917833805,-0.010451196692884
716,0.00209802202880383,0.00185211538337171,0.00710397865623236,-0.0019100506324321,-0.0296369418501854,-0.00581225519999862
717,0.00324699748307467,0.000440922362031415,0.00417316937819123,0.00147086242213845,-0.0259374715387821,-0.00301724183373153
718,0.00393946142867208,0.00106925191357732,-4.40359763160814E-05,0.00270990468561649,-0.0220510214567184,-0.00325506669469178
719,0.00362132769078016,0.00111365038901567,-0.00511090364307165,0.000319211016176268,-0.0192955154925585,-0.00720675475895405
720,0.00194494461175054,-0.00193779123947024,-0.0101015763357282,-0.00572542659938335,-0.0185546483844519,-0.0134629290550947
721,-0.000390684785088524,-0.00639268010854721,-0.0134953362867236,-0.0136218732222915,-0.0180450193583965,-0.0188730210065842
722,-0.00180965871550143,-0.00940732285380363,-0.0138674546033144,-0.020413164049387,-0.0160052161663771,-0.0215235948562622
723,-0.00124332343693823,-0.00984504166990519,-0.0118237473070621,-0.0242565181106329,-0.0130693931132555,-0.0216657351702452
724,0.000481630355352536,-0.00894528720527887,-0.0105822486802936,-0.0259335432201624,-0.0118744000792503,-0.0203465148806572
725,0.00125531980302185,-0.00859727151691914,-0.0120536088943481,-0.0270000230520964,-0.014421078376472,-0.0187437031418085
726,0.000553739257156849,-0.00771010015159845,-0.0140939280390739,-0.0268955789506435,-0.0191465951502323,-0.0161512419581413
727,0.00023284275084734,-0.00296123465523124,-0.013515125028789,-0.0230395998805761,-0.0228776503354311,-0.0101321190595627
728,0.00156325020361692,0.00500472448766232,-0.00972970109432936,-0.0153476847335696,-0.0236351024359465,-0.00170501018874347
729,0.00374020682647824,0.010716556571424,-0.00467625446617603,-0.00799558591097593,-0.0204374138265848,0.00436018593609333
730,0.00569516653195024,0.011230269446969,-0.000265920301899314,-0.00446900818496943,-0.0140920765697956,0.00487591279670596
731,0.00709332292899489,0.00885610748082399,0.0030782010871917,-0.00396535731852055,-0.00799251627177,0.000835580460261554
732,0.00740141747519374,0.00633121747523546,0.00539403269067407,-0.00412380369380116,-0.00533556751906872,-0.00422418909147382
733,0.00575729971751571,0.00518412655219436,0.007240348495543,-0.00365022011101246,-0.00654477486386895,-0.00755631504580379
734,0.00221153348684311,0.00551886018365622,0.00879646185785532,-0.00212624273262918,-0.010655490681529,-0.00956746283918619
735,-0.0011415668996051,0.00487152673304081,0.00899400003254414,4.03541162086185E-05,-0.0158614981919527,-0.0119061237201095
736,-0.00122689385898411,0.0031704269349575,0.00833547580987215,0.00196066428907216,-0.0179359260946512,-0.0141375856474042
737,0.00197216775268316,0.00384868821129203,0.00768099259585142,0.00206699618138373,-0.0138956047594547,-0.0151800429448485
738,0.00506055681034923,0.00594538962468505,0.00607823533937335,-0.00099484296515584,-0.00638234335929155,-0.0150932548567653
739,0.00555766001343727,0.00557942222803831,0.00318015296943486,-0.00518338894471526,-0.0013044107472524,-0.0139189809560776
740,0.00379784149117768,0.00317889335565269,0.000277701852610335,-0.00631737941876054,-0.00143713073339313,-0.0125484587624669
741,0.00157302443403751,0.000533186946995556,-0.001292206463404,-0.00429661525413394,-0.00414721108973026,-0.0147099448367953
742,5.75255253352225E-05,-0.00257565011270344,-0.0011537125101313,-0.00271290168166161,-0.0062996307387948,-0.0219732448458672
743,-0.000951162830460817,-0.00585680454969406,-3.21931793223484E-06,-0.00310726976022124,-0.00740498397499323,-0.0283102430403233
744,-0.00148293457459658,-0.00716695748269558,0.00099795451387763,-0.00503563787788153,-0.00771526340395212,-0.0276807267218828
745,-0.00133422994986176,-0.00498275784775615,0.000946452666539699,-0.00778200570493937,-0.00835843849927187,-0.0220168065279722
746,-0.00119671144057065,-0.00145569571759552,-0.000683765800204128,-0.010347805917263,-0.0105876522138715,-0.0168218240141869
747,-0.00101878773421049,0.000796670385170728,-0.00331190903671086,-0.011827546171844,-0.0121469423174858,-0.0138666396960616
748,0.000158046343130991,0.0027073270175606,-0.00544045865535736,-0.0112398182973266,-0.0108570139855146,-0.0103895189240575
749,0.00211144401691854,0.0055170226842165,-0.00574321206659079,-0.00800989661365747,-0.00873110722750425,-0.00375649658963084
750,0.00429809559136629,0.00865805521607399,-0.00348200486041605,-0.00258666533045471,-0.00772397872060537,0.00435556285083294
751,0.00715004140511155,0.011800485663116,0.000636671495158225,0.0026757949963212,-0.00681325607001781,0.00859072804450989
752,0.0104421470314264,0.0151844779029489,0.00419157044962049,0.00449172127991915,-0.00317999138496816,0.00586822675541043
753,0.0120412213727832,0.018862584605813,0.00439371028915048,0.00183725345414132,0.00301420805044472,-0.00264652748592198
754,0.0103452913463116,0.0216237585991621,0.00130265485495329,-0.00266706943511963,0.00617809547111392,-0.0133537212386727
755,0.00646367436274886,0.0207311511039734,-0.00145384983625263,-0.00519381323829293,0.00329727120697498,-0.0210542194545269
756,0.00231140316464007,0.015230804681778,-0.00167426478583366,-0.0048310817219317,-0.00238324585370719,-0.0237648207694292
757,-0.000242587950197048,0.00793458893895149,-0.000252357451245189,-0.00298123131506145,-0.00647768471390009,-0.0243933871388435
758,0.000410945183830336,0.00216842442750931,0.0012188961263746,-0.00198846822604537,-0.00658626295626163,-0.0264220405369997
759,0.00379830040037632,-0.00195849337615073,0.0013086604885757,-0.00446765404194593,-0.00358216511085629,-0.0306852255016565
760,0.00794847216457129,-0.00519892852753401,-5.79281149839517E-05,-0.00930905900895596,-0.000969109009020031,-0.0339313708245754
761,0.0109896436333656,-0.00649537285789847,-0.00151361455209553,-0.0132398689165711,-0.00154399708844721,-0.0326533801853657
762,0.0117104398086667,-0.00611305050551891,-0.00212833844125271,-0.0156595706939697,-0.00531188026070595,-0.0283609870821238
763,0.00992823112756014,-0.00550039671361446,-0.00214199372567236,-0.0158230327069759,-0.0107377888634801,-0.0247335378080606
764,0.0064509785734117,-0.00554871140047908,-0.00192428496666253,-0.012092356570065,-0.015950758010149,-0.0243060495704412
765,0.00338548771105707,-0.00570898223668337,-0.00103790638968349,-0.00569401867687702,-0.0179865192621946,-0.0269852858036757
766,0.00266930996440351,-0.00381147884763777,0.000667110260110348,0.000141058015287854,-0.0152225224301219,-0.0294612068682909
767,0.0034706280566752,-0.000674275157507509,0.00189196306746453,0.00220896513201296,-0.00978053826838732,-0.0301754344254732
768,0.00389737449586391,0.000232807753491215,0.0012334956554696,-6.93499678163789E-05,-0.00500307232141495,-0.0300672575831413
769,0.00373210455290973,-0.00197031046263874,-0.000905535300262272,-0.00354970456101,-0.00361041422002018,-0.0289091803133488
770,0.00324159325100482,-0.0060565653257072,-0.00316551723517478,-0.00589792989194393,-0.00659508816897869,-0.0267651919275522
771,0.00248231482692063,-0.0103572951629758,-0.00408826349303126,-0.00652192113921046,-0.0113714216277003,-0.0248619765043259
772,0.00163811061065644,-0.0117505369707942,-0.00285646831616759,-0.00542274303734303,-0.0145988697186112,-0.0241295695304871
773,-2.29075540119084E-05,-0.00927923899143934,-0.00144649995490909,-0.00494947796687484,-0.0169145129621029,-0.0255492925643921
774,-0.00263842055574059,-0.00577885983511806,-0.00192470499314368,-0.00571168446913362,-0.0194800011813641,-0.0272929444909096
775,-0.00461765844374895,-0.00319139077328146,-0.00402263877913356,-0.00588269624859095,-0.0205311849713326,-0.0258212760090828
776,-0.00541340373456478,-0.00246367766521871,-0.00738969817757607,-0.00632460927590728,-0.0191662590950727,-0.0229192618280649
777,-0.00599972484633327,-0.00495256530120969,-0.0116655463352799,-0.00852924399077892,-0.016970556229353,-0.0238637775182724
778,-0.00616826070472598,-0.0104365693405271,-0.0149188376963139,-0.0115606561303139,-0.0152263240888715,-0.0304988604038954
779,-0.00480547547340393,-0.0159154441207647,-0.0145842330530286,-0.0131021616980433,-0.0131319165229797,-0.0386475063860416
780,-0.00240438850596547,-0.0183702874928713,-0.0113919340074062,-0.0122763207182288,-0.0106082186102867,-0.0420927964150906
781,-0.000420994474552572,-0.0173785239458084,-0.00821675173938274,-0.0103518813848495,-0.00962254405021667,-0.0387845784425735
782,0.000190204969840124,-0.0142603246495128,-0.00530651910230517,-0.00774766597896814,-0.011737653054297,-0.0307931825518608
783,-0.00103075325023383,-0.0108066946268082,-0.00267889024689794,-0.00454258965328336,-0.016826992854476,-0.0217847786843777
784,-0.00294757517986,-0.00766477454453707,-0.00199781428091228,-0.00220804917626083,-0.0217142719775438,-0.01530128903687
785,-0.0026899753138423,-0.0043991063721478,-0.00337257771752775,-0.00204494898207486,-0.0208021812140942,-0.0126448953524232
786,0.000562702596653253,-0.00156581064220518,-0.00537302112206817,-0.00373364822007716,-0.0124844228848815,-0.0131413610652089
787,0.00383348832838237,0.000214450614294037,-0.00683881295844913,-0.00521571282297373,-0.00293656392022967,-0.0144538581371307
788,0.00447274837642908,0.00148669991176575,-0.00702720787376165,-0.00532460305839777,0.00120034080464393,-0.0139255709946156
789,0.00300072645768523,0.00212161708623171,-0.00624836282804608,-0.00509553728625178,0.000670304230879992,-0.0120577020570636
790,0.00185831577982754,0.00175795890390873,-0.00521991029381752,-0.00397554691880941,0.000560149026568979,-0.0106931645423174
791,0.00222629262134433,0.00272013014182448,-0.00452077016234398,-0.0010900303022936,0.00213749660179019,-0.0101858954876661
792,0.00309020280838013,0.00687617063522339,-0.00511937914416194,0.00068686791928485,0.00210780440829694,-0.0111665260046721
793,0.0036261323839426,0.0106825958937407,-0.00692881410941482,-0.000443567725596949,-0.000917978468351066,-0.0153378499671817
794,0.00411604391410947,0.00938386935740709,-0.00804741680622101,-0.00219796318560839,-0.00387959415093064,-0.0238401833921671
795,0.00477562565356493,0.00261462666094303,-0.00691500864923,-0.00250793318264186,-0.00502878380939364,-0.0345534831285477
796,0.00430868891999125,-0.00656142923980951,-0.00506786303594708,-0.00179213541559875,-0.00715077621862292,-0.0430425554513931
797,0.00198825355619192,-0.0139470091089606,-0.00491167092695832,-0.00183780293446034,-0.0107939196750522,-0.0473003499209881
798,5.5688047723379E-05,-0.0163338091224432,-0.00594084523618221,-0.0034646182321012,-0.0128535479307175,-0.0473842695355415
799,0.000664941500872374,-0.0147291328758001,-0.00638346467167139,-0.00585894798859954,-0.0121616758406162,-0.0439243540167809
800,0.00346496631391346,-0.0131866103038192,-0.00556557951495051,-0.00754156103357673,-0.00919798202812672,-0.0391538850963116
801,0.00744109554216266,-0.013205268420279,-0.0034623343963176,-0.00652402872219682,-0.00422927644103765,-0.0343664586544037
802,0.0111436974257231,-0.0128599693998694,-0.00155127490870655,-0.00229172431863844,0.000604132888838649,-0.0285303816199303
803,0.0126926265656948,-0.0106195164844394,-0.00248240027576685,0.00311918812803924,0.00255572772584856,-0.0211995076388121
804,0.0122679276391864,-0.00668253656476736,-0.00541638396680355,0.00726837804540992,0.00267501268535852,-0.0138089824467897
805,0.0108025725930929,-0.00238450546748936,-0.00721856951713562,0.00770107796415687,0.00301856314763427,-0.00905182957649231
806,0.00841834209859371,0.000753059866838157,-0.00757225183770061,0.00362018565647304,0.00289078312925994,-0.00828080996870995
807,0.00551457982510328,0.00211757142096758,-0.00806673709303141,-0.00260294787585735,-0.000107729378214572,-0.0091523127630353
808,0.00276124104857445,0.00198263139463961,-0.00896780379116535,-0.0078223766759038,-0.00661277025938034,-0.00871172454208136
809,0.000862553715705872,0.00109817215707153,-0.00891058053821325,-0.0092175854369998,-0.0128425285220146,-0.00638000387698412
810,-0.000236106730881147,0.000587373273447156,-0.00689829653128982,-0.00551604526117444,-0.0145162278786302,-0.0028761241119355
811,-0.000667146989144385,0.000980347744189203,-0.0027978450525552,0.0010706732282415,-0.0107829356566072,-2.94976744044106E-05
812,0.000609192298725247,0.000756763038225472,0.0025095222517848,0.0063047269359231,-0.00262282486073673,-0.00106462754774839
813,0.00387913570739329,-0.000700489326845855,0.00568053079769015,0.00670358585193753,0.00709530804306269,-0.00779327796772122
814,0.00715215411037207,-0.0029626430477947,0.0025803332682699,0.00112226628698409,0.0126107465475798,-0.0194362085312605
815,0.00863622967153788,-0.0072362395003438,-0.00621053297072649,-0.00856317207217216,0.010879497975111,-0.0341403558850288
816,0.00789498724043369,-0.0130720753222704,-0.0151533605530858,-0.0185040012001991,0.00450001377612352,-0.0484621189534664
817,0.00512305414304137,-0.0175780691206455,-0.0188261140137911,-0.0252988655120134,-0.00256402185186744,-0.0578446313738823
818,0.00158053066115826,-0.0187902115285397,-0.0161012671887875,-0.027820885181427,-0.00845054630190134,-0.0604290850460529
819,-0.00206697359681129,-0.017720902338624,-0.012512831017375,-0.0269819591194391,-0.0140330120921135,-0.0585491247475147
820,-0.00565225956961513,-0.0165820848196745,-0.0137690706178546,-0.0239611063152552,-0.0184293799102306,-0.0557085499167442
821,-0.00735149532556534,-0.0161261521279812,-0.0182169284671545,-0.0195381846278906,-0.0178505256772041,-0.0540778897702694
822,-0.0054331487044692,-0.0157001502811909,-0.0219797007739544,-0.0150195807218552,-0.0117948139086366,-0.0539609864354134
823,-0.000830668606795371,-0.0138833746314049,-0.0242103356868029,-0.010656276717782,-0.00350700877606869,-0.0537439659237862
824,0.00376530131325126,-0.0106054553762078,-0.0246761739253998,-0.00514404429122806,0.00426162127405405,-0.0513574592769146
825,0.0070592537522316,-0.00808455236256123,-0.0229916851967573,0.0002571914519649,0.0100984191522002,-0.0473251603543758
826,0.00919891521334648,-0.00726531259715557,-0.0202253255993128,0.00288604246452451,0.0118988789618015,-0.043921634554863
827,0.00997741706669331,-0.00655898312106729,-0.0182990040630102,0.00229600933380425,0.00825092382729054,-0.041616428643465
828,0.00954891834408045,-0.00534482346847653,-0.0178002826869488,-0.0010452390415594,0.00265828403644264,-0.0395572073757648
829,0.00860308576375246,-0.00441852491348982,-0.0175210554152727,-0.00585202313959599,-0.000390574015909806,-0.0369942933320999
830,0.00772141106426716,-0.00442626280710101,-0.0162436850368977,-0.00921141635626554,-0.000502128095831722,-0.0337759219110012
831,0.00779827823862433,-0.00569301145151258,-0.0136854173615575,-0.0092491339892149,0.00140385876875371,-0.0308061316609383
832,0.00931574404239655,-0.00774196349084377,-0.0107495980337262,-0.00772594008594751,0.00480132037773728,-0.0291673950850964
833,0.0110992817208171,-0.00982064753770828,-0.0092366524040699,-0.00782448425889015,0.00869227573275566,-0.0294741056859493
834,0.0115100089460611,-0.0107673918828368,-0.0101751070469618,-0.00999125186353922,0.0111923739314079,-0.0304594673216343
835,0.0100082773715258,-0.00892224349081516,-0.0127066010609269,-0.0112859671935439,0.0101444767788053,-0.0276874154806137
836,0.00756851071491838,-0.00356600247323513,-0.0140014514327049,-0.00924916565418243,0.00593948177993298,-0.0185072682797909
837,0.00529477745294571,0.0026256563141942,-0.0126726450398564,-0.00618250900879502,0.000519987836014479,-0.00821725279092789
838,0.00281580747105181,0.00378716317936778,-0.0113237835466862,-0.00604551378637552,-0.00508310319855809,-0.00526733929291368
839,-0.000131362976389937,-0.00145651970524341,-0.0123812779784203,-0.00880802888423204,-0.00904669146984816,-0.0117337489500642
840,-0.00270385947078466,-0.00829967204481363,-0.014843313023448,-0.0116500295698643,-0.00990697462111712,-0.0228510349988937
841,-0.00405027717351913,-0.0130440117791295,-0.0159069877117872,-0.0126016978174448,-0.00946504902094603,-0.0323673598468304
842,-0.00431593880057335,-0.0150889828801155,-0.0147766917943954,-0.0121354646980762,-0.0103971026837826,-0.0368663854897022
843,-0.00452123815193772,-0.0144749190658331,-0.0138880843296647,-0.0115485535934567,-0.0119152683764696,-0.0369338467717171
844,-0.00465476978570223,-0.0114927869290113,-0.0147437248378992,-0.0102637736126781,-0.0101806810125709,-0.0347074866294861
845,-0.00338735105469823,-0.00755099160596728,-0.0157134439796209,-0.00696295918896794,-0.00439303088933229,-0.03125074878335
846,-0.000511738529894501,-0.00490241590887308,-0.0154170487076044,-0.00255337287671864,0.0015313383191824,-0.0277295354753733
847,0.00235215481370687,-0.00516841793432832,-0.0143815325573087,0.00134899804834276,0.00536250555887818,-0.0263809990137815
848,0.0033472953364253,-0.00830040965229273,-0.0134024973958731,0.0048437281511724,0.0074022589251399,-0.0278208591043949
849,0.00253012520261109,-0.0129245463758707,-0.0136126363649964,0.00740674044936895,0.00717912567779422,-0.0316680446267128
850,0.00174645963124931,-0.0174955371767282,-0.0155028868466616,0.00698424968868494,0.00508671766147017,-0.0385442674160004
851,0.00172628764994442,-0.0214311946183443,-0.0171495918184519,0.00251539098098874,0.00258067692629993,-0.047565083950758
852,0.00197183131240308,-0.0240779649466276,-0.0166328921914101,-0.00451723113656044,0.000564861577004194,-0.0549444071948528
853,0.0023420222569257,-0.0238118246197701,-0.0139451809227467,-0.0107788667082787,-0.000421984383137897,-0.0566165037453175
854,0.00319864926859736,-0.0197479613125324,-0.00952769629657269,-0.013129098340869,6.90065280650742E-05,-0.0506392791867256
855,0.004105553496629,-0.0137899136170745,-0.00469886232167482,-0.0117408493533731,0.00221803458407521,-0.0393209680914879
856,0.00395795190706849,-0.00957127101719379,-0.00163788953796029,-0.00954969506710768,0.00569923548027873,-0.0272379592061043
857,0.00272506684996188,-0.0077822026796639,-0.00083395594265312,-0.00723095750436187,0.00912969466298819,-0.01619434915483
858,0.000836104794871062,-0.00630940310657024,-0.00163812667597085,-0.00469853496178985,0.0109223602339625,-0.00735089555382729
859,-0.000771343533415347,-0.00558453425765038,-0.00317966262809932,-0.00340104009956121,0.0120549285784364,-0.00388965429738164
860,-0.00109172507654876,-0.0070900502614677,-0.00428655743598938,-0.00264710700139403,0.0131850391626358,-0.00670493394136429
861,-0.00080647342838347,-0.00988376699388027,-0.00467103533446789,-0.00090377195738256,0.0113712325692177,-0.0118477018550038
862,-0.00119601970072836,-0.012585898861289,-0.00414863042533398,0.00107732124160975,0.00503547349944711,-0.0153004610911012
863,-0.0021618171595037,-0.0134975109249353,-0.00222773267887533,0.00266783847473562,-0.00215995591133833,-0.01622049883008
864,-0.00252344668842852,-0.0110509442165494,-1.48302433444769E-05,0.00508770206943154,-0.00471319211646914,-0.0149123799055815
865,-0.00140784843824804,-0.00611850246787071,0.000156439593411051,0.00828175060451031,-0.00043485572678037,-0.012242779135704
866,0.00107239058706909,-0.00150065240450203,-0.00266526406630874,0.00965364463627338,0.0084753381088376,-0.00937275681644678
867,0.00380631792359054,0.000421981938416138,-0.00647414056584239,0.00807819608598948,0.0173833332955837,-0.00711698178201914
868,0.005813576746732,-0.000457038928288966,-0.00811091717332602,0.00529735628515482,0.0226219892501831,-0.00669529847800732
869,0.00690212938934565,-0.00230668555013835,-0.00695888511836529,0.00346951326355338,0.0237425472587347,-0.00866813119500875
870,0.00702642370015383,-0.00339678255841136,-0.00513402419164777,0.00294668879359961,0.0213957950472832,-0.0120465951040387
871,0.00588386505842209,-0.00323983398266137,-0.00475780526176095,0.00223296764306724,0.0156919229775667,-0.015359521843493
872,0.00343758449889719,-0.00154893379658461,-0.00591253582388163,0.000490279751829803,0.00781894661486149,-0.0171742625534534
873,0.000318975886330009,0.00169020297471434,-0.00765956286340952,-0.00181019050069153,0.000121530341857579,-0.0173141472041607
874,-0.00233760103583336,0.00534588750451803,-0.00925603415817022,-0.00370352366007864,-0.00497425301000476,-0.0170763488858938
875,-0.00388093595393002,0.00770303839817643,-0.0100131686776876,-0.00495545286685228,-0.00648368429392576,-0.0177770499140024
876,-0.00448532961308956,0.0073996102437377,-0.00977104436606169,-0.00515943206846714,-0.00565650733187795,-0.0187425874173641
877,-0.0039549139328301,0.00541596300899982,-0.00911410432308912,-0.00273583922535181,-0.00464961025863886,-0.0185635350644588
878,-0.0018719716463238,0.00304412865079939,-0.00915179122239351,0.001070276950486,-0.00488029792904854,-0.0201541613787413
879,0.00117002276238054,-0.00148879888001829,-0.00944277551025152,0.00299377948977053,-0.00567643716931343,-0.0280055291950703
880,0.0037272940389812,-0.00807748548686504,-0.00805218052119017,0.00249957642517984,-0.00616309233009815,-0.0402661599218845
881,0.00444585643708706,-0.0128228664398193,-0.00504480674862862,0.00161456572823226,-0.00778401736170053,-0.0488052777945995
882,0.00354505702853203,-0.0132360905408859,-0.00233490997925401,0.00226898537948728,-0.0112516470253468,-0.04752167314291
883,0.00315625756047666,-0.0101972166448832,-0.000791456259321421,0.00417272746562958,-0.0135085480287671,-0.0386451371014118
884,0.00434694532305002,-0.00620085652917624,-4.55913905170746E-05,0.00579359289258718,-0.0114765269681811,-0.0281669218093157
885,0.00615169759839773,-0.00260507455095649,0.000212459388421848,0.00687636621296406,-0.00532397767528892,-0.0183812528848648
886,0.00744372326880693,0.000869574374519289,0.000316478894092143,0.0082628121599555,0.00206690188497305,-0.00809369143098593
887,0.00869054533541203,0.00500946305692196,0.00109259155578911,0.0106442412361503,0.00781326927244663,0.00401669414713979
888,0.0105220312252641,0.00977954361587763,0.00233257981017232,0.0132124582305551,0.0102625312283635,0.0168163329362869
889,0.0113406488671899,0.0139783900231123,0.00301544996909797,0.0139124589040875,0.00811000447720289,0.0262052528560162
890,0.010414163582027,0.017041677609086,0.00334342918358743,0.0124008683487773,0.00310637941583991,0.0294047221541405
891,0.00906190276145935,0.0189711190760136,0.0029684784822166,0.00977424625307322,-0.00142003048676997,0.0276745036244392
892,0.0077760866843164,0.0190406441688538,0.000674656708724797,0.0063578519038856,-0.00406600162386894,0.0229159537702799
893,0.0065858019515872,0.0170415751636028,-0.00294984108768404,0.00286834384314716,-0.00374179775826633,0.0164727754890919
894,0.00575174577534199,0.013825548812747,-0.00591925904154778,0.000634417403489351,-0.00177049031481147,0.0100047597661614
895,0.00513175642117858,0.0102882133796811,-0.00656271725893021,-0.000183169759111479,-0.00173632334917784,0.00424581347033381
896,0.00484571186825633,0.00831759162247181,-0.00436709076166153,0.00010635068611009,-0.00356148625724018,2.10360140044941E-05
897,0.00524728745222092,0.00956194940954447,-0.000426136248279363,0.00220444262959063,-0.0046023135073483,-0.00107531412504613
898,0.00603763060644269,0.0131298489868641,0.00360252219252288,0.00663913646712899,-0.00426738755777478,0.000661408703308553
899,0.0065214023925364,0.0161715615540743,0.00619190838187933,0.0110597014427185,-0.00358539563603699,0.00198326096870005
900,0.00641039479523897,0.0154805025085807,0.00599865522235632,0.0122822942212224,-0.00374840316362679,0.000332591793267056
901,0.0058059343136847,0.0112253706902266,0.00311897438950837,0.0106857577338815,-0.0049869054928422,-0.00397299323230982
902,0.00432676542550325,0.00641440600156784,-0.00153397314716131,0.00802384410053492,-0.00610949005931616,-0.0103151462972164
903,0.00103323231451213,0.00259052589535713,-0.00780638074502349,0.00476370938122272,-0.00715613970533013,-0.0185174662619829
904,-0.0032365417573601,-0.000252941128564999,-0.0146873574703932,0.00153927505016327,-0.00870721507817507,-0.0275827385485172
905,-0.00527063151821494,-0.00273332046344876,-0.0187910795211792,-0.000447825877927244,-0.00875949952751398,-0.0353137776255608
906,-0.00366586912423372,-0.00506525626406074,-0.0166442543268204,0.000481395167298615,-0.00630450434982777,-0.0382907576858997
907,-0.000936502416152507,-0.00585884787142277,-0.00894593633711338,0.00468921521678567,-0.00464615458622575,-0.0350561402738094
908,0.000408566207624972,-0.00362403434701264,-0.000905340013559908,0.00936386454850435,-0.00626833690330386,-0.0281266607344151
909,0.000692197063472122,0.000360826204996556,0.00279930350370705,0.0111674219369888,-0.00967359729111195,-0.0202367473393679
910,0.000836342049296945,0.0032244767062366,0.0021005910821259,0.00902510341256857,-0.0123582156375051,-0.0127070946618915
911,0.00112249085213989,0.00463656987994909,4.54106957477052E-05,0.00451338337734342,-0.0124515322968364,-0.00683387275785208
912,0.00190884573385119,0.00658552534878254,-0.00187451811507344,0.000195653366972692,-0.00907403510063887,-0.00278721656650305
913,0.00303533626720309,0.0101503683254123,-0.00406004628166556,-0.00211519724689424,-0.00363532942719758,0.00104097637813538
914,0.00415244186297059,0.014014532789588,-0.00633307453244925,-0.00182786816731095,0.00134469987824559,0.00492675229907036
915,0.00544227147474885,0.0158965885639191,-0.00806267373263836,-0.00036746051046066,0.00595179898664355,0.00636995397508144
916,0.00700405146926641,0.0149554666131735,-0.00803291518241167,0.000606764282565564,0.0107594579458237,0.00347813125699759
917,0.00792645383626223,0.011727474629879,-0.00569607224315405,0.00117134628817439,0.0126185603439808,-0.00234243576414883
918,0.00701969908550382,0.00758004933595657,-0.00222968845628202,0.00277688866481185,0.00914510805159807,-0.00691478047519922
919,0.00504527986049652,0.00598847307264805,0.00126034929417074,0.00634386762976646,0.00359869725070894,-0.00647445116192102
920,0.00367003842256963,0.00846797786653042,0.00356578780338168,0.00937909446656704,-0.000209696081583388,-0.00212548300623894
921,0.00288640893995762,0.0107776122167706,0.00370014971122146,0.0088186739012599,-0.00304142804816365,0.00138359458651394
922,0.0016496554017067,0.00980302225798368,0.00193663593381643,0.00576399732381105,-0.00731506012380123,0.00188034609891474
923,-0.000377656775526702,0.00718613201752305,-0.00123338995035738,0.00369424629025161,-0.0125496257096529,0.000786416698247194
924,-0.00186671782284975,0.00553002906963229,-0.00465621147304773,0.0043934597633779,-0.0150607526302338,-0.000592086813412607
925,-0.000977683463133872,0.00569978263229132,-0.00619108835235238,0.00724002765491605,-0.0126889068633318,-0.00197507278062403
926,0.00181707739830017,0.0063024889677763,-0.00479642441496253,0.0109845846891403,-0.00787010882049799,-0.00296355341561139
927,0.00400524353608489,0.00560470437631011,-0.00152428389992565,0.0136632388457656,-0.00524060241878033,-0.00332186976447701
928,0.00412968313321471,0.00347439059987664,0.00174817524384707,0.0128326592966914,-0.00649581989273429,-0.00403439067304134
929,0.0032708568032831,0.0015238382620737,0.0037568612024188,0.00876569841057062,-0.00860835984349251,-0.00616949517279863
930,0.00323278573341668,0.00114195037167519,0.00433899741619825,0.00440417975187302,-0.00851254072040319,-0.00852846447378397
931,0.00412265351042151,0.00194178556557745,0.00425567664206028,0.00194770749658346,-0.00569768063724041,-0.00967974215745926
932,0.00486522866412997,0.00302697205916047,0.00430396199226379,0.00154773402027786,-0.00204999395646155,-0.0100075015798211
933,0.00468414695933461,0.00268583558499813,0.00397364748641849,0.00146657042205334,-0.00113487464841455,-0.0107410997152328
934,0.00345316715538502,-0.000799975416157395,0.00228279083967209,0.000244179798755795,-0.00355297164060175,-0.0128841949626803
935,0.00218924321234226,-0.00463930889964104,0.000565321417525411,-0.000165299468790181,-0.00669935764744878,-0.014949674718082
936,0.00226199440658093,-0.00422947108745575,0.00140610185917467,0.00209784531034529,-0.00944406259804964,-0.0147430133074522
937,0.0039312862791121,0.000196694280020893,0.00506279105320573,0.00464463653042912,-0.0109371710568666,-0.012294439598918
938,0.00627818424254656,0.00512567535042763,0.00879800412803888,0.00508496537804604,-0.00971039477735758,-0.00778391724452376
939,0.00755797885358334,0.00804158672690392,0.00999188143759966,0.00456811813637614,-0.00645741773769259,-0.000762787996791303
940,0.00685681821778417,0.00938759837299585,0.00888150278478861,0.00498853018507361,-0.00299228145740926,0.00749243190512061
941,0.00512937922030687,0.0113916583359241,0.00639070570468903,0.00555029977113009,0.000828752177767456,0.013498030602932
942,0.00340626365505159,0.0136139076203108,0.00273447087965906,0.0044406009837985,0.00563835678622127,0.0149141307920218
943,0.00134894740767777,0.013232508674264,-0.00131578918080777,0.00201308005489409,0.00900151673704386,0.0125831551849842
944,-0.00164632219821215,0.00982802733778954,-0.00532458629459143,-0.0004070648283232,0.0078266579657793,0.00827726721763611
945,-0.00422611786052585,0.00615116767585278,-0.00877053756266832,-0.00178858311846852,0.00373348942957819,0.00304312934167683
946,-0.00357953831553459,0.00504441373050213,-0.00975547451525927,-0.00180489697959274,0.00193502090405673,-0.00245334883220494
947,0.00056997750652954,0.00707535957917571,-0.00745599716901779,-0.00130156229715794,0.00353504600934684,-0.00747816497460008
948,0.0049019530415535,0.00952310021966696,-0.003705820068717,-0.00129276653751731,0.00435117864981294,-0.0118749216198921
949,0.00670992070809007,0.00924591720104218,-0.00021606485825032,-0.00135631114244461,0.00210419273935258,-0.0164617411792278
950,0.00643238192424178,0.00703793903812766,0.00363415805622935,0.000442411750555038,-0.00179054925683886,-0.0207425057888031
951,0.00600892724469304,0.00565532268956304,0.00830896943807602,0.00422861194238067,-0.00573051162064075,-0.0229139346629381
952,0.00630226638168097,0.00551392091438174,0.0116888964548707,0.00711040711030364,-0.00823964271694422,-0.022991705685854
953,0.00645764730870724,0.00503816176205873,0.0116061335429549,0.00663691759109497,-0.00755848130211234,-0.0231494549661875
954,0.00557729601860046,0.00330107333138585,0.0083560710772872,0.00302792270667851,-0.00361061096191406,-0.0251332577317953
955,0.00472590140998363,0.00140539358835667,0.0045632622204721,-0.00133845012169331,0.00278204237110913,-0.0278784465044737
956,0.00518443994224072,0.000759196293074638,0.00273362244479358,-0.00419190479442477,0.00918318703770638,-0.0288012623786926
957,0.00558524020016193,0.001250542816706,0.00282901548780501,-0.00561888050287962,0.0113985715433955,-0.0266645420342684
958,0.00431371992453933,0.00254020467400551,0.00362092745490372,-0.00679313531145453,0.0089659197255969,-0.0214257407933474
959,0.00164078455418348,0.0048984563909471,0.00368296378292143,-0.00697425100952387,0.00463261641561985,-0.0132911913096905
960,-0.000994279631413519,0.00852323230355978,0.00194791553076357,-0.00394675740972161,0.000401328783482313,-0.00379758304916322
961,-0.00198842165991664,0.0125504024326801,-0.00104526220820844,0.00188265868928283,-0.00240831705741584,0.00302274827845395
962,-0.0010192000772804,0.0140582025051117,-0.00337805831804872,0.0069971950724721,-0.00284160696901381,0.00434847176074982
963,0.000499924703035504,0.0105356723070145,-0.00393590563908219,0.0089992843568325,-0.00170291878748685,0.00314902886748314
964,0.000542283931281418,0.00367957702837884,-0.00436776969581842,0.00750498892739415,-0.00153098604641855,0.00408243807032704
965,-0.00163323688320816,-0.00279382104054093,-0.00631282385438681,0.00245567341335118,-0.00368571537546813,0.0065933046862483
966,-0.00433264533057809,-0.0065399156883359,-0.00801934953778982,-0.00406970642507076,-0.00651150289922953,0.00667741661891341
967,-0.00563814165070653,-0.00754196429625154,-0.00777083449065685,-0.0089080361649394,-0.00814935006201267,0.00188215065281838
968,-0.00533923180773854,-0.00735588651150465,-0.00711366487666965,-0.0118344873189926,-0.00870227068662643,-0.00644197640940547
969,-0.00323988846503198,-0.00662509445101023,-0.00685842800885439,-0.0131718078628182,-0.00720196729525924,-0.0132841831073165
970,0.000513030681759119,-0.00544193387031555,-0.00615157978609204,-0.0124658020213246,-0.00314732710830867,-0.0154326083138585
971,0.00442848168313503,-0.00431937491521239,-0.00489798095077276,-0.010445648804307,0.000452756386948749,-0.0138032929971814
972,0.00667270878329873,-0.00381608959287405,-0.00318064540624619,-0.00809693988412619,0.00111814017873257,-0.0101428227499127
