,AF3,AF4,Fp1,Fp2,AF7,AF8
0,-0.00201692245900631,-0.00321746501140296,-0.00450712395831943,-0.000312451156787574,-0.00787424203008413,0.00635236268863082
1,-0.00280133914202452,-0.0024583307094872,-0.00752265891060233,-0.00353038730099797,-0.0045783850364387,0.00613818597048521
2,-0.00391310313716531,-0.000931309128645808,-0.0103870201855898,-0.00580149795860052,-0.0018482671584934,0.00572503823786974
3,-0.00342012685723603,0.00200648279860616,-0.0108114862814546,-0.0044763870537281,0.00185192911885679,0.00539337284862995
4,-0.000825630966573954,0.00487779080867767,-0.00888168718665838,-0.000997458468191326,0.00600971281528473,0.00285028130747378
5,0.00235399533994496,0.00528129329904914,-0.00725554581731558,0.0007670316263102,0.00890005193650723,-0.00217121816240251
6,0.00466977851465344,0.00345322350040078,-0.00667019421234727,0.000280682026641443,0.0101005518808961,-0.00619097659364343
7,0.00594631675630808,0.00189676869194955,-0.00543514778837562,0.000157260656123981,0.0102883465588093,-0.00709632318466902
8,0.00621175579726696,0.00165937084238976,-0.00330315087921917,0.000930358306504786,0.00950135290622711,-0.00648989481851459
9,0.00567452050745487,0.002162303077057,-0.00122743030078709,0.00238135922700167,0.00773110892623663,-0.00515095517039299
10,0.00438023125752807,0.00277464860118926,8.5931402281858E-05,0.0051868655718863,0.00550408940762281,-0.00217963824979961
11,0.00169344490859658,0.00243856082670391,-0.000248446420300752,0.0073066377080977,0.00235578580759466,0.00100050482433289
12,-0.00190789310727268,0.00092454144032672,-0.00145469198469073,0.00698737055063248,-0.00211160141043365,0.00197999970987439
13,-0.00489807082340121,-0.00026963499840349,-0.00185441470239311,0.00599728617817163,-0.00595207698643208,0.000422116951085627
14,-0.00727333687245846,-0.000201901435502805,-0.00199916679412127,0.00532180443406105,-0.00780762266367674,-0.00233675865456462
15,-0.00966856628656387,0.000651633134111762,-0.00252573168836534,0.00416434183716774,-0.0079425722360611,-0.00385708315297961
16,-0.0114299543201923,0.00229365564882755,-0.00192885531578213,0.00400972040370107,-0.00570350978523493,-0.000724070647265762
17,-0.0115013690665364,0.00610227370634675,0.000240893510635942,0.00710920570418239,-0.00127190118655562,0.00773285329341888
18,-0.010151095688343,0.0108946282416582,0.0016338936984539,0.0110724475234747,0.00288173323497176,0.0155948353931308
19,-0.00907254870980978,0.011601853184402,0.000802056107204407,0.0120895830914378,0.00431259302422404,0.0160353556275368
20,-0.00885345134884119,0.00643520383164287,-0.00117401219904423,0.0103066442534328,0.00360372709110379,0.00897547695785761
21,-0.00890683196485043,-0.00109768798574805,-0.00358340237289667,0.00726146018132567,0.00298991752788424,-0.000214591811527498
22,-0.00944204721599817,-0.00692894123494625,-0.00642956746742129,0.00342310685664415,0.00296046119183302,-0.00616238731890917
23,-0.0107591096311808,-0.00931815709918737,-0.00886855460703373,-0.000483392359456047,0.00318018021062016,-0.00743939913809299
24,-0.012025629170239,-0.00953442323952913,-0.00930055696517229,-0.00297616212628782,0.00501668965443969,-0.00656196661293507
25,-0.0121851414442062,-0.00953598786145449,-0.00701964506879449,-0.00278242188505828,0.00947029609233141,-0.0054672509431839
26,-0.0114175947383046,-0.00908265821635723,-0.00397139554843307,0.000255762424785644,0.0138001888990402,-0.00252354401163757
27,-0.0103132044896483,-0.00699848961085081,-0.00218163058161736,0.00466001126915216,0.0153914717957377,0.00374161056242883
28,-0.0090209161862731,-0.00407121563330293,-0.00129373103845865,0.00767828477546573,0.0144799314439297,0.0107025466859341
29,-0.00843038875609636,-0.00239688693545759,-0.00125849700998515,0.00756415771320462,0.0110855558887124,0.014419024810195
30,-0.00983961578458548,-0.00283700623549521,-0.00267720129340887,0.00517525989562273,0.00500687165185809,0.0132261412218213
31,-0.0130923464894295,-0.00430104415863752,-0.00450533861294389,0.00246145948767662,-0.00247246609069407,0.00813184585422277
32,-0.0159340146929026,-0.00548316352069378,-0.00503317732363939,0.000248296069912612,-0.00845696963369846,0.00146191287785769
33,-0.0162938553839922,-0.00598380900919437,-0.00456378934904933,-0.00155416422057897,-0.010570234619081,-0.00425279093906283
34,-0.0150598613545299,-0.00624377466738224,-0.00499470811337233,-0.00296749663539231,-0.00952399708330631,-0.0069829635322094
35,-0.0139499884098768,-0.00639251619577408,-0.0059455893933773,-0.00334622384980321,-0.00692629581317306,-0.00582162151113153
36,-0.0124113168567419,-0.00560593651607633,-0.00494911381974816,-0.00206468161195517,-0.0028377000708133,-0.00173923675902188
37,-0.00920887943357229,-0.0039997766725719,-0.00157482619397342,-7.27868973626755E-05,0.00188930274453014,0.00202952953986824
38,-0.00509988097473979,-0.00245591811835766,0.00210718717426062,0.00192861899267882,0.0056437854655087,0.00340082473121583
39,-0.001352509832941,-0.000477035471703857,0.00437669549137354,0.00472281407564878,0.00911627616733313,0.00318199279718101
40,0.00097591825760901,0.00151833822019398,0.00425444915890694,0.00822669267654419,0.0120106190443039,0.00196935702115297
41,0.000779511756263673,0.00157385517377406,0.00185070047155023,0.0117847686633468,0.0120585756376386,0.000182616771780886
42,-0.000480098184198141,0.000821793277282268,-0.00123176956549287,0.0141721218824387,0.0104786856099963,-0.00131910294294357
43,-0.000870075426064432,0.00038447100087069,-0.00499847764149308,0.0127768479287624,0.00939223635941744,-0.00353243597783148
44,-0.00056591973407194,-0.00110662425868213,-0.00863311905413866,0.00790930353105068,0.00925652123987675,-0.0066765770316124
45,-0.000199260772205889,-0.00285195675678551,-0.00907277502119541,0.00256559904664755,0.0110024064779282,-0.00885526463389397
46,-0.000228567980229855,-0.00302481837570667,-0.00641270168125629,-0.00226416741497815,0.0141929546371102,-0.0100630503147841
47,-0.000962272693868726,-0.00182769971434027,-0.0033080626744777,-0.00683060428127646,0.0169221088290215,-0.0116238528862596
48,-0.00237463437952101,2.95983572868863E-05,-0.00111901829950511,-0.0104185547679663,0.0172440465539694,-0.012866030447185
49,-0.00361891882494092,0.00253930548205972,-2.35522693401435E-05,-0.0122786136344075,0.014380625449121,-0.0121586583554745
50,-0.00404411414638162,0.00521501479670405,0.000329058821080253,-0.0125711308792233,0.00982042588293552,-0.00931376963853836
51,-0.00385990226641297,0.0067467181943357,0.000854073150549084,-0.0119640957564116,0.00519025418907404,-0.00599061651155353
52,-0.00297154043801129,0.00642267148941755,0.00194111047312617,-0.0112632354721427,0.00134079554118216,-0.00348977954126894
53,-0.00206535425968468,0.00444131949916482,0.00222278200089931,-0.0111360177397728,-0.0016665467992425,-0.00105573423206806
54,-0.00266256672330201,0.000949742912780494,0.000327803543768823,-0.0118753174319863,-0.0045740376226604,0.000941560487262905
55,-0.00520780077204108,-0.00326553569175303,-0.00299443560652435,-0.0122550511732697,-0.00746657280251384,0.0011649876832962
56,-0.00835408363491297,-0.00665509374812245,-0.00624283542856574,-0.010683442465961,-0.00889438763260841,-0.000120763812446967
57,-0.00936591159552336,-0.0083162160590291,-0.00791349727660418,-0.00752527313306928,-0.00593855325132608,-0.00325428275391459
58,-0.00757509842514992,-0.00901053473353386,-0.00751673616468906,-0.00473211286589503,0.0015068860957399,-0.00982528552412987
59,-0.00477056298404932,-0.0100136883556843,-0.00660487310960889,-0.00375304976478219,0.00930287037044764,-0.0193074308335781
60,-0.00183616112917662,-0.0107623431831598,-0.00612108688801527,-0.00400738418102264,0.0141853662207723,-0.0277891587466002
61,0.00112169783096761,-0.0094742625951767,-0.00533695239573717,-0.00402610702440143,0.0154801812022924,-0.0314657017588615
62,0.00412558577954769,-0.00558390421792865,-0.00370962196029723,-0.00289458781480789,0.0142934070900083,-0.0302835740149021
63,0.00736698042601347,-0.0013159504160285,-0.000977156218141317,8.92603129614145E-05,0.0124800819903612,-0.0270377155393362
64,0.0102272285148501,0.00122281524818391,0.0027298885397613,0.00408843019977212,0.0115444315597415,-0.0241872277110815
65,0.0109812673181295,0.0026987437158823,0.00509325368329883,0.00564696686342359,0.0113150598481297,-0.0231080912053585
66,0.00818457454442978,0.00308821070939302,0.00416616490110755,0.00284415390342474,0.00875877682119608,-0.024334404617548
67,0.00323481508530676,0.00162719516083598,0.00129562348593026,-0.00288045965135098,0.00232701748609543,-0.0268801208585501
68,-0.000520769855938852,-0.00179331586696208,-0.00236052903346717,-0.0101462956517935,-0.00547483051195741,-0.0292669199407101
69,-0.00158992549404502,-0.00666648335754871,-0.00694564450532198,-0.0171854756772518,-0.0111944917589426,-0.0296249948441982
70,-0.000734683650080115,-0.00977898295968771,-0.0113800149410963,-0.0207490958273411,-0.0117581849917769,-0.026284771040082
71,0.00120740360580385,-0.00812041666358709,-0.0133362812921405,-0.0200852937996387,-0.00627894140779972,-0.0210674237459898
72,0.003524822415784,-0.00332298269495368,-0.0120130348950624,-0.0178475622087717,0.00121174508240074,-0.017228351905942
73,0.00418710615485907,-0.000312964373733848,-0.0105764353647828,-0.0168004259467125,0.00499534048140049,-0.015241133980453
74,0.00242801127023995,-0.00129023136105388,-0.0117660481482744,-0.016731983050704,0.0045292372815311,-0.0125655923038721
75,0.000286408321699128,-0.00363983307033777,-0.0138803003355861,-0.0150808542966843,0.00307092885486782,-0.00745355105027556
76,-0.00109020189847797,-0.00498707825317979,-0.0142809590324759,-0.0114504182711244,0.00206511490978301,-0.00295608793385327
77,-0.00162770901806653,-0.00498918443918228,-0.0112824458628893,-0.0067076412960887,0.00221502198837698,-0.00318021792918444
78,-0.00122768024448305,-0.00439999205991626,-0.00534254359081388,-0.00156356079969555,0.00371650257147849,-0.00889403931796551
79,-0.000844494381453842,-0.00434099463745952,-0.000431805470725521,0.00225448282435536,0.0046668192371726,-0.0178558081388474
80,-0.00118160143028945,-0.00450170319527388,0.000141540134791285,0.00400688173249364,0.00387798389419913,-0.0259014368057251
81,-0.00139528629370034,-0.0035901959054172,-0.00286413147114217,0.00384337827563286,0.00220804824493825,-0.0296242199838161
82,-0.000867994502186775,-0.00152485619764775,-0.00706085423007607,0.0015091965906322,0.00135995401069522,-0.0284598562866449
83,5.31259356648661E-05,0.000418744457419962,-0.0109980963170528,-0.00246955035254359,0.00296695553697646,-0.0246001891791821
84,0.00129029829986393,0.00157976942136884,-0.0131742861121893,-0.00594906369224191,0.00656006578356028,-0.0210178922861815
85,0.00235915486700833,0.00232833647169173,-0.012529170140624,-0.00737309781834483,0.00876105576753616,-0.0189483370631933
86,0.0017908081645146,0.00294706597924232,-0.0108242444694042,-0.00731477607041597,0.00677076494321227,-0.0184073243290186
87,-0.000873888144269586,0.00350358942523599,-0.00997999217361212,-0.00603529484942555,0.00121344276703894,-0.0188052952289581
88,-0.00397357484325767,0.00460545904934406,-0.00939017161726952,-0.00255734357051551,-0.00574449682608247,-0.017232732847333
89,-0.00563534814864397,0.0073995771817863,-0.0081761684268713,0.00245286733843386,-0.0110280457884073,-0.0119150811806321
90,-0.0057867681607604,0.00992178730666637,-0.00615426199510694,0.00576074002310634,-0.012230571359396,-0.00740240374580026
91,-0.00507588498294353,0.00744278030470014,-0.00387617014348507,0.00448838714510202,-0.0110013969242573,-0.010204260237515
92,-0.00428012665361166,0.000752890948206186,-0.00279803643934429,-0.000679135962855071,-0.011071034707129,-0.0193756241351366
93,-0.00467596109956503,-0.00472769746556878,-0.00354799628257751,-0.00624976679682732,-0.0142366765066981,-0.0263315103948116
94,-0.00653702858835459,-0.00708833010867238,-0.00435893330723047,-0.010249094106257,-0.0187608301639557,-0.0259332340210676
95,-0.00916150491684675,-0.00768522825092077,-0.00405078241601586,-0.0128133781254292,-0.0210365802049637,-0.0211512390524149
96,-0.0109720788896084,-0.00667631486430764,-0.00471440982073545,-0.0138409091159701,-0.0182196199893951,-0.0170990414917469
97,-0.0102601442486048,-0.00342176645062864,-0.00752863474190235,-0.0128999352455139,-0.0107542732730508,-0.0158688761293888
98,-0.00731133902445436,0.000814360217191279,-0.0102397063747048,-0.0105260657146573,-0.00188716244883835,-0.0168092455714941
99,-0.00324059324339032,0.00377358100377023,-0.0106620062142611,-0.00819819513708353,0.00593106728047132,-0.0201438777148724
100,0.000994297093711793,0.00478896219283342,-0.00945660099387169,-0.00603107223287225,0.0110515458509326,-0.0254803001880646
101,0.00426771445199847,0.00463826395571232,-0.00887645874172449,-0.00289867166429758,0.0129512846469879,-0.0291189253330231
102,0.00637835543602705,0.00410244008526206,-0.0093363905325532,0.000869566341862082,0.0134510481730103,-0.0277009829878807
103,0.00748458225280046,0.00384964467957616,-0.00918267201632261,0.00383807485923171,0.0133999399840832,-0.0215737726539373
104,0.00728312926366925,0.00383471138775349,-0.0075576500967145,0.0046167322434485,0.0115856127813458,-0.0140136508271098
105,0.0057635810226202,0.00307351141236722,-0.00583159225061536,0.00103311380371451,0.00767574971541762,-0.00840127561241388
106,0.00294431252405047,0.00138986320234835,-0.00594263337552547,-0.0074787549674511,0.00211220886558294,-0.00592464255169034
107,-0.000497002911288291,0.000342767452821136,-0.00807276368141174,-0.015789283439517,-0.00373063958249986,-0.00478721363469958
108,-0.00270345062017441,0.00119505438487977,-0.0111572565510869,-0.0172347575426102,-0.00677805999293923,-0.00262869102880359
109,-0.00267310813069344,0.00295042735524476,-0.0135364411398768,-0.0109831392765045,-0.00571423582732677,-8.60633663251065E-05
110,-0.00157201336696744,0.00294440588913858,-0.0140742417424917,-0.00225301645696163,-0.00266109849326313,0.000681551988236606
111,-0.000442629039753228,0.00117089133709669,-0.0129050314426422,0.00391441769897938,0.000458756840089336,0.000437991315266117
112,0.00162031163927168,0.00147549528628588,-0.0101711768656969,0.00622285017743707,0.00430046208202839,0.00107663054950535
113,0.00439623650163412,0.00371322594583035,-0.00689202360808849,0.00461313687264919,0.00947217456996441,0.000750716775655746
114,0.00609695538878441,0.00511798448860645,-0.00488227047026157,0.00125219614710659,0.0141949756070971,-0.000727148435544223
115,0.00672711385414004,0.00677521806210279,-0.00483018206432462,-0.000991415930911899,0.0164592880755663,-5.6666336604394E-05
116,0.0065825218334794,0.00841467082500458,-0.00651865545660257,-0.00314142229035497,0.0156065663322806,0.00195002462714911
117,0.00463064014911652,0.00753685412928462,-0.00931147858500481,-0.00670739356428385,0.0108145261183381,0.0022853713016957
118,0.00103411474265158,0.00423166481778026,-0.0118566155433655,-0.0104452082887292,0.00244138273410499,0.00102635903749615
119,-0.0019798637367785,0.00115649867802858,-0.0123513229191303,-0.0120778754353523,-0.00580488378182054,0.00039072975050658
120,-0.00232133036479354,0.00123097060713917,-0.0101378178223968,-0.0103945350274444,-0.0102242035791278,0.00145685591269284
121,-0.000785815704148263,0.00381388701498508,-0.0070939133875072,-0.00603325199335814,-0.0108994720503688,0.00195752177387476
122,0.000526653835549951,0.00487948255613446,-0.00502320006489754,-0.000829992000944912,-0.00961349345743656,-0.00146136560942978
123,0.00157582445535809,0.00269421259872615,-0.00261394120752811,0.00361730228178203,-0.00789419934153557,-0.00919103994965553
124,0.00319758034311235,-0.00111187307629734,0.00218618754297495,0.00673812022432685,-0.00652430159971118,-0.0175499320030212
125,0.00482797995209694,-0.00423673819750547,0.00795289315283298,0.00839269254356623,-0.00522454828023911,-0.0211881045252085
126,0.00535593740642071,-0.00486663356423378,0.0109150437638164,0.00826879125088453,-0.00393499480560422,-0.0174651369452477
127,0.00523668015375733,-0.00272326963022351,0.00958834867924452,0.00667909625917673,-0.00146034162025899,-0.00842365156859159
128,0.00503514148294926,0.000523591297678649,0.00548953097313643,0.0056166248396039,0.00300403940491378,0.00110681226942688
129,0.00515538454055786,0.00302735483273864,0.00192912947386503,0.00684191146865487,0.00856240279972553,0.00752367544919252
130,0.00674598338082433,0.00461603561416268,0.00122647720854729,0.00924511160701513,0.0140374442562461,0.0112816011533141
131,0.00930497795343399,0.00538762845098972,0.0022467402741313,0.0103556849062443,0.0180701371282339,0.0135668693110347
132,0.0114256655797362,0.00481764087453485,0.00328704202547669,0.00980343390256166,0.0204171631485224,0.0139046236872673
133,0.0123614380136132,0.00479929940775037,0.00411221478134394,0.00961487367749214,0.0205848459154367,0.0138269197195768
134,0.0117407897487283,0.00804998259991407,0.00436263531446457,0.0101643595844507,0.0173710957169533,0.0157869309186935
135,0.010275250300765,0.0116167422384024,0.00343431858345866,0.00951564591377974,0.0121519668027759,0.0178235080093145
136,0.00963380374014378,0.0109944138675928,0.00217165797948837,0.00802296586334705,0.00873580761253834,0.016748208552599
137,0.0109935980290174,0.00743662239983678,0.00186850025784224,0.00780902104452252,0.00997206009924412,0.0141628030687571
138,0.0128354048356414,0.00469676125794649,0.00172354630194604,0.00863286666572094,0.0140024460852146,0.0141188036650419
139,0.0121744861826301,0.00474232574924827,0.000218584522372112,0.0079757496714592,0.0153008168563247,0.0172675512731075
140,0.00933985691517591,0.00763978669419885,-0.00174578698351979,0.00486904289573431,0.011749261058867,0.0202211048454046
141,0.00750170042738318,0.0123907383531332,-0.00178368575870991,0.00199343450367451,0.00559093244373798,0.0212411861866713
142,0.00755421165376902,0.0162076409906149,0.000935026037041098,0.00214332970790565,-0.00052073725964874,0.0200948864221573
143,0.00787711329758167,0.0158437695354223,0.00592762511223555,0.00565859628841281,-0.00453371740877628,0.0141676552593708
144,0.00801048055291176,0.0119175771251321,0.0126722874119878,0.0115331886336207,-0.00626233359798789,0.00317781954072416
145,0.00824372190982103,0.00737811764702201,0.0191419459879398,0.0174820329993963,-0.00739380856975913,-0.00796278938651085
146,0.00825929082930088,0.003240832593292,0.0224047377705574,0.0204319395124912,-0.00752481399103999,-0.0154664516448975
147,0.00865263864398003,-0.000726260303054005,0.0222134906798601,0.0181794594973326,-0.00398042146116495,-0.021213898435235
148,0.00957844406366348,-0.00386218191124499,0.0201160311698914,0.0115386694669724,0.0026475980412215,-0.0271503161638975
149,0.00913220923393965,-0.00483285309746861,0.0157249718904495,0.00383534212596715,0.00807602982968092,-0.029822014272213
150,0.0064601325429976,-0.00249062944203615,0.00855896156281233,-0.00219118362292647,0.00963986571878195,-0.0254038237035275
151,0.00299223349429667,0.00314828380942345,0.000754781416617334,-0.00497221481055021,0.00805201940238476,-0.0140011385083199
152,0.000476235145470127,0.00988099444657564,-0.00524079008027911,-0.00419221632182598,0.00524524366483092,0.00179040024522692
153,-0.000571462791413069,0.0148511007428169,-0.00866350065916777,-0.00127799133770168,0.0021982635371387,0.0176624916493893
154,-0.000740120594855398,0.0169950779527426,-0.00963559001684189,0.00236691604368389,-9.15285490918905E-05,0.0294361468404531
155,-0.000665964675135911,0.0175311099737883,-0.00838228315114975,0.00662113539874554,-0.00105272547807544,0.0346507914364338
156,-0.00115025031846017,0.0178398489952087,-0.00608730968087912,0.0102680837735534,-0.00307072210125625,0.0324631631374359
157,-0.00197640503756702,0.0167744923382998,-0.00452711479738355,0.010977029800415,-0.00716687645763159,0.0247022770345211
158,-0.00130917876958847,0.0140529107302427,-0.00402984675019979,0.0097802672535181,-0.0100388899445534,0.0168623011559248
159,0.00148535112384707,0.0129582639783621,-0.00384410307742655,0.0101406313478947,-0.00960149802267551,0.0148762008175254
160,0.0047574769705534,0.0148529205471277,-0.00447294814512134,0.0111651225015521,-0.00757665513083339,0.0191977061331272
161,0.006483044475317,0.0176149606704712,-0.00792093481868505,0.0080446433275938,-0.00646984577178955,0.0249477084726095
162,0.00598431006073952,0.0196302440017462,-0.0139752076938748,0.000342065002769232,-0.00734244426712394,0.0275890734046698
163,0.00524322176352143,0.0206506997346878,-0.0181716103106737,-0.00652025965973735,-0.00772439502179623,0.0269089173525572
164,0.00600908929482102,0.0199521910399199,-0.017626004293561,-0.00924580171704292,-0.00485840206965804,0.0243035536259413
165,0.00666477251797915,0.017777306959033,-0.0142339020967484,-0.00892023742198944,-0.000656616583000869,0.0199901573359966
166,0.00583447609096766,0.0166398342698812,-0.0103317834436893,-0.00693839509040117,0.00124201131984591,0.0140408156439662
167,0.00481666065752506,0.0166100393980742,-0.00657672295346856,-0.0052063837647438,-0.000261306064203382,0.00540372962132096
168,0.00497757596895099,0.0156410802155733,-0.00253087747842073,-0.00496589811518788,-0.00369460298679769,-0.00531325163319707
169,0.00537154357880354,0.0133033152669668,0.00127947516739368,-0.00520190317183733,-0.00819028727710247,-0.0147562483325601
170,0.00452637579292059,0.00987550336867571,0.00311026186682284,-0.00480403425171971,-0.0129990857094526,-0.0215334836393595
171,0.00261615193448961,0.00608550570905209,0.00243021780624986,-0.00373624288477004,-0.0157807674258947,-0.0257495902478695
172,0.000326685112668201,0.00283714500255883,0.000195773231098428,-0.00255081057548523,-0.0152623811736703,-0.026903135702014
173,-0.00127330783288926,0.000311872252495959,-0.00184179155621678,-0.00217475346289575,-0.0118516813963652,-0.0255409702658653
174,-0.00140799395740032,-0.00118231284432113,-0.00281926291063428,-0.00323860207572579,-0.00784990563988686,-0.0222272332757711
175,-0.00110579107422382,-0.00124173809308559,-0.00354638672433794,-0.00500754220411181,-0.00705683929845691,-0.0166669152677059
176,-0.00154545460827649,-0.000733885448426008,-0.0046702423132956,-0.00734091131016612,-0.00991162657737732,-0.0102642914280295
177,-0.00247108191251755,-0.000547569012269378,-0.00557845178991556,-0.0108411004766822,-0.0130216544494033,-0.00500331679359078
178,-0.00311384769156575,0.000115577873657458,-0.00546175613999367,-0.0143191469833255,-0.0145749868825078,-0.00108665693551302
179,-0.00318434718064964,0.0018102367175743,-0.00499316770583391,-0.0159746333956718,-0.0155345993116498,0.002344383392483
180,-0.00279831350781024,0.00357109517790377,-0.00520067336037755,-0.0154073489829898,-0.0172681864351034,0.00500154681503773
181,-0.00201840489171445,0.00470082275569439,-0.0057856822386384,-0.0136879524216056,-0.0201232209801674,0.00501468777656555
182,-0.000962200749199837,0.00473705306649208,-0.00664520729333162,-0.0131539041176438,-0.0229508951306343,0.000832125893794
183,0.000127348845126107,0.00358280283398926,-0.00842024851590395,-0.0152885019779205,-0.0250811651349068,-0.00654574763029814
184,0.000772156461607665,0.00209350045770407,-0.0111491130664945,-0.0192493088543415,-0.0277649853378534,-0.014839107170701
185,0.000279191532172263,0.000594599696341902,-0.0144000751897693,-0.0238737482577562,-0.0318287052214146,-0.0237335655838251
186,-0.00059394963318482,-0.000895640347152948,-0.016975911334157,-0.0283697638660669,-0.0358521603047848,-0.0337909571826458
187,-0.000568776915315539,-0.0017412081360817,-0.0175502747297287,-0.0314831845462322,-0.0386574678122997,-0.0434946119785309
188,-0.000209358768188395,-0.00109793548472226,-0.0174420829862356,-0.0322034358978271,-0.0419543199241161,-0.0491330623626709
189,-0.000520034169312567,0.00148627394810319,-0.0193519070744514,-0.0308576114475727,-0.0482037104666233,-0.0491525754332542
190,-0.00156154611613601,0.00598480645567179,-0.0242133755236864,-0.0299538355320692,-0.0576543584465981,-0.0471433661878109
191,-0.00292805791832507,0.0105828456580639,-0.0306703764945269,-0.0316939577460289,-0.0686264634132385,-0.0472557172179222
192,-0.00445088278502226,0.0120008261874318,-0.0362688899040222,-0.0352375358343124,-0.079142689704895,-0.0504945740103722
193,-0.0059974193572998,0.00947290193289518,-0.0393948405981064,-0.0391415432095528,-0.0874732732772827,-0.0566301383078098
194,-0.00728493509814143,0.00495396833866835,-0.0404098890721798,-0.0429316014051437,-0.0935815200209618,-0.0645431578159332
195,-0.00831757672131062,0.00020274895359762,-0.0414202697575092,-0.0470645390450954,-0.0997478738427162,-0.0722811445593834
196,-0.00927125848829746,-0.00396661274135113,-0.0445622131228447,-0.0527483485639095,-0.107407808303833,-0.0791129022836685
197,-0.0100518353283405,-0.00686213001608849,-0.0505171231925488,-0.0611383058130741,-0.115648113191128,-0.0868486166000366
198,-0.00934533681720495,-0.00730968033894897,-0.0566883273422718,-0.0713614672422409,-0.121426664292812,-0.0969985723495483
199,-0.00600384781137109,-0.00598959205672145,-0.0590612180531025,-0.0805440172553062,-0.122264675796032,-0.108448751270771
200,-0.00106828392017633,-0.00611970480531454,-0.0573480352759361,-0.0879034176468849,-0.119264803826809,-0.121240183711052
201,0.00361371226608753,-0.00922305230051279,-0.0545195564627647,-0.0949830338358879,-0.115029245615005,-0.136880949139595
202,0.0069962409324944,-0.0138515075668693,-0.0527422465384007,-0.102385081350803,-0.11136282235384,-0.154652699828148
203,0.00836981926113367,-0.0179661680012941,-0.0518413335084915,-0.108202651143074,-0.109745666384697,-0.171216651797295
204,0.00830337032675743,-0.0215623844414949,-0.0509319305419922,-0.111764691770077,-0.109477505087852,-0.184911459684372
205,0.0096960635855794,-0.0258203372359276,-0.049663782119751,-0.115902848541737,-0.106815129518509,-0.196672946214676
206,0.0135053787380457,-0.0293606128543615,-0.0495688170194626,-0.122419558465481,-0.102351136505604,-0.20545007288456
207,0.0172563847154379,-0.030769657343626,-0.0530077405273914,-0.130832448601723,-0.100753642618656,-0.210939258337021
208,0.0190798342227936,-0.0319865792989731,-0.0587057806551456,-0.139578253030777,-0.101552620530128,-0.216497838497162
209,0.0193395856767893,-0.0349080972373486,-0.0624029859900475,-0.145550265908241,-0.100588463246822,-0.22331602871418
210,0.0200497284531593,-0.0379723347723484,-0.0611378028988838,-0.145535841584206,-0.0959499701857567,-0.22857791185379
211,0.0220801960676908,-0.0380492731928825,-0.0560315549373627,-0.140269935131073,-0.0898344218730927,-0.230601638555527
212,0.0236749444156885,-0.0366061367094517,-0.0516067110002041,-0.135524928569794,-0.085799977183342,-0.230799064040184
213,0.0239366609603167,-0.0379520580172539,-0.0503896772861481,-0.134432807564735,-0.0831229537725449,-0.22996886074543
214,0.0239312127232552,-0.0410713963210583,-0.0509605333209038,-0.133886247873306,-0.0795113891363144,-0.226593315601349
215,0.0239973943680525,-0.0421674624085426,-0.051573108881712,-0.13148258626461,-0.0763908848166466,-0.219439849257469
216,0.0235293675214052,-0.0402913764119148,-0.0508830025792122,-0.127800911664963,-0.0755893439054489,-0.208763688802719
217,0.0222740340977907,-0.0371864959597588,-0.0480385199189186,-0.124222666025162,-0.0754343047738075,-0.196081131696701
218,0.0204587876796722,-0.0346790812909603,-0.0440510846674442,-0.121594674885273,-0.0735807120800018,-0.183190688490868
219,0.0186326876282692,-0.0320815891027451,-0.040494192391634,-0.118728496134281,-0.0702686980366707,-0.170661956071854
220,0.016983525827527,-0.0284152235835791,-0.0389933958649635,-0.114987902343273,-0.0672066435217857,-0.158853948116302
221,0.0151239028200507,-0.0249173454940319,-0.04044284299016,-0.111458912491798,-0.0657673180103302,-0.14860488474369
222,0.0134940026327968,-0.0226299520581961,-0.0420610271394253,-0.107189156115055,-0.064979076385498,-0.139488160610199
223,0.0130936149507761,-0.021216744557023,-0.0398898050189018,-0.100358612835407,-0.0623514726758003,-0.129824876785278
224,0.0139904273673892,-0.0201801974326372,-0.0348345004022121,-0.0920192822813988,-0.0572675168514252,-0.118637166917324
225,0.0156712494790554,-0.0185209047049284,-0.0310659352689981,-0.0844063684344292,-0.0504973456263542,-0.10626232624054
226,0.0175270270556211,-0.0154018318280578,-0.0301281958818436,-0.0787840113043785,-0.0425705574452877,-0.0939333811402321
227,0.0188665185123682,-0.0120053589344025,-0.031072398647666,-0.0759936273097992,-0.0347945727407932,-0.0832636505365372
228,0.0196684412658215,-0.00998103804886341,-0.0326728895306587,-0.075189083814621,-0.0295463111251593,-0.0743216648697853
229,0.0196648426353931,-0.00968443136662245,-0.0331556834280491,-0.0741216689348221,-0.0279615875333548,-0.0650522485375404
230,0.0185525696724653,-0.0103118875995278,-0.0306792259216309,-0.0709792971611023,-0.0277961995452642,-0.0534244254231453
231,0.0175229627639055,-0.00901349447667599,-0.0251996889710426,-0.0639971569180489,-0.0261746030300856,-0.0397336892783642
232,0.0165267158299685,-0.00485739018768072,-0.0200415905565023,-0.0550104454159737,-0.0245076380670071,-0.0280480477958918
233,0.0139732817187905,-0.00132538087200373,-0.0188696328550577,-0.0477340444922447,-0.024742653593421,-0.021614221855998
234,0.00985914189368486,0.000218310873606242,-0.0204240884631872,-0.0415786989033222,-0.0249827895313501,-0.0186159666627645
235,0.00553162535652518,0.000965710962191224,-0.0209831036627293,-0.0361314676702023,-0.0232673306018114,-0.0163474641740322
236,0.00208623334765434,0.00120649416930974,-0.0207435209304094,-0.0336610339581966,-0.0199500694870949,-0.0133867105469108
237,0.00012638614862226,0.00183228822425008,-0.0218679569661617,-0.0339302271604538,-0.0166730955243111,-0.00803088210523129
238,-0.000378502532839775,0.00361243239603937,-0.0228888355195522,-0.0330294333398342,-0.0140105504542589,0.000849494012072682
239,-0.000123863646876998,0.00540636852383614,-0.0208428837358952,-0.0280581340193748,-0.0102240927517414,0.0117975221946836
240,-8.55621547088958E-05,0.00535075319930911,-0.0163421053439379,-0.0208988543599844,-0.00490642338991165,0.0208319257944822
241,-0.00104335171636194,0.00374676915816963,-0.0122167700901628,-0.0145985316485167,0.000112642264866736,0.0259060822427273
242,-0.00329199060797691,0.00325926812365651,-0.00987430009990931,-0.00939494278281927,0.0038654780946672,0.0299908947199583
243,-0.00731645105406642,0.0054410258308053,-0.00902897492051125,-0.00497270142659545,0.00607174122706056,0.0362177975475788
244,-0.0127465333789587,0.00938817299902439,-0.00844501238316298,-0.00163646298460662,0.00736806821078062,0.0442223399877548
245,-0.0172592885792255,0.0136387217789888,-0.0064997193403542,0.00143246189691126,0.00903228204697371,0.0532933101058006
246,-0.0191118996590376,0.0175867453217506,-0.00268652616068721,0.00591285433620214,0.0106907654553652,0.0632261335849762
247,-0.0185363236814737,0.0209116395562887,0.00227162754163146,0.0125598609447479,0.0123779363930225,0.0721722021698952
248,-0.0162377431988716,0.0230238437652588,0.00810129754245281,0.0212348867207766,0.0159736350178719,0.078806072473526
249,-0.0136734498664737,0.0230985525995493,0.0140336118638515,0.0311453882604837,0.0207844618707895,0.0834800228476524
250,-0.0126829762011766,0.0206093173474073,0.0180956572294235,0.0396024808287621,0.0239144619554281,0.086028166115284
251,-0.0133669730275869,0.0174864679574966,0.0189770963042974,0.0437000170350075,0.0254292842000723,0.0871874168515205
252,-0.0152752809226513,0.016578134149313,0.0170512050390244,0.0431523509323597,0.0266110859811306,0.088413767516613
253,-0.0171123389154673,0.0177769139409065,0.0148852076381445,0.0400454550981522,0.0277476869523525,0.0902205109596252
254,-0.0164722520858049,0.0190826021134853,0.0154064772650599,0.0379072204232216,0.0297028049826622,0.0931846424937248
255,-0.0143933519721031,0.0206363741308451,0.0181060284376144,0.0399519987404346,0.0310571361333132,0.0992293208837509
256,-0.0140511132776737,0.023987440392375,0.0198997724801302,0.0452870242297649,0.0293032843619585,0.10937325656414
257,-0.015988364815712,0.0264171492308378,0.0196028593927622,0.049725566059351,0.0262723341584206,0.120043233036995
258,-0.0186285246163607,0.0243974700570107,0.0189310777932405,0.0518385358154774,0.0250884462147951,0.127193093299866
259,-0.0202967189252377,0.0195454396307468,0.0196501594036818,0.0532105267047882,0.026260057464242,0.130590483546257
260,-0.0206088647246361,0.0150586776435375,0.0218068659305573,0.0552922934293747,0.0288015846163034,0.132378712296486
261,-0.0206239987164736,0.0122171593829989,0.0238345544785261,0.0575372651219368,0.0308883506804705,0.133742541074753
262,-0.021272087469697,0.0104900952428579,0.0235739536583424,0.0570780038833618,0.0307883322238922,0.132224082946777
263,-0.0219669081270695,0.00992208626121283,0.021351233124733,0.0548760518431664,0.0295285247266293,0.126303985714912
264,-0.0216990001499653,0.0110757928341627,0.0198304019868374,0.0561362877488136,0.0291539896279573,0.11944717913866
265,-0.0202407669275999,0.0131085002794862,0.0201414451003075,0.0616052523255348,0.0301046818494797,0.115665510296822
266,-0.0181114599108696,0.0147663932293653,0.021581269800663,0.0673218667507172,0.0330428779125214,0.115427531301975
267,-0.0159867834299803,0.0157102420926094,0.0237569380551577,0.0707613453269005,0.0391358844935894,0.11753523349762
268,-0.0137852914631367,0.0165838543325663,0.0268130898475647,0.0718529969453812,0.0480756275355816,0.121783100068569
269,-0.0118017317727208,0.018108893185854,0.0300292056053877,0.071008138358593,0.0567136891186237,0.127837553620338
270,-0.01084771938622,0.0210750307887793,0.0328838936984539,0.0698483437299728,0.0618145316839218,0.135142162442207
271,-0.011051582172513,0.0247415080666542,0.0360818356275558,0.0710515603423119,0.0631772801280022,0.14251446723938
272,-0.0116295153275132,0.0260344445705414,0.0396855734288692,0.0746488943696022,0.0624875910580158,0.14666523039341
273,-0.0118156634271145,0.0235936734825373,0.0426265932619572,0.0780065804719925,0.0616037435829639,0.14616858959198
274,-0.0125793153420091,0.0198217388242483,0.0436321534216404,0.0800374448299408,0.0601136013865471,0.143760412931442
275,-0.0145146204158664,0.0168939251452684,0.0425794012844563,0.0809611976146698,0.0576082356274128,0.140907421708107
276,-0.0151671208441257,0.0152423102408648,0.0415407717227936,0.0816122218966484,0.0578161627054214,0.137899070978165
277,-0.0128599526360631,0.016678923740983,0.0426305346190929,0.0846954882144928,0.0629888474941254,0.13749398291111
278,-0.0097236055880785,0.0219985209405422,0.0451554134488106,0.0895387679338455,0.0690719783306122,0.138919964432716
279,-0.00795135367661715,0.0267377942800522,0.0464770868420601,0.0911698415875435,0.0705812573432922,0.137435808777809
280,-0.00752127030864358,0.0261897817254066,0.0457535646855831,0.0876028388738632,0.0672559291124344,0.132527574896812
281,-0.00802108179777861,0.0217262096703053,0.0447556488215923,0.0818344280123711,0.0629347488284111,0.128569886088371
282,-0.00951430760324001,0.016455702483654,0.0439987070858479,0.0779865756630898,0.0591304898262024,0.128455936908722
283,-0.0118470126762986,0.0116754341870546,0.0426708832383156,0.0783345326781273,0.0547456480562687,0.130211234092712
284,-0.0143644521012902,0.00939892511814833,0.0410630702972412,0.0816711336374283,0.0497102178633213,0.129995837807655
285,-0.0169243849813938,0.00981126166880131,0.0390568524599075,0.0822251662611961,0.0448108501732349,0.125162869691849
286,-0.0199129059910774,0.0106179611757398,0.0365120358765125,0.076703205704689,0.0405857227742672,0.117377243936062
287,-0.0225198417901993,0.0111452974379063,0.0343767330050468,0.0699061080813408,0.0381383970379829,0.111596398055553
288,-0.0228637270629406,0.0118846511468291,0.0334961451590061,0.0674139112234116,0.0393812991678715,0.109819337725639
289,-0.0208587925881147,0.012688915245235,0.0337642841041088,0.0699956193566322,0.0441207438707352,0.110661491751671
290,-0.0183961112052202,0.0125466790050268,0.0335135236382484,0.0746240839362144,0.0487234555184841,0.111822582781315
291,-0.0162169001996517,0.0111469496041536,0.0319605432450771,0.0772402659058571,0.0511575527489185,0.112093813717365
292,-0.0141867194324732,0.00988362915813923,0.0303814895451069,0.0764657407999039,0.052245631814003,0.112301163375378
293,-0.0127112716436386,0.0102439615875483,0.0298688802868128,0.0747857019305229,0.0520406477153301,0.113833755254745
294,-0.0116394758224487,0.0124393869191408,0.0304340124130249,0.0744339972734451,0.0510801412165165,0.116429969668388
295,-0.0106342826038599,0.0153168709948659,0.031191335991025,0.0738698542118073,0.0511274337768555,0.117283701896667
296,-0.01047826372087,0.0181418526917696,0.0319402478635311,0.072659470140934,0.0521100349724293,0.116323255002499
297,-0.0110451839864254,0.0205384232103825,0.0333167873322964,0.0723155811429024,0.0532181188464165,0.116328373551369
298,-0.0110991196706891,0.0210925992578268,0.0345410592854023,0.0712231695652008,0.0532278642058373,0.117335788905621
299,-0.0110270855948329,0.0183296650648117,0.0346102155745029,0.0672833994030952,0.0501066446304321,0.117350719869137
300,-0.011739494279027,0.012766788713634,0.0344024673104286,0.0625042542815208,0.044829748570919,0.115910939872265
301,-0.0122124822810292,0.00822233874350786,0.0360056795179844,0.0624508820474148,0.0415313430130482,0.115592651069164
302,-0.0109550775960088,0.00884138233959675,0.0397075079381466,0.0689004883170128,0.0431626439094543,0.116945035755634
303,-0.0094272792339325,0.0129960114136338,0.0419193096458912,0.0757133811712265,0.0469726100564003,0.115904673933983
304,-0.00939569436013699,0.0149699710309505,0.0409072674810886,0.0779093280434608,0.0490946881473064,0.10987039655447
305,-0.0102228559553623,0.0134697072207928,0.0392861999571323,0.0771739259362221,0.0501314513385296,0.101502522826195
306,-0.0117149278521538,0.0110065443441272,0.037857074290514,0.0757122039794922,0.0501029789447784,0.0954677015542984
307,-0.0143210515379906,0.00858023390173912,0.0348195917904377,0.0724141746759415,0.0475661791861057,0.0930368453264236
308,-0.0168785210698843,0.00665928516536951,0.0309165269136429,0.0671341046690941,0.04445705935359,0.0926089957356453
309,-0.0173016618937254,0.00640163943171501,0.0297122839838266,0.0629564225673676,0.0437791794538498,0.0932101011276245
310,-0.0159149821847677,0.00796165596693754,0.0328544229269028,0.0621188804507256,0.0444710478186607,0.0944274514913559
311,-0.0143775893375278,0.0105993906036019,0.0386698991060257,0.0644806250929832,0.0445373468101025,0.096129983663559
312,-0.0132810985669494,0.0137796672061086,0.0431932434439659,0.0685152634978294,0.04289885237813,0.0982291027903557
313,-0.0131152700632811,0.0160911399871111,0.0431435257196426,0.0711708068847656,0.0377131886780262,0.0992765128612518
314,-0.0137408683076501,0.0164624433964491,0.0398623906075954,0.0703763291239738,0.0315667614340782,0.0986208096146584
315,-0.0139131667092443,0.0161777622997761,0.0365459285676479,0.0670571997761726,0.0304678231477737,0.0971920192241669
316,-0.0130213359370828,0.0164661165326834,0.0341673158109188,0.063628762960434,0.035191684961319,0.0946919098496437
317,-0.0114904884248972,0.0164646897464991,0.0322938114404678,0.0611072033643723,0.0423535294830799,0.090787760913372
318,-0.00933754444122314,0.0153832640498877,0.0308919921517372,0.0584314838051796,0.0490207523107529,0.0864072367548943
319,-0.00698296818882227,0.0143146645277739,0.030728729441762,0.0551324412226677,0.0529157929122448,0.0826348662376404
320,-0.00575667852535844,0.0148597396910191,0.031571738421917,0.052085567265749,0.0530221648514271,0.0802000463008881
321,-0.00630138115957379,0.0172943286597729,0.0315625332295895,0.0511935316026211,0.0495982505381107,0.079668827354908
322,-0.00796474516391754,0.0201195515692234,0.0306372083723545,0.053631279617548,0.0442976839840412,0.0810673162341118
323,-0.00907655525952578,0.0220042578876019,0.0309878345578909,0.0574175752699375,0.0396061129868031,0.0842232704162598
324,-0.0086755221709609,0.0226622801274061,0.0331194028258324,0.0597009584307671,0.0369931869208813,0.0884482711553574
325,-0.00786899123340845,0.0225577149540186,0.0349337458610535,0.0599990300834179,0.0365021377801895,0.0917608141899109
326,-0.00839113816618919,0.0228204131126404,0.0336644314229488,0.0586966462433338,0.0362114980816841,0.0933499485254288
327,-0.0100740529596806,0.0226371008902788,0.028728948906064,0.0559251196682453,0.0341906473040581,0.0929946973919868
328,-0.0113522810861468,0.0205916054546833,0.0233245212584734,0.0536511465907097,0.0312011633068323,0.0907850563526154
329,-0.0120330937206745,0.016525361686945,0.0211557243019342,0.053367767482996,0.0292048417031765,0.0872912630438805
330,-0.0132118361070752,0.010526898317039,0.0220208577811718,0.0536711551249027,0.029066713526845,0.080784484744072
331,-0.0149767557159066,0.00521421944722533,0.0230349749326706,0.0527678355574608,0.0305691044777632,0.0704351365566254
332,-0.0155578712001443,0.00377707555890083,0.0235187895596027,0.0501154363155365,0.0332080088555813,0.0594314634799957
333,-0.013299873098731,0.00579591887071729,0.0255270581692457,0.0468689985573292,0.0362616181373596,0.0514741204679012
334,-0.00886171963065863,0.00889399740844965,0.029290709644556,0.045232318341732,0.0376946851611137,0.0472109541296959
335,-0.00453522335737944,0.0113120432943106,0.0314168371260166,0.0457695350050926,0.0347353704273701,0.0454956218600273
336,-0.00119853822980076,0.0126726292073727,0.0296294596046209,0.0464711710810661,0.0289463028311729,0.0456225723028183
337,0.0021648146212101,0.0137511603534222,0.0261821504682302,0.04594736546278,0.0257683843374252,0.0470310971140862
338,0.00532078836113214,0.0157908201217651,0.0244324021041393,0.0457777492702007,0.0270744170993567,0.0502585992217064
339,0.00658445758745074,0.0191423892974854,0.0252753347158432,0.0479427501559258,0.0303743612021208,0.0559433214366436
340,0.00554950209334493,0.0225362982600927,0.0282124653458595,0.0526714213192463,0.0333145074546337,0.061968456953764
341,0.00355607690289617,0.024126160889864,0.0314685329794884,0.057066336274147,0.0343691557645798,0.0637478530406952
342,0.00189033919014037,0.0237449053674936,0.0319711416959763,0.0569715239107609,0.0326567888259888,0.05973194912076
343,0.000630010676104575,0.0230556949973106,0.0287396721541882,0.0523798167705536,0.0297755692154169,0.0543403401970863
344,-0.000709120533429086,0.0234790984541178,0.0239971559494734,0.0465257056057453,0.028032410889864,0.0517256669700146
345,-0.00233677309006453,0.0249254368245602,0.0203195437788963,0.0412114448845387,0.026961961761117,0.0515597723424435
346,-0.00490575563162565,0.0246831271797419,0.0181927643716335,0.0349097847938538,0.0233049709349871,0.0513205528259277
347,-0.00869325175881386,0.0211064126342535,0.0173105448484421,0.0265595484524965,0.0158648528158665,0.050478607416153
348,-0.011322034522891,0.0169982705265284,0.0179169159382582,0.0193150397390127,0.00911104585975409,0.0509817413985729
349,-0.0105937412008643,0.0153035307303071,0.0183772873133421,0.0166235528886318,0.0070946323685348,0.0524395555257797
350,-0.00748095521703362,0.0164299625903368,0.0161808542907238,0.0179484523832798,0.00969807896763086,0.0516604036092758
351,-0.00399013934656978,0.0174807608127594,0.0120628094300628,0.0211818255484104,0.0149117549881339,0.0476952083408833
352,-0.00111421116162091,0.0137547608464956,0.0088187362998724,0.0255074333399534,0.0205517448484898,0.0421544872224331
353,0.000515669526066631,0.0064819036051631,0.00700355414301157,0.0292826537042856,0.025465240702033,0.0366407074034214
354,0.000399585551349446,0.00224690814502537,0.00529451295733452,0.031120028346777,0.0285936892032623,0.0329577587544918
355,-0.000460364622995257,0.00390246999450028,0.00486553134396672,0.0325942859053612,0.0290791541337967,0.0330584645271301
356,-0.00109677377622575,0.00855528004467487,0.0076914350502193,0.0344205722212791,0.0267063062638044,0.0371584631502628
357,-0.00175474130082875,0.0121698742732406,0.0122124804183841,0.0356276221573353,0.0222711581736803,0.043380469083786
358,-0.00238442560657859,0.0129703357815742,0.0158929638564587,0.0363261438906193,0.017242144793272,0.0473429821431637
359,-0.00165769702289253,0.011104978621006,0.019220307469368,0.0375748164951801,0.0146058807149529,0.0435142144560814
360,0.00142481084913015,0.0081528602167964,0.023466857150197,0.0401311963796616,0.0173223540186882,0.0332387834787369
361,0.00469534285366535,0.00568540999665856,0.0268969833850861,0.0422534719109535,0.0222207233309746,0.022926727309823
362,0.00596072012558579,0.00390956318005919,0.0274790804833174,0.041056651622057,0.0247583407908678,0.0152611844241619
363,0.0059879464097321,0.00318794348277152,0.0257230773568153,0.0359590314328671,0.0247499644756317,0.0113115999847651
364,0.00583780324086547,0.00410613138228655,0.0232311338186264,0.0288540758192539,0.0229926649481058,0.0128038730472326
365,0.00591868394985795,0.0066793286241591,0.0211060978472233,0.0223713852465153,0.0215575061738491,0.0194357614964247
366,0.0061128200031817,0.00904516875743866,0.018941406160593,0.0169787537306547,0.022740850225091,0.0262805577367544
367,0.00633186893537641,0.0095184650272131,0.0170609056949615,0.0122986305505037,0.0258233658969402,0.0287156570702791
368,0.00660968432202935,0.0099661760032177,0.0166646670550108,0.00978312734514475,0.0281620677560568,0.0283473860472441
369,0.00608577625826001,0.0118322940543294,0.0166432410478592,0.0103463577106595,0.0275090020149946,0.0282047614455223
370,0.00483940495178103,0.0131325563415885,0.0152660617604852,0.0129993604496121,0.0243825111538172,0.0287053193897009
371,0.00441075908020139,0.0116971516981721,0.0126371523365378,0.0156320165842772,0.0216505695134401,0.0279924832284451
372,0.00535696325823665,0.00735316099599004,0.0100301951169968,0.0161159094423056,0.0214543808251619,0.0235146675258875
373,0.00642426405102015,0.00148495857138187,0.00872937217354774,0.0148969916626811,0.023209085687995,0.0167510714381933
374,0.00648053362965584,-0.0026695670094341,0.00927564781159163,0.0147587768733501,0.0246830191463232,0.0129334097728133
375,0.00512588396668434,-0.00307719013653696,0.0101823294535279,0.0157478544861078,0.0232073795050383,0.0133285978808999
376,0.00194336625281721,-0.00273791351355612,0.00893256068229675,0.0148848202079535,0.0165445022284985,0.0134177515283227
377,-0.00261557614430785,-0.00480600260198116,0.00530779454857111,0.0110066132619977,0.00634473003447056,0.00970048177987337
378,-0.00646026665344834,-0.00785053987056017,0.00167538516689092,0.0062685813754797,-0.00118630938231945,0.00398531975224614
379,-0.00731967622414231,-0.00997892115265131,0.000694346090313047,0.00341660878621042,-0.00155357737094164,-0.000863781955558807
380,-0.00534466886892915,-0.0112929660826921,0.0038400141056627,0.00423552235588431,0.00287039927206934,-0.00485677225515246
381,-0.00285986997187138,-0.0113805141299963,0.0115804169327021,0.0100529482588172,0.00670092040672898,-0.00772255100309849
382,-0.00151901668868959,-0.00954141654074192,0.0215656105428934,0.0185324940830469,0.00750427646562457,-0.00852791965007782
383,-0.000378841534256935,-0.00640095584094524,0.0289780031889677,0.024508623406291,0.00640548579394817,-0.00733667612075806
384,0.00241245562210679,-0.00318508478812873,0.0322527661919594,0.0257600583136082,0.00534719228744507,-0.00358338397927582
385,0.00614885566756129,-0.000340543920174241,0.0332413464784622,0.0233197025954723,0.00443154247477651,0.00317488866858184
386,0.00816511921584606,0.00226992485113442,0.0324195213615894,0.0190336667001247,0.0017228537471965,0.0108859622851014
387,0.00794963166117668,0.00367147056385875,0.0291413050144911,0.0140442978590727,-0.00143548857886344,0.0147839011624455
388,0.0077767064794898,0.00276023172773421,0.023452416062355,0.00893446896225214,8.17189720692113E-05,0.011471807025373
389,0.00913143530488014,0.000950376153923571,0.0161726251244545,0.00502247596159577,0.00646412931382656,0.00303792860358953
390,0.010692935436964,0.000865163805428892,0.0093591520562768,0.00341965584084392,0.0116963014006615,-0.0037138459738344
391,0.011702761054039,0.00299640186131001,0.00559651199728251,0.00274152564816177,0.0135739855468273,-0.00599432224407792
392,0.0128107974305749,0.00588900130242109,0.00509598106145859,0.00157486309763044,0.0148598933592439,-0.00627128686755896
393,0.0126655157655478,0.00899755768477917,0.00505313277244568,0.00172834715340286,0.0153820281848311,-0.00343970954418182
394,0.0109134884551167,0.0123021453619003,0.00462738052010536,0.00509877456352115,0.0155871696770191,0.00311888218857348
395,0.0095676239579916,0.01479347422719,0.00599439442157745,0.0108913574367762,0.0182311292737722,0.0108032915741205
396,0.00838135927915573,0.0157978571951389,0.00908232573419809,0.0155151188373566,0.0218400675803423,0.0166295394301414
397,0.00580882048234344,0.0145478630438447,0.0108863338828087,0.0157626885920763,0.02228719368577,0.0192035511136055
398,0.00265096197836101,0.0105792097747326,0.0100409463047981,0.0131799224764109,0.0192871801555157,0.0216720215976238
399,-0.000253409321885556,0.00603820802643895,0.00744007108733058,0.00990855321288109,0.0154937328770757,0.0253579039126635
400,-0.00353811867535114,0.00199377443641424,0.00414323061704636,0.00492867128923535,0.0121348900720477,0.025880528613925
401,-0.00606642244383693,-0.00220054434612393,0.0017915740609169,-0.000255686463788152,0.0097775487229228,0.0214627217501402
402,-0.00605457322672009,-0.00527179706841707,0.00150870543438941,-0.00106962874997407,0.0086083896458149,0.0157246924936771
403,-0.00373637909069657,-0.00595629122108221,0.00301801413297653,0.00293971062637866,0.00894211325794458,0.0108668953180313
404,0.000269694341113791,-0.00476922001689672,0.00557486014440656,0.00745636317878962,0.0119583522900939,0.00518477102741599
405,0.00497754476964474,-0.00289331399835646,0.00812056101858616,0.00895859114825726,0.0166453886777163,-0.00333071663044393
406,0.00791660789400339,-0.000929540547076613,0.00988447666168213,0.00759014999493957,0.0191509369760752,-0.0132751716300845
407,0.00791510846465826,0.00162074516993016,0.0110163474455476,0.00599272828549147,0.0172993093729019,-0.0194319374859333
408,0.00599486520513892,0.00404506735503674,0.0120100332424045,0.00633429316803813,0.0121895987540483,-0.0175658781081438
409,0.00266854767687619,0.0041196565143764,0.0129987141117454,0.00817816518247128,0.00494231749325991,-0.0100452853366733
410,-0.00140261661726981,0.00270176911726594,0.0141968950629234,0.0108609423041344,-0.00305524817667902,-0.00289354892447591
411,-0.00489678233861923,0.0023600107524544,0.0152753014117479,0.0141008533537388,-0.00885249860584736,0.000868235423695296
412,-0.00624139560386539,0.00234007136896253,0.0152122303843498,0.015460042282939,-0.00958725158125162,0.000166009820532054
413,-0.00503604672849178,0.000813102116808295,0.0134932594373822,0.0130043271929026,-0.00615968322381377,-0.00509112980216742
414,-0.00325197237543762,-0.00116042816080153,0.0105758877471089,0.0080106295645237,-0.00273976428434253,-0.0109852403402328
415,-0.00175919954199344,-0.000925753323826939,0.00752575928345323,0.00294368132017553,-0.000633399817161262,-0.0130843771621585
416,-0.000536880805157125,0.00227899663150311,0.00496382359415293,-0.000921047583688051,0.000398592907004058,-0.0103475637733936
417,-0.000946231943089515,0.00670883757993579,0.00358283915556967,-0.00396804558113217,-0.00133710680529475,-0.00392302591353655
418,-0.00288672070018947,0.010062312707305,0.00360641442239285,-0.00737025588750839,-0.00479790335521102,0.00234322552569211
419,-0.00438588904216886,0.0105628408491611,0.00365662737749517,-0.0108248107135296,-0.00576544227078557,0.00492727570235729
420,-0.00559002952650189,0.00880024582147598,0.00164554815273732,-0.0126219941303134,-0.00355990044772625,0.00408664252609015
421,-0.00785139482468367,0.00743287056684494,-0.00348203792236745,-0.0123097980394959,-0.00106641475576907,0.00121373229194433
422,-0.0102632949128747,0.00731905782595277,-0.00974827911704779,-0.0106493569910526,1.67646703630453E-05,-0.00218264339491725
423,-0.0114711308851838,0.00682331994175911,-0.0140281170606613,-0.00885850563645363,-0.000348920992109925,-0.00607406673952937
424,-0.0111823221668601,0.00417444156482816,-0.0150649333372712,-0.00743233226239681,-0.00102431757841259,-0.011559889651835
425,-0.00846783630549908,-0.000440970645286143,-0.0128663247451186,-0.00658189691603184,0.000362646795110777,-0.0180074572563171
426,-0.00334879197180271,-0.00545839499682188,-0.00852142740041018,-0.00738920597359538,0.00433906074613333,-0.024855175986886
427,0.00223665335215628,-0.0099159823730588,-0.0041160392574966,-0.00940404459834099,0.00936825014650822,-0.0330793000757694
428,0.00608362769708037,-0.0132211595773697,-0.00190423661842942,-0.0108093153685331,0.0130523927509785,-0.0411435924470425
429,0.00638114428147674,-0.014451595954597,-0.00324417068623006,-0.011617548763752,0.0120374988764524,-0.0435014665126801
430,0.00417010299861431,-0.0138087421655655,-0.00673493696376681,-0.0135569516569376,0.00726286508142948,-0.039783775806427
431,0.00170251331292093,-0.0120333153754473,-0.0106095792725682,-0.0170484930276871,0.00175962725188583,-0.035351350903511
432,-0.00100602570455521,-0.00856275949627161,-0.0138462744653225,-0.0198730248957872,-0.00458331592381001,-0.0314893946051598
433,-0.00381442392244935,-0.00368801690638065,-0.0145930973812938,-0.0207663960754871,-0.0107433367520571,-0.0272037442773581
434,-0.0059201936237514,0.000782471091952175,-0.0136085683479905,-0.0216221772134304,-0.0152285136282444,-0.0230227429419756
435,-0.00712359929457307,0.00414429092779756,-0.0134680261835456,-0.0232640486210585,-0.0181702543050051,-0.0181073620915413
436,-0.00728275254368782,0.00649150693789124,-0.0133190741762519,-0.0235594864934683,-0.0199611578136683,-0.0117200324311852
437,-0.00690404232591391,0.00701348902657628,-0.0113592445850372,-0.0213474053889513,-0.0220890138298273,-0.00596172595396638
438,-0.00677406648173928,0.00649066874757409,-0.00846040993928909,-0.018253218382597,-0.0256646163761616,-0.00183871481567621
439,-0.00633295066654682,0.00801017973572016,-0.00612009828910232,-0.0162301771342754,-0.028789471834898,0.00141790567431599
440,-0.00473273871466517,0.0121635654941201,-0.00485125975683331,-0.0155384875833988,-0.0280537568032742,0.00249070464633405
441,-0.00241215387359262,0.0156438183039427,-0.0041708298958838,-0.0140491481870413,-0.0225656796246767,0.000218672459595837
442,-0.000355137657606974,0.0158974677324295,-0.00381266255863011,-0.00978643354028463,-0.0147566748782992,-0.00446819281205535
443,-2.10461676033447E-05,0.0132101643830538,-0.00474267872050405,-0.00557106034830213,-0.00863527413457632,-0.0112241161987185
444,-0.00178260076791048,0.00862879492342472,-0.00673074834048748,-0.00497343530878425,-0.00641120178624988,-0.0182377435266972
445,-0.0031472675036639,0.0043150270357728,-0.00810591317713261,-0.0065303472802043,-0.00735590606927872,-0.0203638877719641
446,-0.00277824560180306,0.00242180121131241,-0.00922745652496815,-0.0082592349499464,-0.011517820879817,-0.0155182592570782
447,-0.00133297604043037,0.00225511332973838,-0.010194169357419,-0.0102837197482586,-0.0169172063469887,-0.00903510861098766
448,0.0017948979511857,0.00140652607660741,-0.00868945848196745,-0.0124297235161066,-0.0172395780682564,-0.00934725441038609
449,0.00639000767841935,-0.000847730727400631,-0.00500843627378345,-0.0143733462318778,-0.0103593710809946,-0.0184635762125254
450,0.00961563736200333,-0.00196433393284678,-0.0023587744217366,-0.0157749596983194,-0.00215129647403955,-0.0273739527910948
451,0.009237140417099,-0.000141754091600887,-0.00172334536910057,-0.0162680186331272,0.00137956615071744,-0.0278004575520754
452,0.00650574173778296,0.00252156355418265,-0.0015017973491922,-0.0167311355471611,0.00111476553138345,-0.0226018261164427
453,0.00427646934986115,0.00382047495804727,-0.00124548270832747,-0.0181322060525417,0.00085718824993819,-0.017134603112936
454,0.00330192851833999,0.00405910518020391,-0.00196479982696474,-0.0197830107063055,0.0012417349498719,-0.0130549594759941
455,0.00260703987441957,0.00424729194492102,-0.00347714219242334,-0.0209018159657717,0.000920067715924233,-0.0116408811882138
456,0.00168833148200065,0.00427493313327432,-0.00488435942679644,-0.0219384096562862,-0.000134667789097875,-0.0134960673749447
457,0.000717584567610174,0.00382408546283841,-0.00565969385206699,-0.0226355381309986,-0.000895429693628103,-0.01697101816535
458,-0.000285142479697242,0.00388779584318399,-0.00564433261752129,-0.0214576981961727,-0.0020960159599781,-0.0197436958551407
459,-0.00113264890387654,0.00496366154402494,-0.00565865682438016,-0.0187649894505739,-0.00399992661550641,-0.0213368814438581
460,-0.00128565973136574,0.00529649900272489,-0.00626459578052163,-0.0171974375844002,-0.00497525604441762,-0.0229614209383726
461,-0.00112252158578485,0.00294729811139405,-0.0064741587266326,-0.0185835622251034,-0.00546000059694052,-0.0254754349589348
462,-0.00196486595086753,-0.000639326346572489,-0.00514608481898904,-0.0215786322951317,-0.009018549695611,-0.0277593247592449
463,-0.00419469550251961,-0.00137349870055914,-0.0019214479252696,-0.021124916151166,-0.0170776173472404,-0.0271370429545641
464,-0.00639313319697976,0.00291537214070559,0.00191638665273786,-0.0140918912366033,-0.0243655033409595,-0.0241510719060898
465,-0.00767776696011424,0.00921005290001631,0.00268675945699215,-0.00516405794769526,-0.0259832609444857,-0.0232856925576925
466,-0.00745540903881192,0.0115226861089468,-0.000541011511813849,-0.000406054343329743,-0.0219836793839931,-0.0272931512445211
467,-0.00581700494512916,0.00796748045831919,-0.00401233322918415,-0.000228938850341365,-0.015155934728682,-0.034001175314188
468,-0.005140311550349,0.00202840915881097,-0.00585645344108343,-0.00290299323387444,-0.0103389825671911,-0.0389554761350155
469,-0.00575268687680364,-0.00229576323181391,-0.00728015601634979,-0.00782160181552172,-0.00892346259206533,-0.0405551865696907
470,-0.00500779552385211,-0.00402439944446087,-0.00865353737026453,-0.0147725315764546,-0.00750122172757983,-0.0395089946687222
471,-0.00178573350422084,-0.00503350468352437,-0.00958927627652884,-0.0228194128721952,-0.00384990684688091,-0.0363747924566269
472,0.00197634194046259,-0.00657520676031709,-0.0107762087136507,-0.0297330338507891,0.000525494513567537,-0.0321135185658932
473,0.00452636368572712,-0.00770057318732142,-0.0124412793666124,-0.0331886671483517,0.00343523011542857,-0.0279537569731474
474,0.00558808213099837,-0.00707798264920712,-0.0139552811160684,-0.0332266949117184,0.0038743254262954,-0.0248809941112995
475,0.00496364571154118,-0.00513417879119515,-0.0154990535229445,-0.0317072607576847,0.00138279411476105,-0.0239345449954271
476,0.00295184156857431,-0.00338081154040992,-0.0178125407546759,-0.0291922986507416,-0.00362993567250669,-0.0240155756473541
477,0.00103776843752712,-0.00202206219546497,-0.0197986233979464,-0.0258233770728111,-0.00831885449588299,-0.0220042131841183
478,0.00117526680696756,-0.00133992452174425,-0.0176923479884863,-0.0229615103453398,-0.00814685598015785,-0.0187883321195841
479,0.00333071337081492,-0.00279034371487796,-0.00947357434779406,-0.0197184253484011,-0.00300772674381733,-0.0184746868908405
480,0.00642720470204949,-0.00713392160832882,0.00351011543534696,-0.0142404362559319,0.00416244938969612,-0.024791432544589
481,0.00865138974040747,-0.0126972319558263,0.0166105087846518,-0.00796693842858076,0.010194206610322,-0.0352956876158714
482,0.00688122306019068,-0.0151608102023602,0.0215364508330822,-0.00431395322084427,0.00958944577723742,-0.0391184389591217
483,0.00132545724045485,-0.0123909376561642,0.0139137357473373,-0.00710489135235548,0.000739735725801438,-0.033404279500246
484,-0.00423659477382898,-0.00585272163152695,-0.000790306599810719,-0.0149809354916215,-0.012078084051609,-0.0239020138978958
485,-0.00649284292012453,0.00226618559099734,-0.0128385117277503,-0.0213956832885742,-0.0231401566416025,-0.013377876020968
486,-0.00459731183946133,0.00912573933601379,-0.0175612717866898,-0.0243320912122726,-0.0274340119212866,-0.00464159343391657
487,-0.000501986069139093,0.0131591176614165,-0.0180140659213066,-0.0263315308839083,-0.0247870329767466,0.000897101243026555
488,0.0042083440348506,0.0153417186811566,-0.0178242214024067,-0.0268403440713882,-0.0185694601386786,0.00516438251361251
489,0.00912825297564268,0.0174068976193666,-0.0166417043656111,-0.0236891657114029,-0.0113426707684994,0.00837513990700245
490,0.0116202868521214,0.0196794327348471,-0.0152436327189207,-0.0197068005800247,-0.00754888541996479,0.00869801547378302
491,0.00958724971860647,0.0197342522442341,-0.0161884408444166,-0.0187404397875071,-0.0112298177555203,0.00583450123667717
492,0.00584018090739846,0.0152417402714491,-0.0185475498437881,-0.0203676726669073,-0.0182143822312355,0.000167155201779678
493,0.00387890823185444,0.00718594901263714,-0.0197102557867765,-0.0228597782552242,-0.0210376754403114,-0.00850334763526917
494,0.00410496070981026,-0.000602438929490745,-0.0195437911897898,-0.0249066390097141,-0.0185544174164534,-0.0181218162178993
495,0.00515269907191396,-0.00442714523524046,-0.0201606769114733,-0.0269387401640415,-0.015251973643899,-0.0244756359606981
496,0.00526907993480563,-0.00401657493785024,-0.0228808466345072,-0.0313292928040028,-0.0155711062252522,-0.0246752593666315
497,0.00364240678027272,-0.00169020122848451,-0.0260453745722771,-0.0378094986081123,-0.0203421320766211,-0.0193415805697441
498,0.00111064279917628,0.000502325827255845,-0.027158472687006,-0.0429767780005932,-0.0270189885050058,-0.0132225649431348
499,-0.00089686264982447,0.00211894349195063,-0.0254618786275387,-0.0445853918790817,-0.0323483757674694,-0.0106579232960939
500,-0.00165689864661545,0.00326879159547389,-0.0221699476242065,-0.0440683774650097,-0.0342574790120125,-0.0120267979800701
501,-0.00109954876825213,0.00337490322999656,-0.0186162684112787,-0.0435703992843628,-0.0323899276554585,-0.0157816857099533
502,0.000351921538822353,0.00269974372349679,-0.015347097069025,-0.0413861982524395,-0.0286061335355043,-0.0182423144578934
503,0.00173829076811671,0.00204144837334752,-0.0134493513032794,-0.0357792787253857,-0.0256003364920616,-0.0170083604753017
504,0.00234217895194888,0.00126128841657192,-0.0141434241086245,-0.0290270205587149,-0.0235961806029081,-0.0146073056384921
505,0.00157879793550819,0.000246559531660751,-0.0177082754671574,-0.0244884882122278,-0.0219571478664875,-0.0132459923624992
506,-0.00117646472062916,-0.000770123675465584,-0.0228714365512133,-0.0240549258887768,-0.0223151538521051,-0.013091635890305
507,-0.00510208262130618,-0.0015732878819108,-0.0265894010663033,-0.0263925194740295,-0.0257121045142412,-0.0145262209698558
508,-0.00731004681438208,-0.00154432840645313,-0.026327807456255,-0.0271887425333261,-0.0293489582836628,-0.0167506840080023
509,-0.00572584802284837,-0.00103654735721648,-0.0216318406164646,-0.0237766318023205,-0.0286130718886852,-0.0196134150028229
510,-0.0018466014880687,0.00061416596872732,-0.0139794638380408,-0.0178516730666161,-0.022667046636343,-0.0221346002072096
511,0.0011384270619601,0.00545368390157819,-0.00745438318699598,-0.0136199630796909,-0.0163620132952929,-0.0212111789733171
512,0.00191342260222882,0.01041220407933,-0.0061093489639461,-0.0133734103292227,-0.0143020190298557,-0.0178572330623865
513,0.00287823821417987,0.00951086357235909,-0.00965663511306047,-0.0162574127316475,-0.0134092625230551,-0.0172414854168892
514,0.00537836784496903,0.00208867317996919,-0.0146630955860019,-0.0204824768006802,-0.00968773290514946,-0.0219242051243782
515,0.00686967093497515,-0.00591107131913304,-0.0170934367924929,-0.0230982955545187,-0.00603743363171816,-0.0280344989150763
516,0.00660161953419447,-0.0101274130865932,-0.0148849785327911,-0.0229166895151138,-0.00497564440593123,-0.0329521223902702
517,0.00635686563327909,-0.0119449179619551,-0.0100553231313825,-0.0221070069819689,-0.00581996981054544,-0.0386964492499828
518,0.00686057889834046,-0.0126441335305572,-0.00574173638597131,-0.0224250014871359,-0.00725304475054145,-0.0431704632937908
519,0.00684767169877887,-0.0120435105636716,-0.00373952090740204,-0.0238730851560831,-0.00855622813105583,-0.0415574908256531
520,0.00515428651124239,-0.0101666869595647,-0.00478018214926124,-0.0252248290926218,-0.0103784240782261,-0.0340259186923504
521,0.0021021356806159,-0.00735297100618482,-0.0084220003336668,-0.0251800995320082,-0.0134872840717435,-0.0247763153165579
522,-0.00118005473632365,-0.00380287901498377,-0.0131399985402822,-0.0231736451387405,-0.0176786128431559,-0.0164764653891325
523,-0.00298444926738739,-0.000157515518367291,-0.0171308573335409,-0.0198553539812565,-0.019778786227107,-0.0097833639010787
524,-0.00274768704548478,0.00114591291639954,-0.0193851199001074,-0.0166113190352917,-0.0172241609543562,-0.00588103476911783
525,-0.00164384278468788,-0.000971937435679138,-0.0200421791523695,-0.0144306290894747,-0.0126981567591429,-0.00442615523934364
526,-0.0012125464854762,-0.00417581899091601,-0.0201624073088169,-0.0143429804593325,-0.0110686495900154,-0.0040293000638485
527,-0.00273646111600101,-0.00588551908731461,-0.020454928278923,-0.0166358686983585,-0.0160898584872484,-0.00575807318091393
528,-0.0056023458018899,-0.00610402598977089,-0.0202495213598013,-0.0201414953917265,-0.0261334571987391,-0.0111703360453248
529,-0.00669468194246292,-0.00567110534757376,-0.0182304661720991,-0.0227657854557037,-0.0329854749143124,-0.0178540404886007
530,-0.00456698285415769,-0.00385937374085188,-0.0140941627323627,-0.0232550147920847,-0.0321278348565102,-0.0212149862200022
531,-0.00203363900072873,-0.000699850381352007,-0.00951279792934656,-0.0223720278590918,-0.0275648459792137,-0.0199363566935062
532,-0.00167218956630677,0.00262125814333558,-0.00635255454108119,-0.0205384027212858,-0.0226404666900635,-0.0159894432872534
533,-0.00222432566806674,0.00642784312367439,-0.00552059663459659,-0.0187200754880905,-0.01732555963099,-0.0128327468410134
534,-0.00133740901947021,0.00986599642783403,-0.00727346958592534,-0.019751625135541,-0.011863224208355,-0.0144527535885572
535,0.000454096181783825,0.0107148736715317,-0.0109952483326197,-0.0234117582440376,-0.00651971716433764,-0.0193899814039469
536,0.000973939371760935,0.00947953667491674,-0.0152209736406803,-0.0257691070437431,-0.00232324935495853,-0.0222138036042452
537,0.000745545548852533,0.00723730679601431,-0.0178255420178175,-0.0249802507460117,-0.000446814083261415,-0.0236279163509607
538,0.00199598865583539,0.00333738443441689,-0.0179525166749954,-0.0235372446477413,-0.00101412541698664,-0.0275965742766857
539,0.00402924604713917,-0.0020996464882046,-0.0170301534235477,-0.0239838510751724,-0.00388670200482011,-0.0319607816636562
540,0.00472270976752043,-0.00685528898611665,-0.0155148701742291,-0.0253735072910786,-0.00712065491825342,-0.030784048140049
541,0.00446846475824714,-0.00912160705775023,-0.0124448360875249,-0.0253705754876137,-0.00854304432868958,-0.0242055393755436
542,0.00461508380249143,-0.00816483329981565,-0.00834368169307709,-0.0222111288458109,-0.00933319702744484,-0.0168428588658571
543,0.00556591711938381,-0.00398229528218508,-0.00434392876923084,-0.015673877671361,-0.010437473654747,-0.0109696602448821
544,0.00694988621398807,0.000923415180295706,-0.00146114721428603,-0.00850308407098055,-0.00985196698457003,-0.00771332392469049
545,0.00804091151803732,0.00336175365373492,-0.00122617487795651,-0.00481217261403799,-0.00687588611617684,-0.00790419708937407
546,0.00800867471843958,0.00250866077840328,-0.00409299787133932,-0.00594848906621337,-0.00494663137942553,-0.0111842332407832
547,0.00589319784194231,-0.000430744112236425,-0.00881902221590281,-0.00918398890644312,-0.00681861164048314,-0.0166456066071987
548,0.0022037501912564,-0.00365479523316026,-0.0128978099673986,-0.010975300334394,-0.00989952683448792,-0.0231977514922619
549,-0.000212592451134697,-0.0056462767533958,-0.0136430282145739,-0.0102760419249535,-0.00945318304002285,-0.0285938028246164
550,-0.000562562607228756,-0.00615968927741051,-0.0122826378792524,-0.00900402199476957,-0.00538817141205072,-0.0298917591571808
551,-0.00122105760965496,-0.00565662840381265,-0.0131427496671677,-0.00888123549520969,-0.00233022589236498,-0.0260593593120575
552,-0.00226905383169651,-0.0041307439096272,-0.0157017838209867,-0.00812177080661058,-0.00220189243555069,-0.019351664930582
553,-0.00185881939250976,-0.00124392483849078,-0.0148572428151965,-0.00482418714091182,-0.00261593097820878,-0.0138811320066452
554,-0.000193682353710756,0.00297474791295826,-0.00927708111703396,-0.000843344954773784,-0.0029024169780314,-0.0121779469773173
555,0.00104074040427804,0.00607497058808804,-0.00238333269953728,0.000221927126403898,-0.00580221507698298,-0.0139024443924427
556,0.000617466575931758,0.00643903017044067,0.00225694663822651,-0.00242347735911608,-0.0120402546599507,-0.0161428675055504
557,4.00906792492606E-05,0.00699733570218086,0.00330863217823207,-0.00546569935977459,-0.0170777104794979,-0.0150683419778943
558,0.00229419395327568,0.00970024336129427,0.0020224628970027,-0.00653368001803756,-0.0163182187825441,-0.0101542193442583
559,0.00632217526435852,0.0119377542287111,1.13667538244044E-05,-0.00682782614603639,-0.01244524307549,-0.00423268740996718
560,0.00883445888757706,0.0107788620516658,-0.00216759624890983,-0.00744598638266325,-0.0109052313491702,-4.78273032058496E-05
561,0.00922260619699955,0.00645147170871496,-0.00409990409389138,-0.00797375477850437,-0.0107755586504936,0.00120561604853719
562,0.0077586374245584,0.000766015378758311,-0.00557271344587207,-0.0088738901540637,-0.00965948961675167,0.000256622064625844
563,0.00520615978166461,-0.00397733971476555,-0.00654556881636381,-0.011109096929431,-0.00840067490935326,-0.000504429393913597
564,0.00398609274998307,-0.00534925796091557,-0.00740803824737668,-0.0138957584276795,-0.00593354413285851,0.000953194044996053
565,0.00470926985144615,-0.00352864642627537,-0.00862371269613504,-0.0159171652048826,-0.00111964938696474,0.00379276438616216
566,0.00576344551518559,-0.0009757149964571,-0.00985323823988438,-0.0173184517771006,0.00369135662913322,0.00494568748399615
567,0.00601370446383953,-1.65152723639039E-05,-0.010612279176712,-0.0183144062757492,0.00609897961840034,0.00211672252044082
568,0.00505737960338593,-0.00269574811682105,-0.010389075614512,-0.0184220150113106,0.00649235816672444,-0.00569013226777315
569,0.00369930290617049,-0.00827142037451267,-0.00890747364610434,-0.0166461002081633,0.00675689894706011,-0.0167346205562353
570,0.00347408116795123,-0.0123774204403162,-0.00636548176407814,-0.0110904276371002,0.00767114106565714,-0.0260876063257456
571,0.00454285833984613,-0.0116686448454857,-0.00352310528978705,-0.00199584919027984,0.00836189277470112,-0.0298358090221882
572,0.00554020795971155,-0.0064623155631125,-0.00147875119000673,0.00622906256467104,0.00734529783949256,-0.02669214643538
573,0.00574497133493423,-0.000869560230057687,-0.000306376838125288,0.00961905997246504,0.00462436536327004,-0.0188312511891127
574,0.00575672741979361,0.00234230374917388,0.000721775752026588,0.00831121206283569,0.00142996723297983,-0.0111618433147669
575,0.00614270754158497,0.00481603527441621,0.00110504240728915,0.00410264125093818,-0.00171516370028257,-0.00691168615594506
576,0.00671621039509773,0.006838652305305,-0.000236325329751708,-0.000152830805745907,-0.00479491427540779,-0.00580059131607413
577,0.00676714116707444,0.00712626846507192,-0.00213682628236711,-0.000791932980064303,-0.00858620367944241,-0.00506891822442412
578,0.00572588481009007,0.00525760184973478,-0.00321620772592723,0.00123533175792545,-0.0136473951861262,-0.00337150972336531
579,0.00395574327558279,0.00122495926916599,-0.00354588869959116,0.00139332446269691,-0.0174225233495235,-0.00306558422744274
580,0.00205780868418515,-0.00342504889704287,-0.0029876499902457,-0.00149446737486869,-0.0183106046169996,-0.0048691681586206
581,0.000136069866130129,-0.00645722588524222,-0.0018886721227318,-0.00588969746604562,-0.0193086266517639,-0.00516763841733336
582,-0.000353094830643386,-0.00764199765399098,-0.000888933660462499,-0.0106367068365216,-0.0201908703893423,-0.00238175387494266
583,0.00189847336150706,-0.0082941772416234,-0.000443842815002427,-0.0143707292154431,-0.0166531838476658,0.00134483235888183
584,0.00541911786422133,-0.00886967219412327,-0.00101186707615852,-0.0158802028745413,-0.00873108487576246,0.00364867551252246
585,0.00808697752654552,-0.00936998892575502,-0.00236345804296434,-0.0154032306745648,0.00055246555712074,0.00280804373323917
586,0.00893083121627569,-0.00994012970477343,-0.00381595897488296,-0.0136486785486341,0.00903686042875052,-0.00102242652792484
587,0.00843207258731127,-0.0102674327790737,-0.00510287983343005,-0.010364044457674,0.0148882884532213,-0.00676783500239253
588,0.007353859487921,-0.0105637740343809,-0.00675763143226504,-0.00576813379302621,0.0169733297079802,-0.0137191480025649
589,0.00555621320381761,-0.0110639948397875,-0.00820614490658045,-0.00102643109858036,0.0152233652770519,-0.0195860899984837
590,0.00355582684278488,-0.01130002271384,-0.00764176761731505,0.00275847525335848,0.010834121145308,-0.0213821120560169
591,0.00248144194483757,-0.0122562507167459,-0.00593687081709504,0.00363146304152906,0.00492174923419952,-0.0191890094429255
592,0.00193958566524088,-0.0152437798678875,-0.00620966590940952,0.00105468183755875,-0.00299169961363077,-0.0160834472626448
593,0.00112364592496306,-0.0191585104912519,-0.00812961906194687,-0.00180821900721639,-0.0121000409126282,-0.0158523488789797
594,0.00100463395938277,-0.0218728613108397,-0.00624310737475753,-0.00109284836798906,-0.0185332223773003,-0.0196392424404621
595,0.00174068007618189,-0.0213135723024607,0.00190050748642534,0.00351695902645588,-0.0207989439368248,-0.0250625945627689
596,0.00122759398072958,-0.0168383754789829,0.0109102753922343,0.00785588659346104,-0.0226192642003298,-0.0295661929994822
597,-0.000941476202569902,-0.011061817407608,0.0162774473428726,0.00855366233736277,-0.0260212142020464,-0.0296734776347876
598,-0.00283029116690159,-0.00732688745483756,0.0181545577943325,0.00595381436869502,-0.0279852394014597,-0.0225693378597498
599,-0.00280387396924198,-0.00655229017138481,0.0163575503975153,0.00128369650337845,-0.0257291849702597,-0.0110097080469131
600,-0.000354534422513098,-0.00735351350158453,0.0109833879396319,-0.004285903647542,-0.0190473943948746,-0.000346966844517738
601,0.00347007322125137,-0.00848573353141546,0.004197231028229,-0.00885508302599192,-0.0090078404173255,0.00654993019998074
602,0.00686846440657973,-0.0100058615207672,-0.00181487516965717,-0.0113178659230471,0.00196076091378927,0.00870602298527956
603,0.00880472455173731,-0.0117319449782372,-0.00606543757021427,-0.0125787109136581,0.01056416798383,0.00628824951127172
604,0.00872558914124966,-0.012670399621129,-0.00909541361033916,-0.0129611594602466,0.0134646771475673,0.0013329922221601
605,0.0068917996250093,-0.0123608764261007,-0.0114260306581855,-0.0111004756763577,0.0102673377841711,-0.00417089695110917
606,0.00568456621840596,-0.0116796158254147,-0.011093731969595,-0.00674511725082994,0.00620839558541775,-0.011081600561738
607,0.00692538917064667,-0.0119724441319704,-0.00697220396250486,-0.00163335097022355,0.00548105174675584,-0.0213680267333984
608,0.00966932158917189,-0.0137687139213085,-0.00166341080330312,0.00225277757272124,0.00719619914889336,-0.0341755300760269
609,0.0122038032859564,-0.0164779331535101,0.00195611431263387,0.00397965777665377,0.00934159941971302,-0.0455435812473297
610,0.0125568471848965,-0.0193825978785753,0.00253408658318222,0.00313419732265174,0.00933869834989309,-0.0509886667132378
611,0.00992234703153372,-0.0210784375667572,0.000813423306681216,3.6443834687816E-05,0.00573725160211325,-0.0486480034887791
612,0.00668392330408096,-0.0194487180560827,-0.000286625407170504,-0.0031241662800312,0.000943802180700004,-0.0395740047097206
613,0.00567516451701522,-0.0152246924117208,0.000943553168326616,-0.00501045119017363,-0.00109427631832659,-0.0266398154199123
614,0.00755670759826899,-0.0111865382641554,0.00385382468812168,-0.00557956378906965,0.00185579026583582,-0.0144505659118295
615,0.0114238103851676,-0.00761734414845705,0.00709520932286978,-0.00348212430253625,0.0092166606336832,-0.00621890742331743
616,0.0156540852040052,-0.0018431122880429,0.0101308738812804,0.00253697112202644,0.017583230510354,-0.000468833110062405
617,0.0182905644178391,0.00741527229547501,0.0129508525133133,0.00977175869047642,0.0224396102130413,0.00456103961914778
618,0.0177338253706694,0.016124602407217,0.0144002409651876,0.0130912391468883,0.0210119355469942,0.0078075360506773
619,0.0140586141496897,0.0194824542850256,0.0134872207418084,0.0114044975489378,0.0139140943065286,0.00961081963032484
620,0.00889683794230223,0.017824150621891,0.011003834195435,0.0075042387470603,0.00523654604330659,0.0110484128817916
621,0.00464482046663761,0.0133563755080104,0.00847557932138443,0.00370603194460273,0.000209015575819649,0.0099270436912775
622,0.00315641984343529,0.00716445036232471,0.0063560688868165,0.000791583326645195,0.000366601278074086,0.00408817222341895
623,0.00352808064781129,0.000976988463662565,0.00446884846314788,-0.000640699232462794,0.00258094258606434,-0.0035560647957027
624,0.00389598775655031,-0.00325104966759682,0.00377379218116403,-0.000454464898211882,0.00401115324348211,-0.00835994631052017
625,0.00373308989219368,-0.00494325440376997,0.00451740808784962,-8.4248989878688E-05,0.00353754730895162,-0.00942102447152138
626,0.00296225468628109,-0.00491496408358216,0.00526566291227937,-0.0005312270950526,0.000871950760483742,-0.00885047484189272
627,0.00192957208491862,-0.00446248007938266,0.00591344106942415,-0.00114343350287527,-0.00229976698756218,-0.00956232659518719
628,0.000942757003940642,-0.00450100237503648,0.00765355909243226,-0.000952438567765057,-0.00436631543561816,-0.0127447005361319
629,-0.000345082924468443,-0.00543361948803067,0.00960608199238777,8.9665460109245E-05,-0.00536065129563212,-0.0167979802936316
630,-0.0018136011203751,-0.00777237070724368,0.00938253104686737,0.000305839930661023,-0.00483846990391612,-0.0224365349858999
631,-0.00282194139435887,-0.0113288965076208,0.00654299650341272,-0.00241304025985301,-0.00200470886193216,-0.0317412316799164
632,-0.0028879689052701,-0.0139902923256159,0.00275615230202675,-0.00759308505803347,0.00261322525329888,-0.0407548435032368
633,-0.00180090626236051,-0.0129662817344069,3.36812372552231E-05,-0.0117884082719684,0.00696728052571416,-0.042025700211525
634,7.45424040360376E-05,-0.0074455407448113,-0.000727214675862342,-0.0117308255285025,0.00890146195888519,-0.0328496396541595
635,0.00213115615770221,-0.000428348255809397,0.000300978630548343,-0.00607869448140264,0.00889993831515312,-0.0177855864167213
636,0.00393318105489016,0.00574270030483603,0.00268705934286118,0.00471971975639462,0.00855203438550234,-0.00351417320780456
637,0.00523299910128117,0.0128225954249501,0.00522939627990127,0.01621063798666,0.00777586828917265,0.00678232125937939
638,0.00608143722638488,0.0187555849552155,0.00663514761254191,0.0209443401545286,0.00621410412713885,0.0109718721359968
639,0.00640041660517454,0.0181704796850681,0.00698386272415519,0.0174049306660891,0.0031841634772718,0.00752241816371679
640,0.00561569910496473,0.0119997160509229,0.00640229694545269,0.0115346629172564,-0.0023447466082871,-0.000829677097499371
641,0.00407015113160014,0.00490704830735922,0.00439064018428326,0.00713728182017803,-0.00817702524363995,-0.01014793664217
642,0.00339007284492254,-0.000544682668987662,0.00197664555162191,0.00316733890213072,-0.00999085791409016,-0.0185739547014236
643,0.00449549686163664,-0.00425436906516552,0.00107850518543273,-0.00263239606283605,-0.00633557280525565,-0.0255313329398632
644,0.00726588303223252,-0.0067683313973248,0.0021055256947875,-0.00991426501423121,0.0014813244342804,-0.030095212161541
645,0.0105709871277213,-0.00713101541623473,0.00403702771291137,-0.0137127060443163,0.0100420378148556,-0.0295543540269136
646,0.0125290667638183,-0.00395401054993272,0.00544249219819903,-0.0106233954429626,0.0155640505254269,-0.0221616588532925
647,0.0121076069772244,0.00190423626918346,0.0054340111091733,-0.00392943387851119,0.0167640782892704,-0.0108576258644462
648,0.00936129968613386,0.0069457869976759,0.00481562595814466,0.00166884029749781,0.0136989476159215,-0.000859802996274084
649,0.00553082535043359,0.00822647474706173,0.00522494222968817,0.0048013599589467,0.0073785288259387,0.00387670658528805
650,0.00238586449995637,0.00620486959815025,0.00698090670630336,0.00604271842166781,0.000379556993721053,0.00160275027155876
651,-5.52454293938354E-05,0.00302912900224328,0.00859895162284374,0.00643399357795715,-0.00572305871173739,-0.0052302717231214
652,-0.00231516291387379,0.000380111858248711,0.00849186815321445,0.00663055712357163,-0.0104722417891026,-0.00988877099007368
653,-0.00392664317041636,-0.00144613941665739,0.00622634682804346,0.0055155293084681,-0.0123772099614143,-0.00806250423192978
654,-0.00530117750167847,-0.00319474283605814,0.00152717065066099,0.0014229757944122,-0.0124161392450333,-0.00264273351058364
655,-0.00643047690391541,-0.00458978768438101,-0.00398193765431643,-0.00317782443016768,-0.0123080695047975,0.0026174068916589
656,-0.0060933236964047,-0.00424707494676113,-0.00640422152355313,-0.00336575089022517,-0.0102363470941782,0.00757948914542794
657,-0.00452560232952237,-0.00177651119884104,-0.00523391412571073,-1.98236648429884E-05,-0.00570491049438715,0.0109550356864929
658,-0.00274645048193634,0.000351518159732223,-0.00364227942191064,0.00125686766114086,-0.000983488629572093,0.00862293690443039
659,-0.00164448563009501,0.000395777431549504,-0.00251892139203846,-0.00120072031859308,0.0021996411960572,-3.47153836628422E-05
660,-0.00190041190944612,-0.000301377294817939,-0.000438281538663432,-0.00428202748298645,0.00338176894001663,-0.00974844302982092
661,-0.00311451125890017,-0.00100760476198047,0.00203978922218084,-0.00497067207470536,0.00278321001678705,-0.0150083294138312
662,-0.00454675173386931,-0.00206395890563726,0.00314803631044924,-0.00293811713345349,0.00142051547300071,-0.0141921071335673
663,-0.00537178060039878,-0.00368863949552178,0.00205505732446909,-0.000529410084709525,0.000865081266965717,-0.0102234082296491
664,-0.00470359204337001,-0.00597597239539027,-0.00081723160110414,0.000438467279309407,0.00159124773927033,-0.00800628773868084
665,-0.00295408116653562,-0.00922790262848139,-0.00325402175076306,0.000331425602780655,0.00256201322190464,-0.0105886133387685
666,-0.00169841665774584,-0.0134963914752007,-0.00311812572181225,-0.000198289228137583,0.0018946846248582,-0.0169481467455626
667,-0.00127118546515703,-0.016977472230792,-0.000184818214620464,-0.000477115681860596,-0.000787762575782835,-0.0229697749018669
668,-0.00052193074952811,-0.0176486968994141,0.00414146715775132,-0.000207857403438538,-0.0030191105324775,-0.0259616114199162
669,0.00101285858545452,-0.0158902872353792,0.00817825645208359,6.21180297457613E-05,-0.00313533376902342,-0.0259364899247885
670,0.00259667239151895,-0.013369700871408,0.0107095018029213,-0.000140803924296051,-0.00212877686135471,-0.0235453080385923
671,0.00343971513211727,-0.0109549593180418,0.0110468091443181,-0.000885527988430113,-0.00107101316098124,-0.0191979873925447
672,0.00321657489985228,-0.00835922732949257,0.00966902356594801,-0.00131851236801595,-0.000731038511730731,-0.0128640150651336
673,0.00189420150127262,-0.00561400363221765,0.00783247593790293,-0.000546885887160897,-0.00136471935547888,-0.0054506822489202
674,-0.0013204364804551,-0.00402962835505605,0.00593782542273402,0.000895289122126997,-0.00261497288011014,0.00139478803612292
675,-0.00644673639908433,-0.00430507492274046,0.00302332430146635,0.00213097291998565,-0.0042600086890161,0.00670864200219512
676,-0.00978621654212475,-0.00493328087031841,-0.000746779842302203,0.00312898750416934,-0.00471545988693833,0.0086700152605772
677,-0.00808395259082317,-0.00410527596250176,-0.00344553263857961,0.00409246608614922,-0.0022816697601229,0.00615811254829168
678,-0.00297901220619679,-0.00215515797026455,-0.00388252711854875,0.00510204304009676,0.00277213496156037,0.00135588727425784
679,0.0020093759521842,-0.000319285376463085,-0.00293693109415472,0.00559041323140264,0.00831874273717403,-0.00279231485910714
680,0.00525058293715119,0.000504501978866756,-0.00289600109681487,0.00369646842591465,0.0112349474802613,-0.00588473957031965
681,0.00690499041229486,-0.000915552489459515,-0.00466306833550334,-0.000934268464334309,0.0102112982422113,-0.0097963847219944
682,0.0069043030962348,-0.00451547652482986,-0.00657589174807072,-0.00455424003303051,0.00612631533294916,-0.0142043242231011
683,0.00501411827281117,-0.00825683493167162,-0.0062466780655086,-0.00384304160252213,0.000402076257159933,-0.015571465715766
684,0.00200026179663837,-0.010202462784946,-0.00351443025283515,-0.000830175180453807,-0.00580267095938325,-0.0127761187031865
685,-0.00102224003057927,-0.00977143552154303,-0.00102641992270947,0.000950697751250118,-0.0113694863393903,-0.00863510370254517
686,-0.00285305711440742,-0.00795883685350418,0.00027224762015976,0.00167266163043678,-0.0141972284764051,-0.00498002488166094
687,-0.00294383871369064,-0.00638126395642757,0.00175237760413438,0.00285056536085904,-0.0141495512798429,-0.00214960495941341
688,-0.00205812370404601,-0.00580642418935895,0.00306760799139738,0.00385607336647809,-0.0135372523218393,-0.00186410697642714
689,-0.000784337462391704,-0.00615144660696387,0.00309750344604254,0.00338843278586864,-0.0129874153062701,-0.00536897080019116
690,0.000784678326454014,-0.00717848772183061,0.00267479079775512,0.00147097988519818,-0.0113159958273172,-0.0113965654745698
691,0.00160340359434485,-0.00814628321677446,0.00310313631780446,-0.000605837791226804,-0.00898196920752525,-0.0165304336696863
692,0.00036904530134052,-0.00782501138746738,0.00450509786605835,-0.00190337665844709,-0.00902256090193987,-0.0172998998314142
693,-0.00234075589105487,-0.00596544472500682,0.0058193258009851,-0.00320522766560316,-0.0132551686838269,-0.0131526682525873
694,-0.0051713096909225,-0.00407220097258687,0.00503851193934679,-0.00502951769158244,-0.0203650109469891,-0.00680429954081774
695,-0.00718136737123132,-0.0023785182274878,0.00138599867932498,-0.00626534409821033,-0.0262395348399878,-0.00223879888653755
696,-0.00755803799256682,-0.000379060802515596,-0.00399491330608726,-0.00616285484284163,-0.0262025408446789,-0.00207651406526566
697,-0.00625872099772096,0.000603112450335175,-0.00892707798629999,-0.00419991463422775,-0.0200198460370302,-0.00539359683170915
698,-0.00398014020174742,0.000718302384484559,-0.0104196816682816,-0.00026845556567423,-0.0119197238236666,-0.00894067343324423
699,-0.00115579867269844,0.000618345628026873,-0.00756880082190037,0.00338567909784615,-0.00519497646018863,-0.0109304618090391
700,0.00154346530325711,-0.000729444727767259,-0.0031448605004698,0.0048007657751441,-0.00019254136714153,-0.0115692764520645
701,0.00326017360202968,-0.00360392383299768,0.000253671547397971,0.00535849947482347,0.0033789025619626,-0.0116403326392174
702,0.00487776752561331,-0.00681175338104367,0.00274859392084181,0.0064242915250361,0.00527130905538797,-0.0114690577611327
703,0.00689875427633524,-0.00926365423947573,0.00535766733810306,0.00647544208914042,0.00488412287086248,-0.0107256164774299
704,0.00816803798079491,-0.0102523881942034,0.00739072728902102,0.00377266574651003,0.00186148181091994,-0.00878200214356184
705,0.00811847299337387,-0.00899931415915489,0.00685441214591265,-0.00197921507060528,-0.00360038038343191,-0.00532111711800098
706,0.00720000173896551,-0.00642535090446472,0.00412078760564327,-0.0090393228456378,-0.00943223107606173,-0.00183179590385407
707,0.00577998766675591,-0.00467937951907516,0.000938519078772515,-0.0141842486336827,-0.0134912049397826,-7.97526372480206E-05
708,0.00378493499010801,-0.00382282002829015,-0.00206521106883883,-0.0154460957273841,-0.015693673864007,0.000505465606693178
709,0.00136235042009503,-0.00313110742717981,-0.00403663609176874,-0.0132215740159154,-0.0160738881677389,0.000329800066538155
710,-0.00163314258679748,-0.0037565678358078,-0.00448460830375552,-0.00975779443979263,-0.0164680331945419,-0.00247550616040826
711,-0.00467114523053169,-0.0068749743513763,-0.00310311722569168,-0.00786229688674212,-0.0191483292728662,-0.00976287852972746
712,-0.00662151211872697,-0.011790668591857,2.68742201114947E-06,-0.00854523945599794,-0.0242101866751909,-0.0212137848138809
713,-0.00774574559181929,-0.0162243898957968,0.00254156976006925,-0.00979803316295147,-0.0307150725275278,-0.0329474993050098
714,-0.00866616331040859,-0.0184122752398252,0.00186451990157366,-0.0107596907764673,-0.0356848277151585,-0.0409371480345726
715,-0.00943525228649378,-0.017614746466279,-0.00217415951192379,-0.013005486689508,-0.0366897247731686,-0.0439368970692158
716,-0.00960283167660236,-0.0132506107911468,-0.00727849686518312,-0.0168395955115557,-0.034507904201746,-0.0418143719434738
717,-0.00848993938416243,-0.007096360437572,-0.0119873834773898,-0.0220973957329988,-0.0304672475904226,-0.03725216537714
718,-0.00637699523940682,-0.00273608975112438,-0.0169138442724943,-0.028555965051055,-0.0260740239173174,-0.0340675264596939
719,-0.00358626455999911,-0.0014307425590232,-0.0217785853892565,-0.034189734607935,-0.0232246089726686,-0.0332479104399681
720,-0.000551246746908873,-0.00131622049957514,-0.0250776037573814,-0.0373975820839405,-0.0228000860661268,-0.035046324133873
721,0.000723427685443312,-0.000526319141499698,-0.0275105889886618,-0.0391871519386768,-0.026847131550312,-0.0391533449292183
722,-0.000758424052037299,2.33054070122307E-05,-0.0307005923241377,-0.0400916934013367,-0.0377239212393761,-0.0432171151041985
723,-0.00382178975269198,-0.00149721547495574,-0.0345293693244457,-0.0396480299532413,-0.0532031357288361,-0.0466405749320984
724,-0.00722029758617282,-0.0048218872398138,-0.0385618805885315,-0.03917146474123,-0.0679084211587906,-0.0510862544178963
725,-0.00988458003848791,-0.0081974109634757,-0.0422528013586998,-0.0401707105338573,-0.0785744860768318,-0.0567198544740677
726,-0.010970183648169,-0.0108547387644649,-0.0454878658056259,-0.0433556362986565,-0.086260162293911,-0.0632075443863869
727,-0.0108155282214284,-0.012877881526947,-0.0484535954892635,-0.0483893565833569,-0.0932914018630981,-0.0705513656139374
728,-0.0100206285715103,-0.0140975648537278,-0.0504250079393387,-0.0544428154826164,-0.0987531170248985,-0.0788303911685944
729,-0.0087168961763382,-0.0149938846006989,-0.0530211925506592,-0.0631897300481796,-0.102101907134056,-0.0885522589087486
730,-0.0075405640527606,-0.0153453862294555,-0.0582849308848381,-0.0745481550693512,-0.106049776077271,-0.0974817126989365
731,-0.00677535170689225,-0.0137659441679716,-0.0636577606201172,-0.0836620926856995,-0.111485153436661,-0.102437809109688
732,-0.00583239225670695,-0.010012473911047,-0.0665029808878899,-0.0868080481886864,-0.118223920464516,-0.104700297117233
733,-0.00500035937875509,-0.00514884106814861,-0.0673942267894745,-0.0845389813184738,-0.126680999994278,-0.107689149677753
734,-0.00514440936967731,-0.00160791899543256,-0.0670868903398514,-0.0809806063771248,-0.134440422058105,-0.113488629460335
735,-0.00591748068109155,-0.00165674381423742,-0.0659654587507248,-0.080743096768856,-0.138903811573982,-0.121634691953659
736,-0.00628317706286907,-0.0046982723288238,-0.0650310218334198,-0.085438147187233,-0.14048907160759,-0.130023777484894
737,-0.00586968800053,-0.00831231661140919,-0.0655861422419548,-0.0940021499991417,-0.140609890222549,-0.138695478439331
738,-0.0043346812017262,-0.0103410370647907,-0.0679398030042648,-0.104042455554008,-0.139924645423889,-0.148880049586296
739,-0.000937526521738619,-0.0109528368338943,-0.0707461163401604,-0.113646000623703,-0.13824962079525,-0.16051584482193
740,0.00386496004648507,-0.0123755550011992,-0.0729110762476921,-0.121834971010685,-0.136543557047844,-0.172023966908455
741,0.00821575708687305,-0.013515199534595,-0.0740688592195511,-0.127598494291306,-0.136329814791679,-0.181042194366455
742,0.0106003023684025,-0.0112878708168864,-0.0744369402527809,-0.132075175642967,-0.137677818536758,-0.187900841236115
743,0.0104057192802429,-0.00938753131777048,-0.0761419832706451,-0.137829184532166,-0.14082059264183,-0.194945424795151
744,0.00774286035448313,-0.0136769153177738,-0.0811100229620934,-0.145259454846382,-0.146958261728287,-0.202520132064819
745,0.00441913260146976,-0.0224323570728302,-0.087403878569603,-0.152699783444405,-0.153903722763062,-0.209764733910561
746,0.00290012825280428,-0.0294266641139984,-0.0909504741430283,-0.157129913568497,-0.155365213751793,-0.21591728925705
747,0.00332922022789717,-0.0303580034524202,-0.0902064219117165,-0.156768769025803,-0.151134267449379,-0.220040261745453
748,0.00463349325582385,-0.0266706757247448,-0.0861609727144241,-0.153085172176361,-0.147325456142426,-0.221395671367645
749,0.00744006875902414,-0.0243902839720249,-0.0798538103699684,-0.149322882294655,-0.144323915243149,-0.221106067299843
750,0.0115024149417877,-0.0257221627980471,-0.0730846524238586,-0.148094773292542,-0.139958143234253,-0.220577418804169
751,0.0131938792765141,-0.026487709954381,-0.0684601739048958,-0.147443324327469,-0.138111561536789,-0.216096937656403
752,0.0114056505262852,-0.0239255893975496,-0.0666567906737328,-0.143743023276329,-0.141282483935356,-0.203729003667831
753,0.00974110141396523,-0.0198345500975847,-0.0665987357497215,-0.138549953699112,-0.144410848617554,-0.187588915228844
754,0.010678056627512,-0.0166950430721045,-0.0672638043761253,-0.135994270443916,-0.141475275158882,-0.176990240812302
755,0.0136180268600583,-0.0165521427989006,-0.0684555917978287,-0.137693777680397,-0.132089957594872,-0.178520336747169
756,0.0165228266268969,-0.0208990443497896,-0.0707374066114426,-0.141319543123245,-0.120856262743473,-0.188351944088936
757,0.018630288541317,-0.0279547460377216,-0.0718373507261276,-0.141057103872299,-0.109544269740582,-0.195021644234657
758,0.0198066122829914,-0.0330072566866875,-0.0688164532184601,-0.133916333317757,-0.0979395657777786,-0.192565813660622
759,0.0186066571623087,-0.0337411984801292,-0.0633510500192642,-0.123558267951012,-0.0892614871263504,-0.182856723666191
760,0.0154300462454557,-0.0331725738942623,-0.0587659887969494,-0.115439251065254,-0.0846511647105217,-0.1706872433424
761,0.0118224946781993,-0.0339813195168972,-0.0572402589023113,-0.111606322228909,-0.0828091278672218,-0.160521432757378
762,0.00859604403376579,-0.0343861021101475,-0.0573495216667652,-0.109095335006714,-0.081007108092308,-0.151839837431908
763,0.00769742671400309,-0.0323707796633244,-0.055843323469162,-0.104746140539646,-0.0762722715735435,-0.142688319087029
764,0.00880102999508381,-0.0267129987478256,-0.0535390935838223,-0.0994739755988121,-0.072731040418148,-0.132427096366882
765,0.00860731117427349,-0.0168941393494606,-0.0517811439931393,-0.0946343764662743,-0.0743568241596222,-0.11960606276989
766,0.00762273510918021,-0.00719048595055938,-0.0490392334759235,-0.0901734977960587,-0.0748817548155785,-0.10598462074995
767,0.00809537805616856,-0.00246181874535978,-0.0449474900960922,-0.0857926160097122,-0.0683434829115868,-0.0945522412657738
768,0.00935307610780001,-0.00203316658735275,-0.040526632219553,-0.0807450190186501,-0.0554408058524132,-0.0859553590416908
769,0.0102712186053395,-0.00374700711108744,-0.0358429439365864,-0.0743557661771774,-0.03829750046134,-0.0792665332555771
770,0.0101151382550597,-0.00649783993139863,-0.0314484499394894,-0.0668348968029022,-0.0224078316241503,-0.0723588615655899
771,0.00893588364124298,-0.00889414362609386,-0.0291737094521523,-0.0602879598736763,-0.0140565074980259,-0.065620481967926
772,0.00788079015910625,-0.00960354320704937,-0.0299627054482698,-0.0565263405442238,-0.0135180950164795,-0.0603902488946915
773,0.00820418354123831,-0.0079650217667222,-0.0319927036762238,-0.05351272970438,-0.0146172111853957,-0.0551836527884007
774,0.00892139878123999,-0.00392962526530027,-0.03381322696805,-0.0491077043116093,-0.0128263030201197,-0.0493664368987083
775,0.00765855889767408,-0.00083266559522599,-0.0359078086912632,-0.0441359095275402,-0.0102559449151158,-0.0464062094688416
776,0.00535340700298548,-0.0031723421998322,-0.0361948236823082,-0.0390560701489449,-0.00875715352594852,-0.0483210682868958
777,0.00356001942418516,-0.00858045369386673,-0.0315259918570518,-0.0344959534704685,-0.00820828974246979,-0.0509400740265846
778,0.00123269052710384,-0.0122029781341553,-0.023886326700449,-0.032249316573143,-0.00874854438006878,-0.0493776947259903
779,-0.00120760453864932,-0.0129692908376455,-0.0182634573429823,-0.0317422561347485,-0.00884946808218956,-0.0430635400116444
780,-0.00102814426645637,-0.0123612796887755,-0.0159774124622345,-0.0310328360646963,-0.00445801671594381,-0.0345988944172859
781,0.00157004373613745,-0.0118659939616919,-0.0158019922673702,-0.0295500811189413,0.00398501334711909,-0.0251092649996281
782,0.00387503928504884,-0.0111750587821007,-0.0160940084606409,-0.0257216207683086,0.0112750213593245,-0.0135104022920132
783,0.00560387037694454,-0.0102470591664314,-0.0142211765050888,-0.018183434382081,0.0172753520309925,-0.00173900846857578
784,0.00692853797227144,-0.00853757560253143,-0.00943100359290838,-0.00834550987929106,0.0234733335673809,0.00813846569508314
785,0.00650938134640455,-0.00478967325761914,-0.00344220665283501,0.00190171890426427,0.0276686698198318,0.0181209705770016
786,0.00487031415104866,-0.000156554189743474,0.000901071529369801,0.0105509031563997,0.0288207978010178,0.0294618234038353
787,0.00388923310674727,0.00404389901086688,0.00245255930349231,0.0161859542131424,0.0289700012654066,0.0413105338811874
788,0.00336463423445821,0.00766641227528453,0.00424562534317374,0.0204336084425449,0.0301221385598183,0.0527596287429333
789,0.00222794059664011,0.0100618833675981,0.00889086257666349,0.0261652581393719,0.032714806497097,0.0632593110203743
790,0.000167908001458272,0.0121350344270468,0.0139025673270226,0.0336585678160191,0.0349013581871986,0.0731354951858521
791,-0.00259011774323881,0.0149948811158538,0.0156886503100395,0.0409608148038387,0.0347829796373844,0.0824469327926636
792,-0.00471488293260336,0.01779561676085,0.0147486180067062,0.0463133081793785,0.0350374355912209,0.0898245647549629
793,-0.00358720240183175,0.0182460397481918,0.0138465603813529,0.0480253621935844,0.0423271544277668,0.0897701308131218
794,0.00068181537790224,0.0139533886685967,0.0133287915959954,0.0463123098015785,0.0558372884988785,0.0799593925476074
795,0.00300605013035238,0.00703915907070041,0.0102968644350767,0.043415866792202,0.0629405975341797,0.0691192671656609
796,0.000232313599553891,0.00181684433482587,0.00484476936981082,0.0409762598574162,0.0584566108882427,0.0640988498926163
797,-0.00432585272938013,-0.00123825005721301,0.00204955064691603,0.0390101745724678,0.0518469512462616,0.0620262213051319
798,-0.00590932462364435,-0.00392792047932744,0.00529315089806914,0.0365059971809387,0.051590021699667,0.0595803447067738
799,-0.00474042352288961,-0.00586693361401558,0.0127513306215405,0.0350079908967018,0.0553212873637676,0.0594053417444229
800,-0.00334067223593593,-0.0058619980700314,0.0206123720854521,0.0356657207012177,0.0580700375139713,0.063334122300148
801,-0.00240281433798373,-0.00449474109336734,0.0261077750474215,0.0360522270202637,0.0598991475999355,0.0688365697860718
802,-0.00209311139769852,-0.00168749142903835,0.027665626257658,0.0362737290561199,0.061076857149601,0.0752325505018234
803,-0.0021824249997735,0.00262970756739378,0.0264036394655705,0.0399088561534882,0.0607983656227589,0.0824656635522842
804,-0.00276549812406302,0.00682032108306885,0.0261463243514299,0.0483248606324196,0.0599522069096565,0.0900113806128502
805,-0.00383138307370245,0.00926098506897688,0.0295181851834059,0.0590606704354286,0.0616450607776642,0.0987941026687622
806,-0.00507699977606535,0.00942893978208303,0.0341300666332245,0.068126916885376,0.0663750767707825,0.107788383960724
807,-0.00787095446139574,0.00783950556069613,0.0356247462332249,0.0737961232662201,0.071064293384552,0.114494815468788
808,-0.0117497406899929,0.00547176972031593,0.0332614146173,0.0774233266711235,0.0745363682508469,0.117971166968346
809,-0.0138129470869899,0.00445348164066672,0.0280642621219158,0.078809067606926,0.0750086680054665,0.119251452386379
810,-0.0139518855139613,0.00681559555232525,0.0216111242771149,0.0760290399193764,0.0704169720411301,0.119210235774517
811,-0.0130115663632751,0.0124494479969144,0.0184957962483168,0.0717906504869461,0.0645369812846184,0.118706621229649
812,-0.0113568399101496,0.021010797470808,0.02153623662889,0.0714854001998901,0.0608915537595749,0.121021129190922
813,-0.0102703412994742,0.0296424012631178,0.0282948091626167,0.0751470178365707,0.0599802024662495,0.12603648006916
814,-0.0106879007071257,0.0320391319692135,0.0353747569024563,0.0786510333418846,0.0619248449802399,0.127580270171165
815,-0.0133187342435122,0.026799138635397,0.0399008058011532,0.0782312676310539,0.063057579100132,0.122514106333256
816,-0.0170459430664778,0.0183270815759897,0.0398077853024006,0.0726363137364388,0.0616929233074188,0.114040225744247
817,-0.0193780623376369,0.0106825800612569,0.0354483760893345,0.0660230368375778,0.0602426007390022,0.105799645185471
818,-0.0197906997054815,0.00601887051016092,0.0298695135861635,0.0640337988734245,0.0593578405678272,0.10026453435421
819,-0.018181374296546,0.00412815669551492,0.0277374777942896,0.0669068470597267,0.0609404556453228,0.0987825840711594
820,-0.0146843213587999,0.00397288473322988,0.0311468821018934,0.0719277486205101,0.0661648809909821,0.101325422525406
821,-0.0123228672891855,0.00514297233894467,0.0371059328317642,0.0778100118041039,0.0715043917298317,0.109347753226757
822,-0.0126001881435514,0.0066356249153614,0.0427974872291088,0.0834245309233665,0.0767388120293617,0.122375436127186
823,-0.0128818405792117,0.00691416254267097,0.0469687767326832,0.0865840539336205,0.0834472104907036,0.133670523762703
824,-0.0122010316699743,0.00532495183870196,0.0475216023623943,0.0857295095920563,0.0882876217365265,0.136614412069321
825,-0.0112321004271507,0.00287631317041814,0.0448688827455044,0.0814796909689903,0.0900900214910507,0.131412282586098
826,-0.0089648924767971,0.00158272369299084,0.0421884544193745,0.077227771282196,0.0912010297179222,0.123900204896927
827,-0.00435623852536082,0.00216166744939983,0.0423673279583454,0.0762442126870155,0.093336433172226,0.118669435381889
828,0.000785941199865192,0.00425915094092488,0.0459522269666195,0.0786155015230179,0.0962810218334198,0.115820713341236
829,0.00286639831028879,0.00779357319697738,0.0503398925065994,0.0837511196732521,0.0967858880758286,0.115215830504894
830,0.00217397208325565,0.0115280020982027,0.0528197288513184,0.0901898965239525,0.095723919570446,0.116254143416882
831,0.00019926845561713,0.0148040326312184,0.0525928139686584,0.0941876694560051,0.0950512364506722,0.116514384746552
832,-0.00419331016018987,0.0164425987750292,0.0509107038378716,0.0939921513199806,0.0919849649071693,0.11520079523325
833,-0.00879825837910175,0.0141293434426188,0.0507409945130348,0.0911217555403709,0.0884009450674057,0.113039419054985
834,-0.0101690022274852,0.00992336124181747,0.0534132868051529,0.0877548381686211,0.0882915630936623,0.111387968063354
835,-0.0100641716271639,0.00803943257778883,0.057065736502409,0.0866229310631752,0.0900721102952957,0.115973062813282
836,-0.0112149221822619,0.00905364751815796,0.058336716145277,0.0872394517064095,0.0899230688810349,0.127393394708633
837,-0.0132177071645856,0.0100265657529235,0.0562907345592976,0.0855995565652847,0.0870945304632187,0.134541526436806
838,-0.0139710176736116,0.00869232974946499,0.0534681007266045,0.0817212760448456,0.0854524448513985,0.131483569741249
839,-0.0113271819427609,0.00590335577726364,0.0516274012625217,0.0788484513759613,0.0886776074767113,0.121561840176582
840,-0.00614764261990786,0.00386217026971281,0.0500755198299885,0.0779616460204124,0.0935955345630646,0.109182178974152
841,-0.00160035758744925,0.00387603649869561,0.0484102927148342,0.0790423154830933,0.0957644507288933,0.101126529276371
842,0.00107999646570534,0.00505094137042761,0.0473715476691723,0.0811143144965172,0.0972053930163383,0.102260999381542
843,0.00245575024746358,0.0058779832907021,0.0466769896447659,0.0810755789279938,0.0993105471134186,0.107545770704746
844,0.00267311278730631,0.00655298260971904,0.0461757443845272,0.0790864229202271,0.0990669876337051,0.110756650567055
845,0.00196360633708537,0.00792556628584862,0.0475661121308804,0.0796067416667938,0.0944239348173141,0.112744592130184
846,0.00170622277073562,0.0102236373350024,0.0522962622344494,0.0854431763291359,0.0880112126469612,0.115624688565731
847,0.00226030917838216,0.0125345606356859,0.0586781874299049,0.0939451158046722,0.0841061025857925,0.11883295327425
848,0.00228581437841058,0.0131810419261456,0.0625901594758034,0.0990911200642586,0.0836179405450821,0.120176792144775
849,0.00128958572167903,0.0114734200760722,0.0611177682876587,0.0974458456039429,0.083496205508709,0.117808677256107
850,-2.36405594478128E-05,0.00860238168388605,0.0558653622865677,0.0910439789295197,0.0812456756830215,0.111817181110382
851,-0.000586575421039015,0.00725907040759921,0.0501863360404968,0.0823831558227539,0.0786389261484146,0.103473134338856
852,-0.000543329515494406,0.0082720210775733,0.0448477678000927,0.0714927390217781,0.0763944387435913,0.0943790972232819
853,-0.00147567316889763,0.0108304545283318,0.0402971655130386,0.0619631260633469,0.0726582407951355,0.0891645550727844
854,-0.00236653420142829,0.0145157631486654,0.0379731766879559,0.058380838483572,0.0701264664530754,0.0912939682602882
855,-0.00185698282439262,0.0166012439876795,0.0378108657896519,0.0596603266894817,0.0723215416073799,0.0967575311660767
856,-0.0019678866956383,0.0147407054901123,0.0378570444881916,0.0628705397248268,0.0765981525182724,0.0999028980731964
857,-0.00414086738601327,0.0108541985973716,0.037561759352684,0.0662650391459465,0.0793652981519699,0.0988238900899887
858,-0.0065016895532608,0.00793136842548847,0.0385725311934948,0.0691677182912827,0.0810322836041451,0.0943271815776825
859,-0.00597499124705791,0.00682619167491794,0.0409435071051121,0.0711759030818939,0.0837580412626266,0.0878900438547134
860,-0.00243472075089812,0.00636515254154801,0.0433794744312763,0.0713009685277939,0.0875301063060761,0.0805645734071732
861,0.00105859141331166,0.0054778722114861,0.0444536283612251,0.0696464851498604,0.0896376967430115,0.0751802027225494
862,0.00271791685372591,0.00375766353681684,0.0433637723326683,0.0667150318622589,0.0897876918315887,0.0739123895764351
863,0.0023904019035399,0.000917766999918967,0.0425134599208832,0.0635837763547897,0.0898405015468597,0.0747910961508751
864,-0.000725086429156363,-0.0015048636123538,0.0444197840988636,0.0631125718355179,0.0877638384699821,0.0765640661120415
865,-0.00471700541675091,-0.00139385566581041,0.0483070909976959,0.0660728737711906,0.0813146010041237,0.078800730407238
866,-0.00557258911430836,0.000517883279826492,0.0518049523234367,0.0700882375240326,0.0731658786535263,0.0796177759766579
867,-0.00305070611648262,0.00122661900240928,0.054066177457571,0.0725780054926872,0.0697197988629341,0.0777561292052269
868,0.000786470831371844,0.00086762203136459,0.0543690659105778,0.0714750364422798,0.073924295604229,0.0733068585395813
869,0.00387582019902766,0.00342773552983999,0.051109317690134,0.0673501193523407,0.0799417197704315,0.0696298182010651
870,0.00450500752776861,0.00870155449956656,0.0463722348213196,0.0630960911512375,0.0826993510127068,0.0699322447180748
871,0.00380962085910141,0.0121553083881736,0.0443396531045437,0.0602871552109718,0.0832513496279716,0.072778046131134
872,0.00374671863391995,0.0115005383267999,0.0455582365393639,0.0590696968138218,0.0822024121880531,0.0750627517700195
873,0.00396424252539873,0.00843796040862799,0.047764990478754,0.0601954311132431,0.0787226185202599,0.0758441686630249
874,0.00385216739960015,0.00697493366897106,0.0495291352272034,0.0641807317733765,0.0739094167947769,0.0753622129559517
875,0.002956384094432,0.00947276689112186,0.0504337139427662,0.0686288177967072,0.0693789720535278,0.0728469789028168
876,0.000732140324544162,0.013970292173326,0.0503741204738617,0.0704246684908867,0.0655124112963676,0.0704482570290565
877,-0.00213991780765355,0.0164039563387632,0.0491795241832733,0.0685570240020752,0.0617851503193378,0.071984127163887
878,-0.0052285916171968,0.0156512968242168,0.0461121574044228,0.0645861029624939,0.0576477497816086,0.07566849142313
879,-0.00753327179700136,0.0129878390580416,0.041883934289217,0.0608444064855576,0.0556169785559177,0.0748376175761223
880,-0.0072689694352448,0.00899580400437117,0.0388565547764301,0.0576549954712391,0.0589224025607109,0.0673786699771881
881,-0.00591528555378318,0.00475079147145152,0.0372577421367168,0.0552940703928471,0.0642340332269669,0.0610531494021416
882,-0.00654419371858239,0.00174538802821189,0.0349642038345337,0.0546421892940998,0.0633294582366943,0.0644783228635788
883,-0.00924316048622131,0.000796667824033648,0.0322585925459862,0.0553776025772095,0.0539160631597042,0.0762672126293182
884,-0.0116586936637759,0.00189865694846958,0.0312837772071362,0.0561605505645275,0.0433859676122665,0.0863099917769432
885,-0.0120813967660069,0.00425383588299155,0.0313166007399559,0.0565847381949425,0.0389186888933182,0.0875632092356682
886,-0.0108698401600122,0.00678602186962962,0.0299518760293722,0.0571764297783375,0.040317352861166,0.0818155631422997
887,-0.00902412179857492,0.00824742391705513,0.0277426820248365,0.057322833687067,0.0439060516655445,0.0733876526355743
888,-0.00685418443754315,0.00784663204103708,0.0279208198189735,0.0561056323349476,0.0467289760708809,0.0650412812829018
889,-0.00332174263894558,0.00560712348669767,0.0311192125082016,0.0532885305583477,0.0495285242795944,0.0588310770690441
890,0.00193240481894463,0.00192658207379282,0.0339594557881355,0.0494344010949135,0.0549562610685825,0.0554930865764618
891,0.00614263769239187,-0.00204738136380911,0.0341168865561485,0.0464951060712337,0.0609920285642147,0.0543726235628128
892,0.0065428614616394,-0.0038089663721621,0.032961331307888,0.0465932339429855,0.0628852099180222,0.0562029480934143
893,0.00359210860915482,-0.00215396238490939,0.0318880416452885,0.0486345551908016,0.0599514096975327,0.0603553541004658
894,-0.000327629852108657,-0.000181758528924547,0.0312796384096146,0.0495990999042988,0.0559346973896027,0.061904177069664
895,-0.00308373547159135,-0.00153339595999569,0.0320405401289463,0.0492713116109371,0.0529955327510834,0.0574607960879803
896,-0.00435874285176396,-0.00564152793958783,0.0340336821973324,0.0487170591950417,0.0506344772875309,0.0473952293395996
897,-0.00576314143836498,-0.0099415322765708,0.0350742787122726,0.0468493513762951,0.0490422621369362,0.0345600731670856
898,-0.0070390272885561,-0.0131995417177677,0.0337615720927715,0.042379517108202,0.0491481609642506,0.0246824845671654
899,-0.00679150270298123,-0.0140073383226991,0.0315129719674587,0.0377474129199982,0.0503931865096092,0.0233225245028734
900,-0.00574183091521263,-0.0131357638165355,0.0295990575104952,0.0351185537874699,0.0502941943705082,0.027928976342082
901,-0.00371276144869626,-0.0138842221349478,0.0283525325357914,0.0332895964384079,0.0492102764546871,0.0313021466135979
902,-0.000547072384506464,-0.0133809028193355,0.0269593372941017,0.0322445742785931,0.0476688332855701,0.0346839353442192
903,0.0015680406941101,-0.00745400274172425,0.0241763982921839,0.0324285365641117,0.0441322475671768,0.0396811068058014
904,0.000604923989158124,-0.000339141784934327,0.0216751471161842,0.0334838517010212,0.0393142439424992,0.042172197252512
905,-0.0025035897269845,0.00303898868151009,0.0205695573240519,0.0350603424012661,0.0340357683598995,0.042682234197855
906,-0.00359195843338966,0.00290848128497601,0.0195454899221659,0.0348228998482227,0.0303486045449972,0.0427342429757118
907,-0.00129330763593316,0.00117139401845634,0.0178609564900398,0.0308655239641666,0.0308745410293341,0.0408344231545925
908,0.000532735313754529,0.000155783651280217,0.0160613209009171,0.0273380186408758,0.032762173563242,0.0393488183617592
909,-0.00092657539062202,0.00113635521847755,0.0153708513826132,0.0295996069908142,0.031946174800396,0.0411580242216587
910,-0.00406566821038723,0.00174571375828236,0.0161909405142069,0.0351072922348976,0.0307844616472721,0.0415495708584785
911,-0.00653808424249291,-0.0009550666436553,0.0181813407689333,0.0383460372686386,0.0331618823111057,0.0349153615534306
912,-0.00828634668141603,-0.00514318002387881,0.0210870020091534,0.0392023473978043,0.0363278053700924,0.0243312809616327
913,-0.00855489168316126,-0.0080772303044796,0.0247242227196693,0.0394933857023716,0.0374483838677406,0.0153764886781573
914,-0.00586744770407677,-0.0102210026234388,0.0279212165623903,0.0387135483324528,0.0380168408155441,0.0101041672751307
915,-0.00307720294222236,-0.0109962839633226,0.0280530583113432,0.0361402705311775,0.0351192988455296,0.0105423787608743
916,-0.00439879531040788,-0.00907956808805466,0.024363936856389,0.0317889899015427,0.0260780323296785,0.0163247529417276
917,-0.00866156257688999,-0.00610364368185401,0.0199365820735693,0.0271039344370365,0.0177372563630342,0.0218576788902283
918,-0.0120303696021438,-0.00312985223717988,0.0179773755371571,0.0245673935860395,0.0162273738533258,0.0229214392602444
919,-0.0134764332324266,0.000949360663071275,0.0181657802313566,0.0235799197107553,0.0186341628432274,0.0212234482169151
920,-0.0131841143593192,0.00381466466933489,0.0175640061497688,0.0208052452653646,0.0197764802724123,0.0196415241807699
921,-0.01036895532161,0.00184874550905079,0.0154045708477497,0.0157405771315098,0.020261449739337,0.0189069882035255
922,-0.00590498000383377,-0.00313973077572882,0.0144868744537234,0.0120510319247842,0.0235156584531069,0.0201570652425289
923,-0.00202465895563364,-0.0064284410327673,0.0146972304210067,0.0120761822909117,0.0271791405975819,0.0233141276985407
924,0.000354545976733789,-0.00644650310277939,0.0129044624045491,0.0141526535153389,0.0267447587102652,0.0257206913083792
925,0.00116978515870869,-0.0051708216778934,0.00926259905099869,0.0153431817889214,0.0228471513837576,0.0256647244095802
926,0.000634885218460113,-0.00502019096165895,0.00537623604759574,0.0133699411526322,0.0188678354024887,0.0233415961265564
927,-0.000703353900462389,-0.0069529521279037,0.00178821769077331,0.00907195173203945,0.0168616119772196,0.0204451065510511
928,-0.0027083670720458,-0.00984674040228128,-6.95204071234912E-05,0.00715310964733362,0.0170590300112963,0.0189285781234503
929,-0.00523893721401691,-0.0114768464118242,0.00139562611002475,0.0114027187228203,0.0181480310857296,0.0198388714343309
930,-0.00753554701805115,-0.0113483658060431,0.00570718664675951,0.0183308273553848,0.0177928023040295,0.0208720955997705
931,-0.00940785743296146,-0.01076206471771,0.00945664010941982,0.0208544954657555,0.0142389591783285,0.0178172532469034
932,-0.0115856137126684,-0.00960621610283852,0.00986839737743139,0.0190797280520201,0.00806525442749262,0.0127438521012664
933,-0.0135903591290116,-0.00724208075553179,0.00866570789366961,0.0183599125593901,0.00245617842301726,0.0113872392103076
934,-0.0121442507952452,-0.00540798669680953,0.00850845687091351,0.0192177128046751,0.00196390366181731,0.0125154517591
935,-0.00668425904586911,-0.00592282228171825,0.00916658435016871,0.0178202353417873,0.00624725269153714,0.011512191966176
936,-0.00217570178210735,-0.00687996437773108,0.00917902030050755,0.0136384274810553,0.00836743600666523,0.0094729857519269
937,-0.00150575174484402,-0.00555447256192565,0.00834224186837673,0.0101036429405212,0.00635952735319734,0.00920937024056911
938,-0.00251314789056778,-0.00263502448797226,0.00732139823958278,0.00926818046718836,0.00558738131076097,0.00979786831885576
939,-0.00254718260839581,-0.000946651736740023,0.00647481670603156,0.00990638602524996,0.00951673835515976,0.00904899556189775
940,-0.00189230765681714,-0.00152892130427063,0.00554768601432443,0.00944435130804777,0.0149553325027227,0.00671199895441532
941,-0.00204001297242939,-0.00245574186556041,0.00413403194397688,0.00613413797691464,0.0156835839152336,0.00365143828094006
942,-0.0021094714757055,-0.00245086429640651,0.00371923227794468,0.00193135300651193,0.0107420114800334,0.000668945140205324
943,-0.000973145244643092,-0.00248756655491889,0.00574975879862905,0.000733484281226993,0.00360212102532387,-0.00162329489830881
944,-0.00010679371189326,-0.00301425391808152,0.00820982363075018,0.00303358747623861,-0.00273804715834558,-0.00189678010065109
945,-0.000675630115438253,-0.00344072282314301,0.00897761434316635,0.00636002793908119,-0.00508439214900136,0.000117951385618653
946,-0.000836444727610797,-0.00299307331442833,0.00801183003932238,0.0081828199326992,-0.00189825636334717,0.000966894731391221
947,0.00115821848157793,-5.76711463509128E-05,0.00573075469583273,0.00784149393439293,0.00413371995091438,-0.000672143476549536
948,0.0036118240095675,0.00520679354667664,0.00318282144144177,0.00722378958016634,0.00891742017120123,-0.00149827788118273
949,0.00443939631804824,0.00920375250279903,0.00117924599908292,0.00739201437681913,0.0103170955553651,0.000130284650367685
950,0.00398391205817461,0.00812805257737637,-0.0004780430754181,0.00614077178761363,0.0087380763143301,0.00155430170707405
951,0.00337452976964414,0.0021248864941299,-0.00189637718722224,0.00200157263316214,0.00644262414425612,0.000445952318841591
952,0.00252193491905928,-0.00371237518265843,-0.00276111881248653,-0.00199963455088437,0.00483587849885225,-0.000872356875333935
953,0.00127886224072427,-0.0055067902430892,-0.00262641906738281,-0.00259414524771273,0.00351880327798426,-1.13688729470596E-05
954,0.00129553454462439,-0.00485133659094572,-0.00168852368369699,-0.00154010101687163,0.00332299480214715,0.000390291563235223
955,0.00289198337122798,-0.00415733503177762,-0.000727480975911021,-0.0018757542129606,0.00414568791165948,-0.00182958005461842
956,0.00435881223529577,-0.00317710707895458,0.000417557923356071,-0.00286785862408578,0.00422579236328602,-0.00367231271229684
957,0.00531969778239727,-0.000722524069715291,0.00257607502862811,-0.00277084903791547,0.0044938838109374,-0.00211509061045945
958,0.00563967041671276,0.00393432890996337,0.00484086666256189,-0.0015403616707772,0.00317522790282965,0.00208603125065565
959,0.00499962037429214,0.00985223334282637,0.00583360996097326,0.00110777525696903,-0.00299816252663732,0.00631568813696504
960,0.00522044999524951,0.0135743264108896,0.00686593586578965,0.00470937509089708,-0.00802102498710155,0.00727136386558414
961,0.00663532456383109,0.0124812368303537,0.00847686734050512,0.00596633600071073,-0.00734131503850222,0.00348187843337655
962,0.00630320841446519,0.00781829375773668,0.00863121636211872,0.00358896283432841,-0.0077341110445559,-0.00101064832415432
963,0.00278255203738809,0.00432124687358737,0.0068963784724474,0.000991534092463553,-0.0138480821624398,-0.000444511300884187
964,-0.00326642324216664,0.00590584985911846,0.00500539736822248,0.000965156825259328,-0.0222015213221312,0.00548118259757757
965,-0.00898870173841715,0.00992422271519899,0.00408889027312398,0.00294782244600356,-0.0279472433030605,0.0118970507755876
966,-0.0106569062918425,0.011528616771102,0.00274786166846752,0.00458803959190845,-0.0289925467222929,0.014544639736414
967,-0.0088059026747942,0.0102840736508369,-0.000489465368445963,0.00437572924420238,-0.0260417424142361,0.0129900351166725
968,-0.00554689159616828,0.00814218539744616,-0.00342670385725796,0.00381158385425806,-0.0198844131082296,0.00889317877590656
969,-0.000935469870455563,0.00585793145000935,-0.00277614779770374,0.0051196375861764,-0.0109393894672394,0.00281915324740112
970,0.00373195204883814,0.00371655612252653,0.00121861638035625,0.00810294225811958,-0.00183085212484002,-0.00428951485082507
971,0.00625603552907705,0.00352474674582481,0.0055398284457624,0.0103912567719817,0.00459029944613576,-0.00882834661751986
972,0.0066436012275517,0.00619301293045282,0.00837855227291584,0.0102118430659175,0.00800204277038574,-0.00798960216343403
