,AF3,AF4,Fp1,Fp2,AF7,AF8
0,-0.00537935364991426,-0.00422439957037568,-5.35228609805927E-05,0.00306462938897312,-0.00393221992999315,0.0219552665948868
1,-0.00959022901952267,-0.00280502601526678,0.00248438306152821,0.00187707622535527,-0.00355503056198359,0.021807387471199
2,-0.0141439782455564,0.00255874148570001,0.00300156651064754,0.00205714791081846,-0.00527660269290209,0.017535587772727
3,-0.0164902061223984,0.00764732575044036,0.00287924404256046,0.0040011671371758,-0.00531401438638568,0.0114725418388844
4,-0.0152275208383799,0.00847582891583443,0.00383729231543839,0.00630880612879992,-0.00153473007958382,0.00485332543030381
5,-0.0119983432814479,0.00598811591044068,0.00523342192173004,0.00749896327033639,0.00326905259862542,-0.000255632534390315
6,-0.00869383011013269,0.00395287899300456,0.00657232804223895,0.00889422371983528,0.00573476497083902,-0.000769851496443152
7,-0.00554445944726467,0.00525830732658505,0.00812194216996431,0.0115943113341928,0.00503554614260793,0.0045885113067925
8,-0.00295927166007459,0.00805306993424892,0.00876296311616898,0.0137201910838485,0.00170886586420238,0.0136479940265417
9,-0.00178463954944164,0.00846532825380564,0.00756890187039971,0.0139938034117222,-0.00308738672174513,0.0227243676781654
10,-0.00171663879882544,0.00567216239869595,0.00533977150917053,0.0132286436855793,-0.00765136862173676,0.0279792156070471
11,-0.00200019939802587,0.00216629472561181,0.0038207748439163,0.0128099229186773,-0.00985198654234409,0.0276129152625799
12,-0.00241781049408019,0.000539319938980043,0.00428467988967896,0.0131668346002698,-0.00838966760784388,0.023473534733057
13,-0.00313698500394821,0.00116782437544316,0.00581476790830493,0.0131543790921569,-0.00536032766103745,0.0193709023296833
14,-0.00351544609293342,0.00295649981126189,0.00701741501688957,0.0119855925440788,-0.0029529572930187,0.0173737872391939
15,-0.00249362853355706,0.00638733943924308,0.00834281370043755,0.0110010458156466,-0.000746880774386227,0.0171750169247389
16,-0.00103148329071701,0.0126740001142025,0.00909259729087353,0.0108404709026217,-0.000748484337236732,0.0185035765171051
17,-0.00148742436431348,0.0186544600874186,0.00678143743425608,0.00968144647777081,-0.00603833980858326,0.0206595193594694
18,-0.0049293264746666,0.0213248543441296,0.00144574942532927,0.00729279639199376,-0.0148695223033428,0.0228587072342634
19,-0.00995324831455946,0.0214635785669088,-0.00414252746850252,0.0050080050714314,-0.0222305301576853,0.0249753687530756
20,-0.0144237093627453,0.0186545420438051,-0.00812484696507454,0.00288792746141553,-0.0251851100474596,0.0271766111254692
21,-0.0170055441558361,0.0130555750802159,-0.010255379602313,0.000408045161748305,-0.0245952773839235,0.0298904441297054
22,-0.0170271527022123,0.00778577430173755,-0.00988840870559216,-0.0022486534435302,-0.022163899615407,0.0327589884400368
23,-0.0145754665136337,0.00572004448622465,-0.00629144348204136,-0.00344560481607914,-0.0187182296067476,0.0350699797272682
24,-0.011007983237505,0.00776863703504205,-0.000900843646377325,-0.00181943993084133,-0.0152651788666844,0.0357183776795864
25,-0.00878004916012287,0.0120999412611127,0.00300524919293821,0.00125197775196284,-0.0137438913807273,0.0321122743189335
26,-0.00877388473600149,0.0141181405633688,0.00353687140159309,0.00306279584765434,-0.0151268485933542,0.0225052386522293
27,-0.0092868497595191,0.0110770603641868,0.00166540895588696,0.00303846038877964,-0.0179380178451538,0.00975440535694361
28,-0.00873675290495157,0.00481376051902771,-0.000165136647410691,0.00286222621798515,-0.0200154390186071,-0.000319566519465297
29,-0.00706643098965287,-0.00126499729231,-0.00045686453813687,0.00334350555203855,-0.0200951192528009,-0.00479502789676189
30,-0.00486794160678983,-0.00563621846958995,-0.000110512759420089,0.00284473365172744,-0.0178582482039928,-0.00580355897545815
31,-0.00284120533615351,-0.00886768382042646,-0.0005219976301305,0.000233823826420121,-0.0139484629034996,-0.00670668855309486
32,-0.00213147373870015,-0.0110702831298113,-0.00167046429123729,-0.00284406123682857,-0.0110592022538185,-0.00816540140658617
33,-0.00306553044356406,-0.0106025813147426,-0.00268236035481095,-0.0042587430216372,-0.0118289468809962,-0.00799120683223009
34,-0.00479265581816435,-0.00627344008535147,-0.00307820132002234,-0.00358238909393549,-0.0155614726245403,-0.00396128371357918
35,-0.00563168106600642,-0.000809351447969675,-0.00235367729328573,-0.00257547316141427,-0.0164984129369259,0.00173707341309637
36,-0.00381728401407599,0.00192544865421951,-0.000351221970049664,-0.00302261859178543,-0.0102339405566454,0.00570333423092961
37,-0.000331350223859772,0.00208971905522048,0.000997889786958694,-0.00396982207894325,-0.00283436384052038,0.00910836271941662
38,0.00207236874848604,0.00279025151394308,-0.000526428921148181,-0.00498592387884855,-0.0026839969214052,0.012648849748075
39,0.00151202408596873,0.00440945103764534,-0.0056681651622057,-0.00866220332682133,-0.0112308319658041,0.0134296948090196
40,-0.00086113391444087,0.00431945361196995,-0.0120736956596375,-0.0143946530297399,-0.0227607786655426,0.0109681664034724
41,-0.00121624919120222,0.00237713195383549,-0.0153411459177732,-0.0176518056541681,-0.0278540067374706,0.0079540591686964
42,0.00213360041379929,0.000225337353185751,-0.0141896810382605,-0.0169466435909271,-0.0225145183503628,0.0055484720505774
43,0.00659628631547093,0.000495812157168984,-0.0109634380787611,-0.0138375889509916,-0.0130918333306909,0.00529093714430928
44,0.00776158832013607,0.0064695356413722,-0.00890539679676294,-0.0108289504423738,-0.0095471516251564,0.0103990482166409
45,0.00408805487677455,0.0186965521425009,-0.00883043650537729,-0.00944365188479424,-0.0139990365132689,0.0217722728848457
46,-0.0010988658759743,0.0321735329926014,-0.00801497511565685,-0.0069888774305582,-0.0210215952247381,0.037288635969162
47,-0.00379401654936373,0.0372313261032104,-0.00418712059035897,-0.00138518016319722,-0.025230411440134,0.0508583560585976
48,-0.00323793129064143,0.0293185319751501,0.00238139135763049,0.00430764583870769,-0.023721806704998,0.0540888831019402
49,-0.000984962098300457,0.0138111244887114,0.00972554832696915,0.00668539898470044,-0.0176245830953121,0.0434074141085148
50,0.00169655459467322,-2.32108977797907E-05,0.0150063615292311,0.00556715251877904,-0.0111961578950286,0.0226834658533335
51,0.00391136202961206,-0.0073184659704566,0.0163246430456638,0.00211923429742455,-0.00801565777510405,-0.000262307381490245
52,0.00497582042589784,-0.0101221157237887,0.0148051623255014,-0.00188725581392646,-0.00767217110842466,-0.0188567638397217
53,0.00559536833316088,-0.0116038685664535,0.0129610672593117,-0.00422915350645781,-0.00621149130165577,-0.0315483100712299
54,0.0066718952730298,-0.0128987487405539,0.0104560991749167,-0.00517649808898568,-0.00193356326781213,-0.0410623215138912
55,0.00791359227150679,-0.0136785106733441,0.00597144151106477,-0.00714037055149674,0.00283622252754867,-0.0491748489439487
56,0.00885445903986692,-0.01252281665802,0.00105273944791406,-0.0104816630482674,0.00588408578187227,-0.0540291927754879
57,0.0105833215638995,-0.00932313967496157,-0.00170698191504925,-0.0127514097839594,0.00812165066599846,-0.0530696250498295
58,0.013604449108243,-0.00749722635373473,-0.00253670569509268,-0.0123613532632589,0.0097733661532402,-0.0480957552790642
59,0.0159443709999323,-0.0118018975481391,-0.00389716820791364,-0.0100864712148905,0.00867146905511618,-0.0452502258121967
60,0.016520693898201,-0.0211198609322309,-0.00669059297069907,-0.00726967491209507,0.00593186495825648,-0.04742132127285
61,0.0156058771535754,-0.0280598010867834,-0.0110336765646935,-0.00505434395745397,0.00349269388243556,-0.0509541779756546
62,0.013292389921844,-0.0294958148151636,-0.0169335529208183,-0.00421908218413591,0.000420243042754009,-0.0519710928201675
63,0.0104701174423099,-0.029220387339592,-0.0224516112357378,-0.00564183248206973,-0.00310269417241216,-0.0519564934074879
64,0.00865141488611698,-0.0297969561070204,-0.0258010122925043,-0.00930827856063843,-0.005633186083287,-0.0546253360807896
65,0.00813404563814402,-0.029679648578167,-0.0272528287023306,-0.0131191443651915,-0.00761548057198524,-0.0603210180997849
66,0.0082701314240694,-0.0279958490282297,-0.0264286752790213,-0.0146476859226823,-0.00850067101418972,-0.066258005797863
67,0.00864792335778475,-0.0258224960416555,-0.02214465290308,-0.0125630190595984,-0.00635566841810942,-0.0697472989559174
68,0.00917453784495592,-0.0236552618443966,-0.0153628941625357,-0.00741990609094501,-0.00261729885824025,-0.0712725967168808
69,0.0115854488685727,-0.0214959010481834,-0.00839568674564362,-0.00204971875064075,0.0019445443758741,-0.0744805037975311
70,0.0170054025948048,-0.0193544197827578,-0.00353170023299754,0.000458865048130974,0.00865112338215113,-0.0817254483699799
71,0.0218947064131498,-0.0164851415902376,-0.00336724333465099,-0.000335277378326282,0.0137730138376355,-0.0905009731650352
72,0.0225364044308662,-0.012842895463109,-0.00877561792731285,-0.00316280778497458,0.0123090269044042,-0.0956961587071419
73,0.0196659006178379,-0.0113601023331285,-0.016868818551302,-0.00774106290191412,0.00700121000409126,-0.0964097380638123
74,0.0159929040819407,-0.0139319840818644,-0.0234953667968512,-0.012513785623014,0.0038527452852577,-0.0946202874183655
75,0.0134213399142027,-0.018337544053793,-0.0268722493201494,-0.0136008374392986,0.00378683279268444,-0.0898074731230736
76,0.013301869854331,-0.0217616725713015,-0.0273383129388094,-0.00943704601377249,0.00469682132825255,-0.0819982513785362
77,0.0159325301647186,-0.0226179379969835,-0.0258133243769407,-0.00408597243949771,0.0064085298217833,-0.0762397721409798
78,0.0193864312022924,-0.0224866718053818,-0.0235943365842104,-0.00324133760295808,0.00966515950858593,-0.0789192840456963
79,0.021242069080472,-0.0249660070985556,-0.02153180539608,-0.00667598843574524,0.0128979431465268,-0.0888326913118362
80,0.0210225731134415,-0.0278998743742704,-0.0199445001780987,-0.0093576405197382,0.0133953504264355,-0.0970434173941612
81,0.0201969053596258,-0.0264220461249352,-0.0187833551317453,-0.00837550312280655,0.0119347311556339,-0.0970991179347038
82,0.0200279522687197,-0.0222982354462147,-0.0178139004856348,-0.00543359573930502,0.0107200536876917,-0.0912788808345795
83,0.0201690960675478,-0.0183549877256155,-0.0170727521181107,-0.00309302192181349,0.00944640208035707,-0.0849508941173553
84,0.0190882701426744,-0.0148893352597952,-0.0169401820749044,-0.00132633640896529,0.00715405633673072,-0.0805530697107315
85,0.0162727292627096,-0.0150208752602339,-0.0176259912550449,-0.000140045798616484,0.00437836023047566,-0.0788290202617645
86,0.0134709812700748,-0.0200247708708048,-0.0185117516666651,-0.00108973286114633,0.00267098378390074,-0.0796350836753845
87,0.0122828558087349,-0.0254025664180517,-0.0191467721015215,-0.00459517491981387,0.00230920710600913,-0.0807465761899948
88,0.0123947188258171,-0.0267830770462751,-0.0191878471523523,-0.00841576512902975,0.00266214134171605,-0.0782632976770401
89,0.0124413939192891,-0.0253888610750437,-0.0182313546538353,-0.00950939487665892,0.00364763988181949,-0.0711586326360703
90,0.0111593995243311,-0.0244717746973038,-0.016454579308629,-0.00717482622712851,0.00548612698912621,-0.0640386864542961
91,0.0084904320538044,-0.0242850109934807,-0.0138673949986696,-0.00333119579590857,0.00769855361431837,-0.0614901930093765
92,0.00603991653770208,-0.0248510129749775,-0.0107762506231666,-0.000270211894530803,0.00923611130565405,-0.0642086341977119
93,0.00582906883209944,-0.0264635980129242,-0.00840556342154741,0.000903503387235105,0.00952857546508312,-0.07022575289011
94,0.00815797038376331,-0.0296739581972361,-0.00768527528271079,0.000176280125742778,0.00824135635048151,-0.0771812722086906
95,0.0114970579743385,-0.0350496396422386,-0.00860155466943979,-0.0018115695565939,0.00675545819103718,-0.0846328437328339
96,0.0145619660615921,-0.0406039319932461,-0.0106510845944285,-0.00461138086393476,0.00816638767719269,-0.0919069722294807
97,0.0163372401148081,-0.0442660301923752,-0.0132828829810023,-0.00818921532481909,0.0117520680651069,-0.0959718972444534
98,0.0158651098608971,-0.0446468889713287,-0.0155207896605134,-0.0113708814606071,0.0129034109413624,-0.0944974422454834
99,0.0137820234522223,-0.040286973118782,-0.0163028631359339,-0.0126636978238821,0.0105766337364912,-0.0885104537010193
100,0.0110965566709638,-0.0321801900863647,-0.016329949721694,-0.0125307189300656,0.0067790555767715,-0.0796607211232185
101,0.00819198042154312,-0.0236863102763891,-0.0167182646691799,-0.0122989136725664,0.00292029953561723,-0.0680108889937401
102,0.0062799802981317,-0.0187272317707539,-0.0159033797681332,-0.0122608998790383,0.00254394323565066,-0.0548624768853188
103,0.0051586190238595,-0.0183126218616962,-0.012873075902462,-0.0119032645598054,0.00639615906402469,-0.0425639525055885
104,0.00323794595897198,-0.0188334789127111,-0.00946609862148762,-0.0104128690436482,0.00874623004347086,-0.0315517783164978
105,0.000554482627194375,-0.0176789909601212,-0.00799646694213152,-0.00856901332736015,0.00627122540026903,-0.023573275655508
106,-0.00198891968466342,-0.015790082514286,-0.00962879043072462,-0.00851167365908623,0.00220142165198922,-0.0221765525639057
107,-0.0030577122233808,-0.0137419933453202,-0.0126501228660345,-0.0101746562868357,0.00158599088899791,-0.0263192467391491
108,-0.00151529489085078,-0.0100880358368158,-0.0145007334649563,-0.0123746749013662,0.00527342921122909,-0.0309356134384871
109,0.00187774596270174,-0.00528832105919719,-0.0148203549906611,-0.015161314047873,0.0106291212141514,-0.0330863855779171
110,0.00582108041271567,-0.00255268602631986,-0.0142004741355777,-0.0176103562116623,0.0161510780453682,-0.0330198705196381
111,0.0102374348789454,-0.00379693228751421,-0.0125459814444184,-0.017007265239954,0.0215557459741831,-0.0329391807317734
112,0.0141698904335499,-0.00685812951996922,-0.0101977726444602,-0.0118319466710091,0.0259431786835194,-0.0352555252611637
113,0.0159205459058285,-0.00807301513850689,-0.00835275556892157,-0.00398851279169321,0.028082212433219,-0.0398308001458645
114,0.0153327202424407,-0.00885357521474361,-0.00748169142752886,0.00301527744159102,0.0275729577988386,-0.0442892499268055
115,0.0124550862237811,-0.0127346906810999,-0.00755342049524188,0.00634951889514923,0.0246328506618738,-0.0465448908507824
116,0.0073573631234467,-0.0170394703745842,-0.00884800683706999,0.00417015794664621,0.0199874937534332,-0.0457157157361507
117,0.00168853276409209,-0.0163072030991316,-0.011109315790236,-0.00237439665943384,0.0150024490430951,-0.0410970710217953
118,-0.00215199659578502,-0.0119465859606862,-0.0127906342968345,-0.00925309676676989,0.0112910000607371,-0.0338505171239376
119,-0.00306409853510559,-0.0099951671436429,-0.0130252568051219,-0.0142983393743634,0.00932737905532122,-0.0292280502617359
120,-0.00193707889411598,-0.0129390554502606,-0.0125470096245408,-0.0179674532264471,0.00794945005327463,-0.0307254921644926
121,-0.000174269429408014,-0.0191485639661551,-0.0119720613583922,-0.0200324468314648,0.00573426298797131,-0.0347657054662704
122,0.0010681563289836,-0.025461258366704,-0.0116220973432064,-0.019486902281642,0.00232914811931551,-0.0360678620636463
123,0.000914925767574459,-0.028013514354825,-0.0113437585532665,-0.0164353437721729,-0.000850459502544254,-0.0336688198149204
124,0.000380732206394896,-0.0248641073703766,-0.0108090387657285,-0.01299112662673,-0.00216344697400928,-0.0309849213808775
125,0.000892886542715132,-0.0184083245694637,-0.0101288240402937,-0.0110805472359061,-0.00152011541649699,-0.0302178207784891
126,0.00128258811309934,-0.0115938372910023,-0.00938023813068867,-0.0097653204575181,-0.00107460527215153,-0.0283770561218262
127,-2.57387364399619E-05,-0.00514470599591732,-0.00880907289683819,-0.00830955244600773,-0.00335148884914815,-0.0235527809709311
128,-0.00267790723592043,-0.000837369821965694,-0.00840531568974257,-0.00838031433522701,-0.00787416007369757,-0.0173186920583248
129,-0.00548506202176213,-0.00128004502039403,-0.00841917842626572,-0.0114313010126352,-0.012770907022059,-0.0106157520785928
130,-0.00646607298403978,-0.00527360942214727,-0.00880361907184124,-0.0159900821745396,-0.0142489988356829,-0.00562018947675824
131,-0.0038438409101218,-0.00636610900983214,-0.00832805968821049,-0.0175591204315424,-0.00866823922842741,-0.00381942372769117
132,0.00105658185202628,-0.00113165844231844,-0.00750687997788191,-0.0147598311305046,-0.000118296979053412,-0.00190902699250728
133,0.00576920434832573,0.00401253346353769,-0.00728554651141167,-0.0108549417927861,0.00620414642617106,0.00302843656390905
134,0.00895816460251808,0.00408778013661504,-0.00714143784716725,-0.00846374779939651,0.0104564307257533,0.00865461677312851
135,0.00844269990921021,0.00158784165978432,-0.0084208631888032,-0.00888411700725555,0.0111052524298429,0.0114859640598297
136,0.00365618290379643,-0.0013656480005011,-0.0118936691433191,-0.0113615561276674,0.00667333416640759,0.0117990663275123
137,-0.00177555519621819,-0.00384578155353665,-0.0142005998641253,-0.0128082074224949,0.00137989153154194,0.0116325626149774
138,-0.0042562996968627,-0.00458568194881082,-0.0127155724912882,-0.0117113227024674,-0.00075389927951619,0.0121139334514737
139,-0.00341411959379911,-0.00425582192838192,-0.00843854527920485,-0.00897860247641802,-0.000317537254886702,0.0138632291927934
140,-0.000863008317537606,-0.00375217851251364,-0.00371128297410905,-0.00574501091614366,0.0014798422344029,0.017280749976635
141,0.00197528675198555,-0.000707156083080918,-0.000193878426216543,-0.00247724237851799,0.00451547047123313,0.0216477252542973
142,0.00394561374559999,0.00678303930908442,0.0022715434897691,0.00121231016237289,0.00749788200482726,0.0261021424084902
143,0.00388235179707408,0.0150107527151704,0.00431479793041945,0.00513499043881893,0.0093378983438015,0.0303582791239023
144,0.00202530063688755,0.0178881622850895,0.00566182332113385,0.006902399007231,0.0106046078726649,0.0322638414800167
145,-0.000441865005996078,0.0133873345330358,0.00566676119342446,0.00540705444291234,0.0099584087729454,0.0293714590370655
146,-0.00259277271106839,0.00479176826775074,0.00490316422656178,0.0032186945900321,0.0063694859854877,0.0217656288295984
147,-0.00336238509044051,-0.00292939553037286,0.0052143014036119,0.00188732170499861,0.00309492787346244,0.011565295048058
148,-0.00252184364944696,-0.00673001259565353,0.0067287739366293,0.000561465334612876,0.00185243645682931,0.00239702267572284
149,-0.00125219393521547,-0.00605962052941322,0.00754151586443186,-0.00104873592499644,0.000787169323302805,-0.00228708982467651
150,-0.000440950621850789,-0.000846123730298132,0.00662813801318407,-0.0023650610819459,-0.00100919150281698,-0.000411196786444634
151,-0.000331975898006931,0.00900648441165686,0.00441500497981906,-0.00241240533068776,-0.00296548334881663,0.00795274507254362
152,-0.00123108248226345,0.0216974262148142,0.00158605817705393,-0.000476219021948054,-0.00465522520244122,0.0200970992445946
153,-0.00335112144239247,0.0318858623504639,-0.000991476350463927,0.00229756254702806,-0.0064424267038703,0.0316344723105431
154,-0.00583588937297463,0.03365733101964,-0.00209990050643682,0.00398554466664791,-0.00811755564063787,0.0394210182130337
155,-0.00752904918044806,0.0270890817046165,-0.00144821836147457,0.00368949305266142,-0.00831760186702013,0.0437931418418884
156,-0.00910593010485172,0.0184439737349749,-0.000432653672760352,0.00113860459532589,-0.0073934099636972,0.0454304590821266
157,-0.0107943918555975,0.0132383294403553,0.000490119098685682,-0.0016333534149453,-0.00628012092784047,0.0446061454713345
158,-0.0109915202483535,0.0115139996632934,0.00201126770116389,-0.00153488724026829,-0.00441512418910861,0.0430893301963806
159,-0.00948473066091537,0.0120030622929335,0.00343186757527292,0.00206132256425917,-0.00267138541676104,0.0433732978999615
160,-0.00763811077922583,0.0158075634390116,0.00419144658371806,0.0079564219340682,-0.00199124426580966,0.0467104315757751
161,-0.00646700710058212,0.0205274540930986,0.00519447401165962,0.0133696692064404,-0.000908114947378635,0.0510172359645367
162,-0.00602759094908834,0.0211521703749895,0.00727925961837173,0.0155247524380684,0.00156755966600031,0.053097028285265
163,-0.0062599079683423,0.0180039796978235,0.00919494591653347,0.0140067022293806,0.00349953887052834,0.0507582165300846
164,-0.00726951379328966,0.0152868274599314,0.00891945417970419,0.0101415915414691,0.00317748030647635,0.044237032532692
165,-0.00791082438081503,0.016359455883503,0.00772817712277174,0.00716031575575471,0.00176977785304189,0.0401564873754978
166,-0.00713408086448908,0.0213455557823181,0.007856709882617,0.00755141023546457,-0.000371137022739276,0.0443768799304962
167,-0.00509790470823646,0.0262237917631865,0.00914307497441769,0.00987232755869627,-0.00289553822949529,0.052397046238184
168,-0.00247637089341879,0.0265888534486294,0.0107212215662003,0.0117796445265412,-0.00382181326858699,0.057143859565258
169,-0.000758861307986081,0.0215220842510462,0.01170948240906,0.0118392622098327,-0.00339959026314318,0.0565724484622478
170,-0.000839109998196363,0.0142620336264372,0.0118845691904426,0.0100372135639191,-0.00348667334765196,0.0528169386088848
171,-0.00194040918722749,0.0112979132682085,0.0118708545342088,0.00848301872611046,-0.00490899756550789,0.0513886027038097
172,-0.00289268419146538,0.0148854218423367,0.0115489596500993,0.00899140629917383,-0.00711188931018114,0.0541046895086765
173,-0.00279085733927786,0.0195205025374889,0.0110479788854718,0.0111607080325484,-0.00827912148088217,0.0551430881023407
174,-0.00150689750444144,0.020220872014761,0.0115827266126871,0.0128926895558834,-0.00724997976794839,0.0497880540788174
175,-0.000219017194467597,0.0170670375227928,0.0131468642503023,0.0119604449719191,-0.00474415021017194,0.0396330580115318
176,-0.0003506348002702,0.0129800671711564,0.0142756346613169,0.00808912608772516,-0.00260947737842798,0.0288033820688725
177,-0.0019158492796123,0.0102833714336157,0.014795464463532,0.00400593550875783,-0.00230094650760293,0.0210522413253784
178,-0.00274422648362815,0.0086609935387969,0.0161810945719481,0.00216818484477699,-0.00220473436638713,0.0177243929356337
179,-0.00079747976269573,0.00698557728901505,0.018778134137392,0.00200033653527498,-6.2030456319917E-05,0.0170108042657375
180,0.00269931368529797,0.0056752203963697,0.0204364005476236,0.00161416211631149,0.00152879999950528,0.0169871542602777
181,0.00464558321982622,0.00552473636344075,0.0194882396608591,0.000438269169535488,-0.000560460903216153,0.0180914755910635
182,0.00392244663089514,0.00640503689646721,0.0172135550528765,-9.79055184870958E-05,-0.00442698877304792,0.0221560709178448
183,0.00133842404466122,0.00760876666754484,0.0151912765577435,0.000670924258884043,-0.00795268546789885,0.0289460271596909
184,-0.00308143231086433,0.00864232145249844,0.0126246325671673,0.000947512162383646,-0.0127108236774802,0.0350918583571911
185,-0.00914540886878967,0.010642621666193,0.0086508747190237,-0.000250422686804086,-0.0195655710995197,0.0384503789246082
186,-0.0143371382728219,0.0144672561436892,0.00499806646257639,-0.0010387176880613,-0.0253490041941404,0.0405571423470974
187,-0.0162402633577585,0.0187646746635437,0.003591742599383,-6.99060037732124E-05,-0.0274235736578703,0.0425758995115757
188,-0.0156913697719574,0.0226773824542761,0.00394167145714164,0.00159869785420597,-0.0274236630648375,0.0439491607248783
189,-0.0150460032746196,0.0270704999566078,0.00415210984647274,0.00252923462539911,-0.0287220999598503,0.0452601946890354
190,-0.0155985960736871,0.0327904373407364,0.00281283026561141,0.00173427199479193,-0.0327936783432961,0.0472385697066784
191,-0.0165618099272251,0.0385138615965843,0.000481264665722847,-0.000222218979615718,-0.0368383415043354,0.0491617061197758
192,-0.0160925425589085,0.0391120389103889,-0.0015811218181625,-0.00237434101291001,-0.0374715700745583,0.0492976047098637
193,-0.0138975512236357,0.0297747161239386,-0.00321920774877071,-0.00517337396740913,-0.0358847007155418,0.0457426086068153
194,-0.011199040338397,0.0135818962007761,-0.00381386885419488,-0.00748800905421376,-0.034502737224102,0.0385725609958172
195,-0.00931684393435717,-0.000514820392709225,-0.00268624653108418,-0.00718412641435862,-0.0328321382403374,0.0305028352886438
196,-0.00859849527478218,-0.00792514346539974,-0.000290278752800077,-0.00433971500024199,-0.028359517455101,0.0249166786670685
197,-0.00833026878535748,-0.00919239316135645,0.00250356225296855,-0.000943694787565619,-0.0210794396698475,0.0240033771842718
198,-0.00761023256927729,-0.00424361322075129,0.0041873618029058,0.000943964696489275,-0.0154267977923155,0.0285953469574451
199,-0.00512235797941685,0.00415413873270154,0.00437942799180746,-0.000192004401469603,-0.0129547156393528,0.0362860970199108
200,-0.000390810600947589,0.00979917217046022,0.00460904184728861,-0.00457805162295699,-0.0100022284314036,0.0420336537063122
201,0.00411359127610922,0.0111279357224703,0.00593814672902226,-0.00947269424796104,-0.0051322290673852,0.044511828571558
202,0.00578140374273062,0.0108716636896133,0.00837236829102039,-0.0120750162750483,-8.81490486790426E-05,0.0463750064373016
203,0.00564841367304325,0.011600024998188,0.0113081699237227,-0.0124158998951316,0.00405262503772974,0.0491661950945854
204,0.00534525699913502,0.0149430958554149,0.0135138696059585,-0.0107268132269382,0.00586700066924095,0.0530179515480995
205,0.0034863855689764,0.0191041436046362,0.013196992687881,-0.0066907019354403,0.00218413746915758,0.0582199804484844
206,-0.000582756125368178,0.0196171067655087,0.00975885894149542,-0.00223276205360889,-0.0068359118886292,0.0628679916262627
207,-0.00471960660070181,0.0157208871096373,0.00514870323240757,-0.000406281294999644,-0.0161056872457266,0.0638296604156494
208,-0.00768245616927743,0.0107857706025243,0.00136059266515076,-0.00200350559316576,-0.0229556169360876,0.061104703694582
209,-0.00981990899890661,0.00725352251902223,-0.000697929179295897,-0.00476699694991112,-0.0275093335658312,0.0572891682386398
210,-0.010733287781477,0.00750288041308522,-9.87498424365185E-05,-0.0050483806990087,-0.0281780585646629,0.0548753812909126
211,-0.010014520958066,0.0135414730757475,0.00254040351137519,-0.0031337218824774,-0.0246435720473528,0.0526507161557674
212,-0.00822576228529215,0.0216409936547279,0.00490656727924943,-0.0031485662329942,-0.0194705817848444,0.0472885966300964
213,-0.00628764135763049,0.0262701641768217,0.00578977167606354,-0.00595077406615019,-0.0145685533061624,0.039476465433836
214,-0.00514023518189788,0.0274023674428463,0.00569838238880038,-0.0084340013563633,-0.0106240147724748,0.0333097241818905
215,-0.00516813388094306,0.0254903435707092,0.00515485415235162,-0.00801530387252569,-0.00924637541174889,0.0318219140172005
216,-0.0067057185806334,0.0201086290180683,0.00358081609010696,-0.0054360032081604,-0.0123881343752146,0.0346842370927334
217,-0.00941429939121008,0.0160559080541134,0.000807964359410107,-0.00305869313888252,-0.0188926011323929,0.0399274416267872
218,-0.012079244479537,0.01781633682549,-0.00209237285889685,-0.0024483057204634,-0.0257330257445574,0.0467874966561794
219,-0.0139816915616393,0.0245796069502831,-0.00372073776088655,-0.00383959268219769,-0.0309161636978388,0.0562797859311104
220,-0.0147020826116204,0.0350216440856457,-0.0029534341301769,-0.00610418990254402,-0.0330232866108418,0.0683624148368835
221,-0.0135215222835541,0.044700413942337,0.000249935808824375,-0.0079735703766346,-0.0317295901477337,0.0779670253396034
222,-0.0102467639371753,0.0448185093700886,0.00490830047056079,-0.00789964944124222,-0.0278471074998379,0.0782481580972672
223,-0.00605818117037416,0.0332567542791367,0.00980068743228912,-0.00521810445934534,-0.021848451346159,0.066834956407547
224,-0.00249293143860996,0.015977343544364,0.0138430567458272,-0.00204680091701448,-0.0142570752650499,0.0473686642944813
225,-0.00066940049873665,-0.000830158591270447,0.0160081014037132,-0.00122788571752608,-0.0071085412055254,0.0268046297132969
226,-0.00116827501915395,-0.012761814519763,0.0156849008053541,-0.0024485238827765,-0.0045974045060575,0.0120240012183785
227,-0.00420517427846789,-0.0178598631173372,0.013002336025238,-0.00335143273696303,-0.0101214041933417,0.00691010756418109
228,-0.0078551871702075,-0.0155509356409311,0.00988273695111275,-0.00215051136910915,-0.0191411226987839,0.0102169765159488
229,-0.00794721301645041,-0.006392867770046,0.00990758091211319,0.00278095155954361,-0.0217907857149839,0.0177139956504107
230,-0.00373732205480337,0.0039268871769309,0.013208856806159,0.008914390578866,-0.0154817961156368,0.0245259124785662
231,0.00122245459351689,0.00759006384760141,0.0154816433787346,0.0105595448985696,-0.00617332244291902,0.0284231174737215
232,0.00326656689867377,0.0037365360185504,0.0137217082083225,0.0065619763918221,0.000145162746775895,0.0320301242172718
233,0.000489743484649807,-0.00145867047831416,0.00790834333747625,-0.000197308996575885,0.000255130406003445,0.0378174409270287
234,-0.00503214914351702,-0.00420506438240409,0.000577877915930003,-0.00554181076586246,-0.00488294987007976,0.0438385419547558
235,-0.00835900101810694,-0.00611556554213166,-0.00387159013189375,-0.00666759954765439,-0.00938855949789286,0.043467815965414
236,-0.00720740482211113,-0.00874477159231901,-0.00377963623031974,-0.00599131407216191,-0.00933067034929991,0.0303113982081413
237,-0.00348735391162336,-0.00990853365510702,-0.0022383842151612,-0.00727182626724243,-0.00775052886456251,0.0072220922447741
238,0.000262961053522304,-0.00639778934419155,-0.00204324792139232,-0.00953618809580803,-0.00818746723234653,-0.0158321708440781
239,0.00367305311374366,-0.000266026705503464,-0.0014655125560239,-0.0083743603900075,-0.00778174074366689,-0.0326690226793289
240,0.00697603914886713,0.00290272710844874,0.00146582326851785,-0.00284566963091493,-0.00297995796427131,-0.0440963692963123
241,0.00948018580675125,0.00171749817673117,0.00443890830501914,0.00223464774899185,0.00326968380250037,-0.0528494827449322
242,0.0102394949644804,-0.000215335836401209,0.00466729141771793,0.00268810125999153,0.00578400352969766,-0.0598526559770107
243,0.0093200234696269,-0.000544265378266573,0.00256662908941507,-0.000809341494459659,0.00353043549694121,-0.0657693892717361
244,0.00869640801101923,-0.00312923151068389,0.000129037682199851,-0.00550767127424479,0.000531647528987378,-0.0721606090664864
245,0.00993228144943714,-0.0123221548274159,-0.00101983698550612,-0.00821681506931782,0.00148803391493857,-0.0787449032068253
246,0.0126037886366248,-0.0248927511274815,-0.000247635383857414,-0.00581882800906897,0.00707495724782348,-0.0825610011816025
247,0.0153937917202711,-0.0350203365087509,0.00181554758455604,0.000258184067206457,0.0152004631236196,-0.0832027271389961
248,0.0170521903783083,-0.0413063317537308,0.00385587872005999,0.00546690728515387,0.0229286476969719,-0.0832543671131134
249,0.0174631588160992,-0.042793270200491,0.00471208617091179,0.00799838453531265,0.0273630190640688,-0.0839167684316635
250,0.017139233648777,-0.0390591695904732,0.00331166991963983,0.0073218559846282,0.0273673180490732,-0.0859397053718567
251,0.0169148426502943,-0.0353169925510883,0.000209868245292455,0.00393269630149007,0.0248945821076632,-0.0889836698770523
252,0.0177004784345627,-0.0357248894870281,-0.00229713809676468,0.000795871252194047,0.0233268272131681,-0.0913897454738617
253,0.0191433094441891,-0.0392656177282333,-0.00321562332101166,-0.000104646664112806,0.0238955020904541,-0.0931201800704002
254,0.0196628347039223,-0.044727586209774,-0.00371493329294026,0.000128971470985562,0.0239153001457453,-0.0948968827724457
255,0.0177386458963156,-0.0508796572685242,-0.00544507149606943,-0.00103704095818102,0.0192474275827408,-0.0979496613144875
256,0.0142559176310897,-0.0550356209278107,-0.0075407293625176,-0.00351670291274786,0.0114510832354426,-0.103024214506149
257,0.0118863265961409,-0.0556813478469849,-0.00673974910750985,-0.00471118232235312,0.00734973233193159,-0.108460821211338
258,0.0118205165490508,-0.0536294914782047,-0.00210432126186788,-0.00378950336016715,0.0101795447990298,-0.111996702849865
259,0.0140916239470243,-0.0499235242605209,0.00471231527626514,-0.0018210414564237,0.019622165709734,-0.112775236368179
260,0.0181755498051643,-0.0455293878912926,0.0118056302890182,-0.000633811519946903,0.0337619371712208,-0.111966669559479
261,0.0225151348859072,-0.0411557108163834,0.0162498168647289,-0.00168062828015536,0.0458322577178478,-0.110411755740643
262,0.0259399898350239,-0.036570243537426,0.0169897489249706,-0.00322523922659457,0.0503370463848114,-0.105673655867577
263,0.0280006118118763,-0.0325237065553665,0.0166201777756214,-0.00242360332049429,0.0487421452999115,-0.0966834723949432
264,0.028254484757781,-0.0297412071377039,0.016690606251359,-8.87232454260811E-05,0.043945025652647,-0.0886514410376549
265,0.0264746733009815,-0.0271054524928331,0.0169683415442705,0.00278638117015362,0.0376728102564812,-0.0842682123184204
266,0.0231545679271221,-0.026095436885953,0.0172974187880754,0.00716786691918969,0.0316912457346916,-0.0787519812583923
267,0.0195665955543518,-0.0286373179405928,0.0162387080490589,0.0111581152305007,0.0267098881304264,-0.0700424388051033
268,0.0169060379266739,-0.0317354798316956,0.0128208324313164,0.0124396895989776,0.0229547005146742,-0.0613390542566776
269,0.0153601700440049,-0.0322161912918091,0.00868968013674021,0.0119366580620408,0.0209850296378136,-0.0551447756588459
270,0.0141057372093201,-0.0292010456323624,0.00518355099484324,0.0106937512755394,0.0198272746056318,-0.0516644157469273
271,0.012824198231101,-0.0243393778800964,0.00261091790162027,0.0091889975592494,0.0184570606797934,-0.0496271550655365
272,0.0124678211286664,-0.0206250157207251,0.0019966100808233,0.00834517553448677,0.0185394138097763,-0.0479796305298805
273,0.0126926265656948,-0.0182705335319042,0.0028556811157614,0.00737980892881751,0.0202374123036861,-0.0475789755582809
274,0.0117760049179196,-0.0180639438331127,0.00263662380166352,0.00441337842494249,0.0204697903245687,-0.049469169229269
275,0.0102465385571122,-0.0223660413175821,0.00120181636884809,-0.000187332261702977,0.0192854087799788,-0.0525603704154491
276,0.0104094240814447,-0.029091177508235,0.00118618935812265,-0.0034389290958643,0.0198759101331234,-0.0538058057427406
277,0.0124030206352472,-0.0328106991946697,0.00289046042598784,-0.00284594972617924,0.0217441134154797,-0.0505721010267735
278,0.0141668245196342,-0.0316715240478516,0.00433760369196534,0.000216589993215166,0.0222577359527349,-0.0443336851894856
279,0.0146200889721513,-0.027882345020771,0.00476618949323893,0.00275370525196195,0.0212022848427296,-0.0391331687569618
280,0.0135811297222972,-0.0226337891072035,0.00390668027102947,0.0032998900860548,0.0183559153228998,-0.0368029214441776
281,0.0115261459723115,-0.0163863953202963,0.00265998370014131,0.00181288155727088,0.0147709073498845,-0.0373776964843273
282,0.00947686471045017,-0.0130768781527877,0.00256833760067821,-0.000358713208697736,0.0121072111651301,-0.040836438536644
283,0.00736733013764024,-0.0159364324063063,0.00318986712954938,-0.000822258763946593,0.00895805284380913,-0.0452987104654312
284,0.00548751233145595,-0.0221622493118048,0.00344665697775781,0.00225310469977558,0.00551654677838087,-0.0480987839400768
285,0.00459595955908298,-0.0268806330859661,0.00253832410089672,0.00743742287158966,0.00364460237324238,-0.049345288425684
286,0.00427327631041408,-0.0281539782881737,0.000566744536627084,0.0104308165609837,0.00354726007208228,-0.0514418855309486
287,0.00385757139883935,-0.0266796052455902,-0.00104717724025249,0.0100820818915963,0.00466975243762136,-0.0535054914653301
288,0.00256848544813693,-0.0231133829802275,-0.00189449172466993,0.00898741837590933,0.00553208170458674,-0.0502348951995373
289,-0.000219482244574465,-0.0170766953378916,-0.00277394359000027,0.0075999777764082,0.00419445056468248,-0.0392056107521057
290,-0.0032216995023191,-0.00874777045100927,-0.00347602413967252,0.00528265070170164,0.000403793208533898,-0.0229177605360746
291,-0.00435011414811015,-0.000977391726337373,-0.00333274318836629,0.00297334603965282,-0.00410959077998996,-0.00654008844867349
292,-0.00264798826538026,0.00196621916256845,-0.00237233727239072,0.00110621051862836,-0.0059677897952497,0.00296879513189197
293,0.00132159620989114,-0.001193190459162,-0.00122209661640227,-0.000867273367475718,-0.00233328179456294,0.00226059788838029
294,0.00561684696003795,-0.00758788594976068,4.62305724795442E-05,-0.00230115652084351,0.00605826638638973,-0.00404586223885417
295,0.00843669567257166,-0.013867262750864,0.00245976913720369,-0.00108107249252498,0.0160526372492313,-0.00838910415768623
296,0.00915293768048286,-0.0181375686079264,0.00560533627867699,0.00281069753691554,0.0240900665521622,-0.00836325436830521
297,0.00784669909626246,-0.0203971173614264,0.00701853213831782,0.00603544618934393,0.0274043343961239,-0.00772280571982265
298,0.00463190022855997,-0.0213207826018333,0.00525557156652212,0.00653291447088122,0.0249355062842369,-0.00966900866478682
299,0.000645425927359611,-0.0202266164124012,0.00208283332176507,0.00540335662662983,0.019574660807848,-0.0130338240414858
300,-0.0021430675406009,-0.0181100200861692,-0.00045955294626765,0.0031702178530395,0.0153585467487574,-0.014414026401937
301,-0.00366650940850377,-0.0163060966879129,-0.00247799581848085,0.000362778751878068,0.0119734043255448,-0.0108648194000125
302,-0.00488381972536445,-0.0125625263899565,-0.00392891652882099,-0.000600398576352745,0.00847492087632418,-0.00330803194083273
303,-0.00609538983553648,-0.00675795506685972,-0.00489255227148533,0.000627915200311691,0.00543054006993771,0.00378822861239314
304,-0.00692663248628378,-0.00225342065095901,-0.00547629175707698,0.00223482050932944,0.0035599791444838,0.00804953649640083
305,-0.00699169235303998,0.000762786658015102,-0.00539418263360858,0.00361745548434556,0.00293412781320512,0.0102579174563289
306,-0.00695943366736174,0.00355595047585666,-0.00556740956380963,0.00445314263924956,0.00169689569156617,0.0107854856178164
307,-0.00759596796706319,0.00513881351798773,-0.00706243049353361,0.00404593208804727,-0.000896907527931035,0.0101005015894771
308,-0.00934377778321505,0.00516217621043324,-0.00989238731563091,0.0029970402829349,-0.0039852699264884,0.0111377062276006
309,-0.0117348935455084,0.00454893847927451,-0.0132759995758533,0.00309379654936492,-0.0072421096265316,0.0168854091316462
310,-0.0123039167374372,0.0035039356444031,-0.0153186684474349,0.00470209494233131,-0.00773322675377131,0.0256282258778811
311,-0.0100538628175855,0.0037050771061331,-0.0149140376597643,0.00678107747808099,-0.00403478974476457,0.0329773873090744
312,-0.00823821499943733,0.00772490305826068,-0.0135076893493533,0.00850410293787718,-0.0013199090026319,0.0370882712304592
313,-0.00934802647680044,0.0126528199762106,-0.0108965542167425,0.0102631002664566,-0.000572583056055009,0.0375348292291164
314,-0.0110618453472853,0.0156336445361376,-0.00570315402001143,0.0132097844034433,0.00238551246002316,0.0342414900660515
315,-0.0103569887578487,0.0183103550225496,-0.000300176674500108,0.0154244126752019,0.00666925404220819,0.0274149347096682
316,-0.00806467607617378,0.0180285889655352,0.00235902611166239,0.0142712825909257,0.00847368594259024,0.0176669880747795
317,-0.00679878937080503,0.011168459430337,0.00285192066803575,0.0119643630459905,0.00702478503808379,0.00879245158284903
318,-0.0078007560223341,0.00115586700849235,0.00285017141140997,0.012373486533761,0.00404103472828865,0.00496265524998307
319,-0.0104361213743687,-0.00619138963520527,0.00267745065502822,0.0150311663746834,0.0016641418915242,0.00503741623833776
320,-0.0129539268091321,-0.00868428591638803,0.0021979920566082,0.0158493462949991,0.000559148145839572,0.00483053224161267
321,-0.0142379114404321,-0.00663842726498842,0.00215630605816841,0.014245267957449,-0.000774412474129349,0.00460792146623135
322,-0.0143334474414587,-0.000239893008256331,0.00296070147305727,0.0144664645195007,-0.00325609371066093,0.0085784737020731
323,-0.0138516807928681,0.00893353205174208,0.00319069949910045,0.0179978832602501,-0.00585465878248215,0.0168410092592239
324,-0.0137487892061472,0.0150369852781296,0.00121696956921369,0.0200177244842052,-0.00795875582844019,0.0243153087794781
325,-0.0151627566665411,0.0133295021951199,-0.00303647480905056,0.016376631334424,-0.0109764775261283,0.0286052525043488
326,-0.0175654459744692,0.00832049455493689,-0.00767787545919418,0.0103056179359555,-0.015342908911407,0.0339865498244762
327,-0.0186034198850393,0.00747423339635134,-0.0109853260219097,0.00670630903914571,-0.0191195644438267,0.0442561991512775
328,-0.0167415402829647,0.0116822086274624,-0.0127251921221614,0.00502239167690277,-0.0197606459259987,0.056833527982235
329,-0.0130774406716228,0.0171282738447189,-0.0129446145147085,0.00297383940778673,-0.0169622246176004,0.0671888664364815
330,-0.0103623932227492,0.0212246850132942,-0.0124978898093104,0.00125065702013671,-0.0132212862372398,0.0725709870457649
331,-0.00999440718442202,0.0230209939181805,-0.0128333810716867,0.000342619547154754,-0.0103280730545521,0.0702900066971779
332,-0.011002454906702,0.022441204637289,-0.0131599875167012,-0.000542249588761479,-0.00793217308819294,0.0608706288039684
333,-0.0117075191810727,0.02185083553195,-0.0111408568918705,-0.000196653345483355,-0.00414443435147405,0.0492242574691772
334,-0.0116880228742957,0.023181090131402,-0.00673376210033894,0.00245627062395215,0.00127941323444247,0.0389836356043816
335,-0.0110637284815311,0.0245324429124594,-0.00203579943627119,0.005501763895154,0.00594153441488743,0.0316268689930439
336,-0.0101203117519617,0.0226849298924208,0.000735038891434669,0.00651270803064108,0.00838025286793709,0.0272937510162592
337,-0.0097596924751997,0.018242996186018,0.00113140710163862,0.00606902502477169,0.00864545721560717,0.0263996887952089
338,-0.00988698564469814,0.0147376777604222,0.000962442485615611,0.00629776529967785,0.00780292553827167,0.0291682928800583
339,-0.00927961710840464,0.0129795633256435,0.0021138999145478,0.00710641080513597,0.00880076549947262,0.0317470356822014
340,-0.00838966015726328,0.0108751421794295,0.0039644599892199,0.00774736702442169,0.0106420321390033,0.0316811427474022
341,-0.00887590274214745,0.00690121063962579,0.00397303141653538,0.00855541974306107,0.00863775890320539,0.0311377067118883
342,-0.0103851677849889,0.00139546941500157,0.00108599092345685,0.00893782451748848,0.00363246421329677,0.031105687841773
343,-0.0121846161782742,-0.00225390866398811,-0.00365128531120718,0.00910077150911093,-0.00212559080682695,0.0331272035837173
344,-0.0140854697674513,-0.000340944534400478,-0.00786307640373707,0.0107843205332756,-0.00881355628371239,0.0399557650089264
345,-0.0145212253555655,0.00459769135341048,-0.00954371504485607,0.0114767290651798,-0.0138678047806025,0.048375066369772
346,-0.012480060569942,0.00737499771639705,-0.00895199924707413,0.00732254236936569,-0.0139768663793802,0.052619319409132
347,-0.00991199817508459,0.00857602804899216,-0.00771979847922921,0.00145062082447112,-0.0106169329956174,0.0535587891936302
348,-0.00911506731063128,0.0113550517708063,-0.00662549771368504,-0.000871214317157865,-0.0069292220287025,0.054869681596756
349,-0.00942328292876482,0.0147209530696273,-0.00497214077040553,0.000243002388742752,-0.00317360297776759,0.0563781000673771
350,-0.0100077083334327,0.0153714856132865,-0.00266383099369705,0.00183890794869512,-9.53605831455207E-06,0.0562199093401432
351,-0.0117077017202973,0.0138105433434248,-0.000873971206601709,0.00290007912553847,0.00100404734257609,0.0539749078452587
352,-0.0145297078415751,0.014082171022892,-0.000959364697337151,0.00331020960584283,0.000268637551926076,0.0503907538950443
353,-0.0176087506115437,0.0181261226534843,-0.00259376550093293,0.00374130415730178,-0.000921303580980748,0.0489980094134808
354,-0.0195683501660824,0.0233518201857805,-0.00297957635484636,0.00636234041303396,-0.00108619255479425,0.0521408468484879
355,-0.0198442246764898,0.02490627579391,-0.00158357410691679,0.00918743759393692,-0.00014207985077519,0.05463657528162
356,-0.0195128545165062,0.0213007051497698,-0.00122383411508054,0.00765946786850691,-0.00028773199301213,0.0528680384159088
357,-0.0192155707627535,0.0170765146613121,-0.00162453262601048,0.00333876744844019,-0.00256977719254792,0.0508408360183239
358,-0.0188535079360008,0.0184158477932215,-8.9427710918244E-05,0.00119487568736076,-0.00617560651153326,0.0516343116760254
359,-0.0180607344955206,0.0260852966457605,0.00251953792758286,0.00244788592681289,-0.00988902058452368,0.0532736852765083
360,-0.0165260341018438,0.0350173972547054,0.00373280257917941,0.00493676122277975,-0.0122424876317382,0.0527475997805595
361,-0.0140952048823237,0.0407113023102283,0.00302366469986737,0.006120840087533,-0.0123542239889503,0.0503410510718822
362,-0.0104498043656349,0.0402156002819538,-3.01727195619605E-05,0.00522693106904626,-0.0103508131578565,0.0487072095274925
363,-0.00655533839017153,0.0322202481329441,-0.00510958442464471,0.00356504647061229,-0.00704127410426736,0.048226322978735
364,-0.00503941951319575,0.020813686773181,-0.0090482709929347,0.00257478561252356,-0.0042511960491538,0.0467872656881809
365,-0.00705148512497544,0.0129760671406984,-0.00890425126999617,0.00318061048164964,-0.00435506971552968,0.0438886284828186
366,-0.010672708041966,0.0106436498463154,-0.00529194204136729,0.00456809671595693,-0.00764835393056273,0.0410366728901863
367,-0.0138089098036289,0.00954607594758272,-0.0010258675320074,0.00433041248470545,-0.011332300491631,0.0400121137499809
368,-0.0167285446077585,0.00818737037479877,0.00173909496515989,0.00419089524075389,-0.0136680407449603,0.0430031456053257
369,-0.0200680382549763,0.00939333532005548,0.00247364002279937,0.00803641136735678,-0.0148372072726488,0.0497923977673054
370,-0.0223919656127691,0.0148109570145607,0.00240652589127421,0.0136748189106584,-0.012809045612812,0.0570388585329056
371,-0.0224401839077473,0.0226685646921396,0.00236388016492128,0.0157767776399851,-0.00837521906942129,0.0627239793539047
372,-0.019895400851965,0.0275891665369272,0.00211707409471273,0.0137134250253439,-0.00558806443586946,0.0668193027377129
373,-0.0146457320079207,0.0277572069317102,0.00230771931819618,0.0101233562454581,-0.00392978871241212,0.0687488093972206
374,-0.00874969176948071,0.0283370688557625,0.00261855684220791,0.00616167997941375,-0.00214048777706921,0.0674218684434891
375,-0.00532343238592148,0.031816229224205,0.00139733776450157,0.00155764713417739,-0.000941066537052393,0.0629517436027527
376,-0.00531589100137353,0.0340816155076027,-0.00142001244239509,-0.00363747426308692,-0.000627918692771345,0.0567747615277767
377,-0.00729819294065237,0.0327073708176613,-0.00449922261759639,-0.00806494615972042,-0.00203984044492245,0.0506509430706501
378,-0.00946511793881655,0.0291667729616165,-0.00709166284650564,-0.0102873248979449,-0.00526261748746037,0.0458947233855724
379,-0.0104330414906144,0.0240560490638018,-0.00856867432594299,-0.010353047400713,-0.00815584976226091,0.0435940697789192
380,-0.00976709276437759,0.0172899886965752,-0.00835380889475346,-0.00920239835977554,-0.00917868223041296,0.0453493520617485
381,-0.0080188475549221,0.0109000615775585,-0.00697136437520385,-0.00708035659044981,-0.00878227408975363,0.0522773414850235
382,-0.0061211003921926,0.00808118842542171,-0.00542811863124371,-0.00429521780461073,-0.00786028709262609,0.0618456564843655
383,-0.00524303922429681,0.00919836573302746,-0.00390332890674472,-0.0020448206923902,-0.00565992621704936,0.0677416995167732
384,-0.00504118902608752,0.0118237119168043,-0.00102500489447266,0.000868965231347829,-0.000475343316793442,0.0667783468961716
385,-0.00448543392121792,0.0142993731424212,0.00358896469697356,0.00518077425658703,0.00538255413994193,0.0613818317651749
386,-0.00416470738127828,0.0161773078143597,0.00716191809624434,0.00699938181787729,0.00716591160744429,0.0540206916630268
387,-0.00586757902055979,0.017525888979435,0.00640285713598132,0.00402064481750131,0.00311083858832717,0.0459781438112259
388,-0.00963038858026266,0.0194992478936911,0.00156180211342871,-0.000540277804248035,-0.00435233535245061,0.0403894260525703
389,-0.0121028944849968,0.0225389748811722,-0.00297121843323112,-0.00202998798340559,-0.0100139956921339,0.0403928533196449
390,-0.0111827617511153,0.0252654086798429,-0.00408033560961485,0.000596993719227612,-0.0111157614737749,0.0439484342932701
391,-0.00849675852805376,0.025553347542882,-0.00281455786898732,0.0039163394831121,-0.00921599380671978,0.0446463599801064
392,-0.00600935006514192,0.0229715947061777,-0.000801370886620134,0.004671985283494,-0.00687449844554067,0.03944381326437
393,-0.00463856244459748,0.0200995914638042,0.00102800037711859,0.0021514049731195,-0.00635032774880528,0.0315968431532383
394,-0.00475384527817369,0.0180790051817894,0.00167502241674811,-0.00317735457792878,-0.00834478251636028,0.0250325556844473
395,-0.00601170491427183,0.0159529950469732,0.00132028385996819,-0.00925218965858221,-0.0112805124372244,0.0222994480282068
396,-0.00807794369757175,0.0152392638847232,0.00109275686554611,-0.014200665988028,-0.0139228496700525,0.0247367434203625
397,-0.0104760779067874,0.0178418774157763,0.00126296188682318,-0.018142357468605,-0.0158034227788448,0.0306798461824656
398,-0.0119162639603019,0.0202194899320602,0.000962309364695102,-0.021295577287674,-0.0157658122479916,0.0365360602736473
399,-0.0116755357012153,0.0180574953556061,-0.000303607695968822,-0.0228951573371887,-0.0139503264799714,0.0394245684146881
400,-0.0109215620905161,0.0126424990594387,-0.00229980959556997,-0.0227331258356571,-0.013254938647151,0.0394834354519844
401,-0.0117689855396748,0.00581594929099083,-0.00568713806569576,-0.0229906775057316,-0.0167914368212223,0.0388099290430546
402,-0.0147224981337786,-0.00153910974040627,-0.0100300163030624,-0.0236150119453669,-0.0240830425173044,0.0397400259971619
403,-0.0183660965412855,-0.00493998732417822,-0.0128631740808487,-0.0212684627622366,-0.031978901475668,0.0433891676366329
404,-0.0209742169827223,-0.00114499358460307,-0.0132748540490866,-0.016649067401886,-0.0369929783046246,0.0472889393568039
405,-0.0212044268846512,0.00625868048518896,-0.0119045404717326,-0.0127078732475638,-0.0352861918509007,0.0484845116734505
406,-0.0191780421882868,0.0124356271699071,-0.00976781640201807,-0.0104228062555194,-0.0269783027470112,0.0469216220080853
407,-0.0157204233109951,0.016452619805932,-0.00758451875299215,-0.0103791058063507,-0.0167204141616821,0.0442663282155991
408,-0.0112859839573503,0.0212976429611444,-0.00475249066948891,-0.0107418801635504,-0.00847970321774483,0.042556993663311
409,-0.00745962141081691,0.0300908554345369,-0.00223712343722582,-0.00952150207012892,-0.00572065683081746,0.0417865365743637
410,-0.00550266867503524,0.0392933562397957,-0.00225026067346334,-0.00910318549722433,-0.0094491308555007,0.0395478755235672
411,-0.0050205122679472,0.041898887604475,-0.00409292662516236,-0.010792575776577,-0.0158072896301746,0.0356699898838997
412,-0.00555459130555391,0.0361715666949749,-0.00678287213668227,-0.0131071284413338,-0.0221841987222433,0.033557590097189
413,-0.00546069489791989,0.0256852209568024,-0.0102830212563276,-0.0152852963656187,-0.0271732937544584,0.0363626927137375
414,-0.00305648730136454,0.0164490528404713,-0.0126808658242226,-0.0159433577209711,-0.0272211525589228,0.0442596524953842
415,-0.000451141037046909,0.0137654840946198,-0.013015671633184,-0.0142713040113449,-0.0222763121128082,0.0537075996398926
416,-0.000618728343397379,0.0180029720067978,-0.012526941485703,-0.0115058543160558,-0.0165985301136971,0.0605463832616806
417,-0.00293518742546439,0.0230015814304352,-0.0113579472526908,-0.0087366197258234,-0.0126340277493,0.0632538720965385
418,-0.00517617212608457,0.0213190019130707,-0.00860255211591721,-0.00692173885181546,-0.0106540089473128,0.0607219785451889
419,-0.00624377559870481,0.0134495105594397,-0.00394559744745493,-0.00620418973267078,-0.01065643876791,0.0525097325444222
420,-0.00675554061308503,0.00627482449635863,0.00147678435314447,-0.00626101857051253,-0.012791745364666,0.0407426990568638
421,-0.00895089376717806,0.00408651819452643,0.00505061307922006,-0.00797587912529707,-0.0177052803337574,0.0279916580766439
422,-0.0137924272567034,0.00589143158867955,0.00520356371998787,-0.0109571600332856,-0.0237125642597675,0.0164361651986837
423,-0.0185130853205919,0.0084719080477953,0.00295803882181644,-0.0132631426677108,-0.0269639510661364,0.0079739224165678
424,-0.0198999531567097,0.00961948186159134,0.000562930130399764,-0.0136751160025597,-0.0257012769579887,0.00315526337362826
425,-0.017287964001298,0.00930521264672279,9.23974002944306E-05,-0.0124406786635518,-0.019463587552309,0.00155747763346881
426,-0.0119236446917057,0.00971808936446905,0.00205379398539662,-0.0110543984919786,-0.00950144324451685,0.00373788992874324
427,-0.00701035559177399,0.0127082150429487,0.00419204495847225,-0.0106042996048927,-0.00208748900331557,0.0105045838281512
428,-0.00521633587777615,0.0158463511615992,0.00428357347846031,-0.0103009780868888,-0.00208964478224516,0.0210368856787682
429,-0.00613030139356852,0.0162124261260033,0.00340787693858147,-0.00814338959753513,-0.00688648829236627,0.0333273746073246
430,-0.00846275128424168,0.0152940694242716,0.00291964807547629,-0.00477185752242804,-0.0120024513453245,0.0433989427983761
431,-0.0107839331030846,0.0139079578220844,0.00227244477719069,-0.00355601240880787,-0.0149626173079014,0.0466135069727898
432,-0.0116005325689912,0.010733475908637,0.00171624729409814,-0.00445187138393521,-0.0153262168169022,0.0424740314483643
433,-0.010668408125639,0.00664599426090717,0.00206444202922285,-0.00420576380565763,-0.0143385240808129,0.034479696303606
434,-0.00854161567986012,0.00324076483957469,0.00283775734715164,-0.00245983805507421,-0.0122561240568757,0.0266336668282747
435,-0.00631166668608785,0.000562012137379497,0.00331627600826323,-0.00195210496895015,-0.00855364464223385,0.0224067065864801
436,-0.00533018913120031,-8.58167695696466E-05,0.00362495658919215,-0.0033844776917249,-0.00429030461236835,0.0234413407742977
437,-0.00591441569849849,0.00325483689084649,0.00429600942879915,-0.00418454688042402,-0.00157005386427045,0.0284409988671541
438,-0.0071495957672596,0.00832447130233049,0.00527821900323033,-0.00401020282879472,-0.000505321018863469,0.0340834185481071
439,-0.00863227713853121,0.0108697442337871,0.0051895659416914,-0.00558349024504423,-0.00011679142335197,0.0376607403159142
440,-0.0102689824998379,0.0109514351934195,0.00350649142637849,-0.00897704157978296,3.35451259161346E-05,0.0395784266293049
441,-0.0107604824006557,0.0124090285971761,0.00242183613590896,-0.0117209060117602,0.00128883891738951,0.0415059328079224
442,-0.0089536914601922,0.0168217308819294,0.00367626338265836,-0.0123506216332316,0.0041522653773427,0.0433915555477142
443,-0.00583349354565144,0.0220416709780693,0.00608170498162508,-0.0112847164273262,0.00661079492419958,0.0436735190451145
444,-0.00423933193087578,0.0241607874631882,0.00742611568421125,-0.010539217852056,0.00630957493558526,0.041255284100771
445,-0.00577735435217619,0.0197259690612555,0.0072414050810039,-0.0114093665033579,0.00350098521448672,0.0371968559920788
446,-0.00943757407367229,0.00982710719108582,0.00660786498337984,-0.0130644887685776,0.000144843783346005,0.0335398353636265
447,-0.0132110165432096,-0.000979746808297932,0.00653382111340761,-0.0145605178549886,-0.00388049730099738,0.0305427573621273
448,-0.0143017284572124,-0.00939046405255795,0.00805208086967468,-0.0149533348158002,-0.00787975173443556,0.0267162919044495
449,-0.0114410445094109,-0.0140247046947479,0.0111160986125469,-0.0116943027824163,-0.0093016205355525,0.0205882638692856
450,-0.00715189892798662,-0.0139222824946046,0.0140941813588142,-0.00383564131334424,-0.00873338244855404,0.0119062084704638
451,-0.00371721689589322,-0.00904916226863861,0.0154322553426027,0.00402923114597797,-0.00769055774435401,0.00232992134988308
452,-0.00110057787969708,-0.00262544583529234,0.0141664184629917,0.00661422125995159,-0.00628812098875642,-0.00429330347105861
453,-0.000311066367430612,0.00110146554652601,0.010796919465065,0.00471181096509099,-0.00503554800525308,-0.00415121018886566
454,-0.00281114177778363,0.000923419953323901,0.00693067023530602,0.00259969825856388,-0.00442202435806394,0.00166409474331886
455,-0.00667703151702881,-0.00168476242106408,0.00311674922704697,0.00206587766297162,-0.00431697815656662,0.00836215261369944
456,-0.00897709932178259,-0.0037346666213125,-0.000836274411994964,0.00179931160528213,-0.00441200053319335,0.0139298867434263
457,-0.0097025902941823,-0.00174557627178729,-0.00411759177222848,-0.000112084730062634,-0.00449476111680269,0.0200751982629299
458,-0.0101235881447792,0.00648968713358045,-0.00529307965189219,-0.00385120627470315,-0.00452845357358456,0.0277077369391918
459,-0.0111044580116868,0.0174037683755159,-0.00425262376666069,-0.00730761047452688,-0.00493451440706849,0.0345479026436806
460,-0.0126248523592949,0.0232789423316717,-0.00215544831007719,-0.00849443022161722,-0.00615211529657245,0.0384360626339912
461,-0.0135787110775709,0.0214985348284245,-0.000247855728957802,-0.00764185329899192,-0.00858365092426538,0.0393039397895336
462,-0.0131129389628768,0.0149974087253213,0.00116264750249684,-0.00633574835956097,-0.0115325096994638,0.0376407131552696
463,-0.0110947284847498,0.00811114814132452,0.00294909928925335,-0.00591303966939449,-0.0116357384249568,0.0339027419686317
464,-0.00885277800261974,0.00312055251561105,0.00413600215688348,-0.00749093666672707,-0.00784768350422382,0.0283123441040516
465,-0.00941341929137707,-0.00155300856567919,0.000993184046819806,-0.0126704946160316,-0.00584929483011365,0.0219177082180977
466,-0.0132022714242339,-0.00698480848222971,-0.00618136255070567,-0.0209932457655668,-0.0087816771119833,0.0161606483161449
467,-0.0167631786316633,-0.0114468894898891,-0.011520023457706,-0.027081860229373,-0.0113046513870358,0.0119476271793246
468,-0.0179649461060762,-0.011217525228858,-0.012287656776607,-0.0264433845877647,-0.00981171615421772,0.0103806182742119
469,-0.016802366822958,-0.00335610006004572,-0.00942641962319613,-0.0203391052782536,-0.00575261097401381,0.0115834157913923
470,-0.0133512681350112,0.0082064438611269,-0.00320413266308606,-0.0115860737860203,-0.000495187880005687,0.0139933079481125
471,-0.00889228377491236,0.0150806326419115,0.00436167139559984,-0.00262236292473972,0.00427041575312614,0.0148845436051488
472,-0.00506483297795057,0.0144074484705925,0.00971211399883032,0.00430402811616659,0.00653096847236156,0.0117357447743416
473,-0.00170059478841722,0.00937625765800476,0.0119194807484746,0.00798922125250101,0.00710287969559431,0.00396178429946303
474,0.00104379444383085,0.00332436035387218,0.0120693976059556,0.00795402284711599,0.00735650584101677,-0.00586466211825609
475,0.00145049626007676,-0.00221280637197196,0.0106094190850854,0.00458919676020741,0.00498288823291659,-0.0140133816748858
476,-0.000153216256876476,-0.00711809191852808,0.00779141532257199,-0.00160411687102169,-0.00100050575565547,-0.0196987260133028
477,-0.001895377994515,-0.0109735550358891,0.00428293878212571,-0.00991431530565023,-0.00752692623063922,-0.0235649328678846
478,-0.00358281587250531,-0.0126516558229923,0.000760730355978012,-0.0181283615529537,-0.0123172169551253,-0.0256270710378885
479,-0.00497439410537481,-0.0115219485014677,-0.00268129399046302,-0.0241172220557928,-0.0152300782501698,-0.0259282570332289
480,-0.00522201508283615,-0.00826196372509003,-0.00692155072465539,-0.0282623041421175,-0.0172485634684563,-0.0252764821052551
481,-0.00430790241807699,-0.00417033303529024,-0.0119006708264351,-0.0320196263492107,-0.0190843846648932,-0.0253129545599222
482,-0.0021922227460891,0.000957722892053425,-0.0155158750712872,-0.0350663885474205,-0.0206116680055857,-0.0261104386299849
483,0.000713634770363569,0.00641379319131374,-0.0165214631706476,-0.0367026217281818,-0.0221413783729076,-0.0265378337353468
484,0.00347692053765059,0.00923386681824923,-0.0159078873693943,-0.0377247221767902,-0.0238705147057772,-0.0268439818173647
485,0.0054790792055428,0.00821134075522423,-0.0156746562570333,-0.038846094161272,-0.0263185538351536,-0.0288702342659235
486,0.00606099842116237,0.0044684917666018,-0.016872264444828,-0.0396593809127808,-0.0303548295050859,-0.0344995856285095
487,0.00557021191343665,-0.00125603633932769,-0.0192207004874945,-0.0410568416118622,-0.0354309752583504,-0.0447533763945103
488,0.00451348256319761,-0.00826637726277113,-0.0231653209775686,-0.0443766750395298,-0.0418059416115284,-0.0573805384337902
489,0.00287872739136219,-0.0139344939962029,-0.0280045811086893,-0.0479937940835953,-0.0493354760110378,-0.0665934532880783
490,0.00179035984911025,-0.0160187855362892,-0.0313337780535221,-0.0506565347313881,-0.0553315877914429,-0.0706802383065224
491,0.00161648017819971,-0.0151347629725933,-0.0334076732397079,-0.0533286742866039,-0.0601366385817528,-0.0729511007666588
492,0.0015681852819398,-0.0128878373652697,-0.0356120206415653,-0.0556518547236919,-0.0661847516894341,-0.074906975030899
493,0.00143382407259196,-0.0102166822180152,-0.0372821167111397,-0.0565123595297337,-0.072819322347641,-0.0760941132903099
494,0.00110734475310892,-0.00806684792041779,-0.038058839738369,-0.0569932088255882,-0.07782082259655,-0.0782231539487839
495,0.000913851195946336,-0.00729886628687382,-0.0393049791455269,-0.0598733760416508,-0.0805474296212196,-0.0846429765224457
496,0.00128219940233976,-0.00707418099045753,-0.043046347796917,-0.0664164572954178,-0.0838383361697197,-0.0954511240124702
497,0.00235663866624236,-0.00567470258101821,-0.0495999306440353,-0.0740740522742271,-0.0903554111719131,-0.107014887034893
498,0.00389824225567281,-0.00426731072366238,-0.0571774914860725,-0.0805975124239922,-0.0987495705485344,-0.117916114628315
499,0.0054764412343502,-0.00610843673348427,-0.0637979432940483,-0.0871143341064453,-0.105774886906147,-0.12961108982563
500,0.00747591536492109,-0.0102705750614405,-0.0676424205303192,-0.0936483219265938,-0.109213098883629,-0.141183570027351
501,0.00937597081065178,-0.0124083124101162,-0.0681623294949532,-0.0987113416194916,-0.109509229660034,-0.150872260332108
502,0.0109693845734,-0.0126116033643484,-0.0658552572131157,-0.101841233670712,-0.107149742543697,-0.159597918391228
503,0.0140500068664551,-0.0139071214944124,-0.0615856237709522,-0.102986432611942,-0.101803958415985,-0.168666422367096
504,0.0176669172942638,-0.0166858993470669,-0.058677189052105,-0.104060888290405,-0.0970336496829987,-0.178649127483368
505,0.0188749842345715,-0.0211027320474386,-0.060716774314642,-0.108875289559364,-0.0969487577676773,-0.191499575972557
506,0.0180288925766945,-0.0270963665097952,-0.0662071406841278,-0.116434164345264,-0.0993443503975868,-0.20794814825058
507,0.0180653426796198,-0.0336515419185162,-0.0696981772780418,-0.121820464730263,-0.0983997732400894,-0.225157603621483
508,0.021556681022048,-0.0415370911359787,-0.0679052397608757,-0.125460281968117,-0.0897968634963036,-0.24224753677845
509,0.0277976784855127,-0.0508528128266335,-0.0623347982764244,-0.129628509283066,-0.0757617056369781,-0.258944809436798
510,0.0337668731808662,-0.0592428669333458,-0.0564681142568588,-0.1330636292696,-0.0633042231202126,-0.272070080041885
511,0.0384875386953354,-0.065226137638092,-0.0526844598352909,-0.136368751525879,-0.0550592988729477,-0.281630635261536
512,0.0423023961484432,-0.0686377510428429,-0.0516172982752323,-0.141454786062241,-0.0504095479846001,-0.290220946073532
513,0.0446379259228706,-0.0687293782830238,-0.0524007827043533,-0.146692216396332,-0.0495935343205929,-0.29599666595459
514,0.0447829999029636,-0.0653219968080521,-0.0532862469553947,-0.148846045136452,-0.0515261888504028,-0.293741494417191
515,0.0430351458489895,-0.060654055327177,-0.0533739663660526,-0.147377222776413,-0.0539180785417557,-0.282199949026108
516,0.0411416888237,-0.0571431964635849,-0.0537084564566612,-0.144414141774178,-0.0555938445031643,-0.267181605100632
517,0.0403064750134945,-0.0552335269749165,-0.05516666918993,-0.141776695847511,-0.0562726818025112,-0.256431221961975
518,0.0396269224584103,-0.0538504011929035,-0.0560247264802456,-0.139485999941826,-0.0544389225542545,-0.253065913915634
519,0.0381521433591843,-0.0518489629030228,-0.0539262816309929,-0.136221542954445,-0.0486459918320179,-0.253732919692993
520,0.0355609990656376,-0.0505498051643372,-0.0506759658455849,-0.132449507713318,-0.041645135730505,-0.25298148393631
521,0.0319959297776222,-0.0514584928750992,-0.0505897179245949,-0.130520462989807,-0.0384585186839104,-0.24923050403595
522,0.0287657361477613,-0.0530543029308319,-0.0525508113205433,-0.12896141409874,-0.0396315902471542,-0.243415027856827
523,0.0271598529070616,-0.0529949590563774,-0.0505760759115219,-0.122898906469345,-0.0402196794748306,-0.23562952876091
524,0.0270640831440687,-0.0512907691299915,-0.0423194393515587,-0.111749060451984,-0.0353800542652607,-0.22664287686348
525,0.0274977013468742,-0.0505062900483608,-0.0310466177761555,-0.100067250430584,-0.0246878881007433,-0.218202531337738
526,0.0273679196834564,-0.0508176572620869,-0.0212163664400578,-0.0902381613850594,-0.0124694816768169,-0.211043328046799
527,0.0265071485191584,-0.0500931032001972,-0.0157044548541307,-0.0821848139166832,-0.00364486989565194,-0.206028625369072
528,0.0264211781322956,-0.0498759411275387,-0.0149815948680043,-0.0782830938696861,0.00026800308842212,-0.205144971609116
529,0.0273369420319796,-0.0528096035122871,-0.0170032400637865,-0.0799323841929436,0.000342902872944251,-0.207033157348633
530,0.0275811813771725,-0.0562965571880341,-0.019422248005867,-0.083354577422142,-0.000913301017135382,-0.205442175269127
531,0.0274109169840813,-0.055245965719223,-0.020944295451045,-0.0839022919535637,-0.000624713720753789,-0.196424454450607
532,0.0280466340482235,-0.0489679872989655,-0.0200629848986864,-0.0805172026157379,0.00291910278610885,-0.182146742939949
533,0.0292775332927704,-0.0412437878549099,-0.015839509665966,-0.0741378292441368,0.0106002129614353,-0.166108876466751
534,0.0300600081682205,-0.0356573797762394,-0.010821295902133,-0.0660941526293755,0.0199124552309513,-0.150302857160568
535,0.0287116672843695,-0.0323091894388199,-0.00955850537866354,-0.0588355846703053,0.023666912689805,-0.136276662349701
536,0.025663960725069,-0.0286435913294554,-0.0119762290269136,-0.0538961850106716,0.0208251476287842,-0.125204131007195
537,0.0235798917710781,-0.0235757268965244,-0.0134749636054039,-0.0491898953914642,0.0180664528161287,-0.116110518574715
538,0.0232120137661695,-0.0191637296229601,-0.0110916076228023,-0.041013915091753,0.0184238646179438,-0.10542131960392
539,0.0237478241324425,-0.017375536262989,-0.00614850176498294,-0.029592202976346,0.0209900122135878,-0.0914108008146286
540,0.0251577030867338,-0.0168658941984177,-0.00224826950579882,-0.0202561020851135,0.0262367855757475,-0.0769345387816429
541,0.0261119995266199,-0.0147089334204793,-0.00178387144114822,-0.0167912784963846,0.0324448347091675,-0.0633035898208618
542,0.0235561337321997,-0.0105641009286046,-0.00480495020747185,-0.0171750523149967,0.0334747657179832,-0.0471833944320679
543,0.0177106596529484,-0.00667143380269408,-0.00830474030226469,-0.0166179612278938,0.0285206418484449,-0.0286848042160273
544,0.0118774408474565,-0.00426943879574537,-0.00902129989117384,-0.0121478727087379,0.0235985200852156,-0.0129739576950669
545,0.00825187284499407,-0.00338683044537902,-0.00660616951063275,-0.00441604945808649,0.0229815077036619,-0.00260066008195281
546,0.00614512478932738,-0.00347806955687702,-0.00280466722324491,0.00362697686068714,0.0254341624677181,0.00345872575417161
547,0.00281685660593212,-0.00405605975538492,-0.00052929698722437,0.00892915856093168,0.0263212695717812,0.0060928650200367
548,-0.00250948732718825,-0.00558549864217639,7.42498086765409E-05,0.0114543521776795,0.0248721577227116,0.00712831318378448
549,-0.00752252992242575,-0.00655515911057591,0.00216926191933453,0.0146351791918278,0.0237106308341026,0.0114431083202362
550,-0.00989088881760836,-0.0057571236975491,0.00658029271289706,0.0198670532554388,0.0233335830271244,0.0200935937464237
551,-0.00896337162703276,-0.00553810223937035,0.0111577389761806,0.0250263717025518,0.0246493946760893,0.0275902226567268
552,-0.00645824056118727,-0.00721856066957116,0.0138707803562284,0.0297140311449766,0.0278027001768351,0.032209750264883
553,-0.00509876292198896,-0.00881885271519423,0.0143130216747522,0.0356290824711323,0.0296757332980633,0.0373022295534611
554,-0.00506052700802684,-0.00662254868075252,0.0142443273216486,0.0426426380872726,0.0305828675627708,0.0449454076588154
555,-0.00552196707576513,0.000811300182249397,0.0150440474972129,0.0482274442911148,0.0331733860075474,0.0552869513630867
556,-0.00746612343937159,0.0090776514261961,0.0150897465646267,0.0498457737267017,0.0349471308290958,0.0660198032855988
557,-0.0102789821103215,0.0146635798737407,0.0131773464381695,0.048683188855648,0.0335770845413208,0.0746454522013664
558,-0.0120050413534045,0.0192159675061703,0.0102623207494617,0.0483429431915283,0.0308107268065214,0.0808124989271164
559,-0.0122401285916567,0.0225306209176779,0.00792607199400663,0.0500487498939037,0.0286697130650282,0.0840181410312653
560,-0.0105823995545506,0.0216750744730234,0.00820340402424335,0.0524928569793701,0.02898377366364,0.0832084864377975
561,-0.00784360151737928,0.0165295377373695,0.0109758069738746,0.0540970116853714,0.0316685065627098,0.0788444131612778
562,-0.0067314812913537,0.0101991537958384,0.0143226590007544,0.0557807423174381,0.0347753651440144,0.0747895538806915
563,-0.00752081908285618,0.00667006522417068,0.0184280090034008,0.0604693964123726,0.0379784926772118,0.0762679055333138
564,-0.00801023095846176,0.00781031837686896,0.0236354637891054,0.068180076777935,0.0414395555853844,0.0845505595207214
565,-0.00759314838796854,0.0116875385865569,0.027696480974555,0.0749092102050781,0.0433820635080338,0.0955748334527016
566,-0.00666749756783247,0.0152606181800365,0.0290412325412035,0.0772115811705589,0.0428838171064854,0.10395473241806
567,-0.00574030168354511,0.0169653408229351,0.0280964057892561,0.0751514583826065,0.0413181968033314,0.107078865170479
568,-0.0058460128493607,0.0173223167657852,0.0262663532048464,0.0721966773271561,0.0403156988322735,0.106658242642879
569,-0.00731444219127297,0.0184405744075775,0.0258530825376511,0.0729095414280891,0.0408709235489368,0.107212401926517
570,-0.00965520646423101,0.0221696514636278,0.0275771748274565,0.0775195434689522,0.0425720550119877,0.111225046217442
571,-0.0123994564637542,0.026671539992094,0.0295794252306223,0.0820174813270569,0.0420019440352917,0.117312125861645
572,-0.0149363214150071,0.028576698154211,0.0308263506740332,0.0851587057113647,0.0372337959706783,0.123681582510471
573,-0.0164640061557293,0.0284486506134272,0.0315901264548302,0.0876354873180389,0.0324368067085743,0.128362834453583
574,-0.0169661846011877,0.0291587263345718,0.030969699844718,0.0879058018326759,0.030810821801424,0.129570424556732
575,-0.0167828574776649,0.0314925946295261,0.0286550875753164,0.0853211730718613,0.0310713555663824,0.128569096326828
576,-0.0159985311329365,0.0322813801467419,0.0262357089668512,0.0817291438579559,0.0321652926504612,0.12730173766613
577,-0.014405163936317,0.0294618532061577,0.0253092423081398,0.0790276452898979,0.0347640030086041,0.127083271741867
578,-0.0122435940429568,0.0257422663271427,0.0262111816555262,0.0772756785154343,0.0386654697358608,0.128827899694443
579,-0.0105951782315969,0.0239059254527092,0.0287307351827621,0.0770395025610924,0.0418805852532387,0.132223576307297
580,-0.0099421227350831,0.0234566740691662,0.0323590785264969,0.0802161768078804,0.043624646961689,0.136070504784584
581,-0.0102950986474752,0.0225843358784914,0.0352615118026733,0.0850415304303169,0.0446370132267475,0.138379335403442
582,-0.0118245929479599,0.0203948747366667,0.0359281487762928,0.0878769159317017,0.0447226129472256,0.138486564159393
583,-0.0135913658887148,0.0168142281472683,0.0351195484399796,0.0888551846146584,0.0444215014576912,0.137343734502792
584,-0.0142912250012159,0.0135093433782458,0.0343829393386841,0.0898335501551628,0.044953279197216,0.136273473501205
585,-0.0142448358237743,0.0130097893998027,0.0341629795730114,0.0907486081123352,0.0448668301105499,0.136607676744461
586,-0.0142935607582331,0.0156982466578484,0.0338191911578178,0.0900605022907257,0.0427098423242569,0.137727797031403
587,-0.0141630228608847,0.0201456472277641,0.033080942928791,0.0868283286690712,0.040622778236866,0.13689149916172
588,-0.0133270593360066,0.0254969391971827,0.0330170132219791,0.082773894071579,0.0411442555487156,0.133333340287209
589,-0.0122824190184474,0.0310802571475506,0.0345913469791412,0.0811127051711082,0.0434201657772064,0.130340427160263
590,-0.0116337286308408,0.0349083878099918,0.0371870994567871,0.0831353440880775,0.0458931028842926,0.131896182894707
591,-0.0114344665780663,0.0355172865092754,0.0389753319323063,0.0875321179628372,0.0482978783547878,0.138732567429543
592,-0.0115469172596931,0.0334249846637249,0.0391970612108707,0.0922387391328812,0.0502257458865643,0.147101938724518
593,-0.0113922590389848,0.0313150770962238,0.0387255698442459,0.0959365367889404,0.050943560898304,0.15245857834816
594,-0.0106647117063403,0.0316714979708195,0.0375755466520786,0.0974694564938545,0.0503892451524735,0.152566581964493
595,-0.0101119233295321,0.0326289013028145,0.0351037867367268,0.0965869799256325,0.049701139330864,0.147512927651405
596,-0.0100845713168383,0.0319235026836395,0.0322952754795551,0.0946629047393799,0.0497077405452728,0.14019438624382
597,-0.00994793884456158,0.0315801873803139,0.0305664259940386,0.0919866859912872,0.0497333705425262,0.13416200876236
598,-0.00983537174761295,0.0334459617733955,0.0298925042152405,0.0881725028157234,0.0478927455842495,0.130862236022949
599,-0.0107385972514749,0.0358244553208351,0.0298608262091875,0.0847268849611282,0.0425754897296429,0.129625901579857
600,-0.0123833604156971,0.0361504592001438,0.0309214238077402,0.0832199528813362,0.0359815768897533,0.128885045647621
601,-0.0133692771196365,0.0333249606192112,0.0331472530961037,0.0835099518299103,0.0337160006165504,0.127881199121475
602,-0.0138042476028204,0.0282471310347319,0.0337311737239361,0.0841176137328148,0.0356195047497749,0.127185732126236
603,-0.0147827779874206,0.0228620655834675,0.0306954551488161,0.0830845236778259,0.0361545011401176,0.127127170562744
604,-0.0162821970880032,0.0179767217487097,0.0265646558254957,0.0791290253400803,0.0346755236387253,0.126083076000214
605,-0.0179207343608141,0.0138710215687752,0.024337287992239,0.0731793940067291,0.0331875868141651,0.123009398579597
606,-0.0191339142620564,0.0119942845776677,0.0252629462629557,0.068613238632679,0.0321258865296841,0.119680196046829
607,-0.0189264789223671,0.0129991015419364,0.0280894450843334,0.0669674053788185,0.0316875092685223,0.116943061351776
608,-0.0175645519047976,0.0150239411741495,0.0295357182621956,0.0664204880595207,0.0315094031393528,0.114445336163044
609,-0.0158066265285015,0.0170754343271255,0.0289560668170452,0.0659181624650955,0.0316780060529709,0.114247865974903
610,-0.0132196787744761,0.0220277328044176,0.0286102630198002,0.0661534443497658,0.032822597771883,0.118030816316605
611,-0.0101196644827724,0.0311122816056013,0.0294425152242184,0.0665052235126495,0.0346839390695095,0.122501514852047
612,-0.00780377956107259,0.0389587394893169,0.0303174927830696,0.0652443394064903,0.0364310294389725,0.122347630560398
613,-0.00666602700948715,0.039843775331974,0.0303817335516214,0.06302160769701,0.037634801119566,0.116893298923969
614,-0.00651946431025863,0.0347243994474411,0.0301768481731415,0.0626360848546028,0.0383963696658611,0.110779702663422
615,-0.00666812667623162,0.0286376494914293,0.0305066183209419,0.0659052208065987,0.0388244800269604,0.108898006379604
616,-0.00641045067459345,0.025528609752655,0.0314959734678268,0.0722442045807838,0.0383485220372677,0.112885378301144
617,-0.00665468629449606,0.0274357348680496,0.0323293581604958,0.0777646899223328,0.0357220843434334,0.119782090187073
618,-0.00861071981489658,0.0330067723989487,0.0318179875612259,0.0780908316373825,0.0306982100009918,0.124408900737762
619,-0.0119408229365945,0.0369323119521141,0.0298141203820705,0.0734673291444778,0.0249177031219006,0.124287635087967
620,-0.0151339480653405,0.0355895757675171,0.0268783532083035,0.0668918192386627,0.0209170430898666,0.119944237172604
621,-0.0170461218804121,0.0305853914469481,0.0232217404991388,0.0603602379560471,0.020117586478591,0.113109216094017
622,-0.0176123436540365,0.0250211711972952,0.0202533658593893,0.0548056289553642,0.0219941195100546,0.10493315756321
623,-0.0165810119360685,0.0195327252149582,0.0205937437713146,0.0503988191485405,0.0259732995182276,0.0951744541525841
624,-0.0136445024982095,0.0142397582530975,0.0243841465562582,0.0473983883857727,0.0305324252694845,0.0853969305753708
625,-0.00975068192929029,0.0108146900311112,0.0290669817477465,0.0454823896288872,0.0331662446260452,0.0786093696951866
626,-0.00679835025221109,0.0100843906402588,0.0318017601966858,0.0427711121737957,0.0333390422165394,0.0754448920488358
627,-0.00547437649220228,0.0121876560151577,0.0315252393484116,0.039605438709259,0.0322376266121864,0.0758123844861984
628,-0.00480780750513077,0.0167645458132029,0.0297400113195181,0.0385980643332005,0.031635757535696,0.0796700268983841
629,-0.00423368951305747,0.0205914434045553,0.0286729894578457,0.0398162975907326,0.0335402637720108,0.0835858955979347
630,-0.00420918874442577,0.0209534298628569,0.0290307085961103,0.0424507558345795,0.0367929674685001,0.0835284069180489
631,-0.00472217379137874,0.0202954076230526,0.0292475409805775,0.0470804199576378,0.0368449315428734,0.0799921154975891
632,-0.00500446138903499,0.0219949800521135,0.0283800661563873,0.0525949373841286,0.0324150957167149,0.0762023106217384
633,-0.00557239772751927,0.0239921249449253,0.0269346963614225,0.0550307109951973,0.0253523271530867,0.0745495036244392
634,-0.0072978101670742,0.0227298345416784,0.024935357272625,0.0517206005752087,0.0175914615392685,0.0755892172455788
635,-0.00919352844357491,0.0199446249753237,0.0227271784096956,0.04525500908494,0.0116886906325817,0.0786848142743111
636,-0.00984208565205336,0.0187682118266821,0.0214839819818735,0.0403698459267616,0.00961017608642578,0.081715315580368
637,-0.00877542141824961,0.0190560724586248,0.0226984079927206,0.0386240631341934,0.0130530633032322,0.0818237438797951
638,-0.00630781287327409,0.0202416088432074,0.02687057107687,0.0394103564321995,0.0222473591566086,0.0785953402519226
639,-0.00334102055057883,0.0223042778670788,0.032687533646822,0.0433028526604176,0.033581305295229,0.0749083459377289
640,-0.000494048290420324,0.0246474873274565,0.0378203503787518,0.0495113544166088,0.0426256768405437,0.0735435411334038
641,0.0012382126878947,0.0261020436882973,0.0392181277275085,0.0533437989652157,0.0461213923990726,0.0739207789301872
642,0.000613877491559833,0.0244151763617992,0.035912599414587,0.0511018037796021,0.0438398756086826,0.0731439515948296
643,-0.00097139785066247,0.0184344444423914,0.0309487301856279,0.0441022366285324,0.0398215129971504,0.0686809346079826
644,-0.00132981839124113,0.0113380830734968,0.0275271646678448,0.0367512330412865,0.0360564701259136,0.0611293092370033
645,-0.000660790188703686,0.00827032327651978,0.0261282250285149,0.0325076095759869,0.0318918190896511,0.0539423301815987
646,-0.000161382922669873,0.0100721465423703,0.0259389411658049,0.0316701829433441,0.0288132056593895,0.0504451394081116
647,-0.000566716655157506,0.0132630104199052,0.0267069824039936,0.0331046842038631,0.0280090942978859,0.0524047985672951
648,-0.00205442891456187,0.0157628934830427,0.0278070420026779,0.0351950600743294,0.0276913493871689,0.0585241727530956
649,-0.00380388717167079,0.017816536128521,0.0277278758585453,0.0358126871287823,0.0257542040199041,0.0651951730251312
650,-0.00469671422615647,0.0195719469338655,0.0256681423634291,0.0341691039502621,0.0218648742884398,0.0702236071228981
651,-0.00476436829194427,0.0215994864702225,0.0226054638624191,0.0320202857255936,0.0169975943863392,0.0745512545108795
652,-0.00457753194496036,0.0239050202071667,0.0202398393303156,0.0311165507882833,0.0132961943745613,0.0791301354765892
653,-0.00440124282613397,0.0246417075395584,0.0191815849393606,0.0307298209518194,0.0124845933169127,0.0825736522674561
654,-0.00406000111252069,0.0238563753664494,0.0192824210971594,0.0304878205060959,0.013948286883533,0.0838426426053047
655,-0.00324294460006058,0.0238926950842142,0.020139466971159,0.0312682315707207,0.0160728357732296,0.0827051624655724
656,-0.0023268077056855,0.0249768439680338,0.0214360356330872,0.0332206785678864,0.0177866891026497,0.0780899152159691
657,-0.00221912190318108,0.0249719358980656,0.023215850815177,0.0358158424496651,0.0189201571047306,0.0694848522543907
658,-0.00408640876412392,0.0226757377386093,0.0245228111743927,0.0373801775276661,0.0193643197417259,0.058160088956356
659,-0.00758329685777426,0.0200614258646965,0.023667436093092,0.0365967936813831,0.0186468586325645,0.0469971895217896
660,-0.00976255163550377,0.0191591661423445,0.0210494846105576,0.0340452790260315,0.0182975567877293,0.0393860191106796
661,-0.0092499665915966,0.0178635455667973,0.0189251322299242,0.0304841175675392,0.0210436917841434,0.0362513288855553
662,-0.00798545684665442,0.0145401703193784,0.0180385746061802,0.0269699897617102,0.0255211312323809,0.0357866883277893
663,-0.00700954208150506,0.0120389806106687,0.018101392313838,0.0254893507808447,0.0276470240205526,0.0362706519663334
664,-0.00516511127352715,0.0121461628004909,0.0198890119791031,0.0261472687125206,0.0276097767055035,0.0360838025808334
665,-0.00209084455855191,0.0120569318532944,0.0236951652914286,0.0268701203167439,0.0284133162349463,0.0342224985361099
666,0.000875320052728057,0.0101277884095907,0.0275916457176209,0.0272032432258129,0.0295323189347982,0.0329229421913624
667,0.0026868877466768,0.0089769409969449,0.0292238723486662,0.0277719050645828,0.0290342066437006,0.0352453142404556
668,0.00333140627481043,0.0102564133703709,0.0282011274248362,0.0275053177028894,0.0279489494860172,0.0399805679917336
669,0.00267510372214019,0.0125481858849525,0.0250199679285288,0.0255074463784695,0.0266426149755716,0.0432425327599049
670,0.00106113601941615,0.0152024403214455,0.0212891809642315,0.0236670523881912,0.0238574054092169,0.0441113114356995
671,0.00019421377510298,0.0179834757000208,0.0194179117679596,0.0235503260046244,0.0208026710897684,0.0446180924773216
672,0.000850754615385085,0.0183804612606764,0.0190861243754625,0.0236099883913994,0.0194117780774832,0.0459562577307224
673,0.00187422800809145,0.0153924329206347,0.018613601103425,0.0223632752895355,0.0196040607988834,0.0475654304027557
674,0.00204496923834085,0.0118061248213053,0.0175290647894144,0.0205425079911947,0.0200623422861099,0.04885134100914
675,0.000784039846621454,0.0104204025119543,0.0157340932637453,0.0195193886756897,0.0193550195544958,0.0499565415084362
676,-0.00154874613508582,0.0117976358160377,0.0142084285616875,0.0202441494911909,0.0175405722111464,0.0512684471905231
677,-0.00350309512577951,0.0141419870778918,0.0146845346316695,0.022161902859807,0.017170462757349,0.0518045127391815
678,-0.00403172988444567,0.0151328891515732,0.0168684180825949,0.023623263463378,0.0193268992006779,0.0495835915207863
679,-0.00389784877188504,0.014694033190608,0.0185639392584562,0.0246473122388124,0.0201167147606611,0.0452327728271484
680,-0.00369459274224937,0.0141651919111609,0.0188515838235617,0.0263670440763235,0.0174941867589951,0.0415067933499813
681,-0.00335913826711476,0.0132518438622355,0.0181146990507841,0.0281220301985741,0.0138733051717281,0.0396217703819275
682,-0.0035403345245868,0.0104061868041754,0.0163912940770388,0.0277280583977699,0.0116237299516797,0.0383063331246376
683,-0.00368129764683545,0.00777719775214791,0.0144792851060629,0.0250937230885029,0.0125822611153126,0.0366641357541084
684,-0.00310782878659666,0.00916855968534946,0.0132005866616964,0.0219204463064671,0.0157555714249611,0.0350806377828121
685,-0.00237350747920573,0.0132310008630157,0.0126767223700881,0.0192914307117462,0.0184751115739346,0.0346215926110744
686,-0.00179527781438082,0.0154279721900821,0.0125273736193776,0.0173499491065741,0.0203937869518995,0.0365498140454292
687,-0.00176398456096649,0.0140592288225889,0.0119755594059825,0.0165390092879534,0.0214610230177641,0.0403790362179279
688,-0.00196195463649929,0.0130565548315644,0.0121237449347973,0.018340602517128,0.0208031814545393,0.0448646619915962
689,-0.00124553882051259,0.0143487313762307,0.0139755876734853,0.020983075723052,0.0186784286051989,0.0475817583501339
690,0.000303627573885024,0.0135482931509614,0.0162398647516966,0.0211753435432911,0.016792431473732,0.0461586900055408
691,0.000313080294290558,0.00978504773229361,0.0171629283577204,0.0193976946175098,0.0140884378924966,0.0419046431779861
692,-0.00276921689510345,0.00543760787695646,0.0162180960178375,0.0166410431265831,0.0090393777936697,0.0357951484620571
693,-0.00658742059022188,0.00113428803160787,0.01497707888484,0.013098930940032,0.0046732840128243,0.0274418964982033
694,-0.00855438224971294,-0.00103286514058709,0.0147288022562861,0.0103632844984531,0.00250371801666915,0.02117227204144
695,-0.00791435223072767,0.000628643552772701,0.0153053272515535,0.00910132378339767,0.00234097428619862,0.0218291021883488
696,-0.0053311288356781,0.00403176434338093,0.016062805429101,0.00804763287305832,0.00445130374282599,0.0266355816274881
697,-0.00331488554365933,0.00676834071055055,0.0159713197499514,0.00627856655046344,0.00668357638642192,0.0293794982135296
698,-0.00312517117708921,0.008771738037467,0.0144827803596854,0.00368706928566098,0.00692957127466798,0.0277419090270996
699,-0.00356695544905961,0.00949496775865555,0.0121348639950156,0.000953417445998639,0.00532088801264763,0.0234969798475504
700,-0.00318773905746639,0.00788506213575602,0.0101368417963386,-0.000806242984253913,0.00353984232060611,0.0190595649182796
701,-0.00149206980131567,0.00561124784871936,0.00968129001557827,-0.000781469396315515,0.00377002544701099,0.0154428342357278
702,0.00079452118370682,0.00445792311802506,0.0110867759212852,0.00138781848363578,0.00654292618855834,0.0127463061362505
703,0.00266350177116692,0.00291634071618319,0.0129210641607642,0.00409321486949921,0.00950084999203682,0.0105861751362681
704,0.00350227067247033,-0.000385878782253712,0.0131071992218494,0.00432763947173953,0.00944601371884346,0.00877570919692516
705,0.00337107270024717,-0.00401530787348747,0.0111675458028913,0.00145486474502832,0.00589784095063806,0.00805509090423584
706,0.00300023099407554,-0.00613476894795895,0.00802553445100784,-0.00272528314962983,0.0013879876350984,0.00825588870793581
707,0.00235039019025862,-0.00593039207160473,0.00430295057594776,-0.0066913403570652,-0.00221979874186218,0.00792806781828403
708,0.000999691779725254,-0.0041578751988709,0.000579983810894191,-0.00956904701888561,-0.0046660783700645,0.00661411369219422
709,-0.000276665581623092,-0.00345928338356316,-0.00182778621092439,-0.0111978333443403,-0.00554280029609799,0.00478456262499094
710,-0.000558165600523353,-0.00477272039279342,-0.00215540500357747,-0.011682060547173,-0.00511934235692024,0.00357389287091792
711,0.000486336153699085,-0.00577334966510534,-0.000435904308687896,-0.010568386875093,-0.00406256597489119,0.00447930628433824
712,0.00224531930871308,-0.00459862407296896,0.00234376266598701,-0.00893259327858686,-0.00330510991625488,0.00700895674526691
713,0.00300385849550366,-0.00165059720166028,0.00441094301640987,-0.00893825013190508,-0.00411596801131964,0.00986018404364586
714,0.0027966529596597,0.0013301643775776,0.00516503117978573,-0.0104229710996151,-0.00494273705407977,0.0130084361881018
715,0.00298396917060018,0.00443133246153593,0.00472068460658193,-0.0111647695302963,-0.00434318371117115,0.0167028084397316
716,0.00294440845027566,0.00816157832741737,0.00292958994396031,-0.0107556050643325,-0.00457479013130069,0.0188983920961618
717,0.00183686695527285,0.00949958711862564,0.000586782349273562,-0.0100721605122089,-0.00684822211042047,0.0172470230609179
718,0.000326485343975946,0.00690529309213161,-0.000670479144901037,-0.00858352519571781,-0.00927829090505838,0.0131835071370006
719,-0.000593816570471972,0.00248751998879015,-0.000858314044307917,-0.00713042449206114,-0.0103642698377371,0.00847405567765236
720,-0.000716134905815125,-0.00221360824070871,-0.00146833527833223,-0.00819103233516216,-0.0103038717061281,0.00277063786052167
721,-0.00137673900462687,-0.00615631323307753,-0.00274250446818769,-0.0112792104482651,-0.010618251748383,-0.00250507588498294
722,-0.0035088756121695,-0.00751404603943229,-0.00344631727784872,-0.0130303241312504,-0.0129609433934093,-0.00417198054492474
723,-0.00525316270068288,-0.00585601292550564,-0.00253804656676948,-0.0125131485983729,-0.015717625617981,-0.00310525810346007
724,-0.00457860855385661,-0.00316078076139092,-0.00103618227876723,-0.0117758689448237,-0.0166489519178867,-0.00308038061484694
725,-0.00221239565871656,-0.00158393348101527,-0.000422966200858355,-0.0116332108154893,-0.0158509183675051,-0.00471145147457719
726,0.000300867395708337,-0.00208586384542286,-0.000294555677101016,-0.0113715939223766,-0.0133499251678586,-0.00653171166777611
727,0.00122478615958244,-0.00430518249049783,-0.00093426089733839,-0.011187432333827,-0.0112957367673516,-0.0082301264628768
728,-0.000786711520049721,-0.00702195940539241,-0.00340707693248987,-0.0118185486644506,-0.0128067918121815,-0.0100863007828593
729,-0.00385366706177592,-0.00900503154844046,-0.00624707574024796,-0.0128601025789976,-0.0157794095575809,-0.0119299525395036
730,-0.00562849454581738,-0.00925989076495171,-0.00737397139891982,-0.0131444521248341,-0.0168141704052687,-0.0128830568864942
731,-0.00695027224719524,-0.00799367018043995,-0.0076615558937192,-0.012343623675406,-0.0172869805246592,-0.0118191875517368
732,-0.00849312450736761,-0.00609880592674017,-0.00830323901027441,-0.0107205267995596,-0.0190733913332224,-0.00858025252819061
733,-0.00871855951845646,-0.00425473228096962,-0.00771769275888801,-0.00801264215260744,-0.019999235868454,-0.00424234801903367
734,-0.00690315291285515,-0.00376147706992924,-0.00500778667628765,-0.00497579108923674,-0.0173196699470282,-0.00128093012608588
735,-0.00354725634679198,-0.004343306645751,-0.00173689122311771,-0.00304767885245383,-0.011107905767858,-0.00115093367639929
736,0.000833231548313051,-0.00352589087560773,0.0010744680184871,-0.00219700043089688,-0.00279230042360723,-0.00203233072534204
737,0.00472673401236534,-0.000950115616433322,0.00264454283751547,-0.0023121302947402,0.00459513301029801,-0.00242606177926064
738,0.00647611264139414,0.000379430071916431,0.00192626507487148,-0.00363666121847928,0.0076063135638833,-0.00336172385141253
739,0.00646536331623793,-0.00175679754465818,-0.000425081176217645,-0.00563214207068086,0.00674536172300577,-0.00545170390978456
740,0.00635021459311247,-0.00616107555106282,-0.00267157494090497,-0.00727853225544095,0.00512109370902181,-0.00741588836535811
741,0.00627486873418093,-0.00938652921468019,-0.0045328545384109,-0.00839715078473091,0.00333011941984296,-0.00855118688195944
742,0.00519311893731356,-0.00943742133677006,-0.00698745809495449,-0.010655970312655,0.000404440594138578,-0.0101052094250917
743,0.0037415272090584,-0.00855986587703228,-0.00966833345592022,-0.0141997672617435,-0.00256587751209736,-0.0126795023679733
744,0.00310390861704946,-0.00877008121460676,-0.0108325844630599,-0.0160094164311886,-0.00401749042794108,-0.0143885156139731
745,0.00294158258475363,-0.00869891233742237,-0.00981336832046509,-0.0154211707413197,-0.00388915999792516,-0.0140591207891703
746,0.00235234852880239,-0.00631882017478347,-0.00778555357828736,-0.0154155595228076,-0.0037464105989784,-0.0131183266639709
747,0.0012064891634509,-0.00263889227062464,-0.00583811290562153,-0.0173912290483713,-0.00465100631117821,-0.0129459192976356
748,0.000471918669063598,-0.0026201312430203,-0.00440887967124581,-0.0205010790377855,-0.00538037857040763,-0.0141396019607782
749,0.000383439415600151,-0.00839770026504993,-0.00444262055680156,-0.0238670669496059,-0.00593244191259146,-0.0167501904070377
750,0.000244421040406451,-0.014990515075624,-0.00602181954309344,-0.0256648939102888,-0.00759043637663126,-0.0191563293337822
751,0.00028443249175325,-0.0169665589928627,-0.00771560100838542,-0.0247980039566755,-0.00928119570016861,-0.0199108514934778
752,0.00128556869458407,-0.0148252034559846,-0.00788787566125393,-0.0226381346583366,-0.00768125895410776,-0.0200330223888159
753,0.00304085179232061,-0.0122838206589222,-0.00607695709913969,-0.0199435297399759,-0.00284748221747577,-0.0200841315090656
754,0.00444410787895322,-0.0110422074794769,-0.00357706495560706,-0.0162264294922352,0.000363174098310992,-0.0185474064201117
755,0.0047483816742897,-0.0102190608158708,-0.00191821937914938,-0.0120595190674067,-0.000133108216687106,-0.015200974419713
756,0.00364535418339074,-0.00930214114487171,-0.00198086141608655,-0.00946477241814137,-0.0024004087317735,-0.0122288353741169
757,0.00182138208765537,-0.00955169927328825,-0.00366630917415023,-0.0103171700611711,-0.00378981488756835,-0.0123274140059948
758,0.000721407355740666,-0.0109303463250399,-0.00591338519006968,-0.0137271294370294,-0.00295786303468049,-0.0150666385889053
759,0.00037995190359652,-0.0113187851384282,-0.00733024440705776,-0.01613649725914,-0.0012242115335539,-0.0165483616292477
760,0.000275536091066897,-0.0101597160100937,-0.00742139481008053,-0.0156280566006899,-1.92990628420375E-05,-0.0155174760147929
761,0.00112181808799505,-0.00892752781510353,-0.00738708162680268,-0.0138756688684225,0.000671355286613107,-0.014950655400753
762,0.00350636895745993,-0.00898679718375206,-0.00746760843321681,-0.0131016857922077,0.00191514764446765,-0.0170993637293577
763,0.00638599693775177,-0.0105498572811484,-0.00668395729735494,-0.0138893760740757,0.0039777192287147,-0.0211834069341421
764,0.00802766531705856,-0.012154595926404,-0.00557631300762296,-0.0157880131155252,0.00493651116266847,-0.0251905489712954
765,0.00791563279926777,-0.011289500631392,-0.00461319135501981,-0.0169826839119196,0.00355221447534859,-0.0271712932735682
766,0.00644840206950903,-0.00754015473648906,-0.00341896759346128,-0.0158500019460917,-9.09445807337761E-05,-0.0265784375369549
767,0.00396644836291671,-0.00360339088365436,-0.00211532297544181,-0.0127520393580198,-0.00569257652387023,-0.0242481585592031
768,0.00137632363475859,-0.00149067176971585,-0.000885041314177215,-0.00965645350515842,-0.010934067890048,-0.0218723230063915
769,-6.67818312649615E-05,-0.00147825514432043,-0.000248568452661857,-0.00919479597359896,-0.0128102507442236,-0.0218160711228848
770,-0.000339795078616589,-0.00290651177056134,-0.00127577898092568,-0.0114497160539031,-0.0122362384572625,-0.0238360911607742
771,0.00027576630236581,-0.0031493625137955,-0.00377448159269989,-0.0143701499328017,-0.0115786399692297,-0.0256165005266666
772,0.00256583304144442,-0.000525554001796991,-0.0056438846513629,-0.0171521343290806,-0.00911922007799149,-0.0263748653233051
773,0.00624151481315494,0.00255610374733806,-0.00555516686290503,-0.0200411975383759,-0.00280857575125992,-0.0269241277128458
774,0.00911048054695129,0.00257338001392782,-0.00418482581153512,-0.0222081784158945,0.00440742680802941,-0.0273128505796194
775,0.00994150154292583,-0.000833682832308114,-0.00316045852378011,-0.0230290424078703,0.00798243377357721,-0.0266947913914919
776,0.0103318244218826,-0.00473012169823051,-0.00321026146411896,-0.023641599342227,0.00765370158478618,-0.0254074856638908
777,0.0116722788661718,-0.00698302267119288,-0.0034750469494611,-0.0247822515666485,0.00628893217071891,-0.0239385329186916
778,0.0125750284641981,-0.00791168119758368,-0.00349188549444079,-0.024691155180335,0.00394604820758104,-0.0202822685241699
779,0.0118230618536472,-0.00796939805150032,-0.00341982231475413,-0.0212189070880413,-0.000750496343243867,-0.0127771580591798
780,0.010477994568646,-0.0074962992221117,-0.00305298902094364,-0.016142949461937,-0.00556969828903675,-0.00530243339017034
781,0.0099242627620697,-0.00687010958790779,-0.0026055108755827,-0.0136778131127357,-0.00777810160070658,-0.00386115908622742
782,0.0105082020163536,-0.00630110967904329,-0.00306643801741302,-0.0156915262341499,-0.00790500640869141,-0.00993590243160725
783,0.0114961182698607,-0.00611897045746446,-0.00483878282830119,-0.0206516087055206,-0.00786873046308756,-0.0201300121843815
784,0.0118218027055264,-0.0058536627329886,-0.00695845950394869,-0.0257286913692951,-0.00831971410661936,-0.0291271675378084
785,0.0118174208328128,-0.00396430725231767,-0.00760029489174485,-0.027961540967226,-0.00832430273294449,-0.0319764725863934
786,0.0122477356344461,-0.000255986931733787,-0.00585149275138974,-0.0260275695472956,-0.00774117093533278,-0.0276754833757877
787,0.0127542596310377,0.00323321833275259,-0.00261493818834424,-0.0222949869930744,-0.00816545356065035,-0.0206578373908997
788,0.0132385194301605,0.00522722396999598,0.00139827351085842,-0.0192080289125443,-0.0102355442941189,-0.0154733154922724
789,0.013858349993825,0.00553370546549559,0.00567896151915193,-0.0167262107133865,-0.0118690868839622,-0.0131446067243814
790,0.0140110366046429,0.00369002646766603,0.00862063840031624,-0.0148388659581542,-0.0111941955983639,-0.013274859637022
791,0.0132031813263893,0.000607451424002647,0.0091692553833127,-0.0134910903871059,-0.00934626907110214,-0.0151324355974793
792,0.0120910666882992,-0.00119202944915742,0.00821006204932928,-0.0119817238301039,-0.0079513918608427,-0.0171051807701588
793,0.0121886739507318,-0.000592547934502363,0.0071771158836782,-0.00997413694858551,-0.00644232984632254,-0.0170910321176052
794,0.0137949725612998,0.00194633577484638,0.00608889758586884,-0.0077422303147614,-0.00398699566721916,-0.0139884995296597
795,0.0154729317873716,0.00669793086126447,0.00392179656773806,-0.00645786244422197,-0.00223752902820706,-0.00947384536266327
796,0.0156872775405645,0.0128725804388523,0.000328044756315649,-0.00672420067712665,-0.00321248988620937,-0.00662873359397054
797,0.0134642235934734,0.0158038847148418,-0.00393582647666335,-0.00786902289837599,-0.00610986864194274,-0.00645398907363415
798,0.00918451324105263,0.0113278003409505,-0.00838829763233662,-0.0104248495772481,-0.00948325358331203,-0.00774398865178227
799,0.00477319909259677,0.00231795432046056,-0.0128358276560903,-0.0149702001363039,-0.0130931185558438,-0.00962660554796457
800,0.0024246743414551,-0.00471701566129923,-0.0147032560780644,-0.0184674169868231,-0.0152958910912275,-0.0112541057169437
801,0.00296048098243773,-0.00677176099270582,-0.010573553852737,-0.0174281429499388,-0.0140683827921748,-0.0105194514617324
802,0.00481564085930586,-0.00550169963389635,-0.0016989967552945,-0.012971137650311,-0.0108209541067481,-0.00703557906672359
803,0.00562778394669294,-0.00412662094458938,0.00614654272794724,-0.00885079521685839,-0.00963844452053308,-0.00360012147575617
804,0.00569225661456585,-0.00325462478213012,0.0104203065857291,-0.00633653812110424,-0.010687074624002,-0.00287496484816074
805,0.00785249192267656,-0.00167005357798189,0.0141831869259477,-0.00428316509351134,-0.00732675474137068,-0.00633292924612761
806,0.0132711036130786,-0.000297392776701599,0.0186186451464891,-0.00316022685728967,0.00405855989083648,-0.0146550871431828
807,0.019529901444912,-0.000347206398146227,0.0206181984394789,-0.0039114048704505,0.0158327016979456,-0.0250764098018408
808,0.0231308210641146,-0.000794147839769721,0.0182710997760296,-0.00515317730605602,0.0180920995771885,-0.0321049951016903
809,0.0236710011959076,-0.000734014145564288,0.0137065006420016,-0.00528658740222454,0.0117034409195185,-0.0327099300920963
810,0.0232150163501501,-6.51974596621585E-06,0.0094938687980175,-0.00431034294888377,0.00312351621687412,-0.0272135622799397
811,0.0230595208704472,0.00209737010300159,0.00642700912430882,-0.00314833666197956,-0.00400176364928484,-0.0181186888366938
812,0.0227417815476656,0.00533054675906897,0.0041603296995163,-0.00319720292463899,-0.00853979960083961,-0.0097392313182354
813,0.0211893599480391,0.00824507232755423,0.00187768856994808,-0.00501221837475896,-0.0111042344942689,-0.00500112911686301
814,0.019347907975316,0.0101857418194413,-0.000191964587429538,-0.00803263206034899,-0.010623887181282,-0.00484568020328879
815,0.0190670918673277,0.0112794963642955,-0.000789100129622966,-0.0110897636041045,-0.0057474416680634,-0.00929548218846321
816,0.0197144560515881,0.0120310997590423,0.000536903738975525,-0.0127552980557084,0.000328002293827012,-0.0159392487257719
817,0.0186984948813915,0.0122711881995201,0.00205419026315212,-0.0133321052417159,0.00349927577190101,-0.0213674884289503
818,0.0159312039613724,0.0112701766192913,0.00306933838874102,-0.0125974975526333,0.00456352718174458,-0.0223385505378246
819,0.0137988338246942,0.0100248781964183,0.00427060201764107,-0.0101479254662991,0.00591515656560659,-0.0180203132331371
820,0.0128745008260012,0.00909687951207161,0.00446990039199591,-0.00876925606280565,0.00646143918856978,-0.0121427392587066
821,0.0122119318693876,0.00687595503404737,0.00305157620459795,-0.00990543887019157,0.00460312468931079,-0.00794356781989336
822,0.0119742890819907,0.0036379094235599,0.00220508803613484,-0.0112434709444642,0.00172590697184205,-0.00484858686104417
823,0.0131084388121963,0.0015790774486959,0.0039882562123239,-0.0106431310996413,-0.000170984232681803,-0.00137327879201621
824,0.0147295258939266,0.000582001695875078,0.0068509285338223,-0.00914064608514309,-0.00164502509869635,0.00129320076666772
825,0.014881270006299,-0.00171004980802536,0.00775825185701251,-0.00961353443562984,-0.00369662628509104,0.000209359684959054
826,0.0137153202667832,-0.00584094366058707,0.0060276254080236,-0.0131987789645791,-0.00556507706642151,-0.00614819582551718
827,0.0125657496973872,-0.00930642150342464,0.00292760925367475,-0.0175875891000032,-0.00686082895845175,-0.0154900355264544
828,0.0116703128442168,-0.0103046102449298,-5.29446551809087E-05,-0.0190170258283615,-0.0077408947981894,-0.0221250001341105
829,0.0111343907192349,-0.00979945994913578,-0.00200158846564591,-0.0167607720941305,-0.00713354628533125,-0.0236210040748119
830,0.0116259036585689,-0.00887206383049488,-0.00244131521321833,-0.0135314390063286,-0.00384226161986589,-0.0227072183042765
831,0.0130507815629244,-0.0070399516262114,-0.00171934359241277,-0.0119934910908341,0.000909120310097933,-0.0215358883142471
832,0.0150128407403827,-0.00335354311391711,-0.000396573072066531,-0.0113750034943223,0.00437358906492591,-0.0194177236407995
833,0.017534302547574,0.00141605699900538,0.00186085538007319,-0.00922553427517414,0.00606318144127727,-0.0168134234845638
834,0.0198107268661261,0.00460735755041242,0.00429386319592595,-0.00667853793129325,0.00746619934216142,-0.0171933118253946
835,0.0203646626323462,0.00571119459345937,0.0048110862262547,-0.00606994098052382,0.00837817415595055,-0.0210500322282314
836,0.0191632453352213,0.00626590009778738,0.00389201636426151,-0.00672391150146723,0.0086733577772975,-0.0246385671198368
837,0.0165753625333309,0.00577727239578962,0.0031281893607229,-0.00725838169455528,0.00792856235057116,-0.0261600930243731
838,0.0120444670319557,0.00327995698899031,0.00105693133082241,-0.00776856439188123,0.00180396158248186,-0.0261567365378141
839,0.00718899862840772,0.000895728124305606,-0.00282954564318061,-0.00850291829556227,-0.00962616689503193,-0.0239390674978495
840,0.0048653744161129,0.002560721244663,-0.00519795017316937,-0.00801198743283749,-0.017909599468112,-0.018321456387639
841,0.00479016033932567,0.00981174223124981,-0.00430140644311905,-0.00503022130578756,-0.0194170419126749,-0.0102393310517073
842,0.0054498459212482,0.017531668767333,-0.00181072868872434,-0.00156302354298532,-0.0179784577339888,-0.00321548664942384
843,0.00632980559021235,0.0180047750473022,0.000554010097403079,-0.000321827479638159,-0.016304824501276,-0.0006959781749174
844,0.006277019623667,0.0108759989961982,0.00119092408567667,-0.0017671479145065,-0.0165739301592112,-0.00300459796562791
845,0.00473395455628634,0.0013949420535937,-0.000475069798994809,-0.00536784715950489,-0.0192996952682734,-0.00834036991000175
846,0.00317638018168509,-0.00627235975116491,-0.00249636173248291,-0.00954899378120899,-0.0215893667191267,-0.0141491778194904
847,0.00272376951761544,-0.00993490871042013,-0.00250790547579527,-0.0114779155701399,-0.0217462871223688,-0.0175385735929012
848,0.00259737577289343,-0.00936387665569782,-0.000478168250992894,-0.0101134497672319,-0.0204582996666431,-0.0170290283858776
849,0.00204341299831867,-0.00576997688040137,0.000815623090602458,-0.00735892215743661,-0.0190573055297136,-0.0135344481095672
850,0.00191380945034325,-0.000875853933393955,-0.000261822075117379,-0.00469945417717099,-0.0180037450045347,-0.00913826376199722
851,0.00247525470331311,0.00302457832731307,-0.00256960722617805,-0.00265732780098915,-0.0173805113881826,-0.00590279791504145
852,0.00245179003104568,0.0036466964520514,-0.00549832032993436,-0.00321464217267931,-0.0178330056369305,-0.00639861775562167
853,0.00188707769848406,0.00125147064682096,-0.00859228149056435,-0.00711081456393003,-0.0191539525985718,-0.0116075184196234
854,0.00195356109179556,-0.00123868323862553,-0.0102794896811247,-0.0114123104140162,-0.0207010470330715,-0.0180529728531837
855,0.00256028980948031,-0.00212825229391456,-0.0101933786645532,-0.0136205106973648,-0.0223958510905504,-0.0217431914061308
856,0.00377674517221749,-0.00139808340463787,-0.00908747129142284,-0.0138678858056664,-0.0229027234017849,-0.0220397431403399
857,0.0057937134988606,0.000507844262756407,-0.00768506666645408,-0.0135205807164311,-0.0210130102932453,-0.02014403603971
858,0.0069073042832315,0.00303551903925836,-0.00664803432300687,-0.0134044028818607,-0.0183555390685797,-0.0169075857847929
859,0.00600530812516809,0.00680810632184148,-0.00564861251041293,-0.0120648005977273,-0.0166563112288713,-0.0119798798114061
860,0.00405258126556873,0.0107441851869226,-0.0042682602070272,-0.00853352434933186,-0.0161933824419975,-0.00624024262651801
861,0.00257104891352355,0.0117514133453369,-0.00275128521025181,-0.00449058879166842,-0.0168803073465824,-0.00198684399947524
862,0.00225144531577826,0.00892698112875223,-0.00191504217218608,-0.00205450085923076,-0.0180390682071447,-0.000732974382117391
863,0.00262849661521614,0.00416567223146558,-0.00256320997141302,-0.00176160270348191,-0.0190328359603882,-0.00272884732112288
864,0.00348838907666504,0.000204961688723415,-0.00291811372153461,-0.00247083534486592,-0.0191568098962307,-0.00656199315562844
865,0.0047801467590034,-0.00182650506030768,-0.000868942181114107,-0.00373284704983234,-0.0169789716601372,-0.0112652899697423
866,0.00629856158047915,-0.00213915458880365,0.00263499142602086,-0.00530354212969542,-0.0114849330857396,-0.0169687904417515
867,0.00732898619025946,-0.000701392826158553,0.00534330494701862,-0.00520331971347332,-0.00548563105985522,-0.0227929279208183
868,0.00676364777609706,0.001430181437172,0.00533412210643291,-0.00347835919819772,-0.00447498587891459,-0.0277668852359056
869,0.00492503959685564,0.00195485632866621,0.00241100462153554,-0.00290525448508561,-0.00909182149916887,-0.0312115792185068
870,0.00322725670412183,0.000340455619152635,-0.00172843714244664,-0.00486622750759125,-0.0146775264292955,-0.0319745317101479
871,0.00223487848415971,-0.00186255830340087,-0.00603795470669866,-0.00901758577674627,-0.0180686414241791,-0.0296727437525988
872,0.00123604736290872,-0.00333607220090926,-0.0105392271652818,-0.0137612586840987,-0.0197298843413591,-0.0253405794501305
873,7.46750156395137E-05,-0.00373619911260903,-0.0140310823917389,-0.0169190485030413,-0.0198403056710958,-0.0205684751272202
874,-0.000796869804617018,-0.00375789660029113,-0.0149416020140052,-0.0175409205257893,-0.0184248480945826,-0.0159166790544987
875,-0.00219731056131423,-0.0047221640124917,-0.013850967399776,-0.0163433309644461,-0.0183022972196341,-0.0108703020960093
876,-0.00421791663393378,-0.00723984418436885,-0.0120172370225191,-0.015087109990418,-0.021414952352643,-0.00645721983164549
877,-0.00487251346930861,-0.00950037781149149,-0.00936349015682936,-0.0143969375640154,-0.0254920348525047,-0.00447674887254834
878,-0.00429754005745053,-0.00910563208162785,-0.0064128590747714,-0.0137380361557007,-0.0283415410667658,-0.00485463486984372
879,-0.00461266189813614,-0.0070360223762691,-0.00468714814633131,-0.0134215820580721,-0.0301470626145601,-0.00707828579470515
880,-0.00574474316090345,-0.00602046540006995,-0.00466065388172865,-0.0136517770588398,-0.0314424894750118,-0.0102213909849525
881,-0.00720098940655589,-0.00689620617777109,-0.00662752147763968,-0.0144410664215684,-0.0335548333823681,-0.0119574638083577
882,-0.00977576337754726,-0.00813730992376804,-0.0105316778644919,-0.0157703459262848,-0.0379163883626461,-0.0101867830380797
883,-0.0127548584714532,-0.00778354331851006,-0.0140552651137114,-0.0162637755274773,-0.0429989695549011,-0.00516035920009017
884,-0.0133608002215624,-0.00528684072196484,-0.0140626262873411,-0.0144243696704507,-0.0446886718273163,0.000251762627158314
885,-0.0103320460766554,-0.00149895041249692,-0.0101719535887241,-0.0110008548945189,-0.0412411950528622,0.00297092762775719
886,-0.00554860522970557,0.00201075174845755,-0.00526413973420858,-0.00845591817051172,-0.0348340012133121,0.00200550421141088
887,-0.00124980648979545,0.00489303329959512,-0.00184412824455649,-0.0079816672950983,-0.0282667726278305,-0.00148713809903711
888,0.00162128475494683,0.00737401703372598,0.000132667410071008,-0.00817851535975933,-0.0228018239140511,-0.0059337723068893
889,0.0033619764726609,0.00953709334135056,0.00176681589800864,-0.0077131767757237,-0.0178425032645464,-0.010481309145689
890,0.00504882540553808,0.0118455057963729,0.00333480187691748,-0.00773435598239303,-0.0126938223838806,-0.015415727160871
891,0.00698755960911512,0.0123700574040413,0.00397797208279371,-0.00916115008294582,-0.00815128348767757,-0.0201539918780327
892,0.00829991884529591,0.0086806733161211,0.00315513066016138,-0.0114754550158978,-0.00507370289415121,-0.0223550815135241
893,0.00758858351036906,0.00187673419713974,0.00123105209786445,-0.013663811609149,-0.0036251472774893,-0.0210951566696167
894,0.00442737573757768,-0.00459903525188565,-0.000664767809212208,-0.0132037298753858,-0.00397542351856828,-0.0175191070884466
895,0.000697124225553125,-0.00850481167435646,-0.000628792331553996,-0.00969852041453123,-0.00515205087140203,-0.0140072731301188
896,-0.00115086080040783,-0.0102746104821563,0.00122212991118431,-0.00677003804594278,-0.00598528189584613,-0.0126052955165505
897,-0.000129401421872899,-0.0109893344342709,0.00300409225746989,-0.00613863673061132,-0.00584546057507396,-0.0130796814337373
898,0.00274666724726558,-0.0106601044535637,0.00387599458917975,-0.00598206231370568,-0.00500111514702439,-0.0135216657072306
899,0.00486935628578067,-0.0087388101965189,0.00319914729334414,-0.00496414769440889,-0.00598404835909605,-0.0118072805926204
900,0.00523465452715755,-0.00606266176328063,0.00154218461830169,-0.00350811309181154,-0.00907620042562485,-0.00761076621711254
901,0.00465640472248197,-0.00398447085171938,0.000710663909558207,-0.00285439495928586,-0.0124114593490958,-0.00194275681860745
902,0.0029641012661159,-0.00222968705929816,0.000432557601016015,-0.00489626685157418,-0.01572460308671,0.0041187908500433
903,-2.62614630628377E-05,-0.000472407205961645,-0.000398604199290276,-0.00967763178050518,-0.017759071663022,0.00871489103883505
904,-0.00286732241511345,0.00101942755281925,-0.00146929454058409,-0.0141913639381528,-0.0171380415558815,0.0105297788977623
905,-0.00362139171920717,0.0021815518848598,-0.00226247450336814,-0.01670952886343,-0.0149808619171381,0.00964740198105574
906,-0.00228714919649065,0.0026385358069092,-0.0023803822696209,-0.0180381368845701,-0.0132690379396081,0.00637340918183327
907,-0.000554005790036172,0.00245028338395059,-0.00148233631625772,-0.0178453996777534,-0.0130120450630784,0.0017496629152447
908,0.00050840392941609,0.00217056693509221,-2.73083969659638E-05,-0.0152294896543026,-0.0135068334639072,-0.00257707759737968
909,0.00074180745286867,0.002625368302688,0.000960083969403058,-0.0115697989240289,-0.0142530808225274,-0.00522529752925038
910,-2.91042761091376E-06,0.00569654582068324,0.00105513096787035,-0.0086887190118432,-0.0162663888186216,-0.00481899501755834
911,-0.00155493209604174,0.0115053160116076,0.00106356642208993,-0.00638140691444278,-0.0193708222359419,-0.0017028683796525
912,-0.00270344177260995,0.0177103094756603,0.0028365112375468,-0.00355343031696975,-0.0212752558290958,0.0015525339404121
913,-0.00237705791369081,0.021590294316411,0.00688781961798668,-2.69795327767497E-05,-0.021045221015811,0.00321112503297627
914,-0.000390625558793545,0.0204211473464966,0.011152870953083,0.00410818820819259,-0.0194347482174635,0.00323262414894998
915,0.0030795147176832,0.0135095100849867,0.0136932972818613,0.00770516134798527,-0.0154876997694373,0.000594662851653993
916,0.00731257535517216,0.00298756756819785,0.0145591357722878,0.00925156567245722,-0.00810888689011335,-0.00549805350601673
917,0.0104104671627283,-0.00757611356675625,0.014686836861074,0.00925366953015327,0.000563378445804119,-0.012677657417953
918,0.0107801966369152,-0.0151998838409781,0.0144630745053291,0.00863316003233194,0.00755272014066577,-0.018123421818018
919,0.00903758499771357,-0.0186975058168173,0.0136816147714853,0.00785327795892954,0.0113097932189703,-0.020831935107708
920,0.00662713078781962,-0.0176570639014244,0.0121171344071627,0.00803712196648121,0.0110797332599759,-0.0194986891001463
921,0.00412155361846089,-0.0128147602081299,0.0103353429585695,0.0100105302408338,0.00793523900210857,-0.0133212516084313
922,0.00182966433931142,-0.00721467845141888,0.00962094124406576,0.0126465884968638,0.0051497844979167,-0.00609528739005327
923,0.00105526531115174,-0.00421732617542148,0.0103315571323037,0.0134958038106561,0.00460057519376278,-0.0036754987668246
924,0.00212395400740206,-0.00364514533430338,0.0113637000322342,0.010636854916811,0.00445439014583826,-0.00688098650425673
925,0.00299983844161034,-0.00213259318843484,0.0121285226196051,0.00471313297748566,0.00323257478885353,-0.0112582286819816
926,0.00224345130845904,0.0016984548419714,0.0131328450515866,-0.00108197261579335,0.00193586084060371,-0.0126630170270801
927,0.000478563830256462,0.00561658199876547,0.0141413221135736,-0.00524612050503492,0.000975940376520157,-0.0113268783316016
928,-0.00169097434263676,0.00818836595863104,0.0132434284314513,-0.00893203169107437,-0.00142462167423218,-0.00961931515485048
929,-0.00419052736833692,0.0113616613671184,0.00980365183204412,-0.011818079277873,-0.00619048345834017,-0.00729732634499669
930,-0.00549405580386519,0.0157433189451694,0.0068979193456471,-0.012434053234756,-0.0105263479053974,-0.00199902802705765
931,-0.00392729043960571,0.0183069948107004,0.0077500999905169,-0.00975508242845535,-0.011688431724906,0.00795293226838112
932,0.000179907699930482,0.0186772625893354,0.0119991255924106,-0.00354120042175055,-0.00974054168909788,0.0205909851938486
933,0.004870539996773,0.0183739084750414,0.0162264779210091,0.00293646100908518,-0.00492560025304556,0.0297975782305002
934,0.00708927679806948,0.016569072380662,0.0174861829727888,0.00534792337566614,0.000154801426106133,0.0317712649703026
935,0.00579547276720405,0.0141816651448607,0.0165861546993256,0.00396612193435431,0.000940003315918148,0.0280542876571417
936,0.00348639721050859,0.0122747803106904,0.0164421964436769,0.00173878308851272,-0.00148103176616132,0.0207212921231985
937,0.00201923516578972,0.00905742403119802,0.0176407899707556,0.00012865177995991,-0.00335854617878795,0.0115286959335208
938,0.00115246139466763,0.00392108270898461,0.0178267303854227,-0.00074413901893422,-0.0039501516148448,0.00314353941939771
939,0.00020366559328977,-0.00158210762310773,0.0156430806964636,-0.000522118411026895,-0.00391314597800374,-0.00242811953648925
940,-0.00131134770344943,-0.00572703033685684,0.0127985626459122,0.00102193129714578,-0.00370601937174797,-0.0050114425830543
941,-0.00273962644860148,-0.00749046541750431,0.0112771848216653,0.00263015390373766,-0.00293298973701894,-0.00602944474667311
942,-0.00351382745429873,-0.0073492624796927,0.0106595037505031,0.002189751714468,-0.00205686339177191,-0.00755578186362982
943,-0.00387308234348893,-0.00688889157027006,0.0102721750736237,-0.000456723995739594,-0.00164761673659086,-0.0112014282494783
944,-0.00360769405961037,-0.00607239780947566,0.0111058130860329,-0.00264151999726892,-0.000927293498534709,-0.0158435665071011
945,-0.00277612218633294,-0.00324509362690151,0.0134474588558078,-0.00272971903905272,0.000641507678665221,-0.0187433119863272
946,-0.00217972532846034,0.00171782542020082,0.0156651921570301,-0.00157109065912664,0.00202198117040098,-0.0187698863446712
947,-0.00255384831689298,0.00645169382914901,0.015704445540905,-0.000947885506320745,0.000823778740596026,-0.0163895394653082
948,-0.00421566097065806,0.00882226414978504,0.0129264257848263,-0.00259664747864008,-0.00419449107721448,-0.0121793756261468
949,-0.00686096679419279,0.00938247609883547,0.00857264641672373,-0.0060129682533443,-0.0115247517824173,-0.00650504976511002
950,-0.00914493203163147,0.00930008664727211,0.00439962092787027,-0.00862330198287964,-0.0169919785112143,-0.000854480895213783
951,-0.00942128896713257,0.00845451466739178,0.00199213251471519,-0.00842640548944473,-0.016455814242363,0.00297441892325878
952,-0.00700045237317681,0.00685676792636514,0.00243618432432413,-0.00475125713273883,-0.00990820676088333,0.0045692203566432
953,-0.0021549912635237,0.00460129277780652,0.00541173852980137,0.00152307003736496,-0.000847685965709388,0.00386458681896329
954,0.00324045005254447,0.00143445178400725,0.00888010393828154,0.00705503625795245,0.00652948999777436,0.00045144691830501
955,0.00669078901410103,-0.0010653177741915,0.0107175782322884,0.00913838390260935,0.00993211567401886,-0.00438069086521864
956,0.00757198361679912,0.000823185779154301,0.0108195142820477,0.00945931579917669,0.010440262965858,-0.00788908451795578
957,0.00625121966004372,0.00841805245727301,0.00975900702178478,0.0102291060611606,0.00941552128642797,-0.00866684503853321
958,0.00300598447211087,0.0161220114678144,0.00755341071635485,0.0110894590616226,0.00685116881504655,-0.00603387784212828
959,-0.0013429569080472,0.0177296474575996,0.00573509698733687,0.0122527359053493,0.00274229818023741,0.000514103390742093
960,-0.00478393724188209,0.014872002415359,0.00711514009162784,0.014092430472374,-0.000873195705935359,0.00870759598910809
961,-0.00536867324262857,0.0107842879369855,0.011202109977603,0.0138757722452283,-0.000554061029106379,0.0133443055674434
962,-0.00368790631182492,0.00544090289622545,0.0133164534345269,0.00866943318396807,0.00310482014901936,0.0115438746288419
963,-0.00184558075852692,-0.00061992066912353,0.0103576090186834,-0.000274925667326897,0.00577047932893038,0.00492147589102387
964,-0.00118698936421424,-0.00618723081424832,0.00428838282823563,-0.00928415078669786,0.00494998693466187,-0.00422026915475726
965,-0.00174705148674548,-0.0108739286661148,-0.00130454124882817,-0.0163435619324446,0.0016139653744176,-0.0148037103936076
966,-0.00197453307919204,-0.0146867427974939,-0.00432469835504889,-0.0209596920758486,-0.0013661808334291,-0.0256851632148027
967,-0.00119461119174957,-0.0168728195130825,-0.00410280888900161,-0.0213999971747398,-0.00375577481463552,-0.033510610461235
968,-0.000875333149451762,-0.0169507227838039,-0.00167850952129811,-0.0168049968779087,-0.00657361140474677,-0.0358783714473248
969,-0.00125315366312861,-0.0157660152763128,0.00136995175853372,-0.00932270754128695,-0.00672957533970475,-0.0349824726581573
970,-0.00130037311464548,-0.0141574200242758,0.00395372603088617,-0.00205353763885796,-0.00243276846595109,-0.0340257249772549
971,-0.00127903465181589,-0.0132243353873491,0.0046005449257791,0.00207923259586096,0.00321043911390007,-0.0347514636814594
