,AF3,AF4,Fp1,Fp2,AF7,AF8
0,0.00456432066857815,0.0147722102701664,0.00928585883229971,0.027986804023385,0.0496094338595867,0.0414490848779678
1,0.00454100547358394,0.015530445612967,0.0080411322414875,0.0290376767516136,0.0540220141410828,0.0505509302020073
2,0.00368700758554041,0.0170406904071569,0.00553925894200802,0.0304000768810511,0.053566113114357,0.0598462074995041
3,0.00238802121020854,0.0178959984332323,0.00239246524870396,0.0313185825943947,0.0512488894164562,0.0652516856789589
4,0.00113083713222295,0.0169278159737587,0.000511015357915312,0.0337520055472851,0.0492442063987255,0.0670364573597908
5,0.000340145808877423,0.0163512714207172,0.00271047279238701,0.0403120033442974,0.0496385507285595,0.0690050795674324
6,-0.000372126727597788,0.018273152410984,0.00820418260991573,0.0482678227126598,0.0517337433993816,0.071191243827343
7,-0.00205879798159003,0.0197570081800222,0.0132766859605908,0.0533234812319279,0.0520429462194443,0.0708761513233185
8,-0.0051699411123991,0.0188720040023327,0.0165074951946735,0.0568192303180695,0.0495243594050407,0.0692541226744652
9,-0.00837632175534964,0.0168934464454651,0.0191783029586077,0.0612013414502144,0.0483601950109005,0.0685635805130005
10,-0.00950219016522169,0.0136658241972327,0.0219720266759396,0.064837209880352,0.0528547689318657,0.0677002295851707
11,-0.0089096175506711,0.0092817060649395,0.0252080112695694,0.0671660453081131,0.0608486123383045,0.0662590116262436
12,-0.00797379575669765,0.00540931941941381,0.0295566190034151,0.0698038637638092,0.0684479847550392,0.0662466660141945
13,-0.00634645577520132,0.003162806853652,0.0332425981760025,0.0723831206560135,0.0742935165762901,0.0691994726657867
14,-0.00445750961080194,0.00268844212405384,0.0336094759404659,0.0740247145295143,0.0775135010480881,0.0750368908047676
15,-0.00313703413121402,0.00404973328113556,0.0316867604851723,0.0747903510928154,0.0795200690627098,0.0821329951286316
16,-0.00139105995185673,0.00734445685520768,0.0308721903711557,0.074995681643486,0.0832293033599854,0.0885763168334961
17,0.000885515182744712,0.0117935659363866,0.0322417467832565,0.0749296769499779,0.0882140845060349,0.0940838009119034
18,0.00148491584695876,0.0159419011324644,0.0339237116277218,0.0748530626296997,0.0900718346238136,0.0994290113449097
19,6.44740648567677E-05,0.018706826493144,0.0350428782403469,0.0751984342932701,0.0873015075922012,0.103945180773735
20,-0.00110488629434258,0.0203130226582289,0.0366708002984524,0.0767422765493393,0.0836722776293755,0.107348844408989
21,-0.000967196596320719,0.0214278567582369,0.0387126691639423,0.0799684450030327,0.0819682404398918,0.11060444265604
22,-0.000288904790068045,0.0215484909713268,0.0398147962987423,0.0842738896608353,0.0828311592340469,0.113227918744087
23,-0.000205904158065096,0.0202720258384943,0.0399136953055859,0.0892424806952477,0.0856999084353447,0.114718534052372
24,-0.00117002590559423,0.0184195917099714,0.0399074070155621,0.0941583663225174,0.0880529880523682,0.115441717207432
25,-0.00258578965440392,0.0168318822979927,0.0399770997464657,0.0968698710203171,0.0887736231088638,0.115996986627579
26,-0.00349008897319436,0.0156781636178494,0.0399711132049561,0.0966773480176926,0.0892769396305084,0.116937972605228
27,-0.00388181628659368,0.0149912415072322,0.0397961176931858,0.0958698391914368,0.0895018130540848,0.118639178574085
28,-0.00416280841454864,0.0152237983420491,0.0394444838166237,0.0966242626309395,0.0880746692419052,0.121433794498444
29,-0.00389784155413508,0.0168086756020784,0.0399078987538815,0.0992240384221077,0.0860487595200539,0.124635383486748
30,-0.00361199560575187,0.0195028278976679,0.0416555069386959,0.10299651324749,0.08516775816679,0.128211706876755
31,-0.00484995916485786,0.0226102564483881,0.0435427725315094,0.106193944811821,0.0855766236782074,0.132402628660202
32,-0.00697935977950692,0.0246601589024067,0.0460376106202602,0.10660982131958,0.0890339687466621,0.134466543793678
33,-0.00811028387397528,0.0242289490997791,0.0497986935079098,0.10400202870369,0.0953401699662209,0.132157906889915
34,-0.0078622167930007,0.0229000523686409,0.0533058382570744,0.10211493074894,0.0999705642461777,0.129262521862984
35,-0.00633693393319845,0.0239162221550941,0.0557610131800175,0.104440465569496,0.102472841739655,0.129732176661491
36,-0.00470316037535667,0.025513768196106,0.0560285374522209,0.107893273234367,0.104121297597885,0.130242869257927
37,-0.00462279422208667,0.0223852209746838,0.0534301474690437,0.107393071055412,0.10397045314312,0.126227825880051
38,-0.00556643586605787,0.0151953715831041,0.0501200072467327,0.102744959294796,0.102807760238647,0.118861503899097
39,-0.00618377840146422,0.00951006449759007,0.0479667335748672,0.0981932803988457,0.101792708039284,0.113282650709152
40,-0.00522499112412333,0.00846841372549534,0.0476741641759872,0.0973663702607155,0.101753368973732,0.113431066274643
41,-0.00241808500140905,0.0112168146297336,0.0495201870799065,0.0996195822954178,0.103379748761654,0.118302077054977
42,-0.000296719284961,0.0151046151295304,0.0524611696600914,0.102857574820518,0.104622438549995,0.124086372554302
43,-0.000560237444005907,0.0183104127645493,0.0549693815410137,0.105561956763268,0.103010624647141,0.128090515732765
44,-0.000761488103307784,0.0199079588055611,0.0564364343881607,0.106117844581604,0.100835286080837,0.128458291292191
45,0.00106589484494179,0.0202017854899168,0.0574773401021957,0.104942470788956,0.101330421864986,0.124667108058929
46,0.00292302621528506,0.0202137492597103,0.0590635314583778,0.10408740490675,0.102716952562332,0.118949703872204
47,0.00243398523889482,0.0195917189121246,0.0613230876624584,0.104071222245693,0.101556114852428,0.1153215020895
48,0.000358559133019298,0.0175843648612499,0.0639102384448051,0.104381360113621,0.098025843501091,0.116563610732555
49,-0.00124161737039685,0.0152027579024434,0.0659609586000443,0.10534443706274,0.0947438627481461,0.122138701379299
50,-0.00186836125794798,0.014917578548193,0.0672404989600182,0.108103692531586,0.0943280011415482,0.129430145025253
51,-0.00206506089307368,0.0167746935039759,0.0685693249106407,0.111476667225361,0.0981255769729614,0.134816884994507
52,-0.00201383838430047,0.0176468025892973,0.0688023865222931,0.111558996140957,0.103864841163158,0.135517880320549
53,-0.00137233338318765,0.0159962568432093,0.0663711205124855,0.107497036457062,0.108924798667431,0.131709709763527
54,-0.000315445708110929,0.0128077082335949,0.062766969203949,0.102440036833286,0.113265715539455,0.125605329871178
55,0.000209519595955499,0.00941446609795094,0.0600306279957294,0.0988184437155724,0.116003155708313,0.120849899947643
56,-0.00049061793833971,0.00701951654627919,0.0584605596959591,0.0967785865068436,0.115537516772747,0.120418056845665
57,-0.00220774114131927,0.00609153043478727,0.0575982145965099,0.0956361815333366,0.112122036516666,0.122729510068893
58,-0.00412519602105021,0.0064692497253418,0.0567745491862297,0.0950234457850456,0.106931403279305,0.124396465718746
59,-0.006061683408916,0.00806738529354334,0.0555541515350342,0.0955640450119972,0.100125603377819,0.12585723400116
60,-0.00777828600257635,0.0105947041884065,0.0540160425007343,0.0979913175106049,0.0921650007367134,0.12893357872963
61,-0.00752404052764177,0.0135575430467725,0.0531060993671417,0.100156031548977,0.0872249230742455,0.130915492773056
62,-0.00513421138748527,0.0153799243271351,0.0535345673561096,0.0988842770457268,0.0876161232590675,0.128276631236076
63,-0.00299655715934932,0.0137441353872418,0.0541267357766628,0.09441889077425,0.0897874310612679,0.121694900095463
64,-0.00145577965304255,0.00913779810070992,0.0546977482736111,0.089390367269516,0.092627540230751,0.113117747008801
65,0.00117439706809819,0.00487907463684678,0.0569945126771927,0.0862133353948593,0.0966915190219879,0.104503467679024
66,0.00483654020354152,0.00240700040012598,0.0600754953920841,0.0845874398946762,0.0993414521217346,0.0971096232533455
67,0.00699890125542879,0.000227416210691445,0.0604368820786476,0.0821841731667519,0.0985767021775246,0.0917249545454979
68,0.00579175725579262,-0.00184689089655876,0.0572588481009007,0.0788364037871361,0.0952425301074982,0.0903478413820267
69,0.00339891505427659,-0.00133535673376173,0.0538306422531605,0.0768504068255425,0.0928132236003876,0.0940999463200569
70,0.003027105005458,0.00276279472745955,0.0530579052865505,0.0783690884709358,0.094092071056366,0.101884216070175
71,0.00412580603733659,0.00707467086613178,0.053537655621767,0.083003893494606,0.0970930233597755,0.110508568584919
72,0.00394305912777781,0.0084144426509738,0.052758414298296,0.088473878800869,0.097953163087368,0.116741329431534
73,0.0017947256565094,0.00845193397253752,0.0510470643639565,0.0930857956409454,0.095242902636528,0.119900457561016
74,0.000346200831700116,0.00921519380062819,0.0501541420817375,0.0946353152394295,0.0913789719343185,0.119311258196831
75,0.0013093042653054,0.00956419203430414,0.0506528206169605,0.0914044678211212,0.089504599571228,0.114009447395802
76,0.002492462284863,0.0089411148801446,0.0515623763203621,0.0855113938450813,0.0888288021087646,0.106030121445656
77,0.00186694483272731,0.00827534776180983,0.0522877052426338,0.0802509263157845,0.0878095701336861,0.0985681936144829
78,0.000345232343534008,0.0079628573730588,0.0528563670814037,0.0766246318817139,0.0865530520677567,0.0935397148132324
79,-0.000485635711811483,0.00809617526829243,0.05289176851511,0.0745726227760315,0.0844669565558434,0.0913533940911293
80,-0.000815598003100604,0.00831505004316568,0.0523956194519997,0.0739047452807426,0.0809124559164047,0.0896120816469193
81,-0.00140711502172053,0.00808082334697247,0.0520397573709488,0.0730496719479561,0.0767239853739738,0.0853261351585388
82,-0.00217826967127621,0.00761759793385863,0.052365068346262,0.0713722109794617,0.0738092958927155,0.0803152471780777
83,-0.00306405150331557,0.00676351878792048,0.0532647743821144,0.0707187131047249,0.0732624754309654,0.0784838870167732
84,-0.00377128086984158,0.00476165860891342,0.0539343543350697,0.0710278302431107,0.0741370543837547,0.0794145241379738
85,-0.003593206172809,0.00197269348427653,0.053261537104845,0.0699735283851624,0.0749035626649857,0.080143079161644
86,-0.00255670677870512,-0.000202952738618478,0.0512492433190346,0.0668026059865952,0.0741872265934944,0.0794926211237907
87,-0.0016308818012476,-0.00165833625942469,0.0492527186870575,0.0621004551649094,0.0715925246477127,0.0780957862734795
88,-0.00126511161215603,-0.0029523610137403,0.0480675250291824,0.0574042275547981,0.0683345273137093,0.0769196674227715
89,-0.00141364953015,-0.0027385966386646,0.0471703298389912,0.0559509098529816,0.0645522773265839,0.0779981389641762
90,-0.00190396176185459,-0.000515380525030196,0.0459765270352364,0.0585888512432575,0.0614665597677231,0.0821226537227631
91,-0.00151506369002163,0.00131022755522281,0.0448468811810017,0.0621077790856361,0.062198743224144,0.085745707154274
92,0.00090080825611949,0.00139527779538184,0.0454063341021538,0.064580425620079,0.0675399824976921,0.0856278166174889
93,0.00453668786212802,0.00152809615246952,0.0490016452968121,0.0664174035191536,0.0754181817173958,0.0821805745363235
94,0.00721133081242442,0.00249842857010663,0.0536553859710693,0.0679052546620369,0.0813530907034874,0.0769612863659859
95,0.00738754030317068,0.00278121931478381,0.0555223524570465,0.0690409764647484,0.0819310992956162,0.0714645683765411
96,0.00499568460509181,0.0026841803919524,0.0533410608768463,0.0691679269075394,0.077637180685997,0.0669398680329323
97,0.0019456276204437,0.00322212395258248,0.0493241250514984,0.0673507302999496,0.0715651586651802,0.0633047893643379
98,0.000543348141945899,0.00348662631586194,0.0464966669678688,0.0639513656497002,0.0667724460363388,0.060186043381691
99,0.000477076566312462,0.00249696150422096,0.0460018999874592,0.0598641112446785,0.0640717074275017,0.0579435154795647
100,6.35072428849526E-05,0.000133063527755439,0.046859685331583,0.0551650412380695,0.063928946852684,0.0566149838268757
101,-0.00115198676940054,-0.00225811428390443,0.0477231331169605,0.0511995665729046,0.0660538971424103,0.0568965077400208
102,-0.00213075336068869,-0.00332836364395916,0.0475158654153347,0.0491831116378307,0.0682213455438614,0.0582042038440704
103,-0.00160945393145084,-0.00387368560768664,0.0457523018121719,0.048425305634737,0.0687515065073967,0.058103870600462
104,0.000619940867181867,-0.0042575690895319,0.0439059622585773,0.0493939965963364,0.0676339864730835,0.0570871643722057
105,0.00339543633162975,-0.00399118009954691,0.0432268157601357,0.0519268997013569,0.0654542371630669,0.0562124699354172
106,0.00487602921202779,-0.00378319527953863,0.0429770275950432,0.0535549260675907,0.062637060880661,0.0541295893490314
107,0.00455201277509332,-0.00429005781188607,0.0427738353610039,0.0530451163649559,0.0601738840341568,0.0503468886017799
108,0.0028582033701241,-0.00455168355256319,0.0424017533659935,0.0512764044106007,0.0580376982688904,0.0468684993684292
109,-4.25900361733511E-05,-0.00386344245634973,0.0412695147097111,0.0490856729447842,0.0551344938576221,0.0460270792245865
110,-0.00305144349113107,-0.00330876861698926,0.0402069427073002,0.0469959527254105,0.052102979272604,0.0478912852704525
111,-0.00529888644814491,-0.00341006717644632,0.039710558950901,0.0454981848597527,0.0499802567064762,0.0502744130790234
112,-0.00674446579068899,-0.00307260104455054,0.0393074229359627,0.044857207685709,0.0492641851305962,0.0509006977081299
113,-0.00702126510441303,-0.00249261129647493,0.0394242517650127,0.0446357391774654,0.0500601530075073,0.0490808933973312
114,-0.00706019531935453,-0.00294286222197115,0.0393532477319241,0.0435091257095337,0.0495788082480431,0.0460927374660969
115,-0.00814884155988693,-0.00337408110499382,0.0378153137862682,0.0412971191108227,0.0450267754495144,0.0432825312018394
116,-0.00918249879032373,-0.00151541852392256,0.0360829569399357,0.0393951162695885,0.039158757776022,0.0412797294557095
117,-0.00857040379196405,0.00264955288730562,0.0363329239189625,0.0387213677167892,0.0365871079266071,0.041114866733551
118,-0.00672328704968095,0.00761562585830688,0.0387909524142742,0.0395362675189972,0.0376686714589596,0.0430349595844746
119,-0.00524142105132341,0.012982745654881,0.0415527485311031,0.0411734990775585,0.0398437902331352,0.045802466571331
120,-0.00480412878096104,0.0171429645270109,0.0422819033265114,0.0413125306367874,0.041517473757267,0.0464768037199974
121,-0.00418139575049281,0.0173752494156361,0.0402123630046844,0.0386357381939888,0.042958676815033,0.0424233824014664
122,-0.00233099516481161,0.0139549029991031,0.0363326296210289,0.0344393886625767,0.0448979996144772,0.0347640514373779
123,-0.000633771356660873,0.00957113411277533,0.0327481143176556,0.0316596403717995,0.0469130165874958,0.028955465182662
124,-0.000267930357949808,0.00619907444342971,0.0306641757488251,0.0307306349277496,0.0476929098367691,0.0286757126450539
125,-0.000351645488990471,0.00396579457446933,0.0295305345207453,0.0290310215204954,0.0465359948575497,0.0316915065050125
126,-0.00174705893732607,0.00278259254992008,0.0294172428548336,0.0272034481167793,0.0429102331399918,0.0360878556966782
127,-0.0059285806491971,0.0022216122597456,0.0290585700422525,0.0267473198473454,0.0362110026180744,0.0407878272235394
128,-0.0100891310721636,0.00137321942020208,0.0259964857250452,0.0260808821767569,0.0291175413876772,0.0434570163488388
129,-0.0114237610250711,0.000150608291733079,0.0221195258200169,0.0245802663266659,0.0261580608785152,0.0440166108310223
130,-0.0108528519049287,-0.000770436658058316,0.0213677026331425,0.0235874317586422,0.0275049190968275,0.0437825284898281
131,-0.00902418047189713,0.000326169334584847,0.02512745000422,0.0248261839151382,0.0304789766669273,0.0437857806682587
132,-0.00591733912006021,0.00309661217033863,0.0319428592920303,0.0280746035277843,0.0338882505893707,0.0437838397920132
133,-0.00250322395004332,0.00431510526686907,0.0380623191595078,0.0308006945997477,0.0378259383141994,0.0421347431838512
134,-3.37067308464611E-06,0.00325286411680281,0.040764082223177,0.0320857316255569,0.0417578555643559,0.0391169488430023
135,0.000516389962285757,0.00164488470181823,0.0401064939796925,0.0324675217270851,0.043359387665987,0.0365836098790169
136,-0.000395526498323306,0.000452343374490738,0.0374265275895596,0.032000008970499,0.0415703654289246,0.0360200628638268
137,-0.000958551245275885,0.000120187884022016,0.034274123609066,0.0315756537020206,0.0381422452628613,0.0379911102354527
138,-0.000690840475726873,0.000998189090751112,0.0317331701517105,0.0324515104293823,0.0347214341163635,0.0406287722289562
139,9.86212398856878E-06,0.0020553998183459,0.0302655268460512,0.0329832062125206,0.0329536199569702,0.0396216176450253
140,0.000545584072824568,0.00073913874803111,0.029108053073287,0.0295838266611099,0.0336695313453674,0.0317658483982086
141,-0.000273807236226276,-0.00310441921465099,0.0269482973963022,0.0235859900712967,0.0341100469231606,0.0205723904073238
142,-0.00364106055349112,-0.00717938924208283,0.0230944976210594,0.0192670170217752,0.0304921604692936,0.0128076765686274
143,-0.00837855506688356,-0.0102907968685031,0.0181680489331484,0.0164438840001822,0.0238341800868511,0.00914939679205418
144,-0.011121747083962,-0.011320068500936,0.0145747978240252,0.014312582090497,0.0183489993214607,0.0071252416819334
145,-0.0100631508976221,-0.0104869147762656,0.0149524677544832,0.0136411422863603,0.017229437828064,0.00534924725070596
146,-0.00597441848367453,-0.00973652023822069,0.019800940528512,0.0135418903082609,0.0213704332709312,0.00312120723538101
147,-0.00130024168174714,-0.0088921133428812,0.0263457261025906,0.0134070804342628,0.0267509240657091,0.00304693286307156
148,0.00176725932396948,-0.00755799328908324,0.0307890195399523,0.0131099913269281,0.0289439726620913,0.00597853818908334
149,0.00336371012963355,-0.00678308820351958,0.0312185660004616,0.0117636881768703,0.0288033355027437,0.00848629046231508
150,0.00465140165761113,-0.0063084103167057,0.0288074258714914,0.0104942061007023,0.0291687529534101,0.0106349941343069
151,0.00541192200034857,-0.00460780179128051,0.0270403977483511,0.0124862026423216,0.0309175811707973,0.015752986073494
152,0.00449909223243594,-0.00125228858087212,0.0271699484437704,0.0169303957372904,0.0322848409414291,0.0229424182325602
153,0.00167229166254401,0.001275704940781,0.0265844464302063,0.0184024926275015,0.0295907445251942,0.0272708795964718
154,-0.00147247978020459,0.00124046101700515,0.0240312274545431,0.0155260628089309,0.0220220424234867,0.0272880904376507
155,-0.00237467139959335,0.0010511566651985,0.0215535257011652,0.0123000843450427,0.0146939512342215,0.0257485751062632
156,-0.000254988786764443,0.00237135612405837,0.0206583868712187,0.0110465120524168,0.0128294164314866,0.0244446806609631
157,0.003231271635741,0.0030579692684114,0.0205109156668186,0.0105550680309534,0.016525037586689,0.0228287875652313
158,0.00672237714752555,0.00137484283186495,0.020613556727767,0.0104185901582241,0.0236195400357246,0.0206568874418736
159,0.00854706391692162,-0.00161451892927289,0.0198035258799791,0.011099667288363,0.0293363463133574,0.0186741221696138
160,0.00638981768861413,-0.00431517977267504,0.0160831827670336,0.0116848861798644,0.0276881083846092,0.0160614214837551
161,0.00181347492616624,-0.00536132883280516,0.0120075754821301,0.0127228582277894,0.0211926326155663,0.0130472090095282
162,-0.00070743600372225,-0.00466406811028719,0.0110079580917954,0.0136122303083539,0.0179554373025894,0.0107423905283213
163,-5.66829694435E-05,-0.00317068886943161,0.0120744807645679,0.0111497826874256,0.020139018073678,0.00760374218225479
164,0.00163346086628735,-0.00058407144388184,0.0130460662767291,0.00603554444387555,0.0231554303318262,0.0043134237639606
165,0.00311001436784863,0.00267557776533067,0.0131525555625558,0.00221111881546676,0.023393090814352,0.0038351125549525
166,0.0036876886151731,0.00405916571617126,0.0122793707996607,0.000752336694858968,0.0206141322851181,0.00433020759373903
167,0.00261221546679735,0.00220066402107477,0.0105510866269469,5.47128765902016E-05,0.0157603770494461,0.00172287866007537
168,0.000430227519245818,-0.00120748544577509,0.0087415874004364,-0.00036106861080043,0.0117112686857581,-0.00343199679628015
169,-0.0015209699049592,-0.0041076997295022,0.00825806800276041,-0.000430071784649044,0.0110325822606683,-0.00797364395111799
170,-0.00242948206141591,-0.00555920833721757,0.00987794995307922,-0.000439797819126397,0.0131926797330379,-0.00959646515548229
171,-0.00225505791604519,-0.00538076506927609,0.0122594339773059,0.000450095772976056,0.0162318982183933,-0.00761305540800095
172,-0.0015041942242533,-0.00436024228110909,0.013908508233726,0.00265472056344152,0.0189249217510223,-0.0048526986502111
173,-0.000339957070536911,-0.00360475177876651,0.0153952464461327,0.00476468214765191,0.0210607647895813,-0.00517471227794886
174,0.00196162052452564,-0.00364291737787426,0.0170905478298664,0.0054475674405694,0.0231541059911251,-0.00930053927004337
175,0.00538609176874161,-0.00386447552591562,0.0180431548506022,0.00493276258930564,0.0255176220089197,-0.0143369780853391
176,0.00848467461764812,-0.00372421089559793,0.0175651870667934,0.0037858986761421,0.0272711161524057,-0.0163625348359346
177,0.0104952063411474,-0.00379088590852916,0.0162817388772964,0.00211094366386533,0.0277879424393177,-0.0139897875487804
178,0.0118229994550347,-0.00446349708363414,0.0162675902247429,0.00140875624492764,0.0274933148175478,-0.00821326114237309
179,0.0124435676261783,-0.00468681054189801,0.0178733058273792,0.00236349389888346,0.0268533825874329,-0.00148692005313933
180,0.011762703768909,-0.00378798204474151,0.0178349371999502,0.00215363665483892,0.0247532222419977,0.00323067815043032
181,0.00981861911714077,-0.00224644690752029,0.0144816869869828,0.000231204598094337,0.0186704955995083,0.00640056701377034
182,0.0079236775636673,0.000195457687368616,0.0102884536609054,-0.000583100249059498,0.00994495768100023,0.00981295760720968
183,0.00743254506960511,0.00319249625317752,0.00731486640870571,-0.000190815699170344,0.00385622447356582,0.0121987294405699
184,0.00793154444545507,0.00455847987905145,0.00505434535443783,-0.00133902567904443,0.00177387124858797,0.0111000081524253
185,0.00810905080288649,0.00218452792614698,0.0029791546985507,-0.00532394694164395,0.00162772741168737,0.00561120454221964
186,0.00754053704440594,-0.00275281490758061,0.00200435402803123,-0.00963132455945015,0.00250163464806974,-0.00156235904432833
187,0.00648473622277379,-0.00715755764394999,0.0025432261172682,-0.0116153657436371,0.00333308870904148,-0.00676879705861211
188,0.0047482973895967,-0.0100582409650087,0.00352483568713069,-0.0114397145807743,0.00271181110292673,-0.0084382938221097
189,0.00232793786562979,-0.0115834651514888,0.00439365115016699,-0.00976183265447617,0.000901769439224154,-0.00607450678944588
190,0.000732520129531622,-0.0120946709066629,0.00510938139632344,-0.00777865527197719,-0.000821301771793514,-0.00153411494102329
191,0.000996356480754912,-0.0127801634371281,0.00517108757048845,-0.0070820041000843,-0.00239195441827178,0.00188289978541434
192,0.00252999528311193,-0.0138840172439814,0.00534979579970241,-0.0072270086966455,-0.00260624568909407,0.00286027556285262
193,0.00408134935423732,-0.0148295490071177,0.00676145358011127,-0.00725193368270993,0.000518275308422744,0.00133110268507153
194,0.00422540633007884,-0.0158459208905697,0.00805655214935541,-0.00732637429609895,0.0033223747741431,-0.00277447467669845
195,0.0024037912953645,-0.0164098497480154,0.00687849055975676,-0.00685612438246608,-0.000269957788987085,-0.00784584134817123
196,-0.000263293884927407,-0.014792799949646,0.00347705208696425,-0.0048043099232018,-0.00855596084147692,-0.0105898566544056
197,-0.00131751876324415,-0.0109579721465707,0.000694113085046411,-0.0018920871661976,-0.0134804490953684,-0.00992752891033888
198,0.000342889077728614,-0.00678563211113214,3.45806656696368E-05,0.000374517549062148,-0.0115740494802594,-0.00798689480870962
199,0.00327606196515262,-0.00367883522994816,0.000917094992473722,0.0016327069606632,-0.00558715546503663,-0.0069442936219275
200,0.00588413700461388,-0.00235112197697163,0.00204779696650803,0.00135991955175996,0.000788335222750902,-0.00828714203089476
201,0.00869027059525251,-0.00332466000691056,0.0019791389349848,-0.00134694797452539,0.00566865736618638,-0.0125347711145878
202,0.0125155607238412,-0.0055713695473969,0.000533853191882372,-0.00556454760953784,0.00923368614166975,-0.0172677338123322
203,0.0156177813187242,-0.00699414638802409,-0.00182389514520764,-0.00964014884084463,0.0104033146053553,-0.0194007940590382
204,0.0162759926170111,-0.00704772397875786,-0.00405539479106665,-0.0115488870069385,0.00790068134665489,-0.0177674107253551
205,0.0149390278384089,-0.00621127709746361,-0.004109101369977,-0.00860711559653282,0.00339895859360695,-0.0125340474769473
206,0.0126952948048711,-0.00468148430809379,-0.00187861197628081,-0.00280043273232877,-0.000587447488214821,-0.00702998694032431
207,0.0101065617054701,-0.00359023129567504,-0.000457277870737016,-0.000516028492711484,-0.00383184012025595,-0.00528068002313375
208,0.00803613476455212,-0.00358521775342524,-0.00146831059828401,-0.00372657412663102,-0.00661466922610998,-0.00657835742458701
209,0.00706986244767904,-0.00339861842803657,-0.00280824000947177,-0.0089105162769556,-0.00843223836272955,-0.00800171121954918
210,0.00621112063527107,-0.00359023245982826,-0.00267331697978079,-0.0130442101508379,-0.00972998701035976,-0.00918185897171497
211,0.00483373552560806,-0.00606086058542132,-0.00113352341577411,-0.015317764133215,-0.0111375926062465,-0.0106313591822982
212,0.00377975148148835,-0.00953475199639797,0.001273472327739,-0.015437675639987,-0.0128047661855817,-0.0111613757908344
213,0.0035023691598326,-0.0112992906942964,0.00337104452773929,-0.0142489587888122,-0.0145709691569209,-0.0108521012589335
214,0.00300981872715056,-0.0111460397019982,0.00362616428174078,-0.0143848937004805,-0.016248794272542,-0.0115305073559284
215,0.00238091126084328,-0.0109434751793742,0.00212434749118984,-0.0167456846684217,-0.0155004533007741,-0.0133376000449061
216,0.00288841873407364,-0.0121598811820149,-9.64460268733092E-05,-0.0196034330874681,-0.0112265879288316,-0.0156892240047455
217,0.00415742956101894,-0.014311645179987,-0.00127727375365794,-0.0207805503159761,-0.00654428359121084,-0.0178368147462606
218,0.00551521452143788,-0.0157950147986412,0.000421519129304215,-0.0193639881908894,-0.0024230913259089,-0.0182177983224392
219,0.00685545103624463,-0.0162048358470201,0.00228488864377141,-0.0179052203893662,-5.96987483731937E-05,-0.0172027871012688
220,0.00708665605634451,-0.0163124613463879,0.000457866088254377,-0.0189596097916365,-0.00286391447298229,-0.0165166594088078
221,0.006233184132725,-0.0158323105424643,-0.00353728700429201,-0.0207332912832499,-0.00956518482416868,-0.0164920948445797
222,0.00616566650569439,-0.0140196941792965,-0.00645279185846448,-0.0205033272504807,-0.0147918947041035,-0.0165506098419428
223,0.00664175394922495,-0.0111455414444208,-0.00791596621274948,-0.0178854651749134,-0.0170009322464466,-0.0147651694715023
224,0.00584981217980385,-0.00730824377387762,-0.00909442640841007,-0.0139177553355694,-0.0196844395250082,-0.00901638623327017
225,0.00325037515722215,-0.00338073191232979,-0.0107939969748259,-0.0108359791338444,-0.0247379001230001,-0.00127618142869323
226,-0.000472810323117301,-0.00137417379301041,-0.01313900295645,-0.0111146625131369,-0.0300776977092028,0.00318749574944377
227,-0.00351413851603866,-0.00153492880053818,-0.0153706846758723,-0.0143311116844416,-0.0328108035027981,0.00120037829037756
228,-0.00404489180073142,-0.00229371176101267,-0.0160659588873386,-0.0176015812903643,-0.0311667565256357,-0.00548695446923375
229,-0.00243724905885756,-0.00273539777845144,-0.0145617425441742,-0.0191542413085699,-0.0256975181400776,-0.0119693391025066
230,-0.00115495070349425,-0.00348038482479751,-0.0125608444213867,-0.0197659693658352,-0.0200690943747759,-0.0154473055154085
231,-0.000928313878830522,-0.0051451064646244,-0.0117231281474233,-0.0213043503463268,-0.0165148694068193,-0.0172284189611673
232,-0.000951715628616512,-0.00691204005852342,-0.0116444695740938,-0.0237039308995008,-0.0149993076920509,-0.0182315912097692
233,-0.00170177360996604,-0.00763232493773103,-0.0121360532939434,-0.0250123124569654,-0.016628997400403,-0.0177341010421515
234,-0.00293027842417359,-0.00721090054139495,-0.012806742452085,-0.0242937877774239,-0.0207422450184822,-0.0162236336618662
235,-0.00307042757049203,-0.00669200019910932,-0.0122326025739312,-0.0225527547299862,-0.0234787054359913,-0.0156963095068932
236,-0.00128135469276458,-0.00731613161042333,-0.00957953371107578,-0.0204131994396448,-0.0221650302410126,-0.0171041749417782
237,0.00138827052433044,-0.00791181996464729,-0.0056022247299552,-0.0176241416484118,-0.0185005199164152,-0.0186944492161274
238,0.00227607903070748,-0.00662728818133473,-0.00353994406759739,-0.0158426892012358,-0.0168325211852789,-0.018893513828516
239,0.000557886029127985,-0.00531997624784708,-0.00584719050675631,-0.0163570269942284,-0.0192346163094044,-0.0179258603602648
240,-0.0012634249869734,-0.00615701917558908,-0.0102340131998062,-0.0174354389309883,-0.0233555920422077,-0.0171042289584875
241,-0.00144059234298766,-0.00836323015391827,-0.0137780364602804,-0.0181410647928715,-0.0265394989401102,-0.0185955408960581
242,-0.000748466467484832,-0.0111137349158525,-0.0162985008209944,-0.0201969165354967,-0.0287582073360682,-0.0238090846687555
243,-5.75899730392848E-06,-0.014175514690578,-0.0178052242845297,-0.0242652054876089,-0.0308225005865097,-0.0312897115945816
244,0.000351930473698303,-0.0165253039449453,-0.0177159979939461,-0.0281773023307323,-0.0332254208624363,-0.0363132730126381
245,-2.909359500336E-05,-0.0159737076610327,-0.0157185047864914,-0.0295758415013552,-0.034543801099062,-0.0348621532320976
246,-0.0011337042087689,-0.0114131337031722,-0.0130096012726426,-0.0290725491940975,-0.033184427767992,-0.0287780184298754
247,-0.00251159723848104,-0.00576144922524691,-0.0123197520151734,-0.0293044485151768,-0.0306800566613674,-0.0239945165812969
248,-0.00356576358899474,-0.00254717003554106,-0.0140825286507607,-0.0301038566976786,-0.028416695073247,-0.0227036625146866
249,-0.00457266671583056,-0.00174955907277763,-0.0157750602811575,-0.0291856024414301,-0.0264855436980724,-0.0226555299013853
250,-0.00640043616294861,-0.00171269499696791,-0.0157608315348625,-0.0262915845960379,-0.0267296060919762,-0.0224643796682358
251,-0.00880391616374254,-0.00170761672779918,-0.0146122807636857,-0.0229237265884876,-0.0311248153448105,-0.0216746442019939
252,-0.010539447888732,-0.00219402043148875,-0.0134809836745262,-0.0200723856687546,-0.0388974919915199,-0.0191640313714743
253,-0.0110088130459189,-0.00474434113129973,-0.0133490636944771,-0.019061490893364,-0.046341709792614,-0.0160860996693373
254,-0.00992851052433252,-0.00976626016199589,-0.0144023317843676,-0.0214915573596954,-0.0485184490680695,-0.0163606125861406
255,-0.00768693163990974,-0.0146713862195611,-0.0155158108100295,-0.0254642330110073,-0.0445213504135609,-0.0204154085367918
256,-0.00527561455965042,-0.0171964000910521,-0.0161344632506371,-0.0280340611934662,-0.038217019289732,-0.0251017026603222
257,-0.00284549547359347,-0.017219752073288,-0.0162070170044899,-0.0285078976303339,-0.0326106213033199,-0.0278448015451431
258,-0.000315535784466192,-0.0158275831490755,-0.0152705479413271,-0.0273137390613556,-0.0283143445849419,-0.028285663574934
259,0.00234644114971161,-0.0140347667038441,-0.0136590162292123,-0.0255512353032827,-0.0255957469344139,-0.0281369779258966
260,0.00503654079511762,-0.0112675903365016,-0.0123584046959877,-0.0235516149550676,-0.0252405032515526,-0.027533620595932
261,0.00698045268654823,-0.00758586451411247,-0.0118887452408671,-0.0216786544770002,-0.0267423465847969,-0.0260653793811798
262,0.00789959728717804,-0.0042641693726182,-0.0114604542031884,-0.0205674152821302,-0.0277209188789129,-0.0244378205388784
263,0.00822143722325563,-0.00201209401711822,-0.0100096836686134,-0.0199814829975367,-0.0265934616327286,-0.0228724461048841
264,0.00803270936012268,-0.00142636289820075,-0.00770854437723756,-0.0198932290077209,-0.0232055447995663,-0.0219878796488047
265,0.00753747532144189,-0.00193131878040731,-0.005502266343683,-0.0198982544243336,-0.0189102869480848,-0.0221791360527277
266,0.00672730896621943,-0.00209283246658742,-0.00503693940117955,-0.0194205772131681,-0.0172585602849722,-0.0230537168681622
267,0.00583271123468876,-0.00142618373502046,-0.00637364434078336,-0.0184169635176659,-0.0186430141329765,-0.0243105590343475
268,0.00605639396235347,-0.000611318799201399,-0.00697803404182196,-0.0166922975331545,-0.0185615792870522,-0.0257073938846588
269,0.00780404498800635,0.000305940717225894,-0.00647526746615767,-0.0150847872719169,-0.0159127507358789,-0.0271997712552547
270,0.00982775259763002,0.00205382215790451,-0.00701580522581935,-0.0153670608997345,-0.0140138259157538,-0.0284849982708693
271,0.00965688657015562,0.00211358466185629,-0.00939798355102539,-0.0172598529607058,-0.0153061905875802,-0.0291580464690924
272,0.00610764417797327,-0.00120140821672976,-0.0119044594466686,-0.0177671853452921,-0.0195134524255991,-0.0289025958627462
273,0.00150662241503596,-0.00487813306972384,-0.0122677711769938,-0.0156293679028749,-0.0235072392970324,-0.0289266705513
274,-0.00126906123477966,-0.00769898388534784,-0.0116135915741324,-0.0150944879278541,-0.024812638759613,-0.0326080843806267
275,-0.00165461760479957,-0.0102027794346213,-0.0125373648479581,-0.0194445978850126,-0.0245440192520618,-0.0391906797885895
276,-0.000681023811921477,-0.0111315250396729,-0.0149094024673104,-0.0250156503170729,-0.0245990194380283,-0.0431166999042034
277,-0.000131084845634177,-0.00972473993897438,-0.0173610486090183,-0.0273869186639786,-0.0261472947895527,-0.0415790304541588
278,-0.00107691832818091,-0.00610107136890292,-0.0182878654450178,-0.0258181244134903,-0.0299327820539474,-0.0357194654643536
279,-0.0022837829310447,-0.00154141278471798,-0.0168112851679325,-0.0226235520094633,-0.0327148102223873,-0.0286505315452814
280,-0.00226901518180966,0.00205844710581005,-0.014342462643981,-0.0203590299934149,-0.0312431398779154,-0.0221014693379402
281,-0.00158534187357873,0.00388678396120667,-0.0124149834737182,-0.019469577819109,-0.0282972175627947,-0.0162472575902939
282,-0.000878815073519945,0.0035234778188169,-0.0110783781856298,-0.0202000867575407,-0.0256847254931927,-0.0137001127004623
283,-7.04358681105077E-05,0.00189609627705067,-0.00968135613948107,-0.0214613154530525,-0.0218878705054522,-0.0158385317772627
284,0.000460032286355272,0.000984589336439967,-0.00763350958004594,-0.0207793321460485,-0.0174210369586945,-0.019922161474824
285,0.000364091160008684,0.00120937020983547,-0.00573817687109113,-0.0182860121130943,-0.0142587823793292,-0.0231630671769381
286,-0.000550222815945745,0.00122162105981261,-0.00541986431926489,-0.0160920694470406,-0.0131809143349528,-0.0246072225272655
287,-0.0025429071392864,-0.00027389993192628,-0.00676854467019439,-0.0154512012377381,-0.0138837080448866,-0.0243861377239227
288,-0.00496149901300669,-0.00318705406971276,-0.00930069573223591,-0.016858758404851,-0.0157793983817101,-0.0236100219190121
289,-0.00685698678717017,-0.00564590096473694,-0.0123162278905511,-0.0196382068097591,-0.0186585336923599,-0.0228722132742405
290,-0.00778404902666807,-0.00565509870648384,-0.0139601556584239,-0.0217728968709707,-0.0219031125307083,-0.0220192186534405
291,-0.00716937193647027,-0.0031642084941268,-0.0119355050846934,-0.021518537774682,-0.0236461441963911,-0.0216066669672728
292,-0.00600410345941782,4.13267225667369E-05,-0.00682919565588236,-0.0188306253403425,-0.024240680038929,-0.0223322827368975
293,-0.00580315059050918,0.00210915436036885,-0.00214042165316641,-0.0152053693309426,-0.0251937378197908,-0.0244623236358166
294,-0.0062759923748672,0.00242190016433597,0.000387895212043077,-0.011633412912488,-0.0249888878315687,-0.0273112896829844
295,-0.00694962218403816,0.00142109545413405,0.00251519330777228,-0.00755141815170646,-0.0218891650438309,-0.0285630971193314
296,-0.00757053727284074,0.000515618012286723,0.0063837724737823,-0.00245733326300979,-0.0171019248664379,-0.025830777361989
297,-0.00781715102493763,0.00108252337668091,0.00982734840363264,0.0015366735169664,-0.0142888249829412,-0.0199595484882593
298,-0.007440194953233,0.00307393935509026,0.00813982728868723,0.00101489340886474,-0.0161031354218721,-0.0149994092062116
299,-0.00652978988364339,0.00547650968655944,0.00063114904332906,-0.00424913875758648,-0.0215803869068623,-0.0141079565510154
300,-0.00598543277010322,0.00693688867613673,-0.00906277727335691,-0.0109074274078012,-0.0279334839433432,-0.0175683107227087
301,-0.00663561886176467,0.00699191074818373,-0.0173155125230551,-0.0153182297945023,-0.0331899933516979,-0.0218423269689083
302,-0.00804636068642139,0.00650628237053752,-0.0223713424056768,-0.0164157785475254,-0.0356788486242294,-0.0222850609570742
303,-0.00858300272375345,0.00584393180906773,-0.0236844941973686,-0.0159286167472601,-0.0335246846079826,-0.0186889730393887
304,-0.00737684546038508,0.00481000961735845,-0.0223440155386925,-0.0154757145792246,-0.0285056829452515,-0.0136120142415166
305,-0.00541331991553307,0.00519627099856734,-0.0201764367520809,-0.0148383975028992,-0.0250717978924513,-0.00815137755125761
306,-0.00444168690592051,0.00806146953254938,-0.0180309917777777,-0.0137352282181382,-0.0243237894028425,-0.00233268178999424
307,-0.00497449981048703,0.00967981014400721,-0.0158685240894556,-0.012664114125073,-0.023498147726059,0.00234701321460307
308,-0.00578815350309014,0.00783090200275183,-0.0132460938766599,-0.0115105146542192,-0.0209460482001305,0.00458406563848257
309,-0.00587849877774715,0.00557281915098429,-0.0109772384166718,-0.0096734706312418,-0.0192211791872978,0.00585270067676902
310,-0.00485999369993806,0.00594957871362567,-0.0098545253276825,-0.00688127754256129,-0.0198441594839096,0.00780262192711234
311,-0.00258847628720105,0.00871769990772009,-0.00892043299973011,-0.00395817728713155,-0.0205567758530378,0.00976247154176235
312,0.000558034982532263,0.0107981665059924,-0.00694363098591566,-0.00294923200272024,-0.0188997648656368,0.00895102694630623
313,0.003152119461447,0.008845379576087,-0.00412208493798971,-0.00480972370132804,-0.0154550177976489,0.0032510650344193
314,0.00334615283645689,0.00327810854651034,-0.00232367147691548,-0.00762294139713049,-0.0146678509190679,-0.00519039249047637
315,0.0016187964938581,-0.00179030653089285,-0.00194997747894377,-0.00860830768942833,-0.0171998627483845,-0.0121356761083007
316,-0.000155662492034025,-0.00272834673523903,-0.00148784730117768,-0.00715592037886381,-0.0186187103390694,-0.0157407633960247
317,-0.00151168112643063,0.000706690363585949,-0.000207993594813161,-0.00442383391782641,-0.0174522045999765,-0.0167541895061731
318,-0.00248230947181582,0.00573004549369216,0.00169194804038852,-0.00123127992264926,-0.0150517923757434,-0.0161868166178465
319,-0.00229096715338528,0.0093671465292573,0.00255402573384345,0.000822953006718308,-0.0125317582860589,-0.0152091849595308
320,0.000107377352833282,0.0108177522197366,0.000725552788935602,6.34899015494739E-06,-0.0103810494765639,-0.0145379854366183
321,0.00410852581262589,0.0107503803446889,-0.00262679765000939,-0.00281565636396408,-0.00887278281152248,-0.0133810145780444
322,0.00714274402707815,0.00919343065470457,-0.00546337710693479,-0.00581575883552432,-0.00826820824295282,-0.0118939531967044
323,0.0080145625397563,0.00655582640320063,-0.00645641935989261,-0.0072068921290338,-0.0080737853422761,-0.0107475630939007
324,0.00752933183684945,0.00423160521313548,-0.00545153254643083,-0.00597381172701716,-0.00852913782000542,-0.00973355397582054
325,0.00685436185449362,0.0027835548389703,-0.00299223582260311,-0.00286020967178047,-0.00951047334820032,-0.00953441765159369
326,0.00664537725970149,0.00168212107382715,0.000356254226062447,0.00104665150865912,-0.00996647495776415,-0.0118476441130042
327,0.00570078194141388,0.000315883371513337,0.0027134190313518,0.00437955185770988,-0.0110988980159163,-0.0167692676186562
328,0.0027801594696939,-0.00168900028802454,0.00217899470590055,0.00510314060375094,-0.013667143881321,-0.0231680925935507
329,-0.00099557323846966,-0.00371905695647001,-0.000755215878598392,0.00289037870243192,-0.0157296489924192,-0.0296406093984842
330,-0.00388033990748227,-0.0035702558234334,-0.00427828589454293,0.000148871913552284,-0.0174436494708061,-0.0326556153595448
331,-0.00539682945236564,-0.000352845614543185,-0.00719475373625755,-0.00134563527535647,-0.020816370844841,-0.0294644273817539
332,-0.004944724496454,0.00365309463813901,-0.00819061882793903,-0.00212325155735016,-0.0230549983680248,-0.0223897490650415
333,-0.00224119727499783,0.00630380399525166,-0.00652539962902665,-0.0026200101710856,-0.0203245114535093,-0.0150175001472235
334,0.00123449240345508,0.00793087854981422,-0.00308493687771261,-0.00175913120619953,-0.0145488819107413,-0.007250658236444
335,0.00358342891559005,0.00949565414339304,-0.00023023271933198,0.000869156734552234,-0.0106160985305905,0.00144173565786332
336,0.00422516837716103,0.0112233264371753,-0.000211626233067364,0.0040085525251925,-0.0112218577414751,0.00871691666543484
337,0.00416698772460222,0.0129596032202244,-0.00241293222643435,0.00598022202029824,-0.0144833102822304,0.0114522539079189
338,0.00423100497573614,0.0144407982006669,-0.00481374841183424,0.00503422087058425,-0.0176752060651779,0.00826590042561293
339,0.0044979234226048,0.0159602146595716,-0.00568571640178561,0.00251640425994992,-0.0196348428726196,0.0022460650652647
340,0.00463830213993788,0.0181439928710461,-0.00453463522717357,0.00176464056130499,-0.019203320145607,-0.00251444592140615
341,0.00428533926606178,0.0196882262825966,-0.00289725372567773,0.00202502286992967,-0.0165981482714415,-0.00647858064621687
342,0.00356124481186271,0.0186322834342718,-0.00195120181888342,0.00132105883676559,-0.0140854027122259,-0.00974060129374266
343,0.00298007321543992,0.0161180254071951,-0.00132105615921319,5.96391619183123E-05,-0.0128580117598176,-0.0101673612371087
344,0.00292900437489152,0.0141033688560128,-0.0010858386522159,-0.00138544326182455,-0.0115763833746314,-0.00819230545312166
345,0.00272598210722208,0.0127777708694339,-0.00226080231368542,-0.00342201092280447,-0.00931316055357456,-0.00585971493273973
346,0.001928273239173,0.011558972299099,-0.00440135784447193,-0.00629638927057385,-0.00665400642901659,-0.00480085052549839
347,0.000976799405179918,0.0103135211393237,-0.00572607479989529,-0.00861409679055214,-0.00529260281473398,-0.00500852754339576
348,-0.000437165319453925,0.0093720406293869,-0.00573489163070917,-0.0084654688835144,-0.00687700603157282,-0.00483430409803987
349,-0.00258513377048075,0.00809461623430252,-0.00550355715677142,-0.00649427669122815,-0.0100245606154203,-0.00482818717136979
350,-0.00447878846898675,0.00637456309050322,-0.00582305202260613,-0.00424098130315542,-0.0119514362886548,-0.00637080427259207
351,-0.00507541093975306,0.00575841730460525,-0.00680902507156134,-0.00241019064560533,-0.0115906288847327,-0.00770550407469273
352,-0.00423140032216907,0.00656257569789886,-0.00821363460272551,-0.00195985194295645,-0.00871610641479492,-0.00671094469726086
353,-0.00267715845257044,0.00726419780403376,-0.00856209732592106,-0.0030904901213944,-0.00354161905124784,-0.00431343168020248
354,-0.00134765228722245,0.00704791117459536,-0.00698754424229264,-0.00456279516220093,0.00185416569001973,-0.00316288648173213
355,-0.000831808196380734,0.0060712113045156,-0.00584883335977793,-0.00578996445983648,0.00383960152976215,-0.00484335795044899
356,-0.00126079726032913,0.00433379784226418,-0.00725061446428299,-0.00716295000165701,0.00103554013185203,-0.00853106286376715
357,-0.00174632575362921,0.00227063498459756,-0.00958746485412121,-0.00850288383662701,-0.00357909919694066,-0.0116309514269233
358,-0.00148645299486816,0.000965193612501025,-0.0109327863901854,-0.00973236095160246,-0.00702450703829527,-0.0124281058087945
359,-0.00099625950679183,0.00080575980246067,-0.0113419508561492,-0.0115634286776185,-0.00898716785013676,-0.0121488301083446
360,-0.00132038199808449,0.00186049775220454,-0.0115025136619806,-0.0136565696448088,-0.0112261166796088,-0.0120111405849457
361,-0.0033862185664475,0.00414299918338656,-0.0120180314406753,-0.0147863365709782,-0.0162476357072592,-0.0111097609624267
362,-0.00677079102024436,0.00668425392359495,-0.0125433821231127,-0.0143949938938022,-0.0225005988031626,-0.0089649073779583
363,-0.00856144726276398,0.00868355948477983,-0.0119685549288988,-0.011930282227695,-0.0251619219779968,-0.00652513653039932
364,-0.0066818380728364,0.0096407774835825,-0.010220879688859,-0.00787881948053837,-0.0226039849221706,-0.00563617656007409
365,-0.00297620962373912,0.00932762678712606,-0.00865631643682718,-0.00431336974725127,-0.0178334768861532,-0.00694229686632752
366,-0.000159987437655218,0.00907956436276436,-0.00816189404577017,-0.00213057873770595,-0.0149748139083385,-0.00811406411230564
367,0.0013809259980917,0.0103320851922035,-0.00746806617826223,-0.000697331386618316,-0.0141265280544758,-0.00710647227242589
368,0.00239304360002279,0.0132139269262552,-0.00545620359480381,-0.000663558777887374,-0.0119722690433264,-0.0057419091463089
369,0.00259285140782595,0.0158115215599537,-0.00367957027629018,-0.00307228905148804,-0.00907378830015659,-0.00664864061400294
370,0.00125308136921376,0.0151719590649009,-0.00374776474200189,-0.00623435061424971,-0.00953359715640545,-0.00918109249323606
371,-0.000991849228739738,0.0115884011611342,-0.00509582413360476,-0.00749697489663959,-0.0140976626425982,-0.0120889944955707
372,-0.00285140727646649,0.00802667438983917,-0.006550467107445,-0.00622678408399224,-0.0197090227156878,-0.0151576222851872
373,-0.00359159149229527,0.00603800220414996,-0.0075246631167829,-0.00387659692205489,-0.0224968288093805,-0.0167935844510794
374,-0.00279051344841719,0.00508312415331602,-0.00795604661107063,-0.00276106293313205,-0.0207009129226208,-0.0155219798907638
375,-0.00120887218508869,0.00399271259084344,-0.00797077920287848,-0.00431965244933963,-0.0163528062403202,-0.0128461103886366
376,-0.000200815993594006,0.00250219251029193,-0.00750012323260307,-0.0074851717799902,-0.0122011983767152,-0.0112027833238244
377,0.000396013725548983,0.00159998587332666,-0.00669875461608171,-0.00921364035457373,-0.00934234634041786,-0.0105964578688145
378,0.00118372088763863,0.00155766343232244,-0.00609959242865443,-0.00823689252138138,-0.00790083222091198,-0.0102047976106405
379,0.00190460053272545,0.00136601412668824,-0.005881417542696,-0.00644404068589211,-0.00739069655537605,-0.0111852791160345
380,0.00280943186953664,0.00107243971433491,-0.00510835181921721,-0.00525291496887803,-0.00639045238494873,-0.0136957373470068
381,0.00401699170470238,0.00169117585755885,-0.0033364116679877,-0.00429245596751571,-0.0047848611138761,-0.0150947403162718
382,0.00448916526511312,0.00338344182819128,-0.00181729253381491,-0.00368238938972354,-0.00405535148456693,-0.0136971017345786
383,0.00339428149163723,0.00570421293377876,-0.00146408390719444,-0.00390351586975157,-0.00487733259797096,-0.00968906376510859
384,0.00145478756166995,0.00833666604012251,-0.00228578341193497,-0.0045098620466888,-0.00745669053867459,-0.00422153761610389
385,0.000771219318266958,0.0105676157400012,-0.00340815982781351,-0.00491753546521068,-0.0102867959067225,0.000329626665916294
386,0.00131521816365421,0.0110344439744949,-0.00383487017825246,-0.00554797286167741,-0.0108444876968861,0.0016081245848909
387,0.00132687238510698,0.00986519083380699,-0.0039056281093508,-0.00683090602979064,-0.00897731631994247,-0.000804045237600803
388,0.000323912827298045,0.00879997294396162,-0.00436330819502473,-0.0079507976770401,-0.00747255841270089,-0.00472766719758511
389,-0.00133290549274534,0.00891720876097679,-0.00486224237829447,-0.00758555065840483,-0.00798712112009525,-0.00736351683735847
390,-0.00246498570777476,0.0103835258632898,-0.00426481664180756,-0.00523192435503006,-0.00828354060649872,-0.00771008525043726
391,-0.00272906292229891,0.0117077687755227,-0.00355810346081853,-0.00295714312233031,-0.00821077078580856,-0.00705349212512374
392,-0.00346418796107173,0.00988415721803904,-0.00537353241816163,-0.00429303990676999,-0.01133316103369,-0.00798362214118242
393,-0.0046843308955431,0.00490475399419665,-0.0093665374442935,-0.00867272634059191,-0.0173557884991169,-0.0111569343134761
394,-0.00498057389631867,0.000942594546359032,-0.012566938996315,-0.0111940056085587,-0.0221417304128408,-0.013867387548089
395,-0.00360951339825988,0.00048470773617737,-0.0132099352777004,-0.010145315900445,-0.0238345470279455,-0.0145552139729261
396,-0.000988479936495423,0.00225396570749581,-0.0114965960383415,-0.00794866774231195,-0.023027841001749,-0.0140761313959956
397,0.00116209092084318,0.00388409243896604,-0.0086669260635972,-0.00647403346374631,-0.0210795011371374,-0.0123992701992393
398,0.00125433492939919,0.00368313933722675,-0.00643582548946142,-0.00674053747206926,-0.0197266861796379,-0.00965975690633059
399,8.58931307448074E-05,0.00279036583378911,-0.00542840547859669,-0.00778082571923733,-0.0196509286761284,-0.00650927191600204
400,-0.000240237757680006,0.00369124906137586,-0.00508927367627621,-0.00680647976696491,-0.0200571641325951,-0.00320437387563288
401,0.000833414029330015,0.00606068409979343,-0.00502188457176089,-0.00304493634030223,-0.0196410622447729,-0.000895212404429913
402,0.00242904154583812,0.00783175509423018,-0.00498840911313891,0.00112038303632289,-0.0172631088644266,-0.000757810834329575
403,0.0032034229952842,0.00842323899269104,-0.00526639586314559,0.00236533582210541,-0.0133339567109942,-0.00254075205884874
404,0.00234943581745029,0.00873307324945927,-0.00571035174652934,0.000403101032134146,-0.00955359824001789,-0.00406925333663821
405,0.000617474084720016,0.00846910290420055,-0.0057229152880609,-0.00181775726377964,-0.00767084816470742,-0.00349679193459451
406,-0.00104519620072097,0.0070764496922493,-0.00585676217451692,-0.00290647149085999,-0.00894292537122965,-0.00230822782032192
407,-0.00233219307847321,0.0053975903429091,-0.00674130953848362,-0.00452951015904546,-0.0125351287424564,-0.00374953984282911
408,-0.00308090541511774,0.0037517249584198,-0.00830420665442944,-0.00751873198896647,-0.0161992497742176,-0.00867663137614727
409,-0.00326522020623088,0.00256655039265752,-0.0102705052122474,-0.0107523370534182,-0.0184315890073776,-0.0143763180822134
410,-0.00305481790564954,0.00258580571971834,-0.0119967479258776,-0.013146854005754,-0.0187362320721149,-0.017718942835927
411,-0.00284912995994091,0.00415011029690504,-0.0129862362518907,-0.0140951564535499,-0.017098443582654,-0.0178625453263521
412,-0.00296219391748309,0.00695542758330703,-0.0133588667958975,-0.0140015799552202,-0.0143482759594917,-0.0163953863084316
413,-0.00328062451444566,0.00911343656480312,-0.0134364953264594,-0.0142299570143223,-0.0125805912539363,-0.0157744828611612
414,-0.00390527746640146,0.00885360222309828,-0.0139714097604156,-0.015736062079668,-0.013966710306704,-0.0170386042445898
415,-0.00493123615160584,0.00607903115451336,-0.0151680763810873,-0.0179766342043877,-0.0178408939391375,-0.0190908163785934
416,-0.00517705362290144,0.00184701778925955,-0.014915750361979,-0.0186705458909273,-0.0199136771261692,-0.0199805274605751
417,-0.0040116086602211,-0.00165935233235359,-0.0108665050938725,-0.0152990110218525,-0.0175822786986828,-0.0191092807799578
418,-0.00281309382990003,-0.00184824247844517,-0.00448318151757121,-0.00837046466767788,-0.0138876298442483,-0.0185581520199776
419,-0.00302372244186699,0.00180398614611477,-0.00133431295398623,-0.00292097427882254,-0.0148731516674161,-0.0202232487499714
420,-0.00468787364661694,0.00631685508415103,-0.00526334485039115,-0.00342949689365923,-0.0231034848839045,-0.0217974465340376
421,-0.0069225518964231,0.00978520419448614,-0.0142795033752918,-0.00860926322638988,-0.035510566085577,-0.019179455935955
422,-0.0096504595130682,0.0130451433360577,-0.0243559498339891,-0.0156779028475285,-0.048725999891758,-0.0135964043438435
423,-0.0125430170446634,0.0138280363753438,-0.0317064635455608,-0.0238423701375723,-0.0586420632898808,-0.0111632412299514
424,-0.0140765001997352,0.0098785450682044,-0.033163670450449,-0.0312267746776342,-0.0607544966042042,-0.0145728560164571
425,-0.0136728193610907,0.0040946532972157,-0.0297329146414995,-0.0358585901558399,-0.0577730424702168,-0.020875433459878
426,-0.0124052995815873,-0.000469305290607736,-0.0265084635466337,-0.0391540676355362,-0.0573860444128513,-0.0269897244870663
427,-0.0121209211647511,-0.00354486680589616,-0.0275796707719564,-0.0440292246639729,-0.0634936466813087,-0.0322818011045456
428,-0.0136322332546115,-0.00561083341017365,-0.0323650315403938,-0.0503304563462734,-0.073919765651226,-0.0370815955102444
429,-0.0159456357359886,-0.00661470321938396,-0.0371604599058628,-0.0556112937629223,-0.0837657153606415,-0.0428839959204197
430,-0.0175315495580435,-0.00624314323067665,-0.0404008813202381,-0.0598804838955402,-0.0904807224869728,-0.0512383505702019
431,-0.0176403112709522,-0.00482579274103045,-0.0443467237055302,-0.0652422457933426,-0.0952209755778313,-0.0609065108001232
432,-0.016434021294117,-0.0026603564620018,-0.0497490167617798,-0.071632482111454,-0.0993700325489044,-0.0686039328575134
433,-0.0141089353710413,0.000230541787459515,-0.0537574887275696,-0.0771317705512047,-0.1028892993927,-0.0725540518760681
434,-0.0109933698549867,0.00323285744525492,-0.0549865923821926,-0.0810098797082901,-0.105735920369625,-0.0732188150286675
435,-0.00780184147879481,0.00583801837638021,-0.0549385137856007,-0.0836231857538223,-0.108735606074333,-0.0720715820789337
436,-0.00482739321887493,0.00790318939834833,-0.0550773739814758,-0.0862719938158989,-0.112483881413937,-0.0717610865831375
437,-0.0024041784927249,0.00903050787746906,-0.0563602149486542,-0.0910363122820854,-0.117141552269459,-0.074329674243927
438,-0.00187401787843555,0.00927188992500305,-0.059662289917469,-0.0981882736086845,-0.124095767736435,-0.0787043273448944
439,-0.00381537433713675,0.0100313825532794,-0.0642594695091248,-0.104775615036488,-0.1341802328825,-0.0818356722593308
440,-0.00703133270144463,0.0122532593086362,-0.0683227032423019,-0.108043529093266,-0.145733878016472,-0.0822378620505333
441,-0.0102236550301313,0.0143506219610572,-0.071208268404007,-0.109249174594879,-0.155988022685051,-0.0817951485514641
442,-0.0126067250967026,0.0142157049849629,-0.0733419433236122,-0.111380316317081,-0.163032069802284,-0.0834605246782303
443,-0.0136587088927627,0.0121005531400442,-0.075494572520256,-0.115375876426697,-0.167339101433754,-0.0874065831303597
444,-0.0126177817583084,0.0101209310814738,-0.0778230354189873,-0.12050723284483,-0.170090794563293,-0.0922257527709007
445,-0.00875284615904093,0.00907088723033667,-0.0795239731669426,-0.127197057008743,-0.170797511935234,-0.0988625958561897
446,-0.00302067026495934,0.00758420629426837,-0.0804324001073837,-0.13696326315403,-0.169200286269188,-0.109065338969231
447,0.00251624570228159,0.00510299298912287,-0.0818813294172287,-0.149594649672508,-0.167881011962891,-0.122292593121529
448,0.00621550297364593,0.0032936327625066,-0.0857036784291267,-0.162615895271301,-0.170991629362106,-0.135546341538429
449,0.00698103988543153,0.00335426907986403,-0.0918843075633049,-0.173348262906075,-0.179615020751953,-0.145598649978638
450,0.00540845422074199,0.00388180674053729,-0.0975442752242088,-0.180511340498924,-0.189313873648643,-0.151918113231659
451,0.00385308428667486,0.00458479626104236,-0.100340761244297,-0.184830501675606,-0.195050582289696,-0.156622409820557
452,0.00378381554037333,0.00637590512633324,-0.101756744086742,-0.189483225345612,-0.196732565760612,-0.162720307707787
453,0.00484723504632711,0.0068572754971683,-0.104373455047607,-0.196277290582657,-0.197995439171791,-0.170877799391747
454,0.00639369944110513,0.00437213433906436,-0.107221901416779,-0.202352926135063,-0.200168773531914,-0.178750917315483
455,0.0078351367264986,0.000960682460572571,-0.10765552520752,-0.204872593283653,-0.201201915740967,-0.185174882411957
456,0.00814055558294058,-0.00263081328012049,-0.106588535010815,-0.2058045566082,-0.200843319296837,-0.191436812281609
457,0.00741026643663645,-0.00664449110627174,-0.107169829308987,-0.208539694547653,-0.200738847255707,-0.197237774729729
458,0.00687112333253026,-0.00877158995717764,-0.110815763473511,-0.212102398276329,-0.203095406293869,-0.19840732216835
459,0.00689515611156821,-0.00698618358001113,-0.115956984460354,-0.213039547204971,-0.208390191197395,-0.193032771348953
460,0.00681365514174104,-0.00277561647817492,-0.120433539152145,-0.211238175630569,-0.214380979537964,-0.185417950153351
461,0.00578572414815426,0.00117560289800167,-0.124169379472733,-0.208902388811111,-0.220466747879982,-0.179508551955223
462,0.00405184924602509,0.00382799166254699,-0.126240208745003,-0.205486834049225,-0.225595504045486,-0.175090461969376
463,0.00213380856439471,0.00465839542448521,-0.125267997384071,-0.200018092989922,-0.227347910404205,-0.172555193305016
464,0.000256622326560318,0.00351507309824228,-0.122443482279778,-0.194121733307838,-0.225728005170822,-0.17249321937561
465,-0.000927427143324167,0.00177100149448961,-0.1197564676404,-0.189337387681007,-0.222483336925507,-0.172473311424255
466,-0.00145896745380014,0.000394267990486696,-0.118890605866909,-0.186778753995895,-0.219716146588326,-0.171515077352524
467,-0.00227959640324116,-0.000945522973779589,-0.120570749044418,-0.18650010228157,-0.219008937478065,-0.170691505074501
468,-0.00348440278321505,-0.00291081704199314,-0.122925445437431,-0.18614935874939,-0.218978941440582,-0.170338973402977
469,-0.00375324464403093,-0.00549676362425089,-0.122657030820847,-0.183496862649918,-0.215273961424828,-0.170694917440414
470,-0.0020136502571404,-0.00705667259171605,-0.118376992642879,-0.178098648786545,-0.206225514411926,-0.170153692364693
471,0.00123676587827504,-0.00618382357060909,-0.11171705275774,-0.170660331845284,-0.194975733757019,-0.166037946939468
472,0.00434361584484577,-0.00425446266308427,-0.105340965092182,-0.162634968757629,-0.184381619095802,-0.158870398998261
473,0.00557718984782696,-0.00237416406162083,-0.100342079997063,-0.154251426458359,-0.174545273184776,-0.150072246789932
474,0.00509203458204865,0.000648234970867634,-0.0954979509115219,-0.144847631454468,-0.16404615342617,-0.140047192573547
475,0.00452603306621313,0.0045401444658637,-0.0904276892542839,-0.13635365664959,-0.152477785944939,-0.131029814481735
476,0.00414591655135155,0.00674563646316528,-0.0876451954245567,-0.131374195218086,-0.14215087890625,-0.125363886356354
477,0.00397395808249712,0.00630173133686185,-0.0879658535122871,-0.128390327095985,-0.134585812687874,-0.122037991881371
478,0.00388110196217895,0.00586650753393769,-0.0885162279009819,-0.123965553939343,-0.129103660583496,-0.117364071309567
479,0.00250446866266429,0.00641702441498637,-0.0874393656849861,-0.118204817175865,-0.124955914914608,-0.109387122094631
480,0.000178575981408358,0.00541323330253363,-0.0849162936210632,-0.11238232254982,-0.120936833322048,-0.098440483212471
481,-0.00142994208727032,0.0018968740478158,-0.0814375057816505,-0.106179900467396,-0.116047717630863,-0.0866290628910065
482,-0.00134455226361752,-0.00343829416669905,-0.0775622352957726,-0.100323617458344,-0.109167724847794,-0.0794518887996674
483,0.000436795147834346,-0.00852108653634787,-0.0732238441705704,-0.0957737937569618,-0.0992439165711403,-0.0796805396676064
484,0.00216762302443385,-0.0106947012245655,-0.0681629702448845,-0.0915932208299637,-0.0882369950413704,-0.0832467898726463
485,0.00287504401057959,-0.0110904267057776,-0.0623046383261681,-0.08730748295784,-0.0771390125155449,-0.0866394266486168
486,0.00372737739235163,-0.0125974360853434,-0.0559140220284462,-0.0835749581456184,-0.0646686851978302,-0.0897718667984009
487,0.00474367896094918,-0.0148283755406737,-0.0503242202103138,-0.0793189257383347,-0.0528959035873413,-0.0906534790992737
488,0.00483955489471555,-0.015745647251606,-0.0469941534101963,-0.0729628056287766,-0.044637955725193,-0.0865772813558578
489,0.00408462807536125,-0.014815017580986,-0.0458313040435314,-0.0650418102741241,-0.0389486849308014,-0.0784940794110298
490,0.0032462424132973,-0.0127488039433956,-0.0456171184778214,-0.0575259476900101,-0.0339578725397587,-0.069327250123024
491,0.00264262338168919,-0.0103748086839914,-0.0452977418899536,-0.0521046184003353,-0.029162585735321,-0.0611068494617939
492,0.00234564277343452,-0.0082355672493577,-0.0438126176595688,-0.0485354959964752,-0.0237883497029543,-0.0544953979551792
493,0.00251551275141537,-0.0066425995901227,-0.0408036634325981,-0.0447688065469265,-0.0170694068074226,-0.0487657822668552
494,0.00287344981916249,-0.00551766576245427,-0.036999586969614,-0.0391031093895435,-0.00940466113388538,-0.0425004437565804
495,0.00307952635921538,-0.00457123667001724,-0.0328272767364979,-0.0320432372391224,-0.00126975413877517,-0.0354092679917812
496,0.00320294103585184,-0.00426189973950386,-0.0285835731774569,-0.0253173355013132,0.0067832269705832,-0.0285817440599203
497,0.00301871891133487,-0.00497475592419505,-0.0246710237115622,-0.0185380522161722,0.0135235814377666,-0.0219697654247284
498,0.00288925599306822,-0.00532416393980384,-0.0204125884920359,-0.00957182142883539,0.0189664028584957,-0.0141289047896862
499,0.00423310277983546,-0.0048743742518127,-0.0162399187684059,9.4733178457318E-07,0.0241154991090298,-0.00623455177992582
500,0.00694662192836404,-0.00510685099288821,-0.0139931151643395,0.00654023000970483,0.0287161394953728,7.07406752553652E-06
501,0.00895935203880072,-0.00630293693393469,-0.0129984728991985,0.0110724298283458,0.032444179058075,0.00633019907400012
502,0.00955565553158522,-0.00790187809616327,-0.0104540390893817,0.0173779800534248,0.037278201431036,0.0136772971600294
503,0.00986638199537992,-0.00846233777701855,-0.00511530181393027,0.0260456502437592,0.0447176992893219,0.0204938817769289
504,0.00913738459348679,-0.00751090236008167,-4.45164505435969E-06,0.0333471521735191,0.0503679215908051,0.0257296357303858
505,0.00631431862711906,-0.00654137553647161,0.00204601371660829,0.03733966127038,0.0502684377133846,0.0306976586580276
506,0.00324836489744484,-0.00518991285935044,0.00281994370743632,0.0395081155002117,0.0482327863574028,0.0370910130441189
507,0.00155164487659931,-0.00299187330529094,0.00450354907661676,0.0403410084545612,0.0493291057646275,0.0442712679505348
508,0.000769348465837538,-0.0020966709125787,0.00705854641273618,0.0395945496857166,0.0543972849845886,0.0502159371972084
509,-0.000499416142702103,-0.00416258722543716,0.00872209202498198,0.0375565402209759,0.0599353983998299,0.0534466281533241
510,-0.0022553380113095,-0.00740598840638995,0.00851008109748363,0.0358393676578999,0.0625681430101395,0.0546080246567726
511,-0.00222055451013148,-0.00905558560043573,0.00900446809828281,0.0368850044906139,0.0645452439785004,0.0555411465466022
512,0.000216252112295479,-0.00862529035657644,0.0123480102047324,0.0412627570331097,0.0683948695659637,0.0573204234242439
513,0.00307152117602527,-0.00664540473371744,0.0170464254915714,0.0477922931313515,0.0723481625318527,0.0604888014495373
514,0.00521265715360641,-0.00313160475343466,0.0212931204587221,0.0555814988911152,0.0749976560473442,0.0655391067266464
515,0.00696391519159079,0.00141985737718642,0.0249586496502161,0.0639748722314835,0.0770613625645638,0.0723054111003876
516,0.0084765711799264,0.00510531291365623,0.0281586106866598,0.0710164904594421,0.0791846588253975,0.0787242874503136
517,0.00931194517761469,0.00644160294905305,0.0306205097585917,0.0750008001923561,0.0821267068386078,0.0824116691946983
518,0.00898114591836929,0.0070430408231914,0.0326267890632153,0.0773604363203049,0.0864009857177734,0.084336906671524
519,0.00798191130161285,0.00913497526198626,0.034817311912775,0.0799407958984375,0.0910563245415688,0.0863796472549438
520,0.00761542422696948,0.0119896028190851,0.0372427552938461,0.0824231430888176,0.0951320081949234,0.0884130150079727
521,0.00746881496161222,0.0128131872043014,0.0391852147877216,0.0840193927288055,0.0987889766693115,0.0898966789245605
522,0.00553042814135551,0.0101036410778761,0.0398549623787403,0.0847344920039177,0.102320395410061,0.090969443321228
523,0.00163130275905132,0.00653610099107027,0.0399276800453663,0.0856645256280899,0.105511419475079,0.0931118130683899
524,-0.00185623706784099,0.00563409738242626,0.040295846760273,0.0874497815966606,0.107232198119164,0.0967745184898376
525,-0.00331505481153727,0.00668619200587273,0.0402764566242695,0.089072160422802,0.106016144156456,0.0995532721281052
526,-0.00331587460823357,0.00719968089833856,0.0396614521741867,0.0903394818305969,0.102403663098812,0.100468553602695
527,-0.00274068582803011,0.00656132539734244,0.0393125377595425,0.0922699719667435,0.0985696613788605,0.101497374475002
528,-0.00222231540828943,0.0051537505351007,0.0393329299986362,0.0945088788866997,0.0956761687994003,0.103526674211025
529,-0.0023973067291081,0.00284658651798964,0.0393241196870804,0.0955907702445984,0.0940883904695511,0.104807920753956
530,-0.00351706310175359,0.000180734205059707,0.0396331958472729,0.0962034165859222,0.0938715860247612,0.104852192103863
531,-0.0051678204908967,0.000233526967349462,0.0406546145677567,0.0986448526382446,0.0939960107207298,0.106181681156158
532,-0.0065041403286159,0.00303679541684687,0.0417379103600979,0.10174635797739,0.0939410924911499,0.10881831496954
533,-0.00674108136445284,0.00372942187823355,0.0425962135195732,0.103188045322895,0.0951819568872452,0.109898813068867
534,-0.00609306711703539,0.00135352148208767,0.0439365692436695,0.104345060884953,0.0983868837356567,0.109471939504147
535,-0.00551257003098726,-0.00104912568349391,0.0463493540883064,0.107105612754822,0.102781169116497,0.109686858952045
536,-0.00491818506270647,-0.00178515142761171,0.049616415053606,0.110118933022022,0.108054876327515,0.111187048256397
537,-0.00394482398405671,-0.00100345560349524,0.0522881075739861,0.110637605190277,0.112791754305363,0.112322874367237
538,-0.00259082484990358,-0.00023798413167242,0.0537764392793179,0.108406022191048,0.116270087659359,0.110390886664391
539,-0.000763681891839951,-0.00048097048420459,0.0553205199539661,0.105780631303787,0.119825929403305,0.105007946491241
540,0.0011385801481083,-0.0010719591518864,0.0572588406503201,0.104519218206406,0.123687423765659,0.0986488610506058
541,0.00241752527654171,-0.00120912643615156,0.0584721975028515,0.104102730751038,0.126948937773705,0.0941972807049751
542,0.00264971633441746,-0.000406424253014848,0.0584455616772175,0.103730939328671,0.128183275461197,0.0937104523181915
543,0.00193237885832787,0.0014281093608588,0.058068685233593,0.103884331882,0.126626208424568,0.0971236899495125
544,0.000904820277355611,0.00313209067098796,0.0587713494896889,0.10505860298872,0.124466843903065,0.102550402283669
545,0.00104429561179131,0.0036735727917403,0.0612636096775532,0.107084818184376,0.124577447772026,0.10838557779789
546,0.00310690375044942,0.00314331776462495,0.0647159740328789,0.109297670423985,0.126801565289497,0.112955197691917
547,0.00558593403548002,0.0017873456235975,0.0674049332737923,0.110796891152859,0.128766238689423,0.114510461688042
548,0.00720181548967958,0.000221015303395689,0.0684140250086784,0.111404754221439,0.129083812236786,0.113468341529369
549,0.00882864836603403,-0.000230451536481269,0.0686891824007034,0.112323172390461,0.129229590296745,0.112397126853466
550,0.0108044994994998,0.000555720354896039,0.0690990313887596,0.113764241337776,0.130960449576378,0.113062806427479
551,0.0109719187021255,0.000528549135196954,0.0685674175620079,0.11351128667593,0.132360517978668,0.114740386605263
552,0.00854609627276659,-0.000784486474003643,0.0671078115701675,0.111112326383591,0.130710676312447,0.11626211553812
553,0.00575075205415487,-0.00146928743924946,0.066543385386467,0.108788996934891,0.126812860369682,0.117134474217892
554,0.00400886917486787,0.000210693557164632,0.0673552230000496,0.108001790940762,0.123546421527863,0.116375371813774
555,0.00352902989834547,0.00530223408713937,0.0687636286020279,0.108684569597244,0.123127900063992,0.113565370440483
556,0.00435483362525702,0.0121574234217405,0.0698890909552574,0.109772093594074,0.124613866209984,0.109737113118172
557,0.00560685619711876,0.016848586499691,0.0703592598438263,0.110548816621304,0.125400930643082,0.106726765632629
558,0.00703380163758993,0.0172932948917151,0.0709118843078613,0.11171355843544,0.126106053590775,0.106929056346416
559,0.0095257218927145,0.0156455226242542,0.0725388899445534,0.114172093570232,0.128895610570908,0.111163094639778
560,0.0129559626802802,0.0157801322638988,0.074700154364109,0.11691015958786,0.133373618125916,0.11607614159584
561,0.0156347453594208,0.0171718373894691,0.0751654282212257,0.116954818367958,0.136713370680809,0.116067230701447
562,0.0159795489162207,0.0158813185989857,0.0736735314130783,0.113769054412842,0.136680021882057,0.109907709062099
563,0.0142058189958334,0.0111212264746428,0.0729384943842888,0.110544577240944,0.133722990751266,0.102057419717312
564,0.011593452654779,0.00505810091271997,0.073914647102356,0.108692564070225,0.129090964794159,0.0958507731556892
565,0.00885756034404039,-0.000341024540830404,0.0750104337930679,0.106988027691841,0.123655781149864,0.0913553684949875
566,0.00655539100989699,-0.00325297703966498,0.0756092146039009,0.105127461254597,0.118937790393829,0.0882118046283722
567,0.00547098182141781,-0.00247999979183078,0.0765489265322685,0.104052059352398,0.116513974964619,0.086888812482357
568,0.00500411493703723,-0.000108967411506455,0.0777219459414482,0.103950299322605,0.116225332021713,0.0878676250576973
569,0.00452022952958941,0.000318249512929469,0.0778153613209724,0.104180753231049,0.116943836212158,0.0906862542033196
570,0.00499138748273253,-0.00136170873884112,0.0758544132113457,0.103777512907982,0.117679074406624,0.0941023975610733
571,0.00593047356233001,-0.00227792793884873,0.0720530450344086,0.102066025137901,0.117229647934437,0.0970657542347908
572,0.00597625086084008,-0.000157037866301835,0.0686864405870438,0.100935958325863,0.11643510311842,0.0991078019142151
573,0.0054875030182302,0.00397624727338552,0.0679188296198845,0.102000758051872,0.11745273321867,0.0992183089256287
574,0.00499079609289765,0.00761874159798026,0.0689296796917915,0.103585876524448,0.119140014052391,0.0971290618181229
575,0.00460438802838326,0.00957261212170124,0.0701134204864502,0.104651398956776,0.119402952492237,0.0945394039154053
576,0.00542567810043693,0.00996463466435671,0.0713799148797989,0.105723440647125,0.119711570441723,0.0920058637857437
577,0.00806790590286255,0.0085468478500843,0.0723574012517929,0.105082541704178,0.121488764882088,0.0876068994402885
578,0.0105625009164214,0.00442096125334501,0.0718885585665703,0.100940085947514,0.122386731207371,0.0817012786865234
579,0.0109156938269734,-0.000817986147012562,0.0701745375990868,0.0950139537453651,0.120366781949997,0.0781229361891747
580,0.00991193111985922,-0.00401839567348361,0.0688470005989075,0.0901478230953217,0.117255486547947,0.0781220346689224
581,0.00948735699057579,-0.00469311000779271,0.0685868188738823,0.0874767452478409,0.115517728030682,0.0781194120645523
582,0.0100670522078872,-0.00487319426611066,0.0684986412525177,0.0862512961030006,0.114818103611469,0.0744735524058342
583,0.0105909388512373,-0.00609472207725048,0.0677303746342659,0.0852443054318428,0.1129205301404,0.0675212889909744
584,0.0104679809883237,-0.00783105939626694,0.066995844244957,0.0847369208931923,0.109331302344799,0.0606587640941143
585,0.0102883391082287,-0.00866750068962574,0.0676749795675278,0.0859410464763641,0.105973958969116,0.0565098896622658
586,0.00990535132586956,-0.00814086943864822,0.0688471049070358,0.0881120786070824,0.10314454138279,0.0553264021873474
587,0.00823424104601145,-0.00697212480008602,0.0684338808059692,0.0892001166939735,0.100375451147556,0.0564995817840099
588,0.00594128528609872,-0.0061222892254591,0.0665522441267967,0.0886294394731522,0.0993850380182266,0.0592002347111702
589,0.00397842237725854,-0.00616075191646814,0.0638806968927383,0.0866147056221962,0.0994268879294395,0.062627911567688
590,0.00179505941923708,-0.00709912367165089,0.0605243071913719,0.0828973203897476,0.0972471684217453,0.0653552189469337
591,-0.000235959902056493,-0.00779905775561929,0.0576701760292053,0.0782477781176567,0.0932979285717011,0.0654830187559128
592,-0.000949647394008935,-0.00717358943074942,0.0562426932156086,0.0743053629994392,0.0902237221598625,0.0635533258318901
593,-0.000367601634934545,-0.00532421329990029,0.055723425000906,0.0721946507692337,0.0883065909147263,0.0628078877925873
594,0.000432079134043306,-0.00230609951540828,0.0556551441550255,0.0726219937205315,0.0865210518240929,0.0658125430345535
595,0.000504806928802282,0.00173076801002026,0.0554218627512455,0.0747801885008812,0.0846706479787827,0.071303479373455
596,-0.000111131601443049,0.00549370236694813,0.0537084415555,0.076268307864666,0.0826264768838882,0.0750578120350838
597,-0.000692828849423677,0.00743682449683547,0.0507256910204887,0.0759049355983734,0.0802428722381592,0.0747717693448067
598,-0.000582037435378879,0.00777537142857909,0.0484137609601021,0.0745068863034248,0.0779375433921814,0.0723890140652657
599,0.00045562963350676,0.00870566256344318,0.0478715896606445,0.0727145075798035,0.0762977749109268,0.0707995891571045
600,0.00141995318699628,0.0114153735339642,0.0483048520982265,0.07054702937603,0.0744691118597984,0.0706471279263496
601,0.00117430195678025,0.014382204040885,0.0491823107004166,0.0693173855543137,0.0718938112258911,0.0712195113301277
602,0.00055737339425832,0.0161525476723909,0.0508241131901741,0.0695867836475372,0.0707157626748085,0.0706288665533066
603,0.00092346390010789,0.0153911961242557,0.052444975823164,0.0692741945385933,0.0721070617437363,0.0666667148470879
604,0.00209481315687299,0.011207471601665,0.0533536858856678,0.0685318112373352,0.074867770075798,0.060684971511364
605,0.00293679325841367,0.00606479961425066,0.0535466149449348,0.0693494826555252,0.0775971189141274,0.0560212321579456
606,0.00311597459949553,0.00230524782091379,0.0529437586665154,0.0707083120942116,0.0793976858258247,0.0541231445968151
607,0.00344319338910282,-0.000567889015655965,0.0518017895519733,0.0702596604824066,0.0799528658390045,0.0548142120242119
608,0.00416185008361936,-0.00362733192741871,0.0504093505442142,0.0672688484191895,0.0793212428689003,0.0564682297408581
609,0.00470524514093995,-0.00617862539365888,0.049729235470295,0.0637843683362007,0.0783389806747437,0.0587941557168961
610,0.00439974758774042,-0.00652537774294615,0.0502753183245659,0.0621377564966679,0.077439121901989,0.0631805062294006
611,0.00372702977620065,-0.00447280518710613,0.0506523884832859,0.0615596324205399,0.0761646330356598,0.0682746917009354
612,0.00443695159628987,-0.00032565847504884,0.0501395091414452,0.06116583943367,0.074381485581398,0.0724133029580116
613,0.00642485171556473,0.00471942871809006,0.0491065420210361,0.0610306523740292,0.0719557255506516,0.0747536420822144
614,0.0085286246612668,0.00811303872615099,0.0479879640042782,0.0609470754861832,0.0699534863233566,0.0736021101474762
615,0.0103763751685619,0.00788011308759451,0.0469330884516239,0.0606672279536724,0.0698781237006187,0.0684855729341507
616,0.011400138027966,0.00398555165156722,0.0450473502278328,0.0593402460217476,0.070764347910881,0.0602381452918053
617,0.0113546308130026,-0.00071715988451615,0.0418258346617222,0.0573676377534866,0.0700477734208107,0.0512485168874264
618,0.0106872739270329,-0.00295573403127491,0.0384726300835609,0.0562592446804047,0.0668975785374641,0.0449453480541706
619,0.00936357863247395,-0.00163426320068538,0.0364789068698883,0.0566391609609127,0.0617322884500027,0.0435838438570499
620,0.00749729387462139,0.00181484164204448,0.0360288210213184,0.0578280612826347,0.0553131103515625,0.0459132865071297
621,0.00609522173181176,0.00435838708654046,0.0366457626223564,0.0577700398862362,0.0497843101620674,0.0475239120423794
622,0.0050191730260849,0.00363390427082777,0.0371417626738548,0.0541400387883186,0.0452611185610294,0.0449999757111073
623,0.00371158332563937,-0.000246407435042784,0.0361977554857731,0.0466612614691257,0.0414061099290848,0.0379606187343597
624,0.00312655721791089,-0.00488592265173793,0.0353106968104839,0.0391414612531662,0.0414332635700703,0.0300015863031149
625,0.00377688254229724,-0.00827513542026281,0.0367719605565071,0.036503192037344,0.0463828109204769,0.0265675224363804
626,0.0043905102647841,-0.00857140589505434,0.039093691855669,0.0390733443200588,0.0517559349536896,0.0299087762832642
627,0.00369166652671993,-0.0056709167547524,0.039024893194437,0.0420780144631863,0.0537436716258526,0.0365151688456535
628,0.0021782333496958,-0.00310069462284446,0.0363200679421425,0.0419812835752964,0.0534752048552036,0.0401441231369972
629,0.00169334432575852,-0.00269658048637211,0.0334570109844208,0.0400241538882256,0.0534994602203369,0.0381699576973915
630,0.00294447783380747,-0.00291295768693089,0.0324071235954762,0.0387048162519932,0.0542144067585468,0.0329853631556034
631,0.00476545840501785,-0.0024414760991931,0.0333249792456627,0.0385028533637524,0.0550332292914391,0.0283598620444536
632,0.00709892576560378,-0.00169624644331634,0.0346229374408722,0.0377281419932842,0.055316474288702,0.0260077547281981
633,0.010454629547894,-0.00145202106796205,0.0346970371901989,0.0353233739733696,0.0548426993191242,0.0255252793431282
634,0.0126555915921927,-0.00158955308143049,0.0330038331449032,0.0318759083747864,0.0535555370151997,0.0255214758217335
635,0.0121873626485467,-0.00143590639345348,0.0299858227372169,0.0284172985702753,0.0510142259299755,0.0247630849480629
636,0.0101741319522262,-0.00132097059395164,0.0268223658204079,0.0260802116245031,0.0475641787052155,0.0231400560587645
637,0.00749316532164812,-0.00252935895696282,0.0240316055715084,0.0253941677510738,0.0439324378967285,0.0205889604985714
638,0.00508848391473293,-0.00454355031251907,0.0218577664345503,0.0267254821956158,0.0404662266373634,0.0177831090986729
639,0.00377033255062997,-0.00575754605233669,0.021014453843236,0.0295799374580383,0.0371095687150955,0.0161472298204899
640,0.00312631949782372,-0.00585592305287719,0.021220101043582,0.0318992584943771,0.0332234874367714,0.0155119122937322
641,0.00299287494271994,-0.00495066493749619,0.0216928347945213,0.033219188451767,0.0290534645318985,0.0156179955229163
642,0.00297100422903895,-0.00403686612844467,0.0228881854563951,0.0346994958817959,0.0263966359198093,0.0168920569121838
643,0.00300592510029674,-0.00519874924793839,0.0248081535100937,0.0352606363594532,0.0265103336423635,0.0175298489630222
644,0.00448428047820926,-0.00821379385888577,0.0262933615595102,0.0327883362770081,0.0282376855611801,0.0151563035324216
645,0.0069134240038693,-0.0103332102298737,0.0268134251236916,0.0281378589570522,0.0291493013501167,0.0114025268703699
646,0.00874312594532967,-0.00964121334254742,0.0267158020287752,0.0242093671113253,0.0288152005523443,0.0101758074015379
647,0.0103742424398661,-0.0072256475687027,0.0259472895413637,0.0217779316008091,0.0281367227435112,0.0117340497672558
648,0.0127885323017836,-0.00501549011096358,0.0244338717311621,0.02024189196527,0.0278029479086399,0.0133619597181678
649,0.0148104494437575,-0.00226819608360529,0.0227443091571331,0.0197333078831434,0.028271758928895,0.0133342929184437
650,0.0136466771364212,0.000699372438248247,0.0206140503287315,0.0194177571684122,0.0280882194638252,0.0105020981281996
651,0.0088653489947319,0.000744555203709751,0.0170172210782766,0.0177925676107407,0.0251539628952742,0.00494745234027505
652,0.00240314425900579,-0.00292505184188485,0.0116359293460846,0.0136703783646226,0.0188601594418287,-0.0013664256548509
653,-0.00267929420806468,-0.00802016630768776,0.00600627390667796,0.00763019034639001,0.0120407147333026,-0.00636781333014369
654,-0.00278208055533469,-0.0123595278710127,0.00209937104955316,0.0018737391801551,0.0107069164514542,-0.00956827495247126
655,0.00143443001434207,-0.0149035882204771,0.000703331141266972,-0.0016035430599004,0.015497462823987,-0.01044109929353
656,0.00619242945685983,-0.0145578347146511,0.00300224521197379,-0.000993860769085586,0.0215714126825333,-0.00723823951557279
657,0.010345971211791,-0.010056784376502,0.00901524350047112,0.0028619181830436,0.0267224162817001,-0.00117707229219377
658,0.013486297801137,-0.0024042846634984,0.0150163136422634,0.00638959091156721,0.0287925023585558,0.00327080022543669
659,0.013828132301569,0.00465842615813017,0.017091378569603,0.00860089249908924,0.0242502931505442,0.00495263794437051
660,0.0104929246008396,0.00923639070242643,0.0153983430936933,0.0120482994243503,0.0138583481311798,0.00839345436543226
661,0.00574149191379547,0.011108229868114,0.0131149748340249,0.0163311157375574,0.00496355630457401,0.0142827872186899
662,0.003707155585289,0.00934690982103348,0.0133377891033888,0.01797348074615,0.00553675228729844,0.0165589954704046
663,0.00607106601819396,0.00520596094429493,0.0166771244257689,0.0173643808811903,0.0147394202649593,0.013556239195168
664,0.00936789903789759,0.000564606627449393,0.0194121841341257,0.0163484234362841,0.0229833442717791,0.00844071339815855
665,0.00948250107467175,-0.00382077810354531,0.0179521963000298,0.0146016925573349,0.024037379771471,0.00250824284739792
666,0.0077850497327745,-0.00678137969225645,0.0141611099243164,0.0117720784619451,0.0218488927930593,-0.00423304038122296
667,0.00705550098791718,-0.00799760781228542,0.0116091910749674,0.00796154141426086,0.0215913653373718,-0.0107195060700178
668,0.00689195562154055,-0.00859390757977962,0.011851204559207,0.00454973708838224,0.0238157287240028,-0.01472735311836
669,0.00599229987710714,-0.00944544468075037,0.0135925216600299,0.00268847588449717,0.0259562861174345,-0.0153402648866177
670,0.00340373977087438,-0.00984932202845812,0.0137391798198223,0.00171002221759409,0.0238208919763565,-0.0136390123516321
671,-0.0010289172641933,-0.00841789878904819,0.0114981094375253,0.00211043981835246,0.0163791477680206,-0.0101923299953341
672,-0.00466292444616556,-0.0041209333576262,0.00943829398602247,0.00520421797409654,0.00905981659889221,-0.00502202520146966
673,-0.00486618326976895,0.00211822497658432,0.00967329833656549,0.00963401328772306,0.00744746346026659,0.000695143826305866
674,-0.00276391417719424,0.00610331771895289,0.0101773729547858,0.0119404969736934,0.00935719814151526,0.00492253014817834
675,-0.000841560075059533,0.00516208400949836,0.00828264933079481,0.0113451685756445,0.00942072179168463,0.00701686227694154
676,-1.57555641635554E-05,0.00122834229841828,0.0056742993183434,0.010200560092926,0.00748067861422896,0.00828699301928282
677,0.00100595795083791,-0.00183283118531108,0.00484437961131334,0.00885973311960697,0.00676756678149104,0.00871416181325912
678,0.00298364320769906,-0.00174613518174738,0.00536383362486959,0.00648087961599231,0.00825215596705675,0.00696890195831656
679,0.00434831576421857,-0.000355456228135154,0.00591221218928695,0.00406127749010921,0.00977856013923883,0.00427912035956979
680,0.00352742988616228,-0.000793989805970341,0.00563636608421803,0.00212973798625171,0.00913411565124989,0.00308287609368563
681,0.000415265618357807,-0.00371496868319809,0.00485826004296541,0.000335636112140492,0.00755313318222761,0.00292074377648532
682,-0.00307622342370451,-0.0077206171117723,0.00462056044489145,-0.00108689349144697,0.0071343258023262,0.00149492244236171
683,-0.00449544610455632,-0.0107235861942172,0.00476735224947333,-0.0021963391918689,0.00701994448900223,-0.00148713565431535
684,-0.00411591120064259,-0.0115427179262042,0.00475386483594775,-0.00321758352220058,0.00540577061474323,-0.00405846070498228
685,-0.00403471430763602,-0.0108609460294247,0.00526247033849359,-0.00353307370096445,0.00233163964003325,-0.00495566846802831
686,-0.00372051238082349,-0.0100550753995776,0.00721673713997006,-0.0024086891207844,0.000630929600447416,-0.00563736818730831
687,-0.00185093481559306,-0.0101739251986146,0.00987122394144535,5.01282011100557E-06,0.00144541659392416,-0.00812254659831524
688,-2.09442096092971E-05,-0.0114744482561946,0.0112883225083351,0.00267806346528232,0.00218111439608037,-0.012005171738565
689,0.0014211559901014,-0.0136802494525909,0.0105899116024375,0.00369313335977495,0.00355504616163671,-0.0162547864019871
690,0.00384920905344188,-0.0157499499619007,0.0084665659815073,0.00233579613268375,0.00744311092421412,-0.0189175456762314
691,0.00581433391198516,-0.0155360102653503,0.00524064525961876,0.000508103112224489,0.00902894698083401,-0.0167149379849434
692,0.00580641208216548,-0.012416728772223,0.00142293656244874,9.65141880442388E-05,0.0051886853761971,-0.0103971352800727
693,0.0055437651462853,-0.00841491483151913,-0.00128474296070635,0.00138310203328729,0.00142669025808573,-0.00428555440157652
694,0.00544500723481178,-0.00446515344083309,-0.00239049806259573,0.00409860722720623,-0.000237144777202047,0.00115827564150095
695,0.00389122241176665,0.000138043367769569,-0.00177867966704071,0.00850581750273705,-0.00330366427078843,0.00830365717411041
696,0.00171822356060147,0.00517997145652771,0.00216359389014542,0.0152070857584476,-0.00567436823621392,0.0161931794136763
697,0.000360630016075447,0.00930999033153057,0.00917730107903481,0.0223160795867443,-0.00329032074660063,0.020661948248744
698,-0.000402454694267362,0.00939801149070263,0.0155047299340367,0.0245940629392862,0.00260317302308977,0.0173103604465723
699,2.11209771805443E-05,0.00401392905041575,0.0176530499011278,0.0189465302973986,0.00945219676941633,0.00529463635757566
700,0.00222073611803353,-0.00353595311753452,0.0142516177147627,0.00718712247908115,0.0150787914171815,-0.0110805425792933
701,0.00487479893490672,-0.0100275315344334,0.00599689828231931,-0.00659548491239548,0.0168508943170309,-0.0255216974765062
702,0.00628675986081362,-0.0145224956795573,-0.00341081409715116,-0.0177328921854496,0.0149189149960876,-0.0339817367494106
703,0.00630765128880739,-0.0159852094948292,-0.00942216347903013,-0.0222204849123955,0.0111999558284879,-0.0353807546198368
704,0.00640549557283521,-0.0147631671279669,-0.0110103785991669,-0.0200451221317053,0.00732069509103894,-0.0320500321686268
705,0.00686965882778168,-0.0136472266167402,-0.010866760276258,-0.0151649359613657,0.00403473945334554,-0.0286781042814255
706,0.00627157418057323,-0.0136344628408551,-0.0113538419827819,-0.0103791924193501,-0.000357215263647959,-0.0272909644991159
707,0.00540384091436863,-0.0139761781319976,-0.0120016410946846,-0.00704546459019184,-0.00458690943196416,-0.0292149968445301
708,0.00580174988135695,-0.014510934241116,-0.0117415115237236,-0.00649734260514379,-0.00499843200668693,-0.0353674106299877
709,0.00621149130165577,-0.015245939604938,-0.0107897128909826,-0.00833639968186617,-0.00230678683146834,-0.0430612228810787
710,0.00519050005823374,-0.016846613958478,-0.00969790201634169,-0.0109701938927174,0.000566759787034243,-0.0495743975043297
711,0.00417588092386723,-0.0201798118650913,-0.00866169575601816,-0.0130386697128415,0.00318992207758129,-0.0541594475507736
712,0.00586458062753081,-0.0241171214729548,-0.00707732141017914,-0.0131056541576982,0.0080677941441536,-0.0568886883556843
713,0.00950438622385263,-0.0251689255237579,-0.00519166700541973,-0.0100338561460376,0.0133245773613453,-0.0566930025815964
714,0.0122767351567745,-0.0221670102328062,-0.00439247256144881,-0.00543749751523137,0.0139459120109677,-0.0532657094299793
715,0.0138751193881035,-0.0180099830031395,-0.00480194436386228,-0.00298306159675121,0.0107855349779129,-0.0497214607894421
716,0.0142684793099761,-0.0141637455672026,-0.00598452193662524,-0.0034779948182404,0.0059506930410862,-0.0466390326619148
717,0.0122754210606217,-0.0085471635684371,-0.00695528229698539,-0.00408790167421103,3.53707378053514E-06,-0.0411756932735443
718,0.0101208463311195,-0.00173100573010743,-0.00553580420091748,-0.00309765175916255,-0.0011723549105227,-0.0359833762049675
719,0.0111916959285736,0.00277837621979415,-0.00213910383172333,-0.00195768871344626,0.00614917650818825,-0.0366160459816456
720,0.0136251980438828,0.0040316223166883,-0.00024299202777911,-0.0022833188995719,0.013947082683444,-0.0414759106934071
721,0.013419495895505,0.0014517173403874,-0.00183351337909698,-0.00424153450876474,0.0140830827876925,-0.0458009988069534
722,0.00978989992290735,-0.00506708025932312,-0.00620375713333488,-0.00730687938630581,0.00756860477849841,-0.0483086034655571
723,0.00490201218053699,-0.0124454563483596,-0.0107829356566072,-0.00888579711318016,-0.000460871669929475,-0.0476253964006901
724,0.00100071192719042,-0.0178960021585226,-0.0127893444150686,-0.00622395891696215,-0.00626028282567859,-0.043314803391695
725,-0.000904206477571279,-0.0210525132715702,-0.0120195494964719,-0.000989541411399841,-0.00970387831330299,-0.0391563437879086
726,-0.000736134825274348,-0.0222407635301352,-0.0102595509961247,0.00297732488252223,-0.0124853244051337,-0.0381635501980782
727,0.000389914435800165,-0.0222804937511683,-0.00902686174958944,0.00364920124411583,-0.0153155298903584,-0.0395816788077354
728,0.00150203763041645,-0.0222678892314434,-0.00895805191248655,0.00137778231874108,-0.0173618998378515,-0.0411076359450817
729,0.0029791034758091,-0.0227832458913326,-0.00925929937511683,-0.00255136331543326,-0.0165416300296783,-0.0423396751284599
730,0.00484782550483942,-0.0230937581509352,-0.00759050762280822,-0.00589507352560759,-0.0121700717136264,-0.0431545414030552
731,0.00577566027641296,-0.0207566171884537,-0.00381431984715164,-0.00614341301843524,-0.00793531164526939,-0.0407517105340958
732,0.00563181191682816,-0.0152378315106034,-0.00125233735889196,-0.00456913048401475,-0.00681643187999725,-0.034874688833952
733,0.00568193150684237,-0.0096256323158741,-0.00205777445808053,-0.00428686337545514,-0.00807440839707851,-0.0289623606950045
734,0.00570130534470081,-0.00699998764321208,-0.00506380712613463,-0.00585320964455605,-0.0111060542985797,-0.0257608983665705
735,0.00512522365897894,-0.00758605729788542,-0.00711157731711864,-0.00803794898092747,-0.013562822714448,-0.0261870492249727
736,0.00447037722915411,-0.0100935800001025,-0.00671862298622727,-0.0103120664134622,-0.0118542397394776,-0.0304634924978018
737,0.00398799497634172,-0.0136827044188976,-0.0054225018247962,-0.0120654981583357,-0.00675863679498434,-0.0374036319553852
738,0.00312506197951734,-0.0157835893332958,-0.00508268596604466,-0.0107796303927898,-0.00376584590412676,-0.040253322571516
739,0.00211226753890514,-0.0136870620772243,-0.00568268448114395,-0.00554517190903425,-0.0052714915946126,-0.0347020477056503
740,0.00170682929456234,-0.00887092668563128,-0.00538663798943162,0.00117233791388571,-0.00757665978744626,-0.0260653011500835
741,0.000625676068011671,-0.004561688285321,-0.00431218417361379,0.00639231782406569,-0.00945877563208342,-0.0182547532021999
742,-0.00196791510097682,-0.00251466315239668,-0.00462517701089382,0.00819379463791847,-0.012777054682374,-0.0118695106357336
743,-0.00420917896553874,-0.00305752013809979,-0.00615771301090717,0.00645510805770755,-0.0158682465553284,-0.00967400148510933
744,-0.00496457843109965,-0.00508859707042575,-0.00702508818358183,0.00330162746831775,-0.0165356192737818,-0.0111125614494085
745,-0.00435860082507133,-0.00600829860195518,-0.00650866329669952,0.000817121414002031,-0.0152213294059038,-0.0123646669089794
746,-0.00322382594458759,-0.00412698090076447,-0.00603078911080956,-0.00165708747226745,-0.0142655819654465,-0.0133586199954152
747,-0.00247461069375277,-0.00178327260073274,-0.00690620020031929,-0.00488924467936158,-0.0149765620008111,-0.0168584603816271
748,-0.00133679667487741,-0.00211830832995474,-0.00796942133456469,-0.00698974309489131,-0.0146121922880411,-0.0232388619333506
749,0.000206040771445259,-0.00459821708500385,-0.00841517839580774,-0.00664837844669819,-0.0127594340592623,-0.0298003982752562
750,-0.000276712002232671,-0.0068707331083715,-0.00857156235724688,-0.0048186513595283,-0.0129124149680138,-0.0331562794744968
751,-0.00270298193208873,-0.0072723482735455,-0.00733921164646745,-0.00250321044586599,-0.0134655833244324,-0.0318617075681686
752,-0.00349924131296575,-0.00602088682353497,-0.00421489868313074,-0.00078702688915655,-0.0100197335705161,-0.0284434054046869
753,-0.00192157819401473,-0.00443421537056565,-0.00127917260397226,-0.000868349452503026,-0.00383040914312005,-0.0258627366274595
754,-0.000238224092754535,-0.00267825950868428,5.6642552408448E-06,-0.00229241140186787,0.00216728635132313,-0.0232808142900467
755,-0.000327940768329427,0.000905329186934978,-0.000987215898931026,-0.00406382046639919,0.00534058455377817,-0.0184791516512632
756,-0.00158046057913452,0.00661558145657182,-0.00445905607193708,-0.00678237155079842,0.00411913357675076,-0.0140146696940064
757,-0.0020758684258908,0.0111131044104695,-0.00814575981348753,-0.010027932934463,0.0012973255943507,-0.013578656129539
758,-0.00196045008487999,0.0113117275759578,-0.0103620868176222,-0.0115558300167322,-0.00128641433548182,-0.0155204338952899
759,-0.00192353222519159,0.00695883901789784,-0.0112816207110882,-0.0103062968701124,-0.00373241445049644,-0.0176691543310881
760,-0.00154774321708828,-0.000521005596965551,-0.0104601876810193,-0.00727051310241222,-0.00423721596598625,-0.0203109830617905
761,-0.00139887724071741,-0.00809819344431162,-0.00900276470929384,-0.00440850527957082,-0.00441042706370354,-0.0218934956938028
762,-0.00273122801445425,-0.01321333181113,-0.008918940089643,-0.00346911046653986,-0.00791208446025848,-0.0212772209197283
763,-0.00461388658732176,-0.0164103526622057,-0.00910828448832035,-0.00556942261755466,-0.0110290478914976,-0.0223301723599434
764,-0.00535747036337852,-0.0177766140550375,-0.00858923979103565,-0.0091557065024972,-0.0105205699801445,-0.0260117035359144
765,-0.00509663019329309,-0.0163585022091866,-0.00864462554454803,-0.0109118921682239,-0.0105310343205929,-0.0281669162213802
766,-0.00428892066702247,-0.013927586376667,-0.00886550359427929,-0.00991916935890913,-0.0122372787445784,-0.0284028593450785
767,-0.00268369494006038,-0.0125841936096549,-0.00766054075211287,-0.00708815641701221,-0.0134346624836326,-0.0292624309659004
768,-0.000632096198387444,-0.0113726453855634,-0.00511109735816717,-0.00276811071671546,-0.0144548313692212,-0.0305413957685232
769,0.00164676923304796,-0.00900136306881905,-0.00114351790398359,0.00341065996326506,-0.0132135534659028,-0.0299068260937929
770,0.00432296702638268,-0.00544270779937506,0.00399498734623194,0.0104803945869207,-0.00718697439879179,-0.0270425081253052
771,0.00600247783586383,-0.00160131347365677,0.00657741725444794,0.0137778902426362,-0.00107769621536136,-0.0263228360563517
772,0.00549882231280208,0.000377575983293355,0.00453849183395505,0.0101280054077506,-0.000305833847960457,-0.0297769270837307
773,0.00269022700376809,0.000101979559985921,0.000680345401633531,0.00305746402591467,-0.00568868173286319,-0.031784649938345
774,-0.00251708505675197,-0.00104611879214644,-0.00339697324670851,-0.00325951678678393,-0.0162524357438087,-0.0286623034626246
775,-0.0066491742618382,-0.00266061094589531,-0.00805478449910879,-0.00863651279360056,-0.025712888687849,-0.0232410356402397
776,-0.00619709491729736,-0.00391192035749555,-0.0128119448199868,-0.013332100585103,-0.027479212731123,-0.0182615667581558
777,-0.00352142262272537,-0.00313477776944637,-0.0161321051418781,-0.0155319236218929,-0.024102259427309,-0.0136043475940824
778,-0.00132352102082223,-0.000125511432997882,-0.0165236759930849,-0.0144487982615829,-0.0213214792311192,-0.00890456419438124
779,-0.000346098066074774,0.00372727657668293,-0.014627143740654,-0.0122345089912415,-0.021552599966526,-0.00436536548659205
780,-0.00153617723844945,0.00671447720378637,-0.0126679921522737,-0.0111030731350183,-0.0246313493698835,-0.000562539906241
781,-0.00333415344357491,0.0070335166528821,-0.0111017040908337,-0.0116434078663588,-0.0269491747021675,0.000287382485112175
782,-0.00452629709616303,0.00367459957487881,-0.0100772986188531,-0.0130589548498392,-0.0274699237197638,-0.00263277348130941
783,-0.00648185890167952,-0.00146885728463531,-0.010589774698019,-0.0135291889309883,-0.0296755507588387,-0.00639721099287272
784,-0.00798431504517794,-0.00501645775511861,-0.0118283312767744,-0.012589817866683,-0.0314432084560394,-0.00951024517416954
785,-0.00784997176378965,-0.00551740964874625,-0.0137441819533706,-0.0126665243878961,-0.0296552646905184,-0.0141624547541142
786,-0.00757072633132339,-0.00353082083165646,-0.0166331063956022,-0.0145358815789223,-0.0264211501926184,-0.0205217991024256
787,-0.00746560795232654,-0.000450092455139384,-0.0188843887299299,-0.0155996540561318,-0.0237197577953339,-0.025171959772706
788,-0.00675340322777629,0.00254116929136217,-0.0192753598093987,-0.0146980490535498,-0.020846925675869,-0.0269432459026575
789,-0.00493162265047431,0.00491899158805609,-0.0175060648471117,-0.0126670338213444,-0.0159736294299364,-0.0269336625933647
790,-0.00229368871077895,0.00588872004300356,-0.0131578147411346,-0.00974379200488329,-0.00775405298918486,-0.0244693420827389
791,-0.000942844664677978,0.00465147849172354,-0.0077196410857141,-0.00655151018872857,0.00111214304342866,-0.0192544050514698
792,-0.00264866300858557,0.00201805378310382,-0.00533248437568545,-0.00447266129776835,0.0030173126142472,-0.0140288146212697
793,-0.00665354868397117,-0.000603952095843852,-0.00766122527420521,-0.00368572562001646,-0.00482706958428025,-0.0118983862921596
794,-0.0107109202072024,-0.00250958767719567,-0.0113421520218253,-0.00290386681444943,-0.0158116724342108,-0.0126447034999728
795,-0.013477586209774,-0.00209370418451726,-0.0133095756173134,-0.00273786438629031,-0.0247619245201349,-0.0142559688538313
796,-0.015662269666791,0.000529897923115641,-0.015179549343884,-0.00668910006061196,-0.0332921333611012,-0.0162855740636587
797,-0.0173749569803476,0.00282667577266693,-0.0189135372638702,-0.0149291232228279,-0.0409890376031399,-0.0168740600347519
798,-0.0180422738194466,0.00479070376604795,-0.0227157063782215,-0.0226677265018225,-0.0452891960740089,-0.0139388842508197
799,-0.017164645716548,0.0063749635592103,-0.024292379617691,-0.0264055412262678,-0.0459765866398811,-0.0116122188046575
800,-0.0140362894162536,0.00551126152276993,-0.0238592755049467,-0.0272250510752201,-0.0436786375939846,-0.0152257364243269
801,-0.00942306965589523,0.00214013643562794,-0.0220763087272644,-0.0274499859660864,-0.039607647806406,-0.0243720486760139
802,-0.00513499323278666,-0.00224111741408706,-0.0189625862985849,-0.0271589029580355,-0.0340506471693516,-0.0349913276731968
803,-0.00292343972250819,-0.00667512789368629,-0.0158198513090611,-0.0259154327213764,-0.0283417664468288,-0.042804304510355
804,-0.00340026523917913,-0.0101105682551861,-0.0147952400147915,-0.0249431859701872,-0.0260094031691551,-0.045696422457695
805,-0.00509218825027347,-0.0109836319461465,-0.0155772706493735,-0.025137010961771,-0.027353385463357,-0.0444611944258213
806,-0.00646982155740261,-0.00884460378438234,-0.0164711307734251,-0.0255401022732258,-0.0304250903427601,-0.0406538173556328
807,-0.00759596936404705,-0.00539616728201509,-0.0179140716791153,-0.0256037078797817,-0.0347078442573547,-0.0357795692980289
808,-0.00834936182945967,-0.00277377781458199,-0.0202842373400927,-0.0262754838913679,-0.0382931306958199,-0.0319908633828163
809,-0.00809760671108961,-0.00153552484698594,-0.0219093859195709,-0.0274817775934935,-0.0389544628560543,-0.0297588314861059
810,-0.00750331720337272,-0.00120059680193663,-0.0221345201134682,-0.0279691051691771,-0.0385665819048882,-0.0281294323503971
811,-0.00719330739229918,-0.0014564273878932,-0.0213948637247086,-0.0271497070789337,-0.0390632562339306,-0.0283332951366901
812,-0.00642438791692257,-0.00193435268010944,-0.0193099919706583,-0.0249365214258432,-0.0396351516246796,-0.0323607511818409
813,-0.0050912955775857,-0.00216465932317078,-0.0165728200227022,-0.0225627142935991,-0.0406330749392509,-0.0391017682850361
814,-0.00420617870986462,-0.0019103066297248,-0.0147439045831561,-0.0218169782310724,-0.0424139238893986,-0.0438036248087883
815,-0.00433856341987848,-0.000719805655535311,-0.0134527143090963,-0.0221622847020626,-0.0431574806571007,-0.0423134490847588
816,-0.00439146999269724,0.00278523890301585,-0.0112121365964413,-0.0227369610220194,-0.0404068492352962,-0.0363115109503269
817,-0.00407201796770096,0.00842769164592028,-0.00942010805010796,-0.0243948232382536,-0.0370538309216499,-0.0302965305745602
818,-0.00522508751600981,0.0133119430392981,-0.0108911842107773,-0.0265007354319096,-0.0405898801982403,-0.0254587344825268
819,-0.00753042148426175,0.0142027670517564,-0.0151378605514765,-0.0293016396462917,-0.0503469556570053,-0.0246888604015112
820,-0.00921158120036125,0.00946043711155653,-0.020290520042181,-0.0356316417455673,-0.059592742472887,-0.0329757891595364
821,-0.00942143145948648,0.0015426273457706,-0.0251353941857815,-0.0450027734041214,-0.0649889186024666,-0.0479834116995335
822,-0.00801221467554569,-0.00472853379324079,-0.0288521628826857,-0.0540651865303516,-0.0663234740495682,-0.0622565820813179
823,-0.00648516975343227,-0.00728071667253971,-0.0319793000817299,-0.0606386587023735,-0.0662119016051292,-0.0713135153055191
824,-0.00629865657538176,-0.00744649721309543,-0.0343930907547474,-0.0638233125209808,-0.0673573091626167,-0.0761486515402794
825,-0.00758327217772603,-0.00666287122294307,-0.0348513424396515,-0.0638885498046875,-0.0709949135780334,-0.0802318006753922
826,-0.00947180297225714,-0.00535003188997507,-0.0337241441011429,-0.0629435330629349,-0.0776815786957741,-0.0856286734342575
827,-0.0114033501595259,-0.00415091076865792,-0.0334500670433044,-0.0637918785214424,-0.0872670188546181,-0.0920984968543053
828,-0.0139696020632982,-0.00330916629172862,-0.036822997033596,-0.0678431838750839,-0.0997539386153221,-0.0970026627182961
829,-0.0166985038667917,-0.00268646469339728,-0.0436473935842514,-0.0745845064520836,-0.112649492919445,-0.0990134999155998
830,-0.0182600505650043,-0.00242625409737229,-0.0511785857379436,-0.0821121260523796,-0.122820109128952,-0.100758038461208
831,-0.0183546505868435,-0.00296077970415354,-0.0583172254264355,-0.0895196571946144,-0.130835771560669,-0.10556098818779
832,-0.0179530493915081,-0.00524835800752044,-0.0647255107760429,-0.0974492132663727,-0.137661457061768,-0.11497912555933
833,-0.0170291885733604,-0.0091613894328475,-0.0690544620156288,-0.106272131204605,-0.141929790377617,-0.128446280956268
834,-0.0146120889112353,-0.0128155099228024,-0.0719641298055649,-0.115817181766033,-0.144377514719963,-0.143070012331009
835,-0.0121093885973096,-0.0154386721551418,-0.0757728219032288,-0.125878423452377,-0.148151099681854,-0.156034514307976
836,-0.0112067116424441,-0.0176721084862947,-0.0804586708545685,-0.135627016425133,-0.153840273618698,-0.16701278090477
837,-0.0118129923939705,-0.019203819334507,-0.084172286093235,-0.142797276377678,-0.161081209778786,-0.175887450575829
838,-0.0117667643353343,-0.0206276327371597,-0.0851739421486855,-0.147455409169197,-0.166567519307137,-0.184878036379814
839,-0.00912912003695965,-0.0233491938561201,-0.0835777819156647,-0.152752235531807,-0.166795328259468,-0.197586238384247
840,-0.00559178367257118,-0.0251711793243885,-0.0820647180080414,-0.158830523490906,-0.165565073490143,-0.210218876600266
841,-0.00290507287718356,-0.0231494400650263,-0.082838661968708,-0.164182603359222,-0.166486203670502,-0.217507630586624
842,-0.00192142406012863,-0.0190466716885567,-0.0865128189325333,-0.170511335134506,-0.169512957334518,-0.221436485648155
843,-0.00206346390768886,-0.0164192914962769,-0.0917783603072166,-0.179212287068367,-0.173639953136444,-0.225480854511261
844,-0.00128184864297509,-0.0170865915715694,-0.0961082354187965,-0.188376635313034,-0.177089259028435,-0.230101749300957
845,-0.000302291329717264,-0.0203880555927753,-0.0991688594222069,-0.194719135761261,-0.180813774466515,-0.232682585716248
846,0.000215044798096642,-0.0239474568516016,-0.101809673011303,-0.196318969130516,-0.185426577925682,-0.231064885854721
847,0.00103994866367429,-0.0268241371959448,-0.103947184979916,-0.194958925247192,-0.188465759158134,-0.22810572385788
848,0.000725811696611345,-0.0293263755738735,-0.106528855860233,-0.193585902452469,-0.191668912768364,-0.226792380213737
849,-0.00164753221906722,-0.0296060591936111,-0.11003440618515,-0.191703662276268,-0.198691859841347,-0.225571632385254
850,-0.00424710148945451,-0.025377469137311,-0.112450905144215,-0.188539534807205,-0.206813409924507,-0.223123520612717
851,-0.00570499943569303,-0.0193539075553417,-0.112873889505863,-0.185396417975426,-0.212142467498779,-0.220221698284149
852,-0.00634879479184747,-0.0154551407322288,-0.11249652504921,-0.18172787129879,-0.215571165084839,-0.216986551880836
853,-0.00683268439024687,-0.0139034455642104,-0.112265035510063,-0.177632495760918,-0.218732446432114,-0.214787885546684
854,-0.006343106739223,-0.0143692614510655,-0.111898198723793,-0.176095902919769,-0.219060897827148,-0.215645924210548
855,-0.00380897964350879,-0.0166020002216101,-0.11110607534647,-0.178345501422882,-0.214851349592209,-0.217721313238144
856,-0.000623257597908378,-0.0188999529927969,-0.109787210822105,-0.181500509381294,-0.208781898021698,-0.215960413217545
857,0.00163446669466794,-0.0197031572461128,-0.106978923082352,-0.181895777583122,-0.200464457273483,-0.208825528621674
858,0.00255492422729731,-0.0180887151509523,-0.103159092366695,-0.17939792573452,-0.188639581203461,-0.200472548604012
859,0.00111055246088654,-0.0122496355324984,-0.100537538528442,-0.174721196293831,-0.1778594404459,-0.191883891820908
860,-0.0033386426512152,-0.00288808345794678,-0.100034147500992,-0.166919767856598,-0.173482641577721,-0.179934218525887
861,-0.00859114993363619,0.00433515710756183,-0.0999931246042252,-0.157443821430206,-0.173547074198723,-0.167076602578163
862,-0.011207708157599,0.00536866905167699,-0.0983098447322845,-0.148982360959053,-0.171457782387733,-0.157650232315063
863,-0.0101035553961992,0.00170050282031298,-0.0945353209972382,-0.141684785485268,-0.163955122232437,-0.151164770126343
864,-0.00723638013005257,-0.0033871834166348,-0.0893942564725876,-0.134938478469849,-0.15304046869278,-0.146148517727852
865,-0.00499886553734541,-0.00854701455682516,-0.0849418193101883,-0.129993662238121,-0.142807260155678,-0.142990350723267
866,-0.00294388248585165,-0.0137972859665751,-0.0818331763148308,-0.127611383795738,-0.132831305265427,-0.141806125640869
867,-0.000914233271032572,-0.0164953619241714,-0.0789531171321869,-0.12431950122118,-0.122317962348461,-0.136598661541939
868,-0.00144619052298367,-0.0143660558387637,-0.0768710076808929,-0.117470130324364,-0.115448690950871,-0.122071526944637
869,-0.0053855562582612,-0.00865876208990812,-0.0755325853824615,-0.107905238866806,-0.11417193710804,-0.101770512759686
870,-0.0106458533555269,-0.000289709947537631,-0.0735560953617096,-0.0976634249091148,-0.11568396538496,-0.0805515050888062
871,-0.015528722666204,0.0071142865344882,-0.0717464238405228,-0.0909977778792381,-0.117033585906029,-0.0623456910252571
872,-0.0192199740558863,0.00910713151097298,-0.0707515850663185,-0.0889812707901001,-0.116166301071644,-0.0502751991152763
873,-0.0198066979646683,0.00715412758290768,-0.06740602850914,-0.0863151177763939,-0.109376646578312,-0.0437613911926746
874,-0.0163890495896339,0.00472910003736615,-0.059991080313921,-0.0787090361118317,-0.0958665981888771,-0.0391699858009815
875,-0.0109320022165775,0.00349025847390294,-0.0512432083487511,-0.0681510269641876,-0.0806531384587288,-0.0338340029120445
876,-0.00614853482693434,0.00356176728382707,-0.0438105054199696,-0.0591280162334442,-0.0681323632597923,-0.0277112647891045
877,-0.0026404857635498,0.00469487393274903,-0.0384086295962334,-0.0528712496161461,-0.0585770383477211,-0.0205246768891811
878,0.00088827422587201,0.00694123422726989,-0.0343230403959751,-0.0478674583137035,-0.0504725761711597,-0.0125363059341908
879,0.00382593390531838,0.0105135692283511,-0.0310867242515087,-0.0431935787200928,-0.0448311157524586,-0.00523005286231637
880,0.00431162817403674,0.0150657072663307,-0.0296736098825932,-0.0390321500599384,-0.0432398058474064,0.00056378124281764
881,0.0029009401332587,0.0186606384813786,-0.0302618574351072,-0.0355193912982941,-0.0432988926768303,0.00484164478257298
882,0.00159882544539869,0.0202389881014824,-0.0307316053658724,-0.0324923358857632,-0.0410213656723499,0.00881744083017111
883,0.000319462851621211,0.0202609784901142,-0.0302148591727018,-0.0301746651530266,-0.036464799195528,0.0145991230383515
884,-0.00143322488293052,0.0183560140430927,-0.0294125415384769,-0.0288200527429581,-0.0306247901171446,0.0221798419952393
885,-0.00169409427326173,0.0150297163054347,-0.0266141705214977,-0.0269139278680086,-0.0200192574411631,0.0295521821826696
886,-0.000763117684982717,0.0129673415794969,-0.0209651608020067,-0.021547332406044,-0.00585677800700068,0.0380049273371696
887,-0.00159833254292607,0.0139960600063205,-0.0155734959989786,-0.0124506540596485,0.00334427319467068,0.0499528534710407
888,-0.0045150863006711,0.0175564605742693,-0.0128491586074233,-0.00264030857942998,0.00384271726943552,0.0624659061431885
889,-0.00718044303357601,0.0218944363296032,-0.0106700221076608,0.00619897339493036,0.0011740968329832,0.0721818581223488
890,-0.00798523705452681,0.0251788068562746,-0.00636843219399452,0.0152621399611235,0.00197619362734258,0.0803735181689262
891,-0.00874458346515894,0.028105853125453,-0.00136608234606683,0.0251216292381287,0.00521475775167346,0.0889217257499695
892,-0.0110216634348035,0.0310974549502134,0.00167727039661258,0.0322791859507561,0.00817418284714222,0.0953222885727882
893,-0.0128508796915412,0.0313031151890755,0.00270079472102225,0.033629335463047,0.0124791553243995,0.0957799181342125
894,-0.0124854864552617,0.0279341228306293,0.00359545578248799,0.0317958481609821,0.0184467192739248,0.0914972797036171
895,-0.0109028052538633,0.0227727368474007,0.00544980634003878,0.0313634350895882,0.0236188564449549,0.0869076400995255
896,-0.009823945350945,0.0178647581487894,0.00792416837066412,0.0342838875949383,0.0276280250400305,0.0856355056166649
897,-0.0100205512717366,0.0145361823961139,0.0100200623273849,0.038968451321125,0.0312970988452435,0.0885392501950264
898,-0.0118167735636234,0.0116763785481453,0.0110872015357018,0.0418883934617043,0.0338831394910812,0.092328704893589
899,-0.0139252338558435,0.00812719203531742,0.0117695480585098,0.0417358763515949,0.0362982638180256,0.0926738977432251
900,-0.0142242284491658,0.00533064780756831,0.0135489581152797,0.0419278144836426,0.0407017916440964,0.0910852625966072
901,-0.0126323793083429,0.0053623472340405,0.0175836514681578,0.0463660061359406,0.0471967197954655,0.0932585448026657
902,-0.0103968400508165,0.0083605945110321,0.0224432032555342,0.0533458776772022,0.0534351505339146,0.10003724694252
903,-0.0089954910799861,0.013262627646327,0.0255145952105522,0.0584511607885361,0.0571622811257839,0.106804341077805
904,-0.00881395116448402,0.0195773392915726,0.0275342185050249,0.0617953091859818,0.059589684009552,0.112384118139744
905,-0.0083770677447319,0.0268341060727835,0.030411122366786,0.0655582919716835,0.0629406571388245,0.119781456887722
906,-0.00699017336592078,0.0328184366226196,0.0331530570983887,0.068792812526226,0.0671748071908951,0.126800730824471
907,-0.00568442884832621,0.03524474427104,0.0340737514197826,0.0708755180239677,0.071444146335125,0.129911959171295
908,-0.00513362372294068,0.0341703221201897,0.0332138910889626,0.0728517696261406,0.0748281925916672,0.131321236491203
909,-0.00481855822727084,0.0317070707678795,0.0319850631058216,0.0746030658483505,0.0762455314397812,0.133975550532341
910,-0.00386177934706211,0.0299911666661501,0.0324977077543736,0.0753957405686378,0.0772740840911865,0.137887641787529
911,-0.00194360653404146,0.0286191795021296,0.0356814973056316,0.076038159430027,0.0808064267039299,0.140533283352852
912,0.000244790251599625,0.027540173381567,0.0401814430952072,0.0784351900219917,0.0855420008301735,0.140222772955894
913,0.00127224670723081,0.0279505830258131,0.0438190065324306,0.0820164978504181,0.0875926911830902,0.137835279107094
914,0.000580762163735926,0.0281945671886206,0.0454904437065125,0.0849113538861275,0.0861976221203804,0.135612696409225
915,-0.00101940636523068,0.0265589971095324,0.0454793758690357,0.0871450379490852,0.0834888890385628,0.1361044049263
916,-0.00346975075080991,0.0236234739422798,0.0453199818730354,0.0891705602407455,0.0820286497473717,0.138008594512939
917,-0.00715642981231213,0.0208346899598837,0.0470392741262913,0.0914825052022934,0.0839883610606194,0.138128370046616
918,-0.0105838468298316,0.0189202856272459,0.0494399890303612,0.0937662497162819,0.0878108367323875,0.136542871594429
919,-0.012155563570559,0.016904441639781,0.0497487485408783,0.0940539166331291,0.0895854383707047,0.134990617632866
920,-0.0119747947901487,0.0153429182246327,0.0489916913211346,0.0920757576823235,0.0879680886864662,0.13560077548027
921,-0.0112032787874341,0.0152577431872487,0.0491638295352459,0.0893006473779678,0.0842233449220657,0.139312773942947
922,-0.0111666666343808,0.0152137884870172,0.0498131588101387,0.0865553840994835,0.0816404223442078,0.143981143832207
923,-0.0110896276310086,0.0146107412874699,0.0503570102155209,0.0843644887208939,0.0830558687448502,0.146100297570229
924,-0.00987428054213524,0.0151037890464067,0.0515376515686512,0.0836617574095726,0.0872993320226669,0.145036831498146
925,-0.00794088467955589,0.0178884193301201,0.0536984577775002,0.0843584090471268,0.0910901725292206,0.142806574702263
926,-0.00526095367968082,0.0209625940769911,0.055955208837986,0.0856188088655472,0.0939573720097542,0.140917897224426
927,-0.00259965681470931,0.0210349466651678,0.0571074970066547,0.0886513367295265,0.0972302258014679,0.141487836837769
928,-0.00167830265127122,0.0182696282863617,0.0561408512294292,0.0939311683177948,0.100033275783062,0.144420072436333
929,-0.00254342774860561,0.0160001236945391,0.0539826638996601,0.100385218858719,0.101511463522911,0.147020190954208
930,-0.00364190083928406,0.0173351708799601,0.0527616553008556,0.107636913657188,0.102690413594246,0.148810967803001
931,-0.00382080883719027,0.0208214186131954,0.0524368472397327,0.112919390201569,0.104452036321163,0.149106159806252
932,-0.00342814507894218,0.022688141092658,0.0520582981407642,0.113863900303841,0.106697112321854,0.147088870406151
933,-0.00297778774984181,0.0237589031457901,0.0520648024976254,0.112280070781708,0.108474992215633,0.144675731658936
934,-0.00291980826295912,0.0246784873306751,0.0525079779326916,0.109028644859791,0.107489228248596,0.1426190584898
935,-0.00394687242805958,0.0230348967015743,0.05275484547019,0.103488273918629,0.102990925312042,0.14045649766922
936,-0.00555075751617551,0.0192414298653603,0.0523181334137917,0.0961833521723747,0.0980004444718361,0.13843934237957
937,-0.00678853783756495,0.0159158296883106,0.050594761967659,0.0887054353952408,0.0946961119771004,0.136428877711296
938,-0.00734948739409447,0.0151249589398503,0.0483448132872581,0.0839997231960297,0.0923526287078857,0.135118693113327
939,-0.00822320021688938,0.0169108491390944,0.046195425093174,0.083154633641243,0.0894645005464554,0.13524004817009
940,-0.0110034877434373,0.0192147865891457,0.044166773557663,0.0845806300640106,0.0860845595598221,0.136324554681778
941,-0.0150320660322905,0.0200027544051409,0.0436557866632938,0.0872617810964584,0.0830516964197159,0.136348187923431
942,-0.0181650351732969,0.0186949670314789,0.0448171198368073,0.0901771932840347,0.0795747637748718,0.134381622076035
943,-0.0186386443674564,0.0156733673065901,0.0465701445937157,0.0913300663232803,0.0782357677817345,0.13140195608139
944,-0.0165376141667366,0.0106549188494682,0.0481471754610538,0.0894189774990082,0.0825972706079483,0.12596732378006
945,-0.014353952370584,0.0047880569472909,0.0483985543251038,0.0862315744161606,0.0891557708382607,0.118300892412663
946,-0.0129789989441633,0.000480018177768216,0.047206174582243,0.0845620483160019,0.0938147008419037,0.110265962779522
947,-0.0108711775392294,-0.00243372935801744,0.0461298488080502,0.0844409465789795,0.0969681143760681,0.10076879709959
948,-0.00732064293697476,-0.00484743434935808,0.0471685081720352,0.0849645584821701,0.100498341023922,0.0908641293644905
949,-0.00324311386793852,-0.00448260316625237,0.0508253835141659,0.0867710337042809,0.10512663424015,0.0860502421855927
950,-0.000278232415439561,0.00121806748211384,0.0555710196495056,0.0905909240245819,0.108942992985249,0.0906349644064903
951,0.000623732223175466,0.00963956862688065,0.059113048017025,0.0942627936601639,0.110011525452137,0.102116912603378
952,-0.000294604280497879,0.0167178846895695,0.059442475438118,0.0947868078947067,0.107721284031868,0.114121504127979
953,-0.00190237653441727,0.0216313470155001,0.0566288866102695,0.091950811445713,0.102951101958752,0.122223660349846
954,-0.00250101950950921,0.0236185137182474,0.0534735135734081,0.087591789662838,0.0991426333785057,0.125106632709503
955,-0.00146982190199196,0.02269640378654,0.0525565221905708,0.0847422629594803,0.0981331393122673,0.125050067901611
956,-6.68855136609636E-05,0.0220840834081173,0.0531383454799652,0.0850676447153091,0.0966073870658875,0.125122621655464
957,-4.63309406768531E-05,0.0221750605851412,0.0527034439146519,0.086428090929985,0.0913691148161888,0.124911680817604
958,-0.00169821351300925,0.0196978244930506,0.0512665957212448,0.0865998789668083,0.0840772241353989,0.122150704264641
959,-0.00342191150411963,0.0147565705701709,0.0507903173565865,0.0857546404004097,0.0780430808663368,0.116471633315086
960,-0.00431978655979037,0.00856385007500649,0.0515067465603352,0.0830988809466362,0.0764847472310066,0.108119308948517
961,-0.00519847497344017,0.00178159039933234,0.0510554201900959,0.0772199183702469,0.0786648094654083,0.0979785397648811
962,-0.00595390377566218,-0.00266352156177163,0.0482516773045063,0.0702697113156319,0.0802425742149353,0.0898097306489944
963,-0.00595887191593647,-0.00369683280587196,0.045482762157917,0.0655785501003265,0.0813420489430428,0.0861515924334526
964,-0.00657893298193812,-0.00360946310684085,0.0437996238470078,0.0629007816314697,0.0825189054012299,0.0843468531966209
965,-0.00873728841543198,-0.00381308724172413,0.0416663996875286,0.0603846982121468,0.0825338959693909,0.0800275206565857
966,-0.0105599630624056,-0.00265847146511078,0.0394812449812889,0.0595176629722118,0.0822871625423431,0.0750691369175911
967,-0.00999727752059698,0.000379741482902318,0.0389490649104118,0.061851903796196,0.0832470208406448,0.0743724033236504
968,-0.00713915890082717,0.00282133347354829,0.0397126898169518,0.0649722367525101,0.0857038646936417,0.0773699730634689
969,-0.00378796481527388,0.00511337025091052,0.0403529591858387,0.0675961151719093,0.0878374204039574,0.0822266265749931
970,-0.00194034690503031,0.00999243929982185,0.040420051664114,0.0704696103930473,0.0877638608217239,0.0886043012142181
971,-0.00251593044959009,0.0165651701390743,0.0402885265648365,0.0728739351034164,0.0857162103056908,0.0953996777534485
972,-0.00450331345200539,0.0205887593328953,0.0404666364192963,0.0729686617851257,0.0837006643414497,0.099557027220726
973,-0.00645971577614546,0.0193101596087217,0.0416148640215397,0.0704284384846687,0.0838872045278549,0.0983938872814178
974,-0.00786513835191727,0.0147367073222995,0.0437089242041111,0.0669646859169006,0.0855737254023552,0.0932889580726624
975,-0.00855986773967743,0.00975637976080179,0.0447507947683334,0.0629808902740479,0.0857888981699944,0.0849283337593079
976,-0.00947127770632505,0.00518267136067152,0.043224148452282,0.0587746314704418,0.0828632712364197,0.0747050046920776
977,-0.0109328851103783,0.0017732122214511,0.0400657132267952,0.055825162678957,0.0779650807380676,0.0671205893158913
978,-0.0115332659333944,-0.000533402315340936,0.0376049391925335,0.05411172285676,0.0738644376397133,0.06224250420928
979,-0.0104240225628018,-0.0013244638685137,0.0381534397602081,0.0548670552670956,0.0718740448355675,0.0591308139264584
980,-0.00821367278695107,0.00288672209717333,0.041298869997263,0.0593986436724663,0.0714192464947701,0.0598499327898026
