,AF3,AF4,Fp1,Fp2,AF7,AF8
0,0.00227591465227306,-0.0107830511406064,-0.0145374517887831,-0.0140936188399792,0.01088179461658,-0.0240734945982695
1,0.0017994879744947,-0.0116300312802196,-0.0142221366986632,-0.0117147415876389,0.0169078353792429,-0.0186688955873251
2,0.00263123447075486,-0.0141498222947121,-0.0120327789336443,-0.00958096794784069,0.0260773282498121,-0.0188523214310408
3,0.00238073896616697,-0.0164723284542561,-0.00921531207859516,-0.00879342295229435,0.0333988405764103,-0.0234721507877111
4,-0.000602814019657671,-0.0180974472314119,-0.00615473696961999,-0.00771327549591661,0.0347124189138412,-0.0282377265393734
5,-0.00490433443337679,-0.0189457815140486,-0.00310071324929595,-0.00407483009621501,0.0293626356869936,-0.0289589203894138
6,-0.00839790794998407,-0.0171212796121836,-0.00182819424662739,0.00126375805120915,0.0184167176485062,-0.0234899595379829
7,-0.0103931380435824,-0.0129958419129252,-0.0044989394955337,0.00322933355346322,0.00400100601837039,-0.0155424317345023
8,-0.0106530804187059,-0.00840629823505878,-0.00994690600782633,-0.000838446081615984,-0.00977993663400412,-0.0111139770597219
9,-0.00983971636742353,-0.00505619961768389,-0.0157984606921673,-0.00920731667429209,-0.0204717144370079,-0.0123270535841584
10,-0.00933778192847967,-0.00440978677943349,-0.0212538633495569,-0.0191439613699913,-0.0286029186099768,-0.0173490680754185
11,-0.00969923473894596,-0.00553630571812391,-0.0251179952174425,-0.0271139889955521,-0.0344317741692066,-0.0218012891709805
12,-0.0104178823530674,-0.00593982497230172,-0.025791272521019,-0.0303730387240648,-0.0370075218379498,-0.0215208493173122
13,-0.0112263979390264,-0.00479125464335084,-0.0242342334240675,-0.028894854709506,-0.0375541336834431,-0.0159596353769302
14,-0.0123480474576354,-0.00274838227778673,-0.021918598562479,-0.0248329807072878,-0.0391585640609264,-0.00733734481036663
15,-0.0142177930101752,0.000305899389786646,-0.0195366237312555,-0.0217431448400021,-0.0429983101785183,0.00228777248412371
16,-0.017274409532547,0.00517857214435935,-0.019355908036232,-0.0217617023736238,-0.0481974259018898,0.0126214353367686
17,-0.02083401940763,0.011346141807735,-0.0223044287413359,-0.0240607671439648,-0.0523376725614071,0.0239587426185608
18,-0.0234335325658321,0.0176875740289688,-0.0262057594954968,-0.0266312807798386,-0.053294088691473,0.0362712368369102
19,-0.0243041682988405,0.0238985884934664,-0.0288173500448465,-0.0289853792637587,-0.0511914938688278,0.0490930490195751
20,-0.02368507348001,0.0301468931138515,-0.0286012198776007,-0.0316276848316193,-0.0477979183197021,0.0615709871053696
21,-0.0223074797540903,0.0361500009894371,-0.0252430830150843,-0.0343835763633251,-0.0449981391429901,0.0720536932349205
22,-0.0217199828475714,0.0398002937436104,-0.0207128394395113,-0.0377643778920174,-0.0440508462488651,0.0781003758311272
23,-0.0226390697062016,0.0395129099488258,-0.0173124894499779,-0.0419099815189838,-0.045950323343277,0.0797886252403259
24,-0.0237609371542931,0.0366875194013119,-0.0160506796091795,-0.0453769788146019,-0.0505707450211048,0.0797561556100845
25,-0.0243427809327841,0.0339213125407696,-0.0167538002133369,-0.046954445540905,-0.0556755997240543,0.0803256705403328
26,-0.024667976424098,0.0323074907064438,-0.0178614649921656,-0.0468064248561859,-0.0589709542691708,0.082021676003933
27,-0.0249510873109102,0.0315916575491428,-0.0171072389930487,-0.0454173311591148,-0.0604775361716747,0.0841927155852318
28,-0.0248669441789389,0.0320776514708996,-0.0150369936600327,-0.043508131057024,-0.0614142455160618,0.0865623354911804
29,-0.0239842161536217,0.0337405502796173,-0.0147992735728621,-0.0425805225968361,-0.0632733181118965,0.0887487232685089
30,-0.023293599486351,0.0348761677742004,-0.0170169658958912,-0.0433797873556614,-0.0667264088988304,0.0893810540437698
31,-0.0237110480666161,0.0340803563594818,-0.0192078910768032,-0.0452557727694511,-0.070125438272953,0.0861024484038353
32,-0.0242830645292997,0.0321104601025581,-0.0180989634245634,-0.0464403554797173,-0.0702943205833435,0.0791849121451378
33,-0.0241392385214567,0.0302392859011889,-0.0128488978371024,-0.045075960457325,-0.06537876278162,0.0738524943590164
34,-0.0243063680827618,0.028225339949131,-0.00724202068522573,-0.0422179326415062,-0.0581707209348679,0.0736955925822258
35,-0.0261823926120996,0.0258931387215853,-0.00480713462457061,-0.0405922196805477,-0.0524009726941586,0.0776079818606377
36,-0.0286970548331738,0.0245800223201513,-0.0049821469001472,-0.0403335988521576,-0.0476297661662102,0.0838737338781357
37,-0.0292835719883442,0.0255751013755798,-0.00599869713187218,-0.0400617234408855,-0.0434755086898804,0.0913120806217194
38,-0.0281164515763521,0.0286046210676432,-0.00690580159425735,-0.0389158762991428,-0.0427204519510269,0.0985439345240593
39,-0.026751359924674,0.0319431498646736,-0.00623135641217232,-0.0363821871578693,-0.0443712249398232,0.103850960731506
40,-0.0247674807906151,0.034087710082531,-0.00306359538808465,-0.0331783667206764,-0.0434313863515854,0.10616672039032
41,-0.0222852267324924,0.0349175669252872,0.00116910028737038,-0.0308325104415417,-0.040023110806942,0.106423683464527
42,-0.0204763580113649,0.0354556366801262,0.00469416473060846,-0.0295896697789431,-0.0380187816917896,0.106174789369106
43,-0.0193896573036909,0.036179818212986,0.00626198574900627,-0.0288030467927456,-0.0380079820752144,0.105326645076275
44,-0.0187632720917463,0.0362755134701729,0.00540558388456702,-0.0284164603799582,-0.037721823900938,0.103122979402542
45,-0.0187817625701427,0.0343684479594231,0.00313806417398155,-0.0296501331031322,-0.0350641347467899,0.0978960618376732
46,-0.0186314526945353,0.0308819971978664,0.00107019918505102,-0.0321687906980515,-0.0293653346598148,0.0898487120866776
47,-0.0171732604503632,0.0285781268030405,-0.000578925420995802,-0.0333675891160965,-0.0236039366573095,0.0824739709496498
48,-0.0149201406165957,0.0281876400113106,-0.00245598354376853,-0.0329457186162472,-0.0206814147531986,0.0758407190442085
49,-0.0134452525526285,0.0271558929234743,-0.00369335385039449,-0.0325735174119473,-0.019606476649642,0.0672018602490425
50,-0.0131071209907532,0.0233492217957973,-0.00274417013861239,-0.0323691181838512,-0.0186364892870188,0.0566162802278996
51,-0.0128874881193042,0.0188074372708797,0.000323202955769375,-0.0299021750688553,-0.0159995276480913,0.0476294569671154
52,-0.0130810486152768,0.0175192207098007,0.003173868637532,-0.0245815757662058,-0.011483833193779,0.0438992418348789
53,-0.0141528770327568,0.0188553743064404,0.0034450504463166,-0.0208244454115629,-0.00785358715802431,0.0454451590776443
54,-0.0153836384415627,0.0192607082426548,0.000711397326085716,-0.0222464837133884,-0.00778080616146326,0.049954067915678
55,-0.0163392852991819,0.0183815415948629,-0.00302420067600906,-0.0271514281630516,-0.0104578919708729,0.0557804107666016
56,-0.0170062854886055,0.0173892937600613,-0.00498671317473054,-0.0316490046679974,-0.0127840545028448,0.0610101222991943
57,-0.0171258747577667,0.0162540562450886,-0.00491007277742028,-0.0340568646788597,-0.0132360653951764,0.0628796219825745
58,-0.0160565804690123,0.0147798489779234,-0.0042295535095036,-0.0352224744856358,-0.0120484698563814,0.0601900815963745
59,-0.0144303189590573,0.0125836962834001,-0.00377508299425244,-0.0365434736013412,-0.0103785693645477,0.0538904778659344
60,-0.01346439961344,0.0100575322285295,-0.00373557745479047,-0.0375524386763573,-0.0093098571524024,0.0474690087139606
61,-0.0133738042786717,0.00866488181054592,-0.00307263270951808,-0.0361351370811462,-0.00932368263602257,0.0448956936597824
62,-0.0145358890295029,0.00817367620766163,-0.00100153114181012,-0.0326416380703449,-0.0120088271796703,0.0452294833958149
63,-0.0170525349676609,0.00712124770507216,0.000381000194465742,-0.0294675622135401,-0.0182111281901598,0.0445201620459557
64,-0.0198190249502659,0.00511290365830064,-0.00110123702324927,-0.0278783310204744,-0.0243559181690216,0.041118074208498
65,-0.0212535429745913,0.00288968021050096,-0.00453122332692146,-0.0273216012865305,-0.0249181855469942,0.0363750346004963
66,-0.0207623708993196,0.000935391115490347,-0.00803937297314405,-0.0270329527556896,-0.0188319813460112,0.0314560793340206
67,-0.019900968298316,-0.000342971296049654,-0.0109607381746173,-0.0272142440080643,-0.0113908965140581,0.0272486787289381
68,-0.0205430798232555,0.000500658818054944,-0.0127841429784894,-0.0270675048232079,-0.00863569416105747,0.0262472219765186
69,-0.0224311072379351,0.00347999157384038,-0.0127923199906945,-0.0253187548369169,-0.0115715451538563,0.0284464731812477
70,-0.024020129814744,0.00614466378465295,-0.0113052967935801,-0.0228223167359829,-0.0176369715481997,0.0297668464481831
71,-0.0235505234450102,0.00581206101924181,-0.00847758445888758,-0.0231953244656324,-0.0217541661113501,0.0253618843853474
72,-0.020381847396493,0.00368952355347574,-0.00407313508912921,-0.0273017138242722,-0.0190591979771852,0.016714408993721
73,-0.0161212217062712,0.00336973369121552,-0.000192383682588115,-0.0310431625694036,-0.0103026954457164,0.0108760837465525
74,-0.0124966157600284,0.00465799309313297,0.000255361926974729,-0.0311672892421484,0.000626285269390792,0.0110407955944538
75,-0.010232918895781,0.00628174422308803,-0.00281519861891866,-0.0266366526484489,0.00900289230048656,0.0174344833940268
76,-0.00940692517906427,0.00733260298147798,-0.00592831335961819,-0.0194664262235165,0.0122247068211436,0.0259610619395971
77,-0.00971154682338238,0.00659309001639485,-0.00571472709998488,-0.013310388661921,0.0126962009817362,0.0301587898284197
78,-0.0108757484704256,0.00542430207133293,-0.00327226077206433,-0.00964183267205954,0.0125335166230798,0.0305302664637566
79,-0.0127389496192336,0.00466366810724139,-0.00280851684510708,-0.00975946057587862,0.0105884782969952,0.0300705023109913
80,-0.0145599152892828,0.00346552836708725,-0.00593583239242435,-0.0137046268209815,0.00721200183033943,0.0295032355934381
81,-0.014571787789464,0.00221482734195888,-0.00885841622948647,-0.0175524335354567,0.00582199031487107,0.0284644570201635
82,-0.0125916171818972,0.00142577046062797,-0.00809091422706842,-0.0174938123673201,0.00652744434773922,0.0257782340049744
83,-0.0105995256453753,0.00101849937345833,-0.00444879196584225,-0.0133338840678334,0.00689392769709229,0.0217762030661106
84,-0.00940379593521357,0.00113864487502724,-0.000413018045946956,-0.00748178828507662,0.00815536826848984,0.0183411315083504
85,-0.00839620735496283,0.00198270846158266,0.00188425602391362,-0.00204946775920689,0.0123495552688837,0.0171269085258245
86,-0.00725529342889786,0.00302357389591634,0.00149447203148156,0.00152762874495238,0.0181466322392225,0.0178570076823235
87,-0.00623120320960879,0.00357988639734685,-0.00171374180354178,0.00190327584277838,0.0217189081013203,0.0181592646986246
88,-0.00605994695797563,0.00330195925198495,-0.00607002573087811,-0.000375641859136522,0.0210101511329412,0.0155207859352231
89,-0.00627775769680738,0.0017450659070164,-0.00746517861261964,-0.00375186768360436,0.019119692966342,0.00878389459103346
90,-0.0051958104595542,-0.000919775280635804,-0.0041578896343708,-0.00721945520490408,0.0201951153576374,0.000600296072661877
91,-0.00294276676140726,-0.00380796426907182,0.000703417579643428,-0.00867847818881273,0.0236170347779989,-0.00299577927216887
92,-0.00111884705256671,-0.00479491986334324,0.0038439086638391,-0.00669170077890158,0.0257375128567219,0.000108865220681764
93,-0.000295111414743587,-0.00199148547835648,0.00476663606241345,-0.00347183458507061,0.0248724967241287,0.00568435760214925
94,-0.000914860574994236,0.00211583497002721,0.00349291646853089,-0.00207726727239788,0.0205108970403671,0.00950875505805016
95,-0.00424465117976069,0.00301316729746759,-9.05834385775961E-05,-0.00401652371510863,0.0111208092421293,0.00985740497708321
96,-0.0101694436743855,0.000236183012020774,-0.00493005197495222,-0.00771328061819077,-0.00165058765560389,0.00727190403267741
97,-0.0160484053194523,-0.00253560487180948,-0.00872314721345901,-0.00861923862248659,-0.0108590191230178,0.00474479608237743
98,-0.0188563577830791,-0.00236513279378414,-0.0103693446144462,-0.00631651980802417,-0.0120918471366167,0.00436312984675169
99,-0.0177573952823877,0.000518883462063968,-0.0108182681724429,-0.0048633236438036,-0.0074112843722105,0.00610206462442875
100,-0.0142402239143848,0.00382993160746992,-0.010728606954217,-0.00530067458748817,-0.000978771829977632,0.00904573500156403
101,-0.00992301851511002,0.00512723997235298,-0.010123890824616,-0.00639724731445313,0.0040436158888042,0.0110503351315856
102,-0.00577376689761877,0.00386041426099837,-0.00883731245994568,-0.00731755141168833,0.00688703078776598,0.0109208198264241
103,-0.00303163193166256,0.00116355379577726,-0.00688259676098824,-0.00666689453646541,0.0083026560023427,0.0099108899012208
104,-0.00226035458035767,-0.00256463140249252,-0.00535473879426718,-0.00429517542943358,0.00852931849658489,0.00730911735445261
105,-0.00253692269325256,-0.00758444890379906,-0.00528451288118958,-0.00226516602560878,0.00767191732302308,0.00048508116742596
106,-0.00290030892938375,-0.0123379752039909,-0.0058906776830554,-0.00198562047444284,0.00638112565502524,-0.00907424930483103
107,-0.00323708378709853,-0.0149875851348042,-0.00589367421343923,-0.00301321758888662,0.00505406223237515,-0.017800921574235
108,-0.00390286114998162,-0.0162647552788258,-0.00536784622818232,-0.00445592263713479,0.0036448035389185,-0.0247214641422033
109,-0.00474593788385391,-0.0175004899501801,-0.00523265637457371,-0.00617718975991011,0.00235742912627757,-0.0296751335263252
110,-0.00446632225066423,-0.018059303984046,-0.00622848141938448,-0.00850910600274801,0.00211079907603562,-0.0320135094225407
111,-0.00249209720641375,-0.0166650172322989,-0.00870105624198914,-0.0105939041823149,0.00299374083988369,-0.0307046584784985
112,-0.000184489006642252,-0.0139564843848348,-0.0119195859879255,-0.0112795773893595,0.00429798103868961,-0.0246125776320696
113,0.000950883433688432,-0.0113263055682182,-0.0139721455052495,-0.0105561772361398,0.0052924701012671,-0.0141189359128475
114,0.000398729898734018,-0.00864316243678331,-0.0140011832118034,-0.00870600529015064,0.00360280042514205,-0.0018093615071848
115,-0.00173505814746022,-0.00615210784599185,-0.0138245578855276,-0.00713338237255812,-0.00234935199841857,0.00759578449651599
116,-0.00451741460710764,-0.00556954881176353,-0.0146757951006293,-0.00726902298629284,-0.00949659291654825,0.00957322865724564
117,-0.00630550039932132,-0.00725859263911843,-0.0146401263773441,-0.00699101714417338,-0.0129678947851062,0.00438844552263618
118,-0.00610142014920712,-0.00991896819323301,-0.0120745599269867,-0.00375641579739749,-0.0110902944579721,-0.00386471441015601
119,-0.00430413940921426,-0.0125594791024923,-0.00838096812367439,0.000774439424276352,-0.00511424522846937,-0.0121027948334813
120,-0.00173636851832271,-0.0141915818676353,-0.00550064304843545,0.00373011105693877,0.00300520728342235,-0.0186471175402403
121,0.000175059787579812,-0.0145654296502471,-0.00336348824203014,0.00395435141399503,0.00967417005449533,-0.0224825721234083
122,-0.000488443067297339,-0.0144676510244608,-0.00197553890757263,0.00177344772964716,0.0106071271002293,-0.0240268893539906
123,-0.00311215152032673,-0.0145162390545011,-0.00266531831584871,-0.0017250063829124,0.00664384895935655,-0.0260017719119787
124,-0.00451499130576849,-0.0152536798268557,-0.00576184550300241,-0.00554597098380327,0.00408625975251198,-0.031411100178957
125,-0.0022942426148802,-0.0158537812530994,-0.00922993198037148,-0.00765950977802277,0.00687124812975526,-0.0383094325661659
126,0.00272256531752646,-0.0148342000320554,-0.010820453055203,-0.00674280943349004,0.0123867215588689,-0.0414459183812141
127,0.00777550227940083,-0.0128014339134097,-0.00928395893424749,-0.00446522142738104,0.01559794601053,-0.0395021624863148
128,0.0112217953428626,-0.0117785548791289,-0.00446874415501952,-0.00288506923243403,0.0152380000799894,-0.0360134802758694
129,0.0135395582765341,-0.0128591945394874,0.00148422480560839,-0.0025394381955266,0.0149851404130459,-0.0336821116507053
130,0.0158621426671743,-0.0139460377395153,0.00674489233642817,-0.00105327845085412,0.0180343966931105,-0.0298087298870087
131,0.0167868584394455,-0.0120351035147905,0.0101055521517992,0.00238369521684945,0.0224994905292988,-0.0228062495589256
132,0.0146804489195347,-0.0087981354445219,0.00964875146746635,0.00313257798552513,0.0250138323754072,-0.0179101899266243
133,0.0113570019602776,-0.00815498735755682,0.0060799322091043,0.000289479095954448,0.0252002775669098,-0.0189829487353563
134,0.00875281821936369,-0.0103491600602865,0.00220106914639473,-0.00165666558314115,0.0236304309219122,-0.0242381896823645
135,0.00640305737033486,-0.0131402434781194,-0.000520138128194958,-0.00116735172923654,0.02079270593822,-0.0296465363353491
136,0.00353723997250199,-0.015235647559166,-0.00312086381018162,-0.000474905682494864,0.017449676990509,-0.0325324758887291
137,0.00143215688876808,-0.0160656087100506,-0.00659971358254552,-0.00110102212056518,0.0147234834730625,-0.0330804921686649
138,0.0015602505300194,-0.0152867389842868,-0.0097765251994133,-0.00192424142733216,0.0142062660306692,-0.0314789116382599
139,0.00272037927061319,-0.0141830304637551,-0.0117566511034966,-0.00145876233000308,0.0157525613903999,-0.0292086396366358
140,0.00394958909600973,-0.0136684589087963,-0.0114517947658896,0.00102687021717429,0.0183334778994322,-0.0297091193497181
141,0.00566469738259912,-0.0128615377470851,-0.00802275165915489,0.00489184819161892,0.0208163820207119,-0.033793319016695
142,0.00732292607426643,-0.0120693873614073,-0.00355756934732199,0.0074117099866271,0.021592304110527,-0.0403690971434116
143,0.00840058177709579,-0.0118515128269792,-0.000110792512714397,0.00712129473686218,0.0213532131165266,-0.0467650443315506
144,0.00856570433825254,-0.0108259441331029,0.00179124029818922,0.00559798907488585,0.0217519719153643,-0.0482012219727039
145,0.00810271594673395,-0.00794615037739277,0.00233170413412154,0.00497914385050535,0.0230117179453373,-0.0431320294737816
146,0.00851935055106878,-0.00425753463059664,0.00217649317346513,0.00531698949635029,0.0252094678580761,-0.0346660204231739
147,0.00967079680413008,-0.000993433874100447,0.00107250176370144,0.00488400924950838,0.0269435960799456,-0.02621197886765
148,0.00989133212715387,0.00155031098984182,-0.000961327634286135,0.0031718541868031,0.0264230482280254,-0.0193460006266832
149,0.00854079518467188,0.00219128001481295,-0.00326021248474717,0.00112571474164724,0.0237891338765621,-0.0154048446565866
150,0.00535014551132917,-0.00152107584290206,-0.0058701173402369,-0.0014093000208959,0.019707253202796,-0.0169775933027267
151,0.00122846569865942,-0.00878192018717527,-0.00803818739950657,-0.00430581253021955,0.0168672483414412,-0.0243152342736721
152,-0.00109617016278207,-0.0147413639351726,-0.00801772624254227,-0.0053839897736907,0.0179396215826273,-0.0335409007966518
153,-0.000387034961022437,-0.0163783263415098,-0.00566475978121161,-0.00368057517334819,0.0208384953439236,-0.0406806170940399
154,0.00235673785209656,-0.0141906710341573,-0.00228568981401622,-0.000640485086478293,0.0223728362470865,-0.0431168004870415
155,0.00550741935148835,-0.0110176065936685,0.000933225324843079,0.00169211719185114,0.0224970653653145,-0.0408051759004593
156,0.00846610590815544,-0.00889383535832167,0.00296282186172903,0.00283507537096739,0.0236911792308092,-0.0357152037322521
157,0.0121633782982826,-0.0073130838572979,0.00323825725354254,0.00321951322257519,0.028802651911974,-0.030339602380991
158,0.0163186024874449,-0.00642949808388948,0.00192407052963972,0.00218579918146133,0.0362620800733566,-0.0280649401247501
159,0.018699748441577,-0.00619642669335008,-0.000674260838422924,0.000492141989525408,0.0391695350408554,-0.0291877072304487
160,0.0186982583254576,-0.00534620694816113,-0.00372074637562037,4.9247988499701E-05,0.0337742976844311,-0.0312163569033146
161,0.0180557556450367,-0.00526551250368357,-0.00584637233987451,-0.000260687724221498,0.0246945507824421,-0.0350046306848526
162,0.0178417786955833,-0.0080227879807353,-0.00627689529210329,-0.00250958395190537,0.0184117667376995,-0.0417048335075378
163,0.0185084622353315,-0.0114142214879394,-0.00459585804492235,-0.00471165077760816,0.0181888584047556,-0.0470635034143925
164,0.0207018852233887,-0.0125564225018024,-0.00142132653854787,-0.00397387752309442,0.0249125007539988,-0.0472530238330364
165,0.0229037702083588,-0.0120072877034545,0.000566216534934938,-0.00162424519658089,0.0337338484823704,-0.0436845384538174
166,0.0225393399596214,-0.0116400616243482,-4.89231715619098E-05,-0.000442747317720205,0.0376782305538654,-0.0394959561526775
167,0.020114803686738,-0.0115192783996463,-0.000918964156880975,-0.000864541623741388,0.0373167023062706,-0.0363328084349632
168,0.0182061456143856,-0.0105288317427039,1.46878192026634E-05,-0.00155982153955847,0.0368582159280777,-0.0341948978602886
169,0.0181881655007601,-0.00913805421441793,0.00157838023733348,-0.00116538442671299,0.0365678519010544,-0.0340771675109863
170,0.0195565279573202,-0.00886009261012077,0.00180735264439136,-8.22188521851785E-05,0.0343808867037296,-0.0380033887922764
171,0.0207336973398924,-0.00982160959392786,7.39240713301115E-05,3.80845667677931E-05,0.0293748788535595,-0.0445537455379963
172,0.020492646843195,-0.010564872995019,-0.00282668904401362,-0.00075421849032864,0.0223178938031197,-0.0487223379313946
173,0.0192473381757736,-0.00962143950164318,-0.00533530302345753,-0.000597464095335454,0.0153988907113671,-0.0472855381667614
174,0.0184880495071411,-0.00688086589798331,-0.00593806244432926,0.00224932795390487,0.0120348185300827,-0.0412780828773975
175,0.0186609886586666,-0.00226893299259245,-0.00442267348989844,0.0074312798678875,0.014191647991538,-0.0341722257435322
176,0.0191210322082043,0.00333502539433539,-0.00246064132079482,0.0112340850755572,0.0198251660913229,-0.0298196729272604
177,0.0199618395417929,0.00583145022392273,-0.00154386577196419,0.010810773819685,0.0260662212967873,-0.0303897839039564
178,0.0210649222135544,0.0034751167986542,-0.00188538955990225,0.00795188918709755,0.0305199753493071,-0.0345978699624538
179,0.0211159903556108,-0.00116044643800706,-0.0032327719964087,0.00598225090652704,0.0305857565253973,-0.0393573828041554
180,0.0202717371284962,-0.00678757624700665,-0.0052700680680573,0.00511514814570546,0.0276159085333347,-0.0438019633293152
181,0.0201045237481594,-0.0125721376389265,-0.0070928824134171,0.00413690647110343,0.0252221766859293,-0.0474206991493702
182,0.0203378777951002,-0.0166942775249481,-0.00768183870241046,0.00356910494156182,0.0238022711127996,-0.0484367795288563
183,0.0198924243450165,-0.018823990598321,-0.00700169801712036,0.00341830076649785,0.0239439848810434,-0.0481281355023384
184,0.0191454477608204,-0.019181938841939,-0.00525585049763322,0.00375966494902968,0.0276343543082476,-0.0482857823371887
185,0.018966980278492,-0.0178880617022514,-0.00319550465792418,0.00527740316465497,0.0327157005667686,-0.0483013428747654
186,0.0196771007031202,-0.0155561482533813,-0.0013669584877789,0.00784240290522575,0.0345068760216236,-0.0469849891960621
187,0.0202686283737421,-0.0129703795537353,0.000340338738169521,0.0106835775077343,0.0311512481421232,-0.0434330068528652
188,0.0198769178241491,-0.0108735142275691,0.000657144701108336,0.0121909379959106,0.0249047335237265,-0.0392988696694374
189,0.0196012128144503,-0.00935535505414009,-0.00136611750349402,0.0123346531763673,0.020587308332324,-0.037342444062233
190,0.0200741570442915,-0.00873364508152008,-0.00413950439542532,0.0120651060715318,0.0209017302840948,-0.0387924276292324
191,0.0210021305829287,-0.00974573288112879,-0.0053896545432508,0.0102853802964091,0.0250249598175287,-0.0428317561745644
192,0.0220831036567688,-0.0119164735078812,-0.00508858961984515,0.00607258873060346,0.0306521821767092,-0.0465836375951767
193,0.0221324376761913,-0.0135327270254493,-0.00540041225031018,0.000554499216377735,0.0338052920997143,-0.0481133386492729
194,0.0201240014284849,-0.0132796885445714,-0.00712984288111329,-0.00400569057092071,0.0305297058075666,-0.0476521477103233
195,0.0166740138083696,-0.0120220612734556,-0.00833751447498798,-0.00598658062517643,0.0216723494231701,-0.0468557216227055
196,0.0135320909321308,-0.0118549754843116,-0.00792587548494339,-0.00573010602965951,0.0126232150942087,-0.0476075932383537
197,0.0119677688926458,-0.0133805945515633,-0.00762935541570187,-0.00449653621762991,0.00844682659953833,-0.0497114323079586
198,0.0122376037761569,-0.0149730639532208,-0.00878826715052128,-0.00299780024215579,0.0109683042392135,-0.0512154512107372
199,0.0138021195307374,-0.0140001866966486,-0.0107049299404025,-0.00108559487853199,0.017749197781086,-0.0497790612280369
200,0.0153881702572107,-0.00992331653833389,-0.0123581262305379,0.0010850764811039,0.0240404959768057,-0.0443367436528206
201,0.0161375496536493,-0.00616285996511579,-0.0130839142948389,0.00263741589151323,0.0278940573334694,-0.038024690002203
202,0.0165881793946028,-0.00612362753599882,-0.0127724772319198,0.00342273153364658,0.0307164825499058,-0.03613256290555
203,0.0175030566751957,-0.00915592536330223,-0.0115068228915334,0.00402001710608602,0.0324865989387035,-0.0404489450156689
204,0.0181086082011461,-0.0121137984097004,-0.00939425081014633,0.00523562962189317,0.0314451269805431,-0.0472874082624912
205,0.0166717525571585,-0.0132355857640505,-0.00815395265817642,0.0071173282340169,0.0273272451013327,-0.0512620434165001
206,0.0135013982653618,-0.0127083631232381,-0.00922189559787512,0.00835562963038683,0.0218855980783701,-0.0504400469362736
207,0.0113707166165113,-0.010750425979495,-0.0103359753265977,0.00899495277553797,0.0176630094647408,-0.0459284633398056
208,0.011634255759418,-0.00903234537690878,-0.00937334913760424,0.00996529124677181,0.0162130035459995,-0.0409585759043694
209,0.0129047241061926,-0.00979760847985744,-0.00726528512313962,0.0109522212296724,0.0176122114062309,-0.0389036722481251
210,0.0134354373440146,-0.0128336977213621,-0.00487957196310163,0.0112788993865252,0.0206762291491032,-0.0404202602803707
211,0.0118678351864219,-0.0165753401815891,-0.00314038340002298,0.0100340824574232,0.0227446332573891,-0.0445229262113571
212,0.00845991913229227,-0.0193462073802948,-0.00292022712528706,0.00748305628076196,0.0228675305843353,-0.0487619899213314
213,0.00573223829269409,-0.0202760212123394,-0.00266675371676683,0.00666658161208034,0.0220846496522427,-0.0504490546882153
214,0.00551785109564662,-0.018699798732996,-0.000574670964851975,0.00945416651666164,0.0208615325391293,-0.0494678840041161
215,0.00721460813656449,-0.0137887075543404,0.00162859947886318,0.0128575880080462,0.0200465880334377,-0.0472420863807201
216,0.00933127384632826,-0.00786163005977869,0.00125099765136838,0.012832198292017,0.0207990277558565,-0.0442526824772358
217,0.0111062172800303,-0.00424723559990525,-0.00074992305599153,0.00968140736222267,0.0239259414374828,-0.039364829659462
218,0.0125715918838978,-0.0025019976310432,-0.00228689680807292,0.00701150437816978,0.028506463393569,-0.0312214400619268
219,0.0141121512278914,-0.000912091054487973,-0.00259068445302546,0.00692838244140148,0.0323212705552578,-0.0212495513260365
220,0.0153000093996525,0.000671504240017384,-0.000525009701959789,0.00912317540496588,0.0345184877514839,-0.0126718021929264
221,0.0148456264287233,0.0012172112474218,0.00325717637315392,0.0119999852031469,0.0345267541706562,-0.00744552491232753
222,0.0121745672076941,-0.000194294116226956,0.00564566720277071,0.0137779284268618,0.0319086983799934,-0.00630463380366564
223,0.00791351590305567,-0.00252635753713548,0.00592608796432614,0.0143588287755847,0.0274369791150093,-0.00886976718902588
224,0.0033430412877351,-0.00352046173065901,0.00627614371478558,0.014998821541667,0.0220850799232721,-0.013204644434154
225,0.000307911832351238,-0.00194849353283644,0.00789331924170256,0.0163334291428328,0.0182129144668579,-0.0169488210231066
226,0.000418017792981118,0.000714475871063769,0.00951447524130344,0.0169640854001045,0.0185879915952683,-0.0202189888805151
227,0.00310954730957747,0.00187617959454656,0.00999373383820057,0.0166385490447283,0.0223292801529169,-0.0235877800732851
228,0.00579407531768084,0.00114736543036997,0.00962495338171721,0.0172195974737406,0.0254991911351681,-0.0254802480340004
229,0.00593981659039855,-0.000993832480162382,0.00824594963341951,0.017972445115447,0.0249770004302263,-0.0255575589835644
230,0.0035151531919837,-0.00368471164256334,0.00594394840300083,0.0180664025247097,0.0211075656116009,-0.0234298817813396
231,0.0012005022726953,-0.00503530306741595,0.00379932974465191,0.0194246992468834,0.017838004976511,-0.0177713502198458
232,0.000351245049387217,-0.00533934449777007,0.00247550802305341,0.0220502130687237,0.0177843831479549,-0.0110124256461859
233,0.000278882274869829,-0.00615507271140814,0.00304631539620459,0.0237240623682737,0.0192381646484137,-0.00779307866469026
234,0.000738067668862641,-0.00753628229722381,0.00524110114201903,0.0229566004127264,0.0197422876954079,-0.0103478841483593
235,0.00132912606932223,-0.00865195225924253,0.00537040969356894,0.0200477577745914,0.0173728298395872,-0.0170395784080029
236,0.00174225308001041,-0.00791362952440977,0.00272047938778996,0.0179394204169512,0.0126671437174082,-0.0223222766071558
237,0.00205899891443551,-0.00531471101567149,0.000640046200715005,0.0186078585684299,0.00966014806181192,-0.0219366475939751
238,0.0017558679683134,-0.00254810834303498,-0.000223436247324571,0.0203938893973827,0.00986555125564337,-0.0173879973590374
239,0.000639695848803967,-2.73165255748609E-06,-0.00053745845798403,0.0213919039815664,0.0106912208721042,-0.0128645673394203
240,-0.00130416580941528,0.00180920667480677,0.000371219561202452,0.0211976524442434,0.00997080374509096,-0.0110106328502297
241,-0.00426660943776369,0.0013567180139944,0.00176775874570012,0.0203035548329353,0.00731646688655019,-0.0114997439086437
242,-0.00681384280323982,-0.00123028981033713,0.00276217819191515,0.0203412342816591,0.00425274204462767,-0.0122641185298562
243,-0.00713083846494555,-0.00396390818059444,0.0046136830933392,0.0217198375612497,0.00378327164798975,-0.0125332036986947
244,-0.0051419110968709,-0.00535751460120082,0.0076508647762239,0.0218958090990782,0.0071619707159698,-0.0137897282838821
245,-0.001501549850218,-0.00481152022257447,0.00940870027989149,0.0194511506706476,0.0130179012194276,-0.0164160374552011
246,0.00309776235371828,-0.00166793470270932,0.00857473630458117,0.0168004501610994,0.0200095139443874,-0.0178330559283495
247,0.0070023606531322,0.00393306696787477,0.00613690027967095,0.0162086933851242,0.025751281529665,-0.0161684714257717
248,0.0086410166695714,0.00944227632135153,0.00347115402109921,0.0172726474702358,0.0273788440972567,-0.0131378686055541
249,0.00850424729287624,0.0115962233394384,0.00218318426050246,0.0191139727830887,0.0249405633658171,-0.0114035848528147
250,0.00823766272515059,0.0095747048035264,0.00292527070268989,0.0208334214985371,0.0203031376004219,-0.0112637178972363
251,0.00943075492978096,0.00503550749272108,0.00574126793071628,0.0224288143217564,0.0176458656787872,-0.0115090506151319
252,0.011086355894804,0.000648729968816042,0.0087915463373065,0.0234749913215637,0.0188244935125113,-0.0129265030846
253,0.0103558609262109,-0.00186906836461276,0.00819352921098471,0.0215523112565279,0.0192644465714693,-0.0169554967433214
254,0.00815058033913374,-0.00336763821542263,0.00378303625620902,0.0168733615428209,0.0172273442149162,-0.0218890234827995
255,0.00777002284303308,-0.00510776834562421,-0.000161525924340822,0.0124492896720767,0.0164378322660923,-0.0252223573625088
256,0.00936900265514851,-0.00710693746805191,-0.000927115266676992,0.010019457899034,0.018360547721386,-0.0263735447078943
257,0.0107158590108156,-0.00920025072991848,0.000316182791721076,0.00927776284515858,0.0210225898772478,-0.0264145005494356
258,0.0102038364857435,-0.0108190262690187,0.00121066975407302,0.0093359686434269,0.0210586674511433,-0.0260275229811668
259,0.00799763761460781,-0.0108720706775784,0.00113171874545515,0.00952797289937735,0.0168530624359846,-0.0244861301034689
260,0.00587934022769332,-0.00896956585347652,0.00106924306601286,0.00961635913699865,0.0114170527085662,-0.0215418841689825
261,0.00484612444415689,-0.00559026887640357,0.00127546489238739,0.0110901482403278,0.00848716590553522,-0.0174065213650465
262,0.00488793477416039,-0.00199832604266703,0.00129854108672589,0.0149208875373006,0.00994373019784689,-0.013433295302093
263,0.00540521647781134,-0.000333364092512056,0.000370051915524527,0.0185507740825415,0.0145640717819333,-0.0123568130657077
264,0.0049765701405704,-0.00164062716066837,-0.0018241258803755,0.0190697014331818,0.0184498354792595,-0.0143613051623106
265,0.00286900834180415,-0.00472986418753862,-0.00427077664062381,0.0164650157094002,0.0187300015240908,-0.0168330874294043
266,-0.000488279620185494,-0.00739870127290487,-0.00631768768653274,0.0130505207926035,0.014357921667397,-0.0177526902407408
267,-0.00335337687283754,-0.00851223897188902,-0.00837923586368561,0.0115829249843955,0.00769213773310184,-0.0162508450448513
268,-0.00376230338588357,-0.00871504470705986,-0.00997342355549335,0.0126269161701202,0.0042186132632196,-0.013061610981822
269,-0.00225724070332944,-0.00872009061276913,-0.00911820400506258,0.0146702835336328,0.00572340143844485,-0.0104241799563169
270,-0.000686934276018292,-0.00888282060623169,-0.00505727436393499,0.016327440738678,0.00858698971569538,-0.0100672375410795
271,0.000817386491689831,-0.00944903865456581,0.000224850926315412,0.0163618363440037,0.010484840720892,-0.012614325620234
272,0.00345481326803565,-0.00927451066672802,0.00423853611573577,0.013908383436501,0.0130648231133819,-0.0168357715010643
273,0.00745873339474201,-0.00644292216747999,0.00638967845588923,0.0107765896245837,0.0171998981386423,-0.0190465375781059
274,0.0108989179134369,-0.00187040376476943,0.00714220805093646,0.00993017293512821,0.0201990474015474,-0.0165297538042068
275,0.0118512967601419,0.00107841799035668,0.00645534181967378,0.0108661269769073,0.0196471121162176,-0.0114870648831129
276,0.0101790502667427,0.00118384370580316,0.00452791154384613,0.0115889776498079,0.0159851256757975,-0.00816379394382238
277,0.00683837803080678,-0.00010702942381613,0.00266088848002255,0.0120552321895957,0.0105228200554848,-0.00764899700880051
278,0.00316489720717072,-0.0015137578593567,0.0019687523599714,0.0126442201435566,0.00495971413329244,-0.0082317041233182
279,0.000227387456106953,-0.00226294901221991,0.0017294567078352,0.0137496963143349,0.0012982856715098,-0.00755061395466328
280,-0.000869434385094792,-0.00198326213285327,0.000422007578890771,0.0152910379692912,0.000341747014317662,-0.00549295078963041
281,0.000626830500550568,-0.0019392934627831,-0.00136574660427868,0.0159067306667566,0.00214515626430511,-0.00521603366360068
282,0.00402376055717468,-0.00321372412145138,-0.0011726402444765,0.015092353336513,0.00599657092243433,-0.00854754541069269
283,0.00728635815903544,-0.00506307650357485,0.0010049263946712,0.013774860650301,0.00899497605860233,-0.0135324485599995
284,0.00843821093440056,-0.00648543843999505,0.00155563454609364,0.0126462988555431,0.0083655621856451,-0.0167381651699543
285,0.0075409384444356,-0.00636937655508518,-0.00142990599852055,0.0125711420550942,0.00546451425179839,-0.0154429227113724
286,0.00642089545726776,-0.00366321974433959,-0.00465233856812119,0.0151709085330367,0.00501620071008801,-0.00967416074126959
287,0.00624010339379311,0.000213634295505472,-0.00420085666701198,0.0204614382237196,0.0101390033960342,-0.00312095927074552
288,0.00598227977752686,0.00201195757836103,-0.00110378500539809,0.0258463341742754,0.0173131991177797,0.000296475423965603
289,0.00488230492919683,0.000726965314242989,0.00170968950260431,0.028763223439455,0.0215930994600058,-0.000480558373965323
290,0.00390268256887794,-0.00165267603006214,0.00382470712065697,0.029251404106617,0.0229880437254906,-0.0035112879704684
291,0.00372049724683166,-0.00364324334077537,0.00552592240273952,0.0288763288408518,0.0217202585190535,-0.00620284583419561
292,0.00343852490186691,-0.00642991997301579,0.00588596751913428,0.0264687184244394,0.0171701479703188,-0.00910514034330845
293,0.00206532352603972,-0.00981010962277651,0.00523430807515979,0.0205699689686298,0.0113821169361472,-0.0126194497570395
294,0.00104418990667909,-0.0104473261162639,0.00560395745560527,0.0147247919812799,0.00741259241476655,-0.0138154150918126
295,0.0027337793726474,-0.00760933849960566,0.00692001264542341,0.0127782551571727,0.00707925017923117,-0.0115251839160919
296,0.00733628170564771,-0.00330561469309032,0.0073264017701149,0.0152597473934293,0.00974419992417097,-0.00589248212054372
297,0.0121314516291022,0.00215719919651747,0.005383784417063,0.0208259392529726,0.0116511257365346,0.00299593014642596
298,0.0140549782663584,0.00900184083729982,0.000623468542471528,0.0249833967536688,0.0104043204337358,0.0107215512543917
299,0.0128668053075671,0.014489684253931,-0.00578212738037109,0.0236455090343952,0.00778428884223104,0.0119271138682961
300,0.00995402969419956,0.0153285916894674,-0.0118856877088547,0.0186938680708408,0.00528425117954612,0.00695308484137058
301,0.00654219510033727,0.0119494749233127,-0.0160851087421179,0.0146160069853067,0.00203215493820608,0.000548171054106206
302,0.00408926233649254,0.00670823501423001,-0.0173240881413221,0.0134274829179049,-0.000688415195327252,-0.00279950513504446
303,0.00354754505679011,0.00157563609536737,-0.0156293567270041,0.0148292537778616,0.00119139195885509,-0.00187617377378047
304,0.00418228097259998,-0.00209248811006546,-0.0122532956302166,0.0174594335258007,0.00743181211873889,-8.94865515874699E-05
305,0.00459937518462539,-0.00450237561017275,-0.00853191781789064,0.0192279294133186,0.0124689266085625,-0.00266096671111882
306,0.0042801289819181,-0.00707568787038326,-0.00533321686089039,0.0190000347793102,0.0130314007401466,-0.0105108618736267
307,0.0035899318754673,-0.0104504358023405,-0.00355698424391449,0.0173968654125929,0.0108103072270751,-0.0194309055805206
308,0.00320107536390424,-0.0134452627971768,-0.00298476219177246,0.015168372541666,0.00893527362495661,-0.0247236806899309
309,0.00294360728003085,-0.014182997867465,-0.00257030013017356,0.0130539638921618,0.00775058520957828,-0.0235779024660587
310,0.001758495811373,-0.0121135655790567,-0.00194515357725322,0.0122406342998147,0.00527811842039227,-0.0161624439060688
311,-0.000230138146434911,-0.00786492973566055,-0.000885964720509946,0.0133376410230994,0.00108088564593345,-0.00612362334504724
312,-0.00148159649688751,-0.00250415690243244,-0.000626781897153705,0.0151762729510665,-0.004166170489043,0.00160092127043754
313,-0.00138108187820762,0.00142648746259511,-0.00289118010550737,0.0150830689817667,-0.0102383056655526,0.0032570930197835
314,-0.000751955434679985,0.00194998178631067,-0.00572736840695143,0.0119079342111945,-0.0164509639143944,-0.000446920981630683
315,0.000177011403138749,0.000575033132918179,-0.00560001283884048,0.00787134189158678,-0.0203882735222578,-0.00387851730920374
316,0.00120426702778786,-0.000262176938122138,-0.00319657730869949,0.00465241633355618,-0.0213426854461432,-0.00287825218401849
317,0.000554825703147799,7.85712254582904E-05,-0.00178782152943313,0.0016697277314961,-0.0217038746923208,0.00222858018241823
318,-0.00303886574693024,0.000806627387646586,-0.0022203135304153,-0.00162132678087801,-0.0221792962402105,0.00902612414211035
319,-0.00753283035010099,0.00188642682041973,-0.00407585594803095,-0.00583095336332917,-0.0215253904461861,0.0147643089294434
320,-0.0100958067923784,0.00507665518671274,-0.00663406029343605,-0.00999497249722481,-0.0193552803248167,0.0193365402519703
321,-0.0110001778230071,0.0105574112385511,-0.00806840974837542,-0.0117318946868181,-0.0165655799210072,0.0247937142848969
322,-0.0116143897175789,0.015923798084259,-0.00710110738873482,-0.00982723664492369,-0.0140848774462938,0.0321246348321438
323,-0.0118198413401842,0.0188762433826923,-0.00399801367893815,-0.00345907220616937,-0.0129067841917276,0.0404233559966087
324,-0.0106130484491587,0.0183366294950247,-0.000417070783441886,0.00528879417106509,-0.0137370629236102,0.0463655814528465
325,-0.00786646641790867,0.0153477108106017,0.00221206736750901,0.0116133410483599,-0.0159130338579416,0.0470403432846069
326,-0.004444460850209,0.0122440410777926,0.00450226524844766,0.0137944566085935,-0.0171716269105673,0.0421519987285137
327,-0.0015905883628875,0.00959421414881945,0.00697050662711263,0.0124769071117044,-0.0156134478747845,0.0326963514089584
328,-0.000384005164960399,0.00695980153977871,0.00822217203676701,0.00896135903894901,-0.0130114182829857,0.0224679186940193
329,-0.000346300337696448,0.00556264631450176,0.0075717899017036,0.00567982578650117,-0.0122978761792183,0.0161701049655676
330,-0.000483642623294145,0.00676834955811501,0.00579935545101762,0.00274835876189172,-0.0137168196961284,0.0140655478462577
331,-0.000708040548488498,0.00924556329846382,0.00347804767079651,-0.000866606831550598,-0.0154985813423991,0.0143561633303761
332,-0.00134915730450302,0.0109307561069727,0.000985636608675122,-0.00362428487278521,-0.0159868691116571,0.0165724828839302
333,-0.00246424833312631,0.0116964243352413,-0.00125062116421759,-0.00406919931992888,-0.0148646896705031,0.0194478966295719
334,-0.00349956541322172,0.0121874706819654,-0.0027005432639271,-0.00210986542515457,-0.0125704472884536,0.0211215559393168
335,-0.00413131853565574,0.012591733597219,-0.00291528063826263,0.000873063399922103,-0.00984645821154118,0.0212812218815088
336,-0.00512606929987669,0.0124672669917345,-0.00190089561510831,0.00246917339973152,-0.00823463592678308,0.0214343275874853
337,-0.00746218115091324,0.0115529643371701,-0.000287582486635074,0.0023445961996913,-0.00904775597155094,0.0237884502857924
338,-0.0105613442137837,0.0103212306275964,0.00126067828387022,0.00179656024556607,-0.0111952135339379,0.0283688399940729
339,-0.0121279694139957,0.00972956046462059,0.00271085184067488,0.00190336734522134,-0.0122583247721195,0.0326820202171803
340,-0.0112212467938662,0.0104648191481829,0.00365415727719665,0.00328078819438815,-0.0122123891487718,0.0349663756787777
341,-0.00923239812254906,0.0121152251958847,0.00323486072011292,0.00533982459455729,-0.0124804181978107,0.0349999405443668
342,-0.00760422693565488,0.013524966314435,0.00111422617919743,0.00620474852621555,-0.0126637574285269,0.0324723832309246
343,-0.00669256411492825,0.0133733162656426,-0.00224347691982985,0.00473820883780718,-0.0119990864768624,0.0274305399507284
344,-0.00606799544766545,0.0118411909788847,-0.00499393651261926,0.0021979515440762,-0.0105309281498194,0.0215864740312099
345,-0.00542483432218432,0.0110019939020276,-0.00546097755432129,0.00060316314920783,-0.00870929379016161,0.0172932166606188
346,-0.00484079075977206,0.0117452852427959,-0.00394092267379165,0.000387408508686349,-0.00779379857704043,0.0158229619264603
347,-0.00466929282993078,0.0121868709102273,-0.000898289959877729,0.000969012500718236,-0.00810795836150646,0.0164069980382919
348,-0.00444468064233661,0.0105329426005483,0.00452253688126802,0.00273871072567999,-0.00834914389997721,0.0168971512466669
349,-0.0027256035245955,0.00848577078431845,0.012445411644876,0.00649601174518466,-0.00726436590775847,0.0166153945028782
350,0.000416012335335836,0.00866495631635189,0.0195696149021387,0.0108445025980473,-0.00399330398067832,0.0167268961668015
351,0.00299840862862766,0.0102964183315635,0.0220574140548706,0.0132354013621807,0.00125627277884632,0.0176315102726221
352,0.00393125414848328,0.0110327955335379,0.020329125225544,0.0126056000590324,0.00638409238308668,0.0182782579213381
353,0.00407379074022174,0.0100525114685297,0.0164208095520735,0.00883979257196188,0.00948050245642662,0.0172775778919458
354,0.00423922948539257,0.0079334732145071,0.0108156306669116,0.00296270148828626,0.0105792367830873,0.0145689016208053
355,0.00351555668748915,0.00547680165618658,0.00471041165292263,-0.00189105549361557,0.00986907351762056,0.0121806738898158
356,0.000649775960482657,0.00287069543264806,0.00010827457299456,-0.00276123289950192,0.00704534351825714,0.0113618820905685
357,-0.00358956353738904,0.00030126582714729,-0.00191950763110071,-0.000406622624723241,0.0028875027783215,0.0109360106289387
358,-0.00717898923903704,-6.48914501653053E-05,-0.00156169733963907,0.00220936187542975,-0.00168980110902339,0.0110129881650209
359,-0.00893933512270451,0.00330660212785006,-0.000157449292601086,0.00391128938645124,-0.00563822127878666,0.013347583822906
360,-0.00853307358920574,0.00747632840648294,0.00137088308110833,0.0052898833528161,-0.00597507692873478,0.0179221518337727
361,-0.00635604606941342,0.0101878354325891,0.00294412462972105,0.00649152556434274,-0.00143997243139893,0.0224681030958891
362,-0.00447275303304195,0.011532723903656,0.0045387907885015,0.0059366999194026,0.00400099670514464,0.0232536122202873
363,-0.00432157563045621,0.00963784661144018,0.00673941615968943,0.00296838930808008,0.00736833084374666,0.018745843321085
364,-0.00456646224483848,0.00512362131848931,0.00912944227457047,0.000264617963694036,0.0100423265248537,0.012789617292583
365,-0.00383536797016859,0.00119700457435101,0.0101304911077023,4.10758948419243E-05,0.0131285917013884,0.0087817469611764
366,-0.00199804734438658,-0.00182888947892934,0.0102260122075677,0.000934807409066707,0.0173114370554686,0.00613498315215111
367,0.000693668844178319,-0.00363370636478066,0.0102468580007553,0.00148732634261251,0.0227292869240046,0.00564657431095839
368,0.00271261180751026,-0.00349300168454647,0.00888149440288544,0.00201881164684892,0.0269036013633013,0.00780494371429086
369,0.00278188986703753,-0.00253265351057053,0.00533480662852526,0.00293006701394916,0.0277900360524654,0.00849152263253927
370,0.00179458095226437,-0.00111008621752262,0.00089453358668834,0.0046322182752192,0.0256556831300259,0.00454308791086078
371,-9.93482217381825E-07,0.000465272984001786,-0.00244914134964347,0.00562755856662989,0.0203076172620058,-0.00295826210640371
372,-0.00350193539634347,0.000767505262047052,-0.0035005051176995,0.00355573371052742,0.0120034981518984,-0.0103325322270393
373,-0.00794250331819057,0.000388957210816443,-0.00267482432536781,-6.62913225824013E-05,0.00385444425046444,-0.0129247363656759
374,-0.0110674584284425,0.000892848533112556,-0.00106964108999819,-0.00228599342517555,-0.00199327524751425,-0.0103799207136035
375,-0.0114269610494375,0.0022321492433548,0.00155072566121817,-0.00218548462726176,-0.00586753850802779,-0.00561239942908287
376,-0.0100178346037865,0.00390225509181619,0.00518737500533462,-9.51948823058046E-05,-0.00854147225618362,0.00099770282395184
377,-0.00917004700750113,0.00609110342338681,0.00705938413739204,0.00250881887041032,-0.0117632588371634,0.00967790093272924
378,-0.00945218279957771,0.00839980319142342,0.00604624627158046,0.00364315486513078,-0.015216656960547,0.0174341034144163
379,-0.0096767246723175,0.00918701570481062,0.00480195321142673,0.00358614232391119,-0.0159121509641409,0.020768528804183
380,-0.00917860958725214,0.00693322438746691,0.00475273886695504,0.00414913799613714,-0.0124521432444453,0.0180902890861034
381,-0.00802038609981537,0.00220966176129878,0.00504430243745446,0.00488335872069001,-0.00577909406274557,0.00949586555361748
382,-0.00659261830151081,-0.00250265607610345,0.00529875326901674,0.00421476457268,0.00136898027267307,-0.00133138033561409
383,-0.00514279399067163,-0.0061566554941237,0.00545103708282113,0.00150447711348534,0.00669263349846005,-0.00945847760885954
384,-0.00369438249617815,-0.0078402915969491,0.00487739825621247,-0.00222779717296362,0.00914863124489784,-0.0114568909630179
385,-0.00233999639749527,-0.00652703922241926,0.00450205430388451,-0.00526750599965453,0.0092605035752058,-0.00822332035750151
386,-0.0012048922944814,-0.00435636937618256,0.00618772674351931,-0.00725221494212747,0.00997039303183556,-0.00500611774623394
387,-0.000736127432901412,-0.00396380061283708,0.00883425213396549,-0.00866817682981491,0.0120373759418726,-0.00453261565417051
388,-0.00139249081257731,-0.00542731583118439,0.00907494965940714,-0.0102609004825354,0.0131918732076883,-0.00580307142809033
389,-0.00307692750357091,-0.00708354264497757,0.00697882985696197,-0.0109475962817669,0.0126620084047318,-0.00626909267157316
390,-0.00498246820643544,-0.0060079600661993,0.00567545369267464,-0.00924551580101252,0.0104085886850953,-0.00377951934933662
391,-0.00687562953680754,-0.00102562783285975,0.00463745929300785,-0.00721589522436261,0.00473501579836011,0.000686295097693801
392,-0.00911768618971109,0.00422250898554921,0.00172159750945866,-0.00647942628711462,-0.00368302594870329,0.00446344632655382
393,-0.0115218553692102,0.00604704255238175,-0.0019746427424252,-0.00605458812788129,-0.0100728664547205,0.00598237384110689
394,-0.0146111706271768,0.00382400909438729,-0.00558212678879499,-0.00643011182546616,-0.0125488145276904,0.00459444988518953
395,-0.0179605167359114,-0.00125191314145923,-0.0094193248078227,-0.00849796924740076,-0.0129689611494541,0.00106874783523381
396,-0.018653629347682,-0.00605041766539216,-0.0111504551023245,-0.0105922548100352,-0.0108841024339199,-0.00150472146924585
397,-0.0152738438919187,-0.00821167789399624,-0.00858127977699041,-0.011629955843091,-0.00466414541006088,-0.00215253606438637
398,-0.00950330216437578,-0.00799732655286789,-0.00399610633030534,-0.0128005174919963,0.00382655183784664,-0.00369205232709646
399,-0.00358646851964295,-0.00632687751203775,-0.000657459429930896,-0.0138207552954555,0.0108692618086934,-0.0072976597584784
400,0.00135966530069709,-0.00413682032376528,0.00119123386684805,-0.0130596850067377,0.0148112429305911,-0.0115308258682489
401,0.00522030331194401,-0.00239973166026175,0.00352210737764835,-0.0104307783767581,0.0158168077468872,-0.0154465986415744
402,0.00730819068849087,-0.00211350922472775,0.00730979908257723,-0.00715340441092849,0.014009309001267,-0.0190589874982834
403,0.00722649041563272,-0.00359466904774308,0.0113395182415843,-0.00401791464537382,0.0105137694627047,-0.0216892194002867
404,0.00645508244633675,-0.00534723838791251,0.0135045871138573,-0.00151158648077399,0.00790460407733917,-0.0222719982266426
405,0.00566736981272697,-0.00586806051433086,0.012729924172163,-0.000750176841393113,0.007168123498559,-0.0210337843745947
406,0.00439525861293077,-0.0046798549592495,0.0107819763943553,-0.00199244590476155,0.00871362630277872,-0.0172555670142174
407,0.00267025292851031,-0.00115123705472797,0.00976166315376759,-0.00376537186093628,0.0117549197748303,-0.00826288387179375
408,0.000728435872588307,0.00442889053374529,0.00897994730621576,-0.00454594893381,0.0120936827734113,0.00519115431234241
409,-0.0008742013014853,0.00890043471008539,0.00679779937490821,-0.004907903727144,0.0086474297568202,0.0162340365350246
410,-0.00214404286816716,0.00971098523586988,0.00368563015945256,-0.00579561665654182,0.00494673475623131,0.0198228023946285
411,-0.00362206832505763,0.00835603196173906,0.00169463991187513,-0.00635690754279494,0.00295909913256764,0.0172553844749928
412,-0.00423464458435774,0.00688512483611703,0.00250980909913778,-0.00584559235721827,0.00285491230897605,0.00982868764549494
413,-0.0025325536262244,0.00550165539607406,0.00625517452135682,-0.00456377537921071,0.0038663586601615,-0.00122894777450711
414,3.54786971001886E-05,0.00357178226113319,0.0104942908510566,-0.00325348903425038,0.00442912383005023,-0.0114109646528959
415,0.00120595609769225,0.000428797939093784,0.0126594863831997,-0.00301267975009978,0.00512605300173163,-0.0174017436802387
416,0.0018895409302786,-0.00344418338499963,0.0124785676598549,-0.00433235801756382,0.00775774335488677,-0.0197130274027586
417,0.00415681395679712,-0.00654625426977873,0.0106783723458648,-0.00588398426771164,0.0125680165365338,-0.01973538659513
418,0.00694944383576512,-0.00893911719322205,0.00794453918933868,-0.00597025873139501,0.0172556135803461,-0.0181667879223824
419,0.00795884244143963,-0.0109883248806,0.00512796081602573,-0.00473239971324801,0.0188325345516205,-0.0158553924411535
420,0.00721793062984943,-0.0115985861048102,0.00280404044315219,-0.00470741605386138,0.0168645679950714,-0.0145375160500407
421,0.0062996088527143,-0.0111845899373293,0.0006847312906757,-0.00782341510057449,0.0130677120760083,-0.0147015461698174
422,0.00621306570246816,-0.0099272383376956,-0.00108958233613521,-0.0118247717618942,0.00891926325857639,-0.0133257927373052
423,0.00651253433898091,-0.00686420081183314,-0.000752155145164579,-0.0126370014622808,0.00352284661494195,-0.00815032050013542
424,0.00605269754305482,-0.00319695053622127,0.0028563104569912,-0.0086752288043499,-0.00369224837049842,-0.00113209628034383
425,0.00475220335647464,-0.000146098231198266,0.00778381526470184,-0.00242656725458801,-0.0098987715318799,0.00459112925454974
426,0.00365696498192847,0.00282868859358132,0.0109527539461851,0.00161480891983956,-0.0121852355077863,0.00737641705200076
427,0.00335433799773455,0.00539099331945181,0.011898729018867,0.00168782158289105,-0.0103299086913466,0.00763183599337935
428,0.00355629972182214,0.006022023037076,0.0127531960606575,-5.958994734101E-05,-0.00613984791561961,0.00684851827099919
429,0.00313743413425982,0.0044368184171617,0.0150900185108185,-0.00113006855826825,-0.00256465934216976,0.0057624545879662
430,0.00160204374697059,0.00195558462291956,0.0180556867271662,-0.00130561226978898,-0.00171131663955748,0.00376605079509318
431,0.000209559133509174,-0.000411377724958584,0.0189541876316071,-0.00214303098618984,-0.00323886354453862,-0.000265323877101764
432,-0.000548271578736603,-0.0032160715200007,0.0153899593278766,-0.00486446684226394,-0.00632659671828151,-0.00647560600191355
433,-0.00116126507055014,-0.00622365297749639,0.00857428461313248,-0.00836222525686026,-0.00937075354158878,-0.0135962413623929
434,-0.00082598882727325,-0.00722510879859328,0.00279116863384843,-0.0104974582791328,-0.00894221197813749,-0.0205774921923876
435,0.000778155808802694,-0.00582503620535135,-0.000125470876810141,-0.0102748405188322,-0.00427804561331868,-0.0263695921748877
436,0.00279935309663415,-0.00377952423878014,-0.000721824704669416,-0.00733090285211802,0.00150010106153786,-0.028876967728138
437,0.00474162958562374,-0.00233722478151321,0.000616623554378748,-0.00302415643818676,0.00526064354926348,-0.0270347334444523
438,0.00585790257900953,-0.00140269519761205,0.00334595795720816,0.00070702307857573,0.00607520574703813,-0.0205403137952089
439,0.00515032978728414,-0.00097624835325405,0.00656963745132089,0.00272177904844284,0.00412340043112636,-0.0107963206246495
440,0.00232394062913954,-0.00170076545327902,0.0081680053845048,0.00178104033693671,-0.000399173441110179,-0.00181803142186254
441,-0.000879498547874391,-0.00201939139515162,0.00728982174769044,-0.000655139971058816,-0.00511554069817066,0.00490777054801583
442,-0.00234643695876002,-0.000811641395557672,0.0050205304287374,-0.00306696305051446,-0.00754275405779481,0.00973895471543074
443,-0.00292541272938252,-0.000499875750392675,0.00168690015561879,-0.00698468741029501,-0.00902354065328836,0.0113911516964436
444,-0.00404386315494776,-0.00210117897950113,-0.00158532336354256,-0.01155118457973,-0.0106390547007322,0.0097568528726697
445,-0.00533570069819689,-0.00295078917406499,-0.00333345308899879,-0.0130850607529283,-0.0115027623251081,0.00764659186825156
446,-0.00670290878042579,-0.00103959732223302,-0.00470696436241269,-0.01030966732651,-0.0120203336700797,0.00757734198123217
447,-0.00767214922234416,0.00193350110203028,-0.0062302490696311,-0.0054536652751267,-0.0109955724328756,0.00837357062846422
448,-0.00688120210543275,0.00330735044553876,-0.00638153776526451,-0.00177522853482515,-0.00680004432797432,0.00737784896045923
449,-0.00420560361817479,0.00324949575588107,-0.00450989790260792,-0.000508379773236811,-0.00152018177323043,0.00428214063867927
450,-0.00142201280687004,0.00266332272440195,-0.00166707381140441,-0.00103298819158226,0.00173732510302216,-1.00683682831004E-05
451,0.000335253833327442,0.00107495684642345,0.00086481828475371,-0.00267026340588927,0.00275133107788861,-0.00498538929969072
452,0.00196780683472753,-0.00131314981263131,0.00309727364219725,-0.00447275629267097,0.00367978727445006,-0.0097196763381362
453,0.00264054187573493,-0.00375973805785179,0.00414194632321596,-0.0058166878297925,0.00362469092942774,-0.0130473459139466
454,0.000954314949922264,-0.0060975132510066,0.00339331501163542,-0.00635440461337566,0.00154045224189758,-0.0150840347632766
455,-0.00184997729957104,-0.00896991044282913,0.00220530549995601,-0.00661194929853082,-0.000172612373717129,-0.0187699981033802
456,-0.004352908115834,-0.0127506330609322,0.00099546869751066,-0.00773578835651279,-0.00126327038742602,-0.0261166337877512
457,-0.00598401110619307,-0.0156357977539301,-0.000483214796986431,-0.00794448237866163,-0.00417070789262652,-0.0329244695603848
458,-0.00645401515066624,-0.0155916549265385,-0.00122184306383133,-0.00468991091474891,-0.00855784676969051,-0.0343273393809795
459,-0.00617876881733537,-0.0110227121040225,-0.000892424839548767,0.00060535006923601,-0.0114009659737349,-0.0302650593221188
460,-0.00630354648455977,-0.0031101054046303,-0.00196927529759705,0.00321265705861151,-0.0127268563956022,-0.0231396295130253
461,-0.00750115979462862,0.0031608953140676,-0.00466499291360378,0.000918171543162316,-0.0142363468185067,-0.0153791345655918
462,-0.00868965126574039,0.0057510738261044,-0.00525200599804521,-0.00338575732894242,-0.0140249207615852,-0.00794579368084669
463,-0.00887413043528795,0.00632394244894385,-0.00316247320733964,-0.00663588382303715,-0.0113685363903642,-0.000364061008440331
464,-0.00858835130929947,0.00671233516186476,-0.00187847041524947,-0.00856850016862154,-0.00965570285916328,0.00735680619254708
465,-0.00859584752470255,0.00743124820291996,-0.0035672530066222,-0.0107634756714106,-0.00972705334424973,0.0126269161701202
466,-0.0091860918328166,0.00734781613573432,-0.00694949086755514,-0.013877596706152,-0.00939271785318851,0.0125158969312906
467,-0.00941985379904509,0.0052332691848278,-0.00928876455873251,-0.0162939801812172,-0.00750170182436705,0.00747130904346704
468,-0.00824728701263666,0.000772444356698543,-0.00939302705228329,-0.0165110863745213,-0.00549205439165235,0.000856250757351518
469,-0.00660449592396617,-0.00482088094577193,-0.00856633391231298,-0.0144483251497149,-0.00675864703953266,-0.00371712422929704
470,-0.00522069353610277,-0.00892848242074251,-0.00840316340327263,-0.0103389639407396,-0.0114263026043773,-0.00462768785655499
471,-0.00350392400287092,-0.00980232935398817,-0.00840090122073889,-0.00547141348943114,-0.0150542408227921,-0.0028787269257009
472,-0.00258847163058817,-0.00894336402416229,-0.00772381061688066,-0.00321880844421685,-0.015702985227108,-0.00137012847699225
473,-0.00385347357951105,-0.00934670306742191,-0.00706471689045429,-0.00493860011920333,-0.0160845648497343,-0.00356440665200353
474,-0.00600817101076245,-0.0116762546822429,-0.0068385130725801,-0.0076035363599658,-0.0181299969553947,-0.0105954259634018
475,-0.00769747607409954,-0.015329877845943,-0.00734971789643168,-0.00949239172041416,-0.0210297778248787,-0.0200870223343372
476,-0.00908080209046602,-0.0196538586169481,-0.00922344531863928,-0.0117824478074908,-0.0230906438082457,-0.0280115380883217
477,-0.00982272066175938,-0.0215096268802881,-0.0111699951812625,-0.0131882363930345,-0.0232438743114471,-0.0297228768467903
478,-0.00823383592069149,-0.0181730799376965,-0.0109816333279014,-0.011104691773653,-0.0214177742600441,-0.0236958730965853
479,-0.00424409192055464,-0.0121251884847879,-0.00889869034290314,-0.00696020200848579,-0.0175182763487101,-0.0149598475545645
480,-0.000648956978693604,-0.00776004698127508,-0.00716517539694905,-0.004170136526227,-0.0122147481888533,-0.0093375900760293
481,0.000416946277255192,-0.0057998588308692,-0.00600657984614372,-0.00211782590486109,-0.00835555419325829,-0.00652779778465629
482,-0.00057790579739958,-0.00394761003553867,-0.00345840817317367,0.0020510139875114,-0.0083733256906271,-0.00293614505790174
483,-0.00260869623161852,-0.000996826449409127,-0.000518034095875919,0.00716602895408869,-0.012509279884398,0.00233105453662574
484,-0.00481334188953042,0.00218245992437005,-0.000402171572204679,0.0095849521458149,-0.0182441901415586,0.00756222708150744
485,-0.00525230308994651,0.0042555439285934,-0.00315131526440382,0.00815687980502844,-0.0209521744400263,0.0104213766753674
486,-0.00324868294410408,0.00425948156043887,-0.00589965796098113,0.00414019310846925,-0.0199144668877125,0.00904905796051025
487,-0.000557427294552326,0.00235371990129352,-0.00621193274855614,-0.000326011067954823,-0.0185393653810024,0.00431270524859428
488,0.00168597127776593,-2.31987123697763E-05,-0.00410193530842662,-0.00341282179579139,-0.0175735596567392,-0.000302384229144081
489,0.00341305369511247,-0.00154107506386936,-0.00146504922304302,-0.00453887321054935,-0.0156995672732592,-0.00125942577142268
490,0.00425049988552928,-0.00203204317949712,-0.000242627356783487,-0.00427969545125961,-0.0137786595150828,0.00161726039368659
491,0.00444458331912756,-0.00101555918809026,-0.00143352150917053,-0.0034041702747345,-0.0127209629863501,0.00441888347268105
492,0.00447044521570206,0.00195641163736582,-0.00420903088524938,-0.00172827090136707,-0.0124575113877654,0.00366557389497757
493,0.00425294646993279,0.00433661229908466,-0.00535178184509277,0.00143727206159383,-0.012695194222033,-0.00107454683165997
494,0.00398731604218483,0.00255787768401206,-0.00252688652835786,0.00506331957876682,-0.0118910325691104,-0.00924738869071007
495,0.004007488489151,-0.00296191987581551,0.00235692248679698,0.00692535284906626,-0.0089460164308548,-0.0185703653842211
496,0.00416308548301458,-0.00837028212845325,0.00564283551648259,0.00675357645377517,-0.00604670168831944,-0.023456608876586
497,0.00407335208728909,-0.00992301292717457,0.00571986148133874,0.00465143332257867,-0.00579063594341278,-0.0209191311150789
498,0.00421521859243512,-0.00706839794293046,0.00353213516063988,2.74485246336553E-05,-0.00593076413497329,-0.0146412942558527
499,0.00526235811412334,-0.00304373563267291,0.00101215473841876,-0.00498475879430771,-0.00294056348502636,-0.0087680434808135
500,0.00631787348538637,-0.000413214060245082,-0.000450970372185111,-0.00696772057563066,0.00224954425357282,-0.00401095906272531
501,0.00541407940909266,-0.000429233245085925,-0.00138660753145814,-0.00634691910818219,0.00545695330947638,-0.00138649914879352
502,0.00340741942636669,-0.00275627546943724,-0.00208879192359746,-0.00562236132100224,0.00571150192990899,-0.00163274048827589
503,0.00370994955301285,-0.00454989122226834,-0.00173451413866133,-0.00530977407470346,0.00597471138462424,-0.00327233830466866
504,0.00609300006181002,-0.0045881518162787,-0.00173048675060272,-0.00518422108143568,0.00585961295291781,-0.00530383875593543
505,0.00753927417099476,-0.00391898071393371,-0.00322852493263781,-0.00469108624383807,0.00297090550884604,-0.00772570399567485
506,0.00769131956622005,-0.00354784540832043,-0.00425526220351458,-0.00334574514999986,-0.00176130211912096,-0.0107232220470905
507,0.00739011680707335,-0.00437508523464203,-0.00376115832477808,-0.00271477643400431,-0.00668466603383422,-0.0143205095082521
508,0.00614939164370298,-0.00642895698547363,-0.00340755330398679,-0.00408369582146406,-0.0112194595858455,-0.0174442678689957
509,0.0040207919664681,-0.00789033062756062,-0.00386967603117228,-0.00563562847673893,-0.0137012973427773,-0.0183394104242325
510,0.00255949841812253,-0.00716891419142485,-0.00346234207972884,-0.00420205155387521,-0.0122930305078626,-0.015931623056531
511,0.00245804339647293,-0.00501907849684358,-0.000884762732312083,0.00054179661674425,-0.00835054088383913,-0.0110163101926446
512,0.00291679729707539,-0.00324350851587951,0.00271626701578498,0.00472394935786724,-0.00474299862980843,-0.00675320252776146
513,0.00378619483672082,-0.00251335417851806,0.00518998503684998,0.00546911731362343,-0.00212715310044587,-0.00624034274369478
514,0.0046933745034039,-0.00233038398437202,0.00590821076184511,0.00439296197146177,-0.00126785552129149,-0.00926575809717178
515,0.00463606044650078,-0.00187108933459967,0.00542322639375925,0.00339039438404143,-0.0032008986454457,-0.0129108652472496
516,0.00417438382282853,-0.000668475055135787,0.00414730003103614,0.00213428633287549,-0.00596558582037687,-0.014310629107058
517,0.00435823807492852,0.000806843745522201,0.00236667762510479,0.000259547174209729,-0.00662878016009927,-0.0127391153946519
518,0.0042857532389462,0.00214036228135228,0.000175945067894645,-0.00142838002648205,-0.00463637802749872,-0.00894501060247421
519,0.00262623257003725,0.00345301441848278,-0.00236999848857522,-0.00158986065071076,-0.000972037436440587,-0.00404586922377348
520,0.000446956430096179,0.00381869100965559,-0.00372545653954148,0.000466351048089564,0.00354928895831108,-8.79650979186408E-05
521,0.000573095807339996,0.00192132603842765,-0.00197794381529093,0.00319819548167288,0.00862731132656336,0.000356530013959855
522,0.0034553671721369,-0.00143915868829936,0.00135237874928862,0.00409642048180103,0.0128783956170082,-0.00363473873585463
523,0.00624728482216597,-0.00374589068815112,0.00311250891536474,0.00343453953973949,0.0135117582976818,-0.00888261385262012
524,0.00681729428470135,-0.00376601982861757,0.00274608028121293,0.00303708831779659,0.0100617222487926,-0.0113396821543574
525,0.00523107219487429,-0.00238329498097301,0.00188740354496986,0.00358586572110653,0.00417374167591333,-0.0109784454107285
526,0.00252620014362037,-0.000934194831643254,0.00215037516318262,0.00407357467338443,-0.00277312216348946,-0.0100334221497178
527,9.92402874544496E-06,0.000442398508312181,0.00301438476890326,0.00309847551397979,-0.00957861822098494,-0.00858044996857643
528,-0.00152299110777676,0.00234858249314129,0.00266511342488229,0.00130932522006333,-0.0143763143569231,-0.00509229628369212
529,-0.00233118957839906,0.00435075024142861,0.000958590069785714,1.60275285452371E-05,-0.0145657453685999,0.000393181864637882
530,-0.00263087288476527,0.0062708375044167,-0.00121038546785712,-5.9345991758164E-05,-0.0100727276876569,0.0069434866309166
531,-0.0019475924782455,0.00868954136967659,-0.00267825298942626,0.00186244072392583,-0.0038763708434999,0.0123651046305895
532,-0.000538002990651876,0.0106646502390504,-0.00202323379926384,0.00562706729397178,0.00163984973914921,0.0128575349226594
533,0.000251398829277605,0.0103145614266396,0.00034980836790055,0.00927051436156034,0.00503906514495611,0.00742235733196139
534,-0.000417704228311777,0.00717056635767221,0.00210486655123532,0.0100865047425032,0.00520971324294806,-0.000897691410500556
535,-0.00239935959689319,0.00347463903017342,0.000993363210000098,0.00748548051342368,0.00193907995708287,-0.00764136156067252
536,-0.0046328348107636,0.00247616856358945,-0.00294345733709633,0.00392271392047405,-0.00297252624295652,-0.00906901527196169
537,-0.00574652524664998,0.00451153935864568,-0.00736790290102363,0.00143952202051878,-0.00677261408418417,-0.00500776246190071
538,-0.00488649634644389,0.00747981341555715,-0.010001958347857,-0.000207888617296703,-0.00874251034110785,0.00127738108858466
539,-0.00244908290915191,0.0096482690423727,-0.0098041919991374,-0.00140310556162149,-0.0096871629357338,0.00673423893749714
540,-0.000941945938393474,0.0106894765049219,-0.0071549890562892,-0.000665063038468361,-0.0115478215739131,0.0111214695498347
541,-0.0016588366124779,0.0110627766698599,-0.00384421925991774,0.00322815682739019,-0.0147661129012704,0.0144155332818627
542,-0.00298620690591633,0.0100505826994777,-0.00168724881950766,0.00768433790653944,-0.0156771205365658,0.0137396091595292
543,-0.00324843102134764,0.00753424223512411,0.000867640308570117,0.0105083677917719,-0.011223716661334,0.00842682458460331
544,-0.00189170765224844,0.00470620859414339,0.00611534807831049,0.0123758222907782,-0.00311743398196995,0.00116177974268794
545,0.000331609538989142,0.00214427174068987,0.0110228238627315,0.0124885719269514,0.00332453870214522,-0.0057739564217627
546,0.00139451329596341,0.000641342659946531,0.0104377800598741,0.00919220317155123,0.00349577306769788,-0.0101062292233109
547,-0.00026235356926918,-7.63806820032187E-05,0.0039193551056087,0.0035496330820024,-0.00222949753515422,-0.0114556523039937
548,-0.00299989175982773,-0.00119317811913788,-0.00328546459786594,-7.55946821300313E-05,-0.00825463235378265,-0.0120288906618953
549,-0.0038834463339299,-0.00116076122503728,-0.00593553390353918,0.000591794960200787,-0.00981371570378542,-0.0141593841835856
550,-0.00335566699504852,0.00186651048716158,-0.00429432839155197,0.002491275081411,-0.00845438614487648,-0.0180846992880106
551,-0.00312499376013875,0.0063925483264029,-0.00201295618899167,0.00315676676109433,-0.00851735472679138,-0.0210839249193668
552,-0.00246692728251219,0.00983520783483982,-0.00108243944123387,0.00289365346543491,-0.0107806595042348,-0.020605243742466
553,-4.32704109698534E-05,0.0108956219628453,-0.00139728735666722,0.00169323512818664,-0.0116200745105743,-0.0165627840906382
554,0.00360747054219246,0.0106006152927876,-0.00280520599335432,3.96055074816104E-05,-0.0087118074297905,-0.0092010386288166
555,0.00660372106358409,0.0106374463066459,-0.00502902781590819,-0.000745151191949844,-0.0043978514149785,0.00108204828575253
556,0.00795141607522964,0.0106044746935368,-0.00669765146449208,-0.000375849544070661,-0.00205922010354698,0.0112574258819222
557,0.00811152625828981,0.00930544920265675,-0.00616970285773277,0.00092988577671349,-0.0025388568174094,0.0181210059672594
558,0.007754722610116,0.0069386400282383,-0.00338939693756402,0.00347371282987297,-0.00417824694886804,0.0213400721549988
559,0.00701275700703263,0.00460609886795282,0.000135042602778412,0.0069834771566093,-0.00519414432346821,0.0213571228086948
560,0.00607929797843099,0.00306173553690314,0.00267607043497264,0.0097986813634634,-0.00501228263601661,0.0183613151311874
561,0.00487151928246021,0.00204859068617225,0.00349059049040079,0.0102760680019856,-0.00425426987931132,0.0126670692116022
562,0.00300721894018352,0.000984273152425885,0.00390294217504561,0.0090406471863389,-0.00418217899277806,0.00445613404735923
563,0.00198091869242489,2.36809901252855E-05,0.00561108766123652,0.00900012906640768,-0.00475942250341177,-0.00506253214552999
564,0.00380031624808908,-0.00082473160000518,0.00794513989239931,0.0117372609674931,-0.0037785826716572,-0.0132334996014833
565,0.00750585459172726,-0.00185478141065687,0.00885318499058485,0.0149451950564981,-0.000983592821285129,-0.0172741748392582
566,0.0111369350925088,-0.00166910700500011,0.00851275771856308,0.0161861330270767,0.00109863351099193,-0.015090930275619
567,0.0137687912210822,0.00099610083270818,0.00846010912209749,0.0150899980217218,0.00165061990264803,-0.00824981369078159
568,0.014561696909368,0.00416703382506967,0.00849419552832842,0.0116586796939373,0.00125148496590555,-0.0021684265229851
569,0.0143005540594459,0.00614372873678803,0.00865366775542498,0.00749419908970594,0.00067233364097774,0.000321174622513354
570,0.0146603183820844,0.00760673591867089,0.00963778700679541,0.00475607300177217,0.000820376444607973,-0.000115553215437103
571,0.0151169188320637,0.00933805387467146,0.0108028724789619,0.0037312547210604,0.00100187677890062,-0.0020698313601315
572,0.0142847849056125,0.0112650776281953,0.0108631094917655,0.00299774040468037,-0.000278037186944857,-0.00372553034685552
573,0.0119290361180902,0.012678456492722,0.00912710651755333,0.00126991095021367,-0.00312935374677181,-0.00346452393569052
574,0.0085557559505105,0.0134016256779432,0.00648586032912135,-3.60117155651096E-05,-0.00611383328214288,0.000211742764804512
575,0.0053017120808363,0.0136211179196835,0.00457869190722704,0.000615648634266108,-0.00710516050457954,0.00649887975305319
576,0.00402706302702427,0.0132744004949927,0.00302341021597385,0.00134683190844953,-0.00459308084100485,0.0114229712635279
577,0.00568911386653781,0.0132913179695606,0.000956510717514902,0.000778168439865112,0.00126056571025401,0.0128318229690194
578,0.00869069993495941,0.0146071212366223,-0.000297227874398232,0.00089501473121345,0.00774672860279679,0.0120909651741385
579,0.0105773909017444,0.0154330693185329,-8.1894853792619E-05,0.00245562917552888,0.0115965800359845,0.0101729752495885
580,0.00983258150517941,0.0129712456837296,-0.000637129181995988,0.00279049179516733,0.0114992102608085,0.00664981128647923
581,0.00657817674800754,0.00762685900554061,-0.00303821521811187,0.00127306836657226,0.00805940572172403,0.00282423873431981
582,0.00360643630847335,0.00333018507808447,-0.00452335458248854,0.000847344694193453,0.00453746411949396,0.000684636004734784
583,0.00352132739499211,0.00213669706135988,-0.00351855484768748,0.00170807424001396,0.00346629740670323,-0.000917095399927348
584,0.00574039248749614,0.00143975438550115,-0.000909796799533069,0.00240978202782571,0.00326742441393435,-0.0033213053829968
585,0.00810694415122271,-0.000573559082113206,0.00280332658439875,0.00412018317729235,0.00109728670213372,-0.0051533137448132
586,0.00872448273003101,-0.00372813967987895,0.00551031623035669,0.00618210760876536,-0.00455707311630249,-0.00603985972702503
587,0.00691485637798905,-0.00766269257292151,0.00446943752467632,0.00586300017312169,-0.0122409462928772,-0.00741725182160735
588,0.00384036963805556,-0.00998912937939167,-7.52624473534524E-05,0.00370809552259743,-0.0180879458785057,-0.00895566213876009
589,0.00171938876155764,-0.00859791971743107,-0.00516190100461245,0.00216552708297968,-0.0191273968666792,-0.00920589733868837
590,0.00176932453177869,-0.00545402383431792,-0.00764488289132714,0.00135454488918185,-0.0150296594947577,-0.0089062312617898
591,0.00323504186235368,-0.00403327774256468,-0.0067747151479125,-1.2312836588535E-05,-0.00759061053395271,-0.00881346687674522
592,0.00430793827399611,-0.00462397234514356,-0.00466348463669419,-0.00199706293642521,-0.000714767898898572,-0.00679440284147859
593,0.003583291079849,-0.005161811131984,-0.00376074388623238,-0.00351591291837394,0.00151278148405254,-0.00104786013253033
594,0.00114915275480598,-0.00412084441632032,-0.00395061355084181,-0.0034247599542141,-0.000763496558647603,0.0073680616915226
595,-0.0016593235777691,-0.0012843469157815,-0.0034215662162751,-0.00141868286300451,-0.00389576237648726,0.0157475806772709
596,-0.00311888288706541,0.00238163536414504,-0.00153674057219177,0.00180821376852691,-0.00484505202621222,0.0215765237808228
597,-0.00247909710742533,0.00512892799451947,0.00042714923620224,0.0048476243391633,-0.00316354958340526,0.0236348044127226
598,-0.000985365128144622,0.0053938115015626,0.00129532441496849,0.00676875282078981,-0.00100454303901643,0.0213633421808481
599,6.73585163895041E-05,0.00321014970541,0.00178864062763751,0.00759445270523429,8.08522818260826E-05,0.0150203173980117
600,0.00127431412693113,-8.43739544507116E-05,0.00201032403856516,0.00652634864673018,0.00107330095488578,0.00683552213013172
601,0.00297958916053176,-0.00251038349233568,-2.23297865886707E-05,0.00320860208012164,0.00196133367717266,0.000881578132975847
602,0.00364024448208511,-0.0024375868961215,-0.00375445792451501,-0.000260681903455406,0.00199534604325891,0.000139255746034905
603,0.00250370637513697,5.18482875122572E-06,-0.00560247385874391,-0.00116136763244867,0.00142718863207847,0.00394054735079408
604,0.000363586616003886,0.0031732264906168,-0.0047499081119895,0.00124230573419482,-0.00191927817650139,0.00936121586710215
605,-0.00278752739541233,0.00465839961543679,-0.00427855877205729,0.00445463228970766,-0.00972464960068464,0.0130319651216269
606,-0.00627866154536605,0.00252966023981571,-0.00566134694963694,0.00530614703893662,-0.0171560570597649,0.0123042212799191
607,-0.00878910813480616,-0.00264570699073374,-0.00616597849875689,0.00476457085460424,-0.0195521656423807,0.00785442069172859
608,-0.0104690259322524,-0.00799512770026922,-0.00374319055117667,0.00635528191924095,-0.0187188927084208,0.00243288069032133
609,-0.0106098642572761,-0.0111992210149765,-0.00018316155183129,0.00985132437199354,-0.0179415140300989,-0.00293267611414194
610,-0.00761785730719566,-0.0114067597314715,0.00176411878783256,0.0122773433104157,-0.017108365893364,-0.00661760149523616
611,-0.0021910066716373,-0.00903036631643772,0.00131266261450946,0.0126873664557934,-0.0135213239118457,-0.005896573420614
612,0.0022422531619668,-0.00603452743962407,-0.00105846067890525,0.0116544766351581,-0.00807832088321447,-0.000960219709668309
613,0.00297102425247431,-0.00384356291033328,-0.00433521391823888,0.0098259449005127,-0.00496648531407118,0.00557828834280372
614,0.000926427368540317,-0.00188873894512653,-0.00632318342104554,0.00810641143471003,-0.00507764052599669,0.0121149541810155
615,-0.0014275285648182,-0.000156419904669747,-0.0056431177072227,0.00681996159255505,-0.00597493909299374,0.0180996730923653
616,-0.00333125307224691,0.00100065732840449,-0.00430787121877074,0.00425882544368505,-0.00563349155709147,0.0219005364924669
617,-0.00518676592037082,0.00246514054015279,-0.00562423653900623,-0.000762127747293562,-0.004799525719136,0.0220562648028135
618,-0.00566653627902269,0.00410817144438624,-0.0100605962797999,-0.00571299344301224,-0.00492967432364821,0.0193183086812496
619,-0.00287293782457709,0.00461456924676895,-0.0146213928237557,-0.00795367453247309,-0.00490014767274261,0.014831094071269
620,0.00198335759341717,0.00351260229945183,-0.0154641438275576,-0.00725596724078059,-0.00382430944591761,0.00929180253297091
621,0.00595538318157196,0.00130642205476761,-0.0115217156708241,-0.00467556854709983,-0.00380215421319008,0.00265729217790067
622,0.00814526621252298,-0.00180891691707075,-0.00566427549347281,-0.00274258758872747,-0.00557353906333447,-0.0066748084500432
623,0.00886154267936945,-0.00532911159098148,-0.00156036613043398,-0.00296420021913946,-0.00768368691205978,-0.0168139636516571
624,0.00756888603791595,-0.00728208525106311,-0.000213475519558415,-0.00377065828070045,-0.0105839893221855,-0.0212752725929022
625,0.00496111111715436,-0.00594075443223119,3.33609532390255E-05,-0.00336921564303339,-0.0146092157810926,-0.0170109868049622
626,0.00220687757246196,-0.00242048292420805,0.000337160512572154,-0.00220305821858346,-0.0186005663126707,-0.00785860884934664
627,-0.00100312463473529,-5.04430936416611E-05,0.000634006049949676,-0.00179766374640167,-0.0218413565307856,-0.000200132635654882
628,-0.00376765197142959,0.000132959656184539,0.00187224114779383,-0.00151652272325009,-0.0227302070707083,0.00254335696808994
629,-0.00448126811534166,-0.000208838871913031,0.00404713395982981,-0.000183897689566948,-0.0201213844120502,0.000891965581104159
630,-0.0036552136298269,-0.00042041638516821,0.00445587327703834,0.00023047614376992,-0.0155706610530615,-0.00299164024181664
631,-0.00275401631370187,-0.000864123634528369,0.00126691558398306,-0.00212698266841471,-0.0103040002286434,-0.00590506568551064
632,-0.00170933909248561,-0.000974250608123839,-0.00426607672125101,-0.00633740425109863,-0.0044380477629602,-0.00470188725739717
633,0.000284733192529529,-0.000179224341991358,-0.00932564400136471,-0.0106562739238143,0.00055525655625388,0.000732506858184934
634,0.00232611154206097,0.000333883363055065,-0.0122726047411561,-0.0137748988345265,0.00236503616906703,0.00714995572343469
635,0.0032764351926744,-0.000718541792593896,-0.0135853542014956,-0.01504185795784,0.000535827421117574,0.0112468721345067
636,0.00328447227366269,-0.00268893945030868,-0.0140372179448605,-0.01437983289361,-0.00347258686088026,0.0124059366062284
637,0.0017083128914237,-0.00536380847916007,-0.0138038285076618,-0.0134694715961814,-0.00795732066035271,0.0104413498193026
638,-0.00188591657206416,-0.00887753162533045,-0.0130395442247391,-0.0138101447373629,-0.0110685583204031,0.00509542366489768
639,-0.00541921658441424,-0.0109442807734013,-0.012054362334311,-0.0139990970492363,-0.013374300673604,-0.00116157869342715
640,-0.00616737036034465,-0.00941896345466375,-0.0105251427739859,-0.0127976527437568,-0.0159950293600559,-0.00542145594954491
641,-0.00372504908591509,-0.00523391226306558,-0.0080224946141243,-0.0101288435980678,-0.0167446862906218,-0.00629326328635216
642,-0.000666479929350317,-0.00146537157706916,-0.00589011795818806,-0.00678891828283668,-0.0151821924373508,-0.00424082763493061
643,0.000235123734455556,0.000244585506152362,-0.00498750247061253,-0.00435694074258208,-0.015081737190485,-0.0011274489806965
644,-0.00133895815815777,0.000637726276181638,-0.00430364860221744,-0.00319598824717104,-0.0194646194577217,0.00129715912044048
645,-0.00474163610488176,-0.000348252739058807,-0.00444622663781047,-0.00331407436169684,-0.0277007948607206,0.000463234086055309
646,-0.00923616997897625,-0.00327568803913891,-0.00604253588244319,-0.00439611915498972,-0.0361552536487579,-0.00479603419080377
647,-0.0122150806710124,-0.0065241283737123,-0.00655422266572714,-0.00446402654051781,-0.0393142625689507,-0.0109919253736734
648,-0.0118619287386537,-0.00850016716867685,-0.00482530752196908,-0.00250510033220053,-0.0346304252743721,-0.013617254793644
649,-0.00981876999139786,-0.00978859048336744,-0.00278435088694096,-3.08283597405534E-05,-0.0260717868804932,-0.0113193718716502
650,-0.00797400716692209,-0.0100563112646341,-0.00140914518851787,0.00158161646686494,-0.0188754554837942,-0.00465208012610674
651,-0.00640584668144584,-0.00791951268911362,-0.000578400038648397,0.0023058254737407,-0.013915472663939,0.00416226172819734
652,-0.00527529139071703,-0.00389806344173849,-0.000625733053311706,0.00210982630960643,-0.0106288511306047,0.010888896882534
653,-0.00538288522511721,-0.00020568526815623,-0.00229939259588718,0.000225382274948061,-0.00987325701862574,0.0123667512089014
654,-0.00617763912305236,0.00134950969368219,-0.00543697411194444,-0.00269657373428345,-0.0111340945586562,0.0089969951659441
655,-0.00656283553689718,0.000963358208537102,-0.00736115779727697,-0.00295202457346022,-0.0130703393369913,0.00447269016876817
656,-0.00654715439304709,0.000978662050329149,-0.00572943780571222,0.00117739010602236,-0.0154032111167908,0.00169673340860754
657,-0.00632737344130874,0.00205240095965564,-0.00261612609028816,0.00569259654730558,-0.01769726164639,-0.000293694931315258
658,-0.00602825405076146,0.0016265211161226,-0.000972020730841905,0.00705626979470253,-0.0185441616922617,-0.00219113985076547
659,-0.00596045190468431,-0.000936437747441232,-0.000297740771202371,0.00583775155246258,-0.0171162541955709,-0.0024054569657892
660,-0.00529315276071429,-0.00426499638706446,0.00040170707507059,0.00287684123031795,-0.0144477915018797,-0.0014919595560059
661,-0.00287690968252718,-0.00733890989795327,0.000231526457355358,-0.000363252416718751,-0.011929165571928,-0.000756600871682167
662,-0.000707825704012066,-0.00885830260813236,-0.0014176907716319,-0.00100067828316242,-0.0117109110578895,0.000826638250146061
663,-0.00144222681410611,-0.00883692875504494,-0.00273443013429642,0.000769134028814733,-0.0162013489753008,0.00298934569582343
664,-0.00440886709839106,-0.00947355292737484,-0.00289373728446662,0.000102960548247211,-0.0249229054898024,0.00317553384229541
665,-0.00813053641468287,-0.0121236285194755,-0.0047857565805316,-0.0062645492143929,-0.0342314131557941,0.000260645261732861
666,-0.011207920499146,-0.0149369081482291,-0.00934638828039169,-0.0143724614754319,-0.0382137298583984,-0.00421079201623797
667,-0.0114269834011793,-0.0156923625618219,-0.0132862608879805,-0.018192395567894,-0.0331096015870571,-0.00808661058545113
668,-0.00831761676818132,-0.0146848363801837,-0.0138460844755173,-0.0166875030845404,-0.0225131474435329,-0.00993174221366644
669,-0.00432372838258743,-0.0135522009804845,-0.0114603890106082,-0.0125919003039598,-0.0137317273765802,-0.009206622838974
670,-0.00243605743162334,-0.0127179604023695,-0.00870928261429071,-0.00792878214269876,-0.0107633415609598,-0.00655205780640244
671,-0.00318260188214481,-0.0113652916625142,-0.00649628881365061,-0.00353328976780176,-0.0119137084111571,-0.00405487278476357
672,-0.00434530666097999,-0.00929968524724245,-0.00347516848705709,-0.000256022700341418,-0.0123866219073534,-0.00324967503547668
673,-0.00379125867038965,-0.00679260073229671,-0.000454897031886503,0.00134172523394227,-0.0102202678099275,-0.00298467860557139
674,-0.00132334849331528,-0.00414444785565138,0.000536445353645831,0.000748369435314089,-0.00682400213554502,-0.00139945629052818
675,0.00170919497031718,-0.00234556687064469,-0.000685660750605166,-0.00209968979470432,-0.00335525441914797,0.0014613582752645
676,0.00367156113497913,-0.00264900689944625,-0.00272172968834639,-0.00612424733117223,-0.000714729772880673,0.00391192501410842
677,0.00413241749629378,-0.00398239027708769,-0.00273930514231324,-0.00831728894263506,0.000593179604038596,0.00593814952298999
678,0.00401357933878899,-0.00306447874754667,0.00024823602871038,-0.00654555717483163,0.00204679020680487,0.00924420822411776
679,0.0039067892357707,0.000668307533487678,0.00360542954877019,-0.00323560973629355,0.00531814573332667,0.0131051959469914
680,0.00295900390483439,0.00407695863395929,0.00526485964655876,-0.00157827464863658,0.00853514112532139,0.0158065818250179
681,0.0011908404994756,0.00454519363120198,0.00631036702543497,-0.00150297326035798,0.00997427105903625,0.0173177812248468
682,-2.41700381593546E-05,0.00168088008649647,0.00823335535824299,-0.0013380607124418,0.0105760414153337,0.0167590081691742
683,-0.000697250245139003,-0.00257338676601648,0.0110418079420924,0.000587087648455054,0.00778782600536942,0.0134470714256167
684,-0.00199787318706512,-0.0054892860352993,0.0134594542905688,0.00452955905348063,-0.00231835339218378,0.00963634625077248
685,-0.00408761156722903,-0.00713718263432384,0.0130989123135805,0.00755347684025764,-0.0153035372495651,0.0072859306819737
686,-0.00512885535135865,-0.00827589817345142,0.00960022024810314,0.00738441152498126,-0.0212126448750496,0.00694336136803031
687,-0.00377917289733887,-0.00823536701500416,0.00556323491036892,0.00527400616556406,-0.0161755811423063,0.00952858850359917
688,-0.00105462409555912,-0.0074284290894866,0.00284081045538187,0.0027408532332629,-0.00522479182109237,0.0145687190815806
689,0.00186022056732327,-0.00641382532194257,0.00202492973767221,0.00114195432979614,0.00453283498063684,0.019317552447319
690,0.00400248169898987,-0.00597312301397324,0.00314935692586005,0.0012392884818837,0.00943221990019083,0.0198101308196783
691,0.00444564782083035,-0.00834803748875856,0.00447878567501903,0.00104002002626657,0.00934845395386219,0.0130245117470622
692,0.0034110601991415,-0.0135423839092255,0.00422874698415399,-0.000863963388837874,0.0064047509804368,0.000779583351686597
693,0.00201679463498294,-0.0185610465705395,0.0031703575514257,-0.00197975849732757,0.00242175487801433,-0.0103623364120722
694,0.00195473665371537,-0.0207591764628887,0.00419628666713834,0.000935867079533637,-3.29473987221718E-05,-0.0145237222313881
695,0.00361455488018692,-0.017992302775383,0.00754837272688746,0.00684889080002904,0.00237134704366326,-0.0104852085933089
696,0.00490035861730576,-0.0106703583151102,0.00920832343399525,0.0110549246892333,0.00838377792388201,-0.000883931643329561
697,0.00419549131765962,-0.00340268178842962,0.00701391184702516,0.0105538563802838,0.0137887028977275,0.0102028353139758
698,0.00243776547722518,0.000892166688572615,0.00364374206401408,0.00647704256698489,0.0172404684126377,0.0190779715776443
699,0.00113565952051431,0.00308699416927993,0.00248194765299559,0.00165259838104248,0.0195517539978027,0.024297796189785
700,-0.000156135705765337,0.00374548230320215,0.0031140714418143,-0.00213057640939951,0.0199081897735596,0.026167718693614
701,-0.00214924896135926,0.00273335678502917,0.0030894442461431,-0.00344832753762603,0.0175813790410757,0.0244767032563686
702,-0.00347692449577153,0.00139435008168221,0.0023193524684757,-0.0013900650665164,0.0135867455974221,0.0187351647764444
703,-0.003481320803985,0.00113543390762061,0.00225417874753475,0.00195577228441834,0.00806338898837566,0.00920565240085125
704,-0.00341413216665387,0.00190356350503862,0.00290186679922044,0.00391922798007727,0.00170589471235871,-0.00108065223321319
705,-0.00361143099144101,0.00322274607606232,0.00248569995164871,0.00409825565293431,-0.0032117220107466,-0.00653169956058264
706,-0.00342944823205471,0.00482306769117713,-0.000275419588433579,0.00289123132824898,-0.00504454923793674,-0.00408512214198709
707,-0.00288176373578608,0.00633189221844077,-0.00448040664196014,0.00104394578374922,-0.00372016173787415,0.00392527412623167
708,-0.00263029709458351,0.00645399652421474,-0.00841608829796314,-0.000840431195683777,-0.00154689734335989,0.0118348468095064
709,-0.00278584449552,0.00493423268198967,-0.0109048383310437,-0.00212404341436923,-0.000911148788873106,0.0166514236479998
710,-0.00260433391667902,0.00369330844841897,-0.0117139313369989,-0.00185300596058369,-0.000575912999920547,0.0196504071354866
711,-0.00128294492606074,0.00383883505128324,-0.0112315015867352,-0.000542207388207316,0.00266170944087207,0.0207609217613935
712,0.000820160668808967,0.003887151600793,-0.00998813286423683,-3.78835029550828E-05,0.00924731511622667,0.0176228117197752
713,0.0023857718333602,0.00221861409954727,-0.00871284492313862,-0.000941663107369095,0.0161775220185518,0.0106325633823872
714,0.00352236651815474,0.000449054612545297,-0.00784731470048428,-0.00159661413636059,0.0202033650130033,0.00446967827156186
715,0.00551980873569846,0.00103658519219607,-0.00642588315531611,0.000158529379405081,0.0201382376253605,0.00282356864772737
716,0.00860446132719517,0.00359050533734262,-0.00243160431273282,0.00467561883851886,0.0175741072744131,0.00504940887913108
717,0.0110622504726052,0.00565033499151468,0.0028448929078877,0.00859170407056808,0.0144846737384796,0.00827165506780148
718,0.0108182355761528,0.00607728259637952,0.00534201506525278,0.00866960268467665,0.0110616637393832,0.0107287792488933
719,0.00762427132576704,0.0055101728066802,0.00407937308773398,0.00613811193034053,0.00759545713663101,0.0120643526315689
720,0.00248857983388007,0.00376985152252018,0.0013590696034953,0.00279174488969147,0.00439974199980497,0.0109366346150637
721,-0.00214931950904429,0.00139956083148718,-0.000198784080566838,-0.000723426695913076,0.00140300602652133,0.00695156771689653
722,-0.00381666631437838,-9.28756417124532E-05,7.0327956791516E-07,-0.00314509449526668,-0.000650296511594206,0.00277271238155663
723,-0.00305794738233089,-0.000492960622068495,0.000891765637788922,-0.00352582288905978,-0.00133744289632887,0.00139510736335069
724,-0.00194991054013371,-6.65409388602711E-05,0.0021278930362314,-0.00116623949725181,-0.00160718231927603,0.0038441710639745
725,-0.00162879540584981,0.00091955007519573,0.00323423091322184,0.00323175033554435,-0.00212327064946294,0.00856445077806711
726,-0.00150918518193066,0.0023998124524951,0.00273332814686,0.00613658130168915,-0.00197094865143299,0.0124756572768092
727,-0.000824184447992593,0.00389936449937522,0.000558749365154654,0.00538087682798505,-7.91621569078416E-05,0.0134398862719536
728,-8.46824768814258E-05,0.00404792139306664,-0.000946014828514308,0.00263944547623396,0.00361252785660326,0.0112147405743599
729,0.000978644122369587,0.00335276965051889,-0.000219903842662461,0.000264058529864997,0.00905255600810051,0.00789611227810383
730,0.00366433220915496,0.00442119594663382,0.00149075069930404,-0.000685329257976264,0.0159913394600153,0.00653284974396229
731,0.00731451669707894,0.00856903661042452,0.00275210035033524,0.000360237114364281,0.0231492798775434,0.00871484167873859
732,0.0090953828766942,0.0130309099331498,0.00297586689703166,0.00241833296604455,0.0280380789190531,0.0126592172309756
733,0.00772119499742985,0.0131310299038887,0.00221466715447605,0.00375949661247432,0.0277389958500862,0.0145484628155828
734,0.00492217158898711,0.00948733277618885,0.00259514059871435,0.00527181569486856,0.0228068400174379,0.0139601556584239
735,0.00281854858621955,0.00703848525881767,0.00552437035366893,0.00729033024981618,0.0176394321024418,0.0126167321577668
736,0.00162558630108833,0.00600713491439819,0.00885680038481951,0.0075946138240397,0.014430632814765,0.0100465705618262
737,-0.000395707349525765,0.00285779545083642,0.0100447870790958,0.00584584381431341,0.0120157049968839,0.00570642529055476
738,-0.00298294518142939,-0.002461968222633,0.00970182847231627,0.00382230244576931,0.0102590871974826,0.000515949563123286
739,-0.00366090633906424,-0.00706653762608767,0.0105318604037166,0.00277839321643114,0.00850306730717421,-0.00400414085015655
740,-0.00283362623304129,-0.00938059389591217,0.0131240775808692,0.00256528309546411,0.00436398526653647,-0.00688811019062996
741,-0.00187821208965033,-0.00982806924730539,0.0157631132751703,0.00125535379629582,0.000151593951159157,-0.00869810022413731
742,-0.00109456002246588,-0.00883786659687757,0.0166884884238243,-0.00211156206205487,0.000663009588606656,-0.00840699020773172
743,-0.000925188534893095,-0.00571051938459277,0.0144334742799401,-0.00486333202570677,0.00518200499936938,-0.00253100739791989
744,-0.00101436546538025,-0.00047319641453214,0.00947614759206772,-0.00443570269271731,0.00993040204048157,0.00897373631596565
745,-0.0011717164888978,0.00466795917600393,0.00481214094907045,-0.00134129880461842,0.0128137180581689,0.0210196599364281
746,-0.00173247093334794,0.00775710865855217,0.00303977029398084,0.00234012026339769,0.0136861568316817,0.0286861322820187
747,-0.00212562922388315,0.00868352316319942,0.00364428875036538,0.00448174634948373,0.0138891171664,0.0304595753550529
748,-0.00186990515794605,0.00806078687310219,0.00351230264641345,0.00427829893305898,0.0142831988632679,0.0274552758783102
749,-0.00175976136233658,0.0066836909390986,0.00139071606099606,0.00284298649057746,0.0141275394707918,0.0218132250010967
750,-0.00231307675130665,0.00546225113794208,-0.000205081218155101,0.00240391469560564,0.0130824549123645,0.0155662735924125
751,-0.00329741952009499,0.00382686569355428,9.87594612524845E-05,0.00394751504063606,0.0106123182922602,0.00957100931555033
752,-0.0045023700222373,-0.000321411178447306,0.00108242779970169,0.00590184796601534,0.00652320589870214,0.00382535485550761
753,-0.00541847804561257,-0.00593232456594706,0.0026960012037307,0.0064491368830204,0.00280227977782488,-0.000527652911841869
754,-0.00594644481316209,-0.00866428855806589,0.00484942691400647,0.00561068253591657,-6.63092214381322E-05,-0.00199787714518607
755,-0.00657940609380603,-0.00665958179160953,0.00599000975489616,0.00415123766288161,-0.00296685891225934,-0.000534971884917468
756,-0.00756555702537298,-0.0016751290531829,0.00605119811370969,0.00246793031692505,-0.0052047218196094,0.00305203069001436
757,-0.0095244599506259,0.00347391050308943,0.00636579841375351,0.000365877436706796,-0.00774348014965653,0.00728342449292541
758,-0.0122701916843653,0.00729365414008498,0.0077937706373632,-0.00216166069731116,-0.0122393369674683,0.0111105153337121
759,-0.0142760928720236,0.00976637843996286,0.0102732302621007,-0.00350117706693709,-0.0168990734964609,0.0140630695968866
760,-0.0148071916773915,0.0101424157619476,0.0123902047052979,-0.00242533255368471,-0.018292723223567,0.0146761694923043
761,-0.0132865468040109,0.00765064032748342,0.0123645579442382,-0.000312084914185107,-0.0139410076662898,0.0121747180819511
762,-0.00975453574210405,0.00399425532668829,0.0102081364020705,0.00139498570933938,-0.00477145239710808,0.00849760510027409
763,-0.00609829509630799,0.00182217301335186,0.00661669578403234,0.00244087027385831,0.00446617743000388,0.0064847799949348
764,-0.00388623285107315,0.00159151072148234,0.00160459277685732,0.00209288159385324,0.00946431141346693,0.00706320349127054
765,-0.00385083723813295,0.00154420116450638,-0.00380936893634498,-0.000455033557955176,0.00917462445795536,0.009260268881917
766,-0.00569811882451177,0.00108360208105296,-0.00728376442566514,-0.00333193899132311,0.00564368860796094,0.0124602979049087
767,-0.00795959495007992,0.0024001335259527,-0.00767786893993616,-0.00417038518935442,0.00182847492396832,0.0157752484083176
768,-0.00963499490171671,0.00522064324468374,-0.00661602849140763,-0.00490633212029934,-0.000678875367157161,0.016693277284503
769,-0.0105680525302887,0.00566922919824719,-0.00545305758714676,-0.00780329154804349,-0.00284378649666905,0.0138440569862723
770,-0.0115221161395311,0.00297805643640459,-0.00416436512023211,-0.0113915633410215,-0.00815298035740852,0.00896091293543577
771,-0.0132317850366235,-0.000611367868259549,-0.00297631602734327,-0.0131588606163859,-0.0166447069495916,0.00513132847845554
772,-0.0150153115391731,-0.00410195626318455,-0.00166405830532312,-0.0123525401577353,-0.0233509074896574,0.00305709196254611
773,-0.0157732143998146,-0.00802992284297943,-0.000520556641276926,-0.0115265296772122,-0.0257406327873468,-0.000304279674310237
774,-0.0161832552403212,-0.0133323036134243,-0.00117477984167635,-0.0138418497517705,-0.0251685753464699,-0.00667547388002276
775,-0.017537385225296,-0.0185903515666723,-0.00307872472330928,-0.0171799510717392,-0.0238294284790754,-0.0128681398928165
776,-0.018644517287612,-0.0203407425433397,-0.00280202995054424,-0.0170848332345486,-0.0227766893804073,-0.0165138598531485
777,-0.0176557488739491,-0.0183000173419714,0.00074947567190975,-0.0141437677666545,-0.0199136361479759,-0.0200764741748571
778,-0.0144278015941381,-0.0148961786180735,0.00532200373709202,-0.0106832636520267,-0.0132181392982602,-0.0236465241760015
779,-0.00997195392847061,-0.0106232669204474,0.00854244269430637,-0.00637580500915647,-0.00528166256844997,-0.0220775902271271
780,-0.00595657201483846,-0.00476675573736429,0.00910834688693285,-0.00143537204712629,0.000481454422697425,-0.0131025379523635
781,-0.00252845184877515,0.00252742390148342,0.00818285811692476,0.00272237323224545,0.00586347840726376,-0.000584268709644675
782,0.000801906222477555,0.0100773656740785,0.00768513651564717,0.00457976385951042,0.0127897942438722,0.00968541204929352
783,0.00318978517316282,0.016036257147789,0.0071186819113791,0.00329388468526304,0.0180084649473429,0.0149421291425824
784,0.00474252924323082,0.0180982779711485,0.00600125966593623,-0.000319409824442118,0.0197301227599382,0.0148768704384565
785,0.00611249124631286,0.014894912019372,0.0057185017503798,-0.00552920950576663,0.0197469145059586,0.00964019261300564
786,0.0070042796432972,0.00915545597672462,0.0063871662132442,-0.0106597971171141,0.0177364982664585,0.00368171534501016
787,0.00662063946947455,0.00503394100815058,0.0058046467602253,-0.0128379240632057,0.011926650069654,0.00250931060872972
788,0.00501000741496682,0.00362789118662477,0.00333785265684128,-0.0112409396097064,0.00361389969475567,0.00581963919103146
789,0.00329332333058119,0.00386104919016361,0.000964200764428824,-0.00745508633553982,-0.00315614813007414,0.0103133618831635
790,0.00274032982997596,0.00483410945162177,0.000360406964318827,-0.00309591507539153,-0.00450816657394171,0.0142558692023158
791,0.0037591562140733,0.00663996674120426,0.00213334383442998,0.00210952083580196,-0.000724670826457441,0.0172903668135405
792,0.00471005449071527,0.00823748018592596,0.00602748151868582,0.00741952937096357,0.00356839271262288,0.0180637054145336
793,0.00415313290432096,0.0080595463514328,0.010822587646544,0.0104937562718987,0.00536243617534637,0.0157689619809389
794,0.00231405720114708,0.00693932501599193,0.0143875647336245,0.0111377481371164,0.00426288601011038,0.0133746601641178
795,-0.000206832395633683,0.00627172132954001,0.0153162842616439,0.011429101228714,0.000708896026480943,0.015305008739233
796,-0.00273152976296842,0.00787437055259943,0.0142988078296185,0.0134377190843225,-0.00388630433008075,0.0222022887319326
797,-0.00441721128299832,0.0128291267901659,0.0121943457052112,0.0159909185022116,-0.00795193202793598,0.0288239680230618
798,-0.00488526513800025,0.0171213336288929,0.00893881916999817,0.0160900540649891,-0.00996134523302317,0.0294121466577053
799,-0.00449718115851283,0.0167507138103247,0.00446397345513105,0.0133940726518631,-0.00892878416925669,0.0231070201843977
800,-0.00420772144570947,0.0127996960654855,-0.000765071192290634,0.00915697030723095,-0.00530093861743808,0.0125394212082028
801,-0.00481904344633222,0.008241749368608,-0.00526288524270058,0.00512410281226039,-0.00118343404028565,0.00198793318122625
802,-0.00582705158740282,0.0050017680041492,-0.00707007991150022,0.00287760491482913,0.00106737483292818,-0.00490096863359213
803,-0.00636452529579401,0.00364502402953804,-0.00597166921943426,0.00204565678723156,0.000548748241271824,-0.00744094373658299
804,-0.00597604131326079,0.00389184942469001,-0.0034148613922298,0.00204543163999915,-0.00193283159751445,-0.00702036544680595
805,-0.00483993906527758,0.00407693348824978,-0.00111326633486897,0.00216234661638737,-0.00367341400124133,-0.00580722372978926
806,-0.00363204930908978,0.0030130622908473,-7.6521813753061E-05,0.00127087614964694,-0.00317674805410206,-0.00499614421278238
807,-0.00191096181515604,0.00279985065571964,0.000492705847136676,0.000311244424665347,-0.00252220616675913,-0.00355424848385155
808,0.000506495009176433,0.00556652573868632,0.00184729043394327,0.00048616572166793,-0.00321007054299116,-0.000311062467517331
809,0.00239133578725159,0.009891452267766,0.0036688435357064,0.00100034300703555,-0.00347744231112301,0.00440064538270235
810,0.00332113960757852,0.0126342438161373,0.00470186211168766,0.000901427119970322,-0.00138698366936296,0.00931706372648478
811,0.00406847149133682,0.0120098786428571,0.00512673705816269,-0.000391106033930555,0.00260216626338661,0.0124967200681567
812,0.00495128659531474,0.00912262499332428,0.00596663542091846,-0.00273763528093696,0.00612450344488025,0.0131505830213428
813,0.00538526847958565,0.00593016808852553,0.00711098778992891,-0.00441895285621285,0.00713790860027075,0.01320397015661
814,0.00463073933497071,0.00258064013905823,0.00750459171831608,-0.00390474963933229,0.00521244900301099,0.0142696546390653
815,0.00315416208468378,-0.00127284473273903,0.00593049777671695,-0.00175591604784131,0.00223497999832034,0.0144202969968319
816,0.00257439631968737,-0.00427559716627002,0.00291369413025677,0.000350502872606739,0.00288904411718249,0.0112363789230585
817,0.00301997689530253,-0.00382103491574526,0.000702683231793344,0.00206279405392706,0.00832574348896742,0.00715287728235126
818,0.00290605775080621,0.00078376563033089,0.00032571770134382,0.00444541638717055,0.0130499806255102,0.00664467457681894
819,0.00111611559987068,0.00644360901787877,0.000827045587357134,0.00705412309616804,0.0118182804435492,0.00912026129662991
820,-0.00195153593085706,0.009804449044168,0.00142916908953339,0.00715800980105996,0.0048625678755343,0.0106116561219096
821,-0.00450693210586905,0.0108740646392107,0.0023660222068429,0.00428084284067154,-0.00267055537551641,0.0103592127561569
822,-0.0050857407040894,0.0111572491005063,0.00340687064453959,0.00135427701752633,-0.00548523152247071,0.0103566162288189
823,-0.0037306563463062,0.0107778394594789,0.00377990258857608,-0.000120693155622575,-0.00212571443989873,0.0106609165668488
824,-0.00170319573953748,0.00889133475720882,0.00300156301818788,-0.00154069531708956,0.0043834731914103,0.00930286198854446
825,-0.00126036908477545,0.00562602654099464,0.00101107044611126,-0.00401908811181784,0.00783209502696991,0.00586117012426257
826,-0.00319427787326276,0.00313949561677873,-0.0015200711786747,-0.00608312431722879,0.00419266289100051,0.00294917775318027
827,-0.005753587000072,0.00340239587239921,-0.00343499425798655,-0.00549130840227008,-0.0052519328892231,0.00299008912406862
828,-0.00701257959008217,0.00489023653790355,-0.00290512084029615,-0.00207461463287473,-0.0152101218700409,0.0041497265920043
829,-0.00597258377820253,0.00523145450279117,0.000781543203629553,0.00185460888314992,-0.0198210217058659,0.00322569324634969
830,-0.00286180106922984,0.00456658890470862,0.00536441802978516,0.00290047656744719,-0.0179523583501577,3.64550141966902E-05
831,0.000831755576655269,0.00336591177619994,0.00792890414595604,-0.000492994789965451,-0.0124001260846853,-0.00454791588708758
832,0.00325373094528914,0.00180110824294388,0.00695633422583342,-0.0063722487539053,-0.00543635478243232,-0.00948458351194859
833,0.00396552123129368,0.000794174207840115,0.00366188050247729,-0.0108850644901395,0.00248604058288038,-0.0116457650437951
834,0.00422213179990649,0.00101367617025971,0.000865879177581519,-0.011248953640461,0.0105684315785766,-0.00849869567900896
835,0.00482807215303183,0.00268944539129734,-0.000285621033981442,-0.00813366379588842,0.0165996346622705,-0.0025990903377533
836,0.00521158333867788,0.00639963429421186,-0.000657270546071231,-0.00522171566262841,0.0183444879949093,0.000866579648572952
837,0.00416874513030052,0.0106728719547391,-0.00136034993920475,-0.00475295074284077,0.0147718153893948,0.0010722199222073
838,0.00132819137070328,0.0121963955461979,-0.00230298959650099,-0.00550044281408191,0.00735449232161045,0.00177683413494378
839,-0.00155668682418764,0.0102482233196497,-0.00228245067410171,-0.00695988023653626,-0.000103690588730387,0.00402709655463696
840,-0.00248051318340003,0.00652452232316136,-0.00124813022557646,-0.00938945729285479,-0.00512812193483114,0.00550511293113232
841,-0.0019420855678618,0.00296214362606406,-0.000574606645386666,-0.0112122474238276,-0.00912040937691927,0.00503439363092184
842,-0.00103977473918349,0.000592228025197983,-0.000517461798153818,-0.0115088252350688,-0.0124290632084012,0.00204620370641351
843,0.000495696323923767,-0.000790252117440104,-0.000901702966075391,-0.0110833188518882,-0.0124786933884025,-0.00252943905070424
844,0.00213433662429452,-0.00130834826268256,-0.0021203791256994,-0.0103748692199588,-0.00940373167395592,-0.00538315577432513
845,0.00251628272235394,-0.00130755372811109,-0.00345720304176211,-0.00935184676200151,-0.00621260888874531,-0.0053126816637814
846,0.000667986809276044,-0.00278441188856959,-0.00381717714481056,-0.00867003761231899,-0.0065414453856647,-0.00485208118334413
847,-0.00306962546892464,-0.00601828843355179,-0.00317953899502754,-0.00836076494306326,-0.0112275239080191,-0.00549469562247396
848,-0.00586248328909278,-0.00800979696214199,-0.00231430283747613,-0.00731135625392199,-0.014664021320641,-0.0062125762924552
849,-0.00521235028281808,-0.00716141192242503,-0.00273814355023205,-0.00575497094541788,-0.0125077962875366,-0.00701023824512959
850,-0.00161393592134118,-0.00439500715583563,-0.00451953150331974,-0.00505992863327265,-0.00672105979174376,-0.00882916245609522
851,0.00311565585434437,-0.0013608974404633,-0.0051791095174849,-0.0057791736908257,0.000848229858092964,-0.0114251775667071
852,0.00729936268180609,0.000745903118513525,-0.00354607542976737,-0.00756337633356452,0.00952374190092087,-0.0126624433323741
853,0.0097025316208601,0.00253735086880624,-0.00143448146991432,-0.00889590289443731,0.0165701843798161,-0.0101069239899516
854,0.00974791869521141,0.00437107775360346,-0.00118803977966309,-0.00873846840113401,0.0193249545991421,-0.0048480574041605
855,0.00782124977558851,0.00423311395570636,-0.00409926334396005,-0.00887488014996052,0.01706887409091,-0.00129786611068994
856,0.00610332330688834,0.00173283228650689,-0.0089792562648654,-0.0106830140575767,0.0110659264028072,-0.00189212278928608
857,0.00614034663885832,-0.00032694055698812,-0.0114671550691128,-0.0122956642881036,0.00431318301707506,-0.00457433704286814
858,0.00707412976771593,-0.000589344766922295,-0.00861114077270031,-0.0119628729298711,-0.000492171675432473,-0.00669559370726347
859,0.00712327193468809,-0.000522022310178727,-0.00331869721412659,-0.0102464929223061,-0.00345415831543505,-0.00824652705341578
860,0.0056674787774682,-0.00159016693942249,-0.000242589812842198,-0.00858123693615198,-0.00646254140883684,-0.0113100418820977
861,0.00436488818377256,-0.00397654669359326,-0.000482530478620902,-0.00872195512056351,-0.00904818065464497,-0.017691707238555
862,0.00464243860915303,-0.00613945350050926,-0.0019020518520847,-0.0105029689148068,-0.00943848118185997,-0.0245063044130802
863,0.00607269164174795,-0.00562826497480273,-0.00197497103363276,-0.0108286775648594,-0.00856451690196991,-0.026143990457058
864,0.00737836584448814,-0.00263375649228692,-0.000573188357520849,-0.00898501183837652,-0.00900168996304274,-0.0227152705192566
865,0.00789863336831331,0.000420560041675344,0.000908294459804893,-0.00731126498430967,-0.0113706830888987,-0.0189133808016777
866,0.00793748162686825,0.00167629902716726,0.0011746883392334,-0.00727128563448787,-0.0140333799645305,-0.016722496598959
867,0.00808664131909609,0.00120069622062147,-0.000402024044888094,-0.00901217758655548,-0.0152336563915014,-0.0143669657409191
868,0.00909004174172878,0.000864516186993569,-0.00297862384468317,-0.0117582362145185,-0.0144632523879409,-0.0107866898179054
869,0.010491437278688,0.00108943739905953,-0.00599734717980027,-0.0151974633336067,-0.0134001951664686,-0.00836362782865763
870,0.0108492095023394,0.000443870056187734,-0.00999539904296398,-0.020416459068656,-0.0136235617101192,-0.00969805102795362
871,0.0102240974083543,-0.00121191504877061,-0.0144887724891305,-0.0271300952881575,-0.014238272793591,-0.01464316342026
872,0.00948996841907501,-0.00234084646217525,-0.018136627972126,-0.0327418595552444,-0.014960422180593,-0.0212616287171841
873,0.00918527971953154,-0.00170741719193757,-0.0202493667602539,-0.0356903746724129,-0.0169576127082109,-0.0280246008187532
874,0.00971181225031614,0.000454005086794496,-0.0211493670940399,-0.0367018282413483,-0.0208770986646414,-0.034156821668148
875,0.0106705352663994,0.00246177799999714,-0.0219695642590523,-0.0377395711839199,-0.0268477611243725,-0.0394673310220242
876,0.0106678660959005,0.00197815266437829,-0.0237734634429216,-0.041320338845253,-0.0345522724092007,-0.0449982285499573
877,0.00912901852279902,-0.00127401622012258,-0.0266639906913042,-0.0475726574659348,-0.0432801991701126,-0.0513966977596283
878,0.00807609222829342,-0.00494665745645761,-0.0297208856791258,-0.0534436367452145,-0.0516312532126904,-0.0586621798574924
879,0.00895951595157385,-0.00735868932679296,-0.0319045968353748,-0.0572955422103405,-0.0575194954872131,-0.0669088363647461
880,0.0105493785813451,-0.00798638816922903,-0.0323873907327652,-0.0593866780400276,-0.0596917495131493,-0.0739298239350319
881,0.0115279518067837,-0.00769748166203499,-0.0311884619295597,-0.0600226521492004,-0.0595195554196835,-0.0776530429720879
882,0.0118707800284028,-0.00784052722156048,-0.0290049314498901,-0.05939831584692,-0.05897281691432,-0.0788943246006966
883,0.0121584571897984,-0.00744089251384139,-0.026633283123374,-0.0576408505439758,-0.0590563975274563,-0.0784223899245262
884,0.0120104774832726,-0.00562472036108375,-0.025907238945365,-0.0566527508199215,-0.0617492757737637,-0.0769411325454712
885,0.0111052431166172,-0.00339471152983606,-0.0281708091497421,-0.0585654079914093,-0.0680440589785576,-0.0760614275932312
886,0.00933499354869127,-0.00205647409893572,-0.0328462831676006,-0.0630889162421227,-0.0775628015398979,-0.0772995054721832
887,0.00632331939414144,-0.00126154266763479,-0.0380324982106686,-0.06782216578722,-0.0884345024824142,-0.0798310562968254
888,0.00312697258777916,0.00101106718648225,-0.0414917916059494,-0.0701713636517525,-0.0969785004854202,-0.0811409279704094
889,0.000520714442245662,0.00516813760623336,-0.042883463203907,-0.0697165876626968,-0.10382129997015,-0.0805665329098701
890,-0.0021999403834343,0.00837738998234272,-0.043260432779789,-0.0682519897818565,-0.111575603485107,-0.0796949192881584
891,-0.005373265594244,0.0079071894288063,-0.0433228276669979,-0.0676469132304192,-0.118958488106728,-0.0797424837946892
892,-0.00778454774990678,0.0050683175213635,-0.0437937341630459,-0.0685512721538544,-0.123449020087719,-0.0798209011554718
893,-0.00872807204723358,0.00241255131550133,-0.0455274917185307,-0.0715262144804001,-0.124695986509323,-0.0795323178172112
894,-0.00866329669952393,-0.000141757816891186,-0.0481120944023132,-0.0768062695860863,-0.123412698507309,-0.0805917903780937
895,-0.00635380344465375,-0.00336724682711065,-0.0493312105536461,-0.0821007862687111,-0.118650831282139,-0.0830996036529541
896,-0.00151248660404235,-0.00517357885837555,-0.0484253093600273,-0.0842710360884666,-0.1117849573493,-0.0845519825816154
897,0.00284053082577884,-0.00332182017154992,-0.0476433634757996,-0.0843186154961586,-0.107085540890694,-0.0850248336791992
898,0.00468508945778012,-0.000273830635705963,-0.0489864870905876,-0.0852672085165977,-0.105481997132301,-0.0871588736772537
899,0.00431316485628486,-5.3097763156984E-05,-0.0523547679185867,-0.0877848118543625,-0.105716839432716,-0.0931665897369385
900,0.00199343217536807,-0.00292336940765381,-0.0562464408576488,-0.0902360305190086,-0.108316861093044,-0.101927943527699
901,-0.00114774110261351,-0.00631205691024661,-0.0580572597682476,-0.0899273678660393,-0.112487353384495,-0.107416644692421
902,-0.0023590917699039,-0.00819426216185093,-0.0561083517968655,-0.0873362272977829,-0.114714615046978,-0.10604302585125
903,-0.000921428843867034,-0.0080643929541111,-0.0524570532143116,-0.0868149325251579,-0.113869339227676,-0.100824303925037
904,0.00047019962221384,-0.00749823451042175,-0.0508664436638355,-0.0911350846290588,-0.111483171582222,-0.0970946997404099
905,0.00014048334560357,-0.00829849019646645,-0.0521336868405342,-0.0982242003083229,-0.108407631516457,-0.0974041447043419
906,-0.00175923411734402,-0.00986462831497192,-0.05440878495574,-0.103392034769058,-0.105820313096046,-0.0997650995850563
907,-0.00488123297691345,-0.0100167840719223,-0.0560035891830921,-0.102330386638641,-0.104015685617924,-0.10025617480278
908,-0.00747534027323127,-0.00702349795028567,-0.0555689297616482,-0.0942129045724869,-0.101381443440914,-0.0968190878629684
909,-0.00836164318025112,-0.00231613731011748,-0.0527997277677059,-0.0841082260012627,-0.0983622148633003,-0.0915499329566956
910,-0.00777270970866084,0.000848967756610364,-0.0494677238166332,-0.0786425620317459,-0.0958296805620193,-0.0878408178687096
911,-0.00550325261428952,0.00211396883241832,-0.0466756112873554,-0.0783979594707489,-0.0922691076993942,-0.0849772244691849
912,-0.00220510386861861,0.00305340648628771,-0.0429246947169304,-0.0777323246002197,-0.0868552029132843,-0.0796789824962616
913,0.000575296231545508,0.00355941895395517,-0.0376359708607197,-0.0728385895490646,-0.0803306847810745,-0.0723020806908607
914,0.00197381060570478,0.00247600255534053,-0.0328274145722389,-0.0652879327535629,-0.073142372071743,-0.0660099908709526
915,0.0019338057609275,-0.000106802704976872,-0.0310834459960461,-0.0582166537642479,-0.0660645663738251,-0.0619467683136463
916,0.00137049786280841,-0.00272608082741499,-0.03221695125103,-0.0528596490621567,-0.0594771727919579,-0.0590328015387058
917,0.00163143186364323,-0.0041883559897542,-0.0329746268689632,-0.0487746968865395,-0.0529215633869171,-0.05676394328475
918,0.00307258637621999,-0.00480907410383224,-0.0319385677576065,-0.0466373264789581,-0.0476896055042744,-0.0565065443515778
919,0.00452143466100097,-0.00539595121517777,-0.0299049839377403,-0.0464524105191231,-0.0449015609920025,-0.057987354695797
920,0.00529782893136144,-0.00566277047619224,-0.0271793957799673,-0.0454287230968475,-0.0424236431717873,-0.0581750720739365
921,0.00636272178962827,-0.00541387544944882,-0.0243198070675135,-0.0424057319760323,-0.0374625138938427,-0.0562448501586914
922,0.00819731689989567,-0.00577191496267915,-0.0214667487889528,-0.0382967367768288,-0.0304741095751524,-0.0530897602438927
923,0.0109479082748294,-0.00598627468571067,-0.0179320015013218,-0.0339692607522011,-0.023414483293891,-0.0487742014229298
924,0.0134097915142775,-0.00358096696436405,-0.0158707853406668,-0.0306941904127598,-0.0180546417832375,-0.0443031825125217
925,0.0129517186433077,0.000427116785431281,-0.0174798015505075,-0.0277326162904501,-0.0156351961195469,-0.0402440689504147
926,0.00945650134235621,0.00307906256057322,-0.0204938631504774,-0.0240525994449854,-0.0148833468556404,-0.0356323346495628
927,0.0046021519228816,0.00413898471742868,-0.0221834816038609,-0.0209012180566788,-0.0141662554815412,-0.0294992830604315
928,0.000306124158669263,0.00494502857327461,-0.0222123339772224,-0.0187448523938656,-0.0125950034707785,-0.0218975953757763
929,-0.00165405671577901,0.00579473515972495,-0.021695464849472,-0.0165586546063423,-0.009705132804811,-0.0138975949957967
930,-0.000843630463350564,0.006782541051507,-0.0207364466041327,-0.012500986456871,-0.00623437762260437,-0.0054220356978476
931,0.00168016098905355,0.00802498683333397,-0.0179101824760437,-0.00512662809342146,-0.00320130167528987,0.00381780439056456
932,0.00390956597402692,0.00867640040814877,-0.0126954559236765,0.00443374132737517,-0.00165804836433381,0.0124185224995017
933,0.00437359418720007,0.00820184499025345,-0.00545741803944111,0.0137411495670676,-0.00173974072095007,0.0194927528500557
934,0.00261792237870395,0.00697227800264955,0.00185867387335747,0.0212204959243536,-0.00337788462638855,0.0259497854858637
935,-0.000331797840772197,0.00532283959910274,0.00685637071728706,0.0259885005652905,-0.00562513479962945,0.032234612852335
936,-0.00199070200324059,0.00391868688166142,0.0101568950340152,0.0283029824495316,-0.00483724195510149,0.037824708968401
937,-0.00144925259519368,0.00326471240259707,0.0126296263188124,0.0290131121873856,0.000883107422851026,0.0412444472312927
938,0.000494435545988381,0.00245851487852633,0.0140543607994914,0.0284823309630156,0.0106458170339465,0.0395234785974026
939,0.00315545289777219,0.00124987086746842,0.0158808007836342,0.0283471196889877,0.0221412777900696,0.0330932885408401
940,0.00475728046149015,0.00011889651796082,0.0184483882039785,0.0301461946219206,0.0314510017633438,0.0262792650610209
941,0.00403766334056854,-0.000787180964834988,0.01937560364604,0.0336882546544075,0.0366154387593269,0.0224246457219124
942,0.00262028351426125,-0.000887452799361199,0.0184875261038542,0.0380734875798225,0.040035679936409,0.022294694557786
943,0.00197917548939586,7.41800613468513E-05,0.0182034969329834,0.0418420471251011,0.0446485355496407,0.0244846325367689
944,0.00151642877608538,0.0019136683549732,0.0187959652394056,0.0439358130097389,0.0489406771957874,0.0284851938486099
945,0.00112619658466429,0.00427908217534423,0.0180218163877726,0.0437438115477562,0.0496830902993679,0.0349931344389915
946,0.00141252914909273,0.00665133679285645,0.0150858759880066,0.0414445213973522,0.0475329644978046,0.0429680943489075
947,0.00159729213919491,0.0093282563611865,0.0120886107906699,0.038573432713747,0.0454307980835438,0.0504084415733814
948,0.00113242166116834,0.0127775613218546,0.0117376921698451,0.0365564301609993,0.0451112687587738,0.0558869205415249
949,0.000868929491844028,0.0153077468276024,0.0151955643668771,0.0359569378197193,0.0465472973883152,0.0589882023632526
950,0.00080159876961261,0.0157547630369663,0.0219132043421268,0.0388237163424492,0.0482151098549366,0.0629221200942993
951,-0.000601475185249001,0.0156002528965473,0.0293101128190756,0.0460211671888828,0.0479284077882767,0.0702493712306023
952,-0.00380195979960263,0.0141381369903684,0.0336611084640026,0.0528683327138424,0.0454062446951866,0.0768901854753494
953,-0.00683572050184011,0.00962647516280413,0.0339665934443474,0.055303793400526,0.0439532808959484,0.0779020488262177
954,-0.00800691545009613,0.00408191420137882,0.0322139002382755,0.0543689019978046,0.0458901934325695,0.0732237622141838
955,-0.00756224151700735,0.000656290794722736,0.0302336886525154,0.0535699427127838,0.0493704900145531,0.0673676580190659
956,-0.00619289325550199,0.000200784474145621,0.0291133653372526,0.055399477481842,0.0531713403761387,0.0650506392121315
957,-0.0041994103230536,0.000788298668339849,0.0295216869562864,0.058024026453495,0.0586013235151768,0.0659823194146156
958,-0.00208916468545794,0.000349690148141235,0.0306227263063192,0.0579452253878117,0.0654249861836433,0.0673567056655884
959,-0.000736672431230545,-0.00104279478546232,0.0305193457752466,0.05452786013484,0.0713727474212646,0.0679019168019295
960,-0.000607568596024066,-0.00215936172753572,0.0291767716407776,0.0504352301359177,0.0752954930067062,0.0677245631814003
961,-0.00123777589760721,-0.00168921600561589,0.0287719611078501,0.0497028194367886,0.0775744169950485,0.0670871362090111
962,-0.00231730937957764,0.000248551688855514,0.030117629095912,0.0534916371107101,0.0778464749455452,0.0661166831851006
