,AF3,AF4,Fp1,Fp2,AF7,AF8
0,0.00205624359659851,0.000679158722050488,0.0193202532827854,0.0239887405186892,0.0205894652754068,0.00909184571355581
1,0.00277363159693778,0.00441316049546003,0.00980381760746241,0.0185762085020542,0.0195330157876015,0.00719677330926061
2,0.0051445378921926,0.00796594191342592,0.00148421677295119,0.0103526804596186,0.021411020308733,0.00465501891449094
3,0.00645161373540759,0.00772380502894521,-0.00405021570622921,0.00105536996852607,0.0234791450202465,0.000868406030349433
4,0.00452735694125295,0.00241906917653978,-0.00539403967559338,-0.00594587298110127,0.0225534718483686,-0.00415730057284236
5,0.000676291296258569,-0.00425905454903841,-0.00270673306658864,-0.00835957564413548,0.0196812152862549,-0.00857433769851923
6,-0.00325208716094494,-0.00762602360919118,0.000806919182650745,-0.00554998964071274,0.0162880402058363,-0.00841131247580051
7,-0.00785497855395079,-0.006165677215904,0.00186423200648278,0.00173668132629246,0.0124297216534615,-0.000907344452571124
8,-0.01217823009938,-0.000448755570687354,0.00201267166994512,0.0121644642204046,0.0116659179329872,0.0131627600640059
9,-0.0139039121568203,0.0078361164778471,0.0040927710942924,0.0232832431793213,0.0157023817300797,0.0289462376385927
10,-0.0135870017111301,0.0142331030219793,0.00715050986036658,0.0308806318789721,0.0194916445761919,0.039771243929863
11,-0.01245585270226,0.0148972775787115,0.00926319975405931,0.0326020941138268,0.020150326192379,0.0424284599721432
12,-0.0110364202409983,0.0106271486729383,0.00992113910615444,0.0306025743484497,0.0187258180230856,0.0384048148989677
13,-0.00962350890040398,0.00520909996703267,0.0104055479168892,0.0296596884727478,0.0166448708623648,0.0313405804336071
14,-0.00703856768086553,0.00170439423527569,0.0127062257379293,0.031693410128355,0.017309844493866,0.0243598464876413
15,-0.00343935028649867,0.000257944164332002,0.0163028370589018,0.033971831202507,0.0218367837369442,0.0192745421081781
16,-0.00148351083043963,-0.000576881982851774,0.0198063924908638,0.0350408442318439,0.0261834636330605,0.017862556502223
17,-0.00172350881621242,-0.000748912920244038,0.0233807172626257,0.0366972908377647,0.0277741216123104,0.0210236627608538
18,-0.00254452624358237,0.000586879788897932,0.0273293294012547,0.0405718721449375,0.0277226660400629,0.0272699911147356
19,-0.00335231912322342,0.00303187174722552,0.0322361551225185,0.0471632704138756,0.0273518208414316,0.0345581322908401
20,-0.00399199873209,0.00516801001504064,0.0384391322731972,0.0546618551015854,0.0279374662786722,0.0409454703330994
21,-0.00385417114011943,0.00546068930998445,0.0441858433187008,0.0592131204903126,0.0314992256462574,0.0440261326730251
22,-0.00299681024625897,0.0035523131955415,0.0463149808347225,0.0586774200201035,0.0379789620637894,0.0428756773471832
23,-0.00262146675959229,0.000784321397077292,0.0431889444589615,0.05442975461483,0.0440823771059513,0.0390366427600384
24,-0.00403165817260742,-0.00178069435060024,0.0369398780167103,0.0492708645761013,0.0478247366845608,0.0340944789350033
25,-0.00717523042112589,-0.00503129418939352,0.0312301721423864,0.044667299836874,0.0497055910527706,0.0279686525464058
26,-0.00982649158686399,-0.00900924764573574,0.0289166010916233,0.0424641706049442,0.05044811591506,0.0217241570353508
27,-0.00998880248516798,-0.0113148959353566,0.0313923321664333,0.0455249212682247,0.0503822788596153,0.0186656452715397
28,-0.00851151905953884,-0.0111353704705834,0.0364878959953785,0.0521535202860832,0.0484314002096653,0.0189727451652288
29,-0.00642999913543463,-0.00992568675428629,0.0410907156765461,0.0571030415594578,0.0450099408626556,0.0189437102526426
30,-0.00378751941025257,-0.00896875001490116,0.0443087071180344,0.0577013492584229,0.0433453805744648,0.0164976883679628
31,-0.00188701134175062,-0.00912439450621605,0.0453201644122601,0.0544124506413937,0.0441528186202049,0.0131642315536737
32,-0.00194680655840784,-0.00961598474532366,0.0445526726543903,0.0503706336021423,0.0453377813100815,0.012712225317955
33,-0.00301805813796818,-0.00860061682760715,0.0447702035307884,0.0492147095501423,0.0460359044373035,0.0172714851796627
34,-0.0032233945094049,-0.006206757389009,0.0469213165342808,0.0510279946029186,0.0475130341947079,0.0239811521023512
35,-0.00186478451360017,-0.00420184712857008,0.0497894249856472,0.0535807386040688,0.0512320548295975,0.028292004019022
36,-0.000305636640405282,-0.00319007714278996,0.05225470662117,0.0559279024600983,0.0547196455299854,0.029367720708251
37,1.73349435499404E-05,-0.00235452433116734,0.0534889288246632,0.0580227747559547,0.0538748763501644,0.0289109610021114
38,-0.000754721637349576,-0.00220657582394779,0.0534043721854687,0.0587379671633244,0.0496903844177723,0.0268349591642618
39,-0.00259509426541626,-0.00384895503520966,0.0518567264080048,0.0567659065127373,0.0445910058915615,0.02268261089921
40,-0.00546329328790307,-0.00596442678943276,0.048633586615324,0.0525939576327801,0.0382459945976734,0.0177772287279367
41,-0.00794757809489965,-0.00671799946576357,0.0447936579585075,0.0478443801403046,0.0320293791592121,0.0131231239065528
42,-0.0087764672935009,-0.00605427427217364,0.0418721809983253,0.0442259944975376,0.0289452541619539,0.0094794575124979
43,-0.00832274463027716,-0.00588957499712706,0.0401208028197289,0.0419883355498314,0.0292704645544291,0.00752164144068956
44,-0.0080265961587429,-0.00888607744127512,0.0381513796746731,0.0390778221189976,0.0300093647092581,0.00572649715468287
45,-0.00929342117160559,-0.0134445438161492,0.0347585119307041,0.0350903086364269,0.0265044122934341,0.00319279148243368
46,-0.0116318995133042,-0.0144067732617259,0.0311451368033886,0.0331842750310898,0.0175411440432072,0.00259485305286944
47,-0.0131518263369799,-0.0112885627895594,0.0293500386178494,0.0348041616380215,0.00766516011208296,0.00529946247115731
48,-0.012969353236258,-0.00846968311816454,0.0301157496869564,0.0375686623156071,0.00209702807478607,0.00831613317131996
49,-0.0109749007970095,-0.00875962059944868,0.0334847159683704,0.0395847521722317,0.00372766423970461,0.00856406427919865
50,-0.00815856270492077,-0.0117964167147875,0.0380679219961166,0.0409891419112682,0.0106868585571647,0.00642471853643656
51,-0.0063351602293551,-0.013890921138227,0.0411898642778397,0.0427776463329792,0.0169499889016151,0.00409042276442051
52,-0.00623276177793741,-0.0118754142895341,0.0409687124192715,0.04479169100523,0.0191935710608959,0.00176504685077816
53,-0.00705441180616617,-0.00859633460640907,0.0381031297147274,0.0454184003174305,0.0186266656965017,-0.00131087575573474
54,-0.00788595154881477,-0.0072636129334569,0.0345919243991375,0.0439369790256023,0.0166128966957331,-0.00324096856638789
55,-0.00893080420792103,-0.00737334880977869,0.031136728823185,0.0406258441507816,0.0130669688805938,-0.00223864102736115
56,-0.0102813336998224,-0.00842699687927961,0.0278546847403049,0.0358026549220085,0.0090234624221921,0.00012946518836543
57,-0.0113671738654375,-0.0101476376876235,0.0254453420639038,0.0303318966180086,0.00641371216624975,0.00248901871964335
58,-0.0115367183461785,-0.0111451651901007,0.0248494893312454,0.0260126050561666,0.00526656350120902,0.00560885202139616
59,-0.0102640073746443,-0.0102966837584972,0.0255556479096413,0.0233377777040005,0.00402886187657714,0.00936041586101055
60,-0.00797233171761036,-0.00824126787483692,0.0257717501372099,0.0214056894183159,0.00263577490113676,0.0120657226070762
61,-0.00627864524722099,-0.00659811496734619,0.0244151074439287,0.0200732033699751,0.00184900464955717,0.0126926982775331
62,-0.00609450787305832,-0.00584139674901962,0.0218642707914114,0.0192493293434381,0.00138958019670099,0.0118680465966463
63,-0.0069216163828969,-0.00476131122559309,0.0192876998335123,0.0181358959525824,0.00135053787380457,0.0107368743047118
64,-0.00818051025271416,-0.0024315151385963,0.0172828454524279,0.0159344393759966,0.0014387434348464,0.00919702090322971
65,-0.00938128400593996,7.85825905040838E-05,0.0166140142828226,0.0133335758000612,0.000309269700665027,0.00640664296224713
66,-0.0100371912121773,0.000724934274330735,0.018434027209878,0.0125524960458279,-0.00101620994973928,0.00260474137030542
67,-0.00984569173306227,-0.000794300460256636,0.0222363192588091,0.0148017164319754,-0.000471462990390137,-0.000756573863327503
68,-0.00949901342391968,-0.00307212956249714,0.0257282182574272,0.0190011262893677,-0.000747505517210811,-0.00261733052320778
69,-0.0101313721388578,-0.00516071077436209,0.0269680414348841,0.0233142413198948,-0.00522334687411785,-0.00270898314192891
70,-0.0108395302668214,-0.00708457594737411,0.026463720947504,0.0262911450117826,-0.0099365497007966,-0.00178516155574471
71,-0.0103678870946169,-0.00878413487225771,0.0256845224648714,0.0272162985056639,-0.00847839564085007,-0.000746627920307219
72,-0.00887933000922203,-0.00916578248143196,0.0246030539274216,0.0267806332558393,-0.00099672784563154,0.00195626728236675
73,-0.00649120984598994,-0.00771608995273709,0.0228300038725138,0.0256944857537746,0.00699541578069329,0.00701398821547627
74,-0.00412798579782248,-0.00638163601979613,0.020135547965765,0.0228556841611862,0.0107278255745769,0.0109413927420974
75,-0.00327046099118888,-0.00703653460368514,0.0163905713707209,0.0175275560468435,0.00950257573276758,0.0107531426474452
76,-0.00516835926100612,-0.00879805907607079,0.0116483271121979,0.0113404123112559,0.00373617350123823,0.00712552526965737
77,-0.00924921315163374,-0.00926280487328768,0.00742240902036428,0.00730190519243479,-0.00583592755720019,0.00270571745932102
78,-0.0117509057745337,-0.00725515652447939,0.00692573515698314,0.00745834317058325,-0.0149450385943055,-8.9883957116399E-05
79,-0.0107173658907413,-0.00395232439041138,0.0099660363048315,0.0106589095667005,-0.0203609019517899,-0.000757036672439426
80,-0.00803572032600641,-0.00147397234104574,0.0127956550568342,0.0137559119611979,-0.0223618280142546,-0.000676202937029302
81,-0.00580332195386291,-0.00115943921264261,0.0134633118286729,0.0143733881413937,-0.0209404844790697,-0.00160278414841741
82,-0.00443772552534938,-0.00231026019901037,0.0131026804447174,0.0131724802777171,-0.0161530114710331,-0.00354895857162774
83,-0.0029454380273819,-0.00330173061229289,0.0139095149934292,0.0120571181178093,-0.00969822611659765,-0.00511718913912773
84,-0.0008345294627361,-0.00360225257463753,0.015283927321434,0.0110422493889928,-0.00413615815341473,-0.00506740342825651
85,0.000141256386996247,-0.00374918477609754,0.0136786233633757,0.00985760521143675,-0.0020570713095367,-0.00329055078327656
86,-0.00195302977226675,-0.00473598996177316,0.0085422471165657,0.00969932042062283,-0.00471411645412445,-0.00138331134803593
87,-0.00567995151504874,-0.00652633793652058,0.00451823370531201,0.0124030355364084,-0.00902480259537697,-0.000422601151512936
88,-0.00762289669364691,-0.00592817878350616,0.00589477876201272,0.0177459884434938,-0.0105197560042143,0.000581126951146871
89,-0.0067602307535708,-0.00111290032509714,0.0103795388713479,0.0214976500719786,-0.00948956049978733,0.00234042853116989
90,-0.00473855109885335,0.00368761294521391,0.0122192343696952,0.0192803144454956,-0.00863101053982973,0.00327637209556997
91,-0.00297323893755674,0.00543352589011192,0.0103638581931591,0.0127675021067262,-0.00836186856031418,0.00217171316035092
92,-0.00236708857119083,0.00461701117455959,0.00714517431333661,0.00661093834787607,-0.00819141790270805,-0.000826799310743809
93,-0.00299191102385521,0.00147714256308973,0.00357454875484109,0.00219386909157038,-0.00839105062186718,-0.0050100414082408
94,-0.00316327996551991,-0.00261263432912529,0.000328658148646355,-0.00127252726815641,-0.00872226990759373,-0.00889388844370842
95,-0.00228297151625156,-0.00616144714877009,-0.00218503107316792,-0.0046589826233685,-0.00915555190294981,-0.0124712288379669
96,-0.00122688722331077,-0.00818241201341152,-0.00376366171985865,-0.00750793097540736,-0.0100922770798206,-0.0159407276660204
97,-0.00044759557931684,-0.008414626121521,-0.0036898460239172,-0.00906704179942608,-0.0108935134485364,-0.0192144121974707
98,-0.000424868048867211,-0.00831154081970453,-0.00175870326347649,-0.0100713949650526,-0.0106775388121605,-0.023252097889781
99,-0.000914347998332232,-0.00830530375242233,0.0013910720590502,-0.0105846505612135,-0.00934101641178131,-0.0273494869470596
100,-0.0003147219249513,-0.0073446030728519,0.00439854152500629,-0.0098154591396451,-0.00744970981031656,-0.029542213305831
101,0.00220224400982261,-0.00584026845172048,0.00609134649857879,-0.00855415686964989,-0.0055670072324574,-0.0299460478127003
102,0.00465687224641442,-0.00574572337791324,0.00612345384433866,-0.00837012194097042,-0.0047859731130302,-0.0302465129643679
103,0.0052385525777936,-0.00712275411933661,0.00507109984755516,-0.00839332025498152,-0.0061970273964107,-0.0301875118166208
104,0.00526749016717076,-0.00772929610684514,0.00409865379333496,-0.00640073232352734,-0.00799844600260258,-0.0279378443956375
105,0.00575454719364643,-0.00707280496135354,0.00335728819482028,-0.00244987034238875,-0.00771000143140554,-0.02417709864676
106,0.00618200656026602,-0.00694130407646298,0.00220104213804007,0.00144103425554931,-0.00538357580080628,-0.0221772659569979
107,0.00719352206215262,-0.00784261524677277,0.00106395175680518,0.00380198354832828,-0.00197821762412786,-0.0237172953784466
108,0.00853339489549398,-0.00919033959507942,2.25858711928595E-05,0.00378014682792127,0.000294788042083383,-0.0276109259575605
109,0.00785191170871258,-0.0109794344753027,-0.00200530607253313,0.000881601125001907,-0.00134144048206508,-0.0315272323787212
110,0.00528619298711419,-0.0122690061107278,-0.00457186065614223,-0.00396310025826097,-0.00520954094827175,-0.0336688570678234
111,0.00353885325603187,-0.0110950013622642,-0.00636096624657512,-0.0085400827229023,-0.00723312655463815,-0.0327601991593838
112,0.00316865276545286,-0.0070319315418601,-0.00685793021693826,-0.0106174601241946,-0.00715204607695341,-0.0279655400663614
113,0.00345667311921716,-0.00164462521206588,-0.00581794930621982,-0.00970254652202129,-0.00639202911406755,-0.0202469471842051
114,0.00473689893260598,0.00329131842590868,-0.00391592318192124,-0.00785517506301403,-0.00599117018282413,-0.0125961732119322
115,0.00685175461694598,0.0076033272780478,-0.00198766845278442,-0.00621160957962275,-0.0072819865308702,-0.00648540956899524
116,0.00869282893836498,0.0118304854258895,-0.00033924326999113,-0.00381201319396496,-0.0097156073898077,-0.00179335055872798
117,0.00973554700613022,0.014992494136095,0.000591722899116576,-0.00079884089063853,-0.011390246450901,-0.000194693740922958
118,0.0101462649181485,0.0157822743058205,0.00120112497825176,0.00234414869919419,-0.0119301145896316,-0.00241548614576459
119,0.00962849985808134,0.0140408305451274,0.00223934487439692,0.00579349976032972,-0.0124421808868647,-0.0064208135008812
120,0.00849832221865654,0.0110449651256204,0.00376597372815013,0.00914693716913462,-0.0131676513701677,-0.0105537539348006
121,0.00723515497520566,0.00819058809429407,0.00478252442553639,0.0105686718598008,-0.0146560687571764,-0.0149737764149904
122,0.00595338316634297,0.00606047734618187,0.0048244814388454,0.00901600439101458,-0.0173967890441418,-0.0188410803675652
123,0.00521004246547818,0.00479004113003612,0.00539702503010631,0.00712289521470666,-0.0201664939522743,-0.0186797399073839
124,0.00508708320558071,0.00402097916230559,0.00693206395953894,0.00748115172609687,-0.0223437752574682,-0.0142138218507171
125,0.00540749775245786,0.00408657779917121,0.00746606336906552,0.00811287388205528,-0.0233191959559917,-0.0112113505601883
126,0.00531169725582004,0.00464066118001938,0.00546751078218222,0.00625145994126797,-0.0228315908461809,-0.0126147400587797
127,0.00359533890150487,0.00423999782651663,0.00151940668001771,0.00305527937598526,-0.0220729485154152,-0.0141650140285492
128,0.000880770850926638,0.00338704162277281,-0.00216917181387544,0.00105706439353526,-0.0212393682450056,-0.0123591870069504
129,-0.00135299609974027,0.00292687956243753,-0.00363166024908423,0.000185363649507053,-0.0196220446377993,-0.00916799996048212
130,-0.00253213616088033,0.00226659094914794,-0.00358705292455852,-0.00139674858655781,-0.0181660521775484,-0.0073764668777585
131,-0.00267265154980123,0.00138320901896805,-0.00384033680893481,-0.00389467808417976,-0.0187786668539047,-0.00699568539857864
132,-0.00231425953097641,0.00113331223838031,-0.00422724569216371,-0.00611071288585663,-0.0209470111876726,-0.00696825329214334
133,-0.00161896180361509,0.00187754502985626,-0.00376364355906844,-0.00726569723337889,-0.0210966840386391,-0.00642281072214246
134,0.000231459402129985,0.00312154577113688,-0.00255208089947701,-0.00716996239498258,-0.0177153050899506,-0.00498333526775241
135,0.00348704913631082,0.00429288996383548,-0.00121275440324098,-0.00630084937438369,-0.0142786419019103,-0.00358182960189879
136,0.00715375505387783,0.00493607670068741,-0.000173899388755672,-0.00560275092720985,-0.0129376817494631,-0.00370246730744839
137,0.0101248286664486,0.00561393145471811,0.00061045924667269,-0.00498528592288494,-0.0119926724582911,-0.00489898677915335
138,0.0115961879491806,0.00715261651203036,0.00151716626714915,-0.00437302840873599,-0.0106360204517841,-0.00704254349693656
139,0.0107768038287759,0.00810040626674891,0.0018038428388536,-0.00583361182361841,-0.00950074009597301,-0.0128500573337078
140,0.00772549631074071,0.00719018885865808,5.12053848069627E-05,-0.00960643496364355,-0.0100867906585336,-0.021497892215848
141,0.00433676224201918,0.00553944287821651,-0.00362719967961311,-0.0130470544099808,-0.0136097874492407,-0.0275080222636461
142,0.00311144883744419,0.00457951566204429,-0.00734440656378865,-0.0146468030288816,-0.0176095869392157,-0.0277502778917551
143,0.00459355860948563,0.00523749645799398,-0.0094072874635458,-0.0137251894921064,-0.0191002916544676,-0.0216978844255209
144,0.00772067625075579,0.00771636888384819,-0.00916376803070307,-0.01024722866714,-0.0184710621833801,-0.0100220507010818
145,0.0114245899021626,0.0109053365886211,-0.00713261775672436,-0.00662756990641356,-0.0173102784901857,0.00312985852360725
146,0.0138968219980598,0.0127610052004457,-0.00551336817443371,-0.00532148452475667,-0.0170299373567104,0.0121217044070363
147,0.0134618422016501,0.0117673203349113,-0.00542639195919037,-0.0061536431312561,-0.0179717410355806,0.0139951454475522
148,0.0109436754137278,0.00843992456793785,-0.00551552092656493,-0.00814335700124502,-0.0189214516431093,0.00930312648415565
149,0.00825703609734774,0.00497619528323412,-0.00474974978715181,-0.00969663728028536,-0.0194331388920546,0.0017804850358516
150,0.00665231375023723,0.00313487555831671,-0.00304222293198109,-0.00862574018537998,-0.0190601106733084,-0.00441313115879893
151,0.00704489275813103,0.00303063238970935,-0.000252940109930933,-0.00503744184970856,-0.0159031338989735,-0.0082102520391345
152,0.00896258652210236,0.00358642148785293,0.00296650524251163,-0.00134605588391423,-0.0106517942622304,-0.0108452457934618
153,0.0104972487315536,0.00308705191127956,0.00456297164782882,-0.000438979215687141,-0.00713209994137287,-0.0141411665827036
154,0.0103533724322915,0.00101119105238467,0.00341550866141915,-0.00271726166829467,-0.00718704937025905,-0.0184442494064569
155,0.00907537434250116,-0.000882374995853752,0.000581074156798422,-0.00511743314564228,-0.00883290823549032,-0.0206720661371946
156,0.00774457771331072,-0.00166568381246179,-0.0029989832546562,-0.0061550447717309,-0.00943329371511936,-0.0180134829133749
157,0.00625174399465322,-0.00161364721134305,-0.00663118343800306,-0.00551260588690639,-0.00945114716887474,-0.0100904814898968
158,0.00534214079380035,0.00139187066815794,-0.0083646010607481,-0.00225534499622881,-0.00960594322532415,0.00109872233588248
159,0.00659180711954832,0.00777634885162115,-0.0071678264066577,0.00105406658258289,-0.00805328506976366,0.00960526801645756
160,0.00938038714230061,0.0127162700518966,-0.00472536729648709,0.0010543743846938,-0.00525333825498819,0.0106746628880501
161,0.0116080790758133,0.0132970828562975,-0.00351775228045881,-0.00235396437346935,-0.00398990698158741,0.0055108186788857
162,0.0126237524673343,0.0116317896172404,-0.00428736489266157,-0.00749731715768576,-0.00355540472082794,-0.00179001595824957
163,0.0131935244426131,0.00914616696536541,-0.0058673401363194,-0.0129459658637643,-0.00189255631994456,-0.00863482058048248
164,0.0131933437660336,0.00486019533127546,-0.0071899420581758,-0.0181565340608358,-0.000391458248486742,-0.0144306011497974
165,0.0123546002432704,-0.000433165347203612,-0.00782838184386492,-0.0215721875429153,-0.000564752437639982,-0.0182029157876968
166,0.0109522994607687,-0.00444345129653811,-0.00775043433532119,-0.0209881365299225,-0.00114618137013167,-0.0188633967190981
167,0.00878155883401632,-0.00657997420057654,-0.00739033846184611,-0.0163395591080189,-0.00117647519800812,-0.0168688762933016
168,0.00661594280973077,-0.00704788044095039,-0.00676038675010204,-0.00920527521520853,-0.000617522280663252,-0.0143611431121826
169,0.0061876242980361,-0.00590079557150602,-0.00527865439653397,-0.0013642517151311,0.00048009175225161,-0.0138973174616694
170,0.00738091440871358,-0.00409509940072894,-0.00328702502883971,0.00434138393029571,0.000468839454697445,-0.0163686405867338
171,0.00878504198044539,-0.00222513359040022,-0.00211222795769572,0.00608480302616954,-0.00156612100545317,-0.019308015704155
172,0.00947264488786459,-1.89916318049654E-05,-0.00271467119455338,0.0047471821308136,-0.0037703609559685,-0.0194324888288975
173,0.00965049769729376,0.00181853852700442,-0.00453415745869279,0.00118419015780091,-0.0041913646273315,-0.0169489402323961
174,0.0101444097235799,0.00211686873808503,-0.00598502764478326,-0.00391456997022033,-0.00273905810900033,-0.0140572590753436
175,0.010073103941977,0.000365293788490817,-0.00717914802953601,-0.00934701692312956,-0.00165296695195138,-0.0121369212865829
176,0.00832673907279968,-0.00257002282887697,-0.00911490246653557,-0.0139357652515173,-0.00326936994679272,-0.0114223780110478
177,0.0060191759839654,-0.00495598139241338,-0.0111618964001536,-0.0165484026074409,-0.00618509482592344,-0.0110558858141303
178,0.00511739263311028,-0.00538097368553281,-0.0122954733669758,-0.0168851464986801,-0.00703345285728574,-0.00938520301133394
179,0.00616254238411784,-0.00363440229557455,-0.0125606153160334,-0.0155913969501853,-0.00515092583373189,-0.00564965512603521
180,0.00840302091091871,-0.00114384409971535,-0.011681460775435,-0.0129878846928477,-0.00169140298385173,-0.00172156386543065
181,0.0110625335946679,0.000484600954223424,-0.00943670235574245,-0.00990479346364737,0.00212365761399269,-0.000897624820936471
182,0.0128916250541806,-4.71732782898471E-05,-0.00724400114268065,-0.00849989149719477,0.00527265900745988,-0.00461744284257293
183,0.0133006246760488,-0.00261889467947185,-0.00596769526600838,-0.00883179996162653,0.00821939017623663,-0.0109126344323158
184,0.0130905136466026,-0.00446401815861464,-0.00496809277683496,-0.00815964117646217,0.0121257659047842,-0.0163857638835907
185,0.0132082821801305,-0.00263706711120903,-0.00380631326697767,-0.00546546606346965,0.0178449116647244,-0.0188193861395121
186,0.0138291213661432,0.00251053459942341,-0.00293414806947112,-0.00256831222213805,0.0242733974009752,-0.0184174459427595
187,0.0143670914694667,0.00768796913325787,-0.00287543516606092,-0.0007080954965204,0.028041047975421,-0.0164841506630182
188,0.0148613816127181,0.0103376870974898,-0.00339906988665462,0.000164547338499688,0.0283215902745724,-0.0135929761454463
189,0.0153525238856673,0.0103121204301715,-0.00427579693496227,-0.000299534003715962,0.0271502211689949,-0.0102878790348768
190,0.0147718628868461,0.00864452961832285,-0.00533252209424973,-0.00213975040242076,0.0248965620994568,-0.00751495966687799
191,0.0128084877505898,0.00647818064317107,-0.00564126158133149,-0.00418343860656023,0.0215892437845469,-0.00551917171105742
192,0.0108097326010466,0.00456397188827395,-0.00412543723359704,-0.00580359902232885,0.018719345331192,-0.00430175429210067
193,0.0100438995286822,0.0026431349106133,-0.000755090324673802,-0.00740374438464642,0.0170775055885315,-0.00474374229088426
194,0.0104513196274638,0.000197450935957022,0.00293836346827447,-0.00873809214681387,0.0163198839873075,-0.00750092696398497
195,0.0110869230702519,-0.00227937311865389,0.00458662677556276,-0.0088670514523983,0.0158339496701956,-0.0110664162784815
196,0.0112725468352437,-0.00411987584084272,0.00305466074496508,-0.00696673197671771,0.0156009020283818,-0.0123307062312961
197,0.0108350580558181,-0.00521440431475639,-0.000637031684163958,-0.00263146962970495,0.0158171430230141,-0.00980616454035044
198,0.0100807147100568,-0.00372209283523262,-0.00468510296195745,0.00284063164144754,0.0167026408016682,-0.00485346838831902
199,0.00955387204885483,0.000958223943598568,-0.00822757370769978,0.00585042126476765,0.0188350509852171,-0.000878452498000115
200,0.00939038954675198,0.0049850232899189,-0.0110383164137602,0.00429490907117724,0.0218541212379932,-0.000641544698737562
201,0.00961135141551495,0.00685941195115447,-0.0119812823832035,0.00106073205824941,0.0242367144674063,-0.00177231640554965
202,0.0101329842582345,0.0088513707742095,-0.0106871640309691,-0.000314500357490033,0.0243925470858812,3.08987691823859E-05
203,0.0109232198446989,0.0114920642226934,-0.00915817357599735,-0.000628274225164205,0.0225639808923006,0.00381319154985249
204,0.0117729613557458,0.0130063919350505,-0.00896100327372551,-0.00222887261770666,0.0199563056230545,0.00525678740814328
205,0.0115953329950571,0.0121352476999164,-0.00933085288852453,-0.00528757926076651,0.0159237571060658,0.00243930658325553
206,0.0101976171135902,0.0096162362024188,-0.00910662207752466,-0.00791726727038622,0.00988700333982706,-0.00350028951652348
207,0.00886056292802095,0.00682904804125428,-0.00794150587171316,-0.00799687206745148,0.00389493117108941,-0.0106271672993898
208,0.00880114175379276,0.00541681703180075,-0.00604151748120785,-0.00558912334963679,0.000577312428504229,-0.0174804180860519
209,0.00973233766853809,0.00706771202385426,-0.00513635156676173,-0.00304357334971428,0.000160224648425356,-0.0221754051744938
210,0.00957496371120214,0.0109864259138703,-0.00726957898586988,-0.00191982788965106,0.00168091873638332,-0.0214823596179485
211,0.00766697665676475,0.0144986333325505,-0.0120426015928388,-0.00175499403849244,0.00380229926668108,-0.0140639813616872
212,0.00589434057474136,0.0165674444288015,-0.0170485451817513,-0.00193779275286943,0.00416483171284199,-0.00309599749743938
213,0.00603418843820691,0.0174426473677158,-0.0200957674533129,-0.0030238872859627,0.00254904408939183,0.00621438445523381
214,0.00833543483167887,0.0169067624956369,-0.0208761896938086,-0.00528265349566936,0.00175076781306416,0.010592196136713
215,0.0118879796937108,0.0154116563498974,-0.0202072896063328,-0.00689382338896394,0.00464013498276472,0.0106759667396545
216,0.0151660218834877,0.0138834929093719,-0.0183281302452087,-0.00570965418592095,0.0107422564178705,0.00892969220876694
217,0.0170408189296722,0.0124902697280049,-0.014873337931931,-0.00151005305815488,0.016075138002634,0.00711907679215074
218,0.0178025253117085,0.0108298193663359,-0.0096332086250186,0.00322008947841823,0.0183961745351553,0.00504262838512659
219,0.0178477708250284,0.00888342224061489,-0.00390400597825646,0.00493828719481826,0.0182124599814415,0.0016022736672312
220,0.0169551968574524,0.00769097311422229,-0.000469947000965476,0.00324540794827044,0.0156437642872334,-0.0028872094117105
221,0.0154838943853974,0.00774109689518809,-0.000982071273028851,0.000417898263549432,0.0111171966418624,-0.00768148805946112
222,0.0140149844810367,0.00804361328482628,-0.00431519513949752,-0.001927898847498,0.00703767128288746,-0.0125500578433275
223,0.0132594872266054,0.00804011523723602,-0.00726262899115682,-0.00245235278271139,0.00662222038954496,-0.0172111243009567
224,0.0139867616817355,0.00774323660880327,-0.00738615589216352,-0.000610028626397252,0.0105010252445936,-0.021333260461688
225,0.0155514292418957,0.00687517924234271,-0.00615565944463015,0.00150732230395079,0.0148848872631788,-0.0240783784538507
226,0.0169165376573801,0.00607959693297744,-0.00628919992595911,0.00131718767806888,0.0168539844453335,-0.0236648228019476
227,0.0177079737186432,0.00658027548342943,-0.00817247573286295,-0.00113730900920928,0.01782544888556,-0.0182431023567915
228,0.0179711766541004,0.00870085787028074,-0.0108641525730491,-0.00390110816806555,0.0192859508097172,-0.00821398757398129
229,0.0177555438131094,0.010865880176425,-0.0134130651131272,-0.00631631584838033,0.0203698202967644,0.00207555759698153
230,0.0167371965944767,0.0113370856270194,-0.0146013461053371,-0.00829123705625534,0.01957075484097,0.00855334661900997
231,0.0153296431526542,0.0107763987034559,-0.0132440524175763,-0.00854156538844109,0.0172782130539417,0.0111190620809793
232,0.0141324186697602,0.0108081856742501,-0.0102102383971214,-0.0067451954819262,0.0154835926368833,0.0109838610514998
233,0.0129500515758991,0.0117818899452686,-0.00774581450968981,-0.00459706410765648,0.0152672594413161,0.00857330206781626
234,0.0122920451685786,0.0122648114338517,-0.00639993278309703,-0.00391954695805907,0.0174434129148722,0.00395564548671246
235,0.013178956694901,0.0105310883373022,-0.00497691193595529,-0.00455989455804229,0.0233367551118135,-0.00216413079760969
236,0.0148246828466654,0.00614016642794013,-0.00293316575698555,-0.00479061994701624,0.0316661782562733,-0.00807386450469494
237,0.0154384411871433,0.000341159844538197,0.000365050946129486,-0.00268097058869898,0.0393813662230968,-0.0117825055494905
238,0.0142244473099709,-0.00458479300141335,0.00570112420246005,0.00248338910751045,0.0439281649887562,-0.0122994184494019
239,0.0110319759696722,-0.00679008616134524,0.0104534840211272,0.00865596998482943,0.0413930676877499,-0.0102579928934574
240,0.00623473012819886,-0.00633276114240289,0.00998641736805439,0.0112693216651678,0.0294310115277767,-0.00813206657767296
241,0.00189819815568626,-0.00516287796199322,0.00295240269042552,0.00703353714197874,0.0121808666735888,-0.00865891296416521
242,-0.000475045817438513,-0.00433378480374813,-0.00821780227124691,-0.00302088214084506,-0.00448817387223244,-0.0124138332903385
243,-0.00216977647505701,-0.00344847259111702,-0.0189433041960001,-0.0143117280676961,-0.0176487788558006,-0.0169363673776388
244,-0.00350692751817405,-0.00198857788927853,-0.02414296194911,-0.0217719078063965,-0.0251503344625235,-0.0179617889225483
245,-0.00261774193495512,0.00135750381741673,-0.0238094311207533,-0.0251167342066765,-0.0278067924082279,-0.0141008114442229
246,0.000256883475231007,0.0064138425514102,-0.023932384327054,-0.0282196532934904,-0.0307871177792549,-0.00874532479792833
247,0.00191727932542562,0.0102156400680542,-0.0290272552520037,-0.0337392911314964,-0.038316585123539,-0.00564058171585202
248,0.00117192103061825,0.0124868443235755,-0.0371600203216076,-0.0405918844044209,-0.049103282392025,-0.00405494496226311
249,0.000136258298880421,0.0159931238740683,-0.0435723103582859,-0.0466043241322041,-0.0580176040530205,-0.0011030191089958
250,0.000348071975167841,0.0215218439698219,-0.0462710559368134,-0.0514094084501266,-0.0617784820497036,0.00442604767158628
251,0.000604106055106968,0.0269773304462433,-0.0470924004912376,-0.0551958344876766,-0.0621617920696735,0.0121101206168532
252,-0.00062353111570701,0.0295752268284559,-0.0483529530465603,-0.0589280314743519,-0.0628767758607864,0.018747927621007
253,-0.00285552116110921,0.0299403332173824,-0.0506380647420883,-0.0643118619918823,-0.0663855373859406,0.0215720161795616
254,-0.00583535293117166,0.0306348036974669,-0.055376548320055,-0.0727393105626106,-0.0739363804459572,0.022057281807065
255,-0.00862293876707554,0.0317457728087902,-0.06310024112463,-0.083157017827034,-0.0831227600574493,0.0233151596039534
256,-0.00969924777746201,0.0320803262293339,-0.0705052614212036,-0.0915062800049782,-0.0900541469454765,0.0270989127457142
257,-0.00981907360255718,0.0317906439304352,-0.0744371563196182,-0.0950747132301331,-0.093722976744175,0.0334524288773537
258,-0.00972211360931396,0.0323667824268341,-0.0751014575362206,-0.0954668819904327,-0.0952416136860847,0.041199192404747
259,-0.00920998025685549,0.034088559448719,-0.07411939650774,-0.0961956456303597,-0.0963661968708038,0.0477961041033268
260,-0.00890061259269714,0.0356040373444557,-0.0724572390317917,-0.0982400253415108,-0.0986066237092018,0.0513850823044777
261,-0.00966482982039452,0.0363771989941597,-0.0714512094855309,-0.100754514336586,-0.103588081896305,0.052454587072134
262,-0.0112687572836876,0.0371819101274014,-0.0733474418520927,-0.105156846344471,-0.111918233335018,0.0515330322086811
263,-0.0129925115033984,0.0385925658047199,-0.0787578076124191,-0.112689271569252,-0.121294662356377,0.0491972751915455
264,-0.0147959878668189,0.0404098369181156,-0.0844949632883072,-0.119392931461334,-0.127801075577736,0.0485647059977055
265,-0.0166999716311693,0.0421644747257233,-0.0867646709084511,-0.121171273291111,-0.129883497953415,0.0521408244967461
266,-0.0178633816540241,0.0448133163154125,-0.0854252800345421,-0.11935181170702,-0.130559101700783,0.0587139502167702
267,-0.0173666719347239,0.0497015826404095,-0.0824918895959854,-0.116935975849628,-0.13241545855999,0.0663751810789108
268,-0.0157133974134922,0.0552873723208904,-0.0794686898589134,-0.115173757076263,-0.134273886680603,0.0737788751721382
269,-0.0148329520598054,0.0585738904774189,-0.077966034412384,-0.113878235220909,-0.136230304837227,0.0793883502483368
270,-0.0151042314246297,0.0588856413960457,-0.0784425735473633,-0.111717037856579,-0.138418778777123,0.0823391899466515
271,-0.0149851813912392,0.0579089745879173,-0.0785317718982697,-0.109193868935108,-0.136891826987267,0.0816134586930275
272,-0.0144369630143046,0.0560393892228603,-0.0769807398319244,-0.109519526362419,-0.130586117506027,0.0767822191119194
273,-0.0136563200503588,0.0528430975973606,-0.0746718943119049,-0.111957281827927,-0.122986018657684,0.0709497258067131
274,-0.011400505900383,0.0493562743067741,-0.0718521550297737,-0.113027833402157,-0.115355908870697,0.0668812915682793
275,-0.00740633811801672,0.0461655855178833,-0.0687494054436684,-0.112465277314186,-0.107562087476254,0.0633662715554237
276,-0.00341405463404953,0.0431064926087856,-0.0655078515410423,-0.111411578953266,-0.101306743919849,0.0589714981615543
277,-0.00161550764460117,0.0399863943457603,-0.062383871525526,-0.11028666049242,-0.0976505726575851,0.0544032827019691
278,-0.00325541128404439,0.0373328477144241,-0.0613591074943542,-0.109158329665661,-0.0957889258861542,0.051851287484169
279,-0.00780918309465051,0.0371187627315521,-0.0635758265852928,-0.108047604560852,-0.0952908918261528,0.0531829223036766
280,-0.012773210182786,0.039141021668911,-0.0667929872870445,-0.107077211141586,-0.0952723473310471,0.0568885579705238
281,-0.0158467050641775,0.0404489897191525,-0.0679432824254036,-0.106203868985176,-0.0933339670300484,0.0596798062324524
282,-0.0164067912846804,0.0404429472982883,-0.0652409344911575,-0.104239583015442,-0.0872539430856705,0.0615660510957241
283,-0.0147981904447079,0.0404053255915642,-0.0586312673985958,-0.100036934018135,-0.0771763399243355,0.0639396831393242
284,-0.0120261237025261,0.0406510382890701,-0.0502578541636467,-0.0936443731188774,-0.0667420774698257,0.0663194581866264
285,-0.00886372104287148,0.0410881862044334,-0.0432625189423561,-0.0856168121099472,-0.0600709356367588,0.0684355869889259
286,-0.00553975254297256,0.0406450554728508,-0.0387772731482983,-0.077605202794075,-0.0561422221362591,0.0695416927337646
287,-0.00243501062504947,0.0386663638055325,-0.0349622704088688,-0.0709970518946648,-0.0504696443676949,0.0682098045945168
288,0.000566578120924532,0.0366738848388195,-0.0304657965898514,-0.0655535161495209,-0.0416328832507133,0.0647994205355644
289,0.00345965009182692,0.0360378175973892,-0.0264730732887983,-0.0609057173132896,-0.0325852259993553,0.0611844435334206
290,0.00493780476972461,0.0366611741483212,-0.024295637384057,-0.0567076317965984,-0.027830408886075,0.0593212805688381
291,0.00409397622570395,0.0369520969688892,-0.0234734117984772,-0.0530239976942539,-0.0286828856915236,0.0590444169938564
292,0.00229901936836541,0.0349544771015644,-0.022919038310647,-0.0508850626647472,-0.0312607139348984,0.0575891882181168
293,0.00196737865917385,0.0313213057816029,-0.0219642631709576,-0.0503357425332069,-0.0301557015627623,0.0532594546675682
294,0.00342239299789071,0.0284419972449541,-0.0207637120038271,-0.0500918291509151,-0.023597015067935,0.047920323908329
295,0.00524402502924204,0.0274540800601244,-0.0196175333112478,-0.048688743263483,-0.0138715216889977,0.0447518713772297
296,0.00643541989848018,0.0278629399836063,-0.0178342368453741,-0.0457449108362198,-0.0044840145856142,0.0441727600991726
297,0.00687997508794069,0.0283549018204212,-0.0142764132469893,-0.0416650213301182,0.00197917851619422,0.0442263334989548
298,0.00676856748759747,0.0287413448095322,-0.00951321702450514,-0.0370546653866768,0.00469594914466143,0.0437861904501915
299,0.00620554573833942,0.029623307287693,-0.00646594632416964,-0.0345765352249146,0.00359283736906946,0.0424389354884624
300,0.0056614582426846,0.0303190909326077,-0.00637858174741268,-0.0356743447482586,-0.000306244706735015,0.0405906140804291
301,0.00491957785561681,0.0303075071424246,-0.00754690170288086,-0.0372882932424545,-0.00539898406714201,0.040217399597168
302,0.00374313187785447,0.0295756347477436,-0.00843917950987816,-0.0356872044503689,-0.0103384470567107,0.0427134186029434
303,0.00273108738474548,0.0269647371023893,-0.00881793722510338,-0.0311787482351065,-0.0131065528839827,0.0460223183035851
304,0.00218903576023877,0.0216364767402411,-0.00877193082123995,-0.0274538602679968,-0.01117043197155,0.0466216206550598
305,0.00227267877198756,0.0151936942711473,-0.00812691543251276,-0.0261887311935425,-0.0039382022805512,0.0442599542438984
306,0.00247067492455244,0.00983335915952921,-0.00769541179761291,-0.026333749294281,0.00471962057054043,0.0402714088559151
307,0.0016983145615086,0.00615905411541462,-0.00853630993515253,-0.0265293773263693,0.00981352478265762,0.0352005660533905
308,0.000597166363149881,0.00450859544798732,-0.00964182801544666,-0.025171821936965,0.0118002202361822,0.03117311373353
309,0.00100683607161045,0.00491489376872778,-0.00981437787413597,-0.0217631459236145,0.0146073512732983,0.0304653532803059
310,0.00275503494776785,0.00554778100922704,-0.00889872573316097,-0.0177987571805716,0.0187223199754953,0.031744696199894
311,0.00459327409043908,0.00508245686069131,-0.00586288841441274,-0.014325519092381,0.0224441234022379,0.0320751219987869
312,0.00673153810203075,0.00448533101007342,-0.000418929528677836,-0.0114083047956228,0.0249293316155672,0.0302662961184978
313,0.00909070391207933,0.00435546692460775,0.0053145932033658,-0.00968136265873909,0.025630010291934,0.0263251941651106
314,0.0102233402431011,0.00473150936886668,0.00949958711862564,-0.00833273958414793,0.0248136110603809,0.0220904089510441
315,0.00995153933763504,0.00627658329904079,0.0114442631602287,-0.00510527892038226,0.0241147242486477,0.0205715913325548
316,0.0089567769318819,0.00836917385458946,0.0105710262432694,-0.000234654027735814,0.0240428578108549,0.0217175781726837
317,0.00695188343524933,0.0091364411637187,0.00739676365628839,0.00357566424645483,0.0230721794068813,0.0224036108702421
318,0.0045417589135468,0.00793458987027407,0.003848472610116,0.00445839250460267,0.0223633423447609,0.0203774906694889
319,0.00276309438049793,0.00569675257429481,0.0014584802556783,0.00291825737804174,0.0244347043335438,0.0168473478406668
320,0.00209870235994458,0.00436823116615415,0.000550828117411584,0.000686346495058388,0.0285940691828728,0.0150790875777602
321,0.00343699147924781,0.00558595126494765,0.000596664205659181,-0.000978081487119198,0.0331119559705257,0.0162794142961502
322,0.00631035072728992,0.00832956470549107,0.000810226774774492,-0.00153871777001768,0.0362688191235065,0.018184345215559
323,0.00856027472764254,0.00987054966390133,0.000939913967158645,-0.000721309392247349,0.0364970974624157,0.0177985951304436
324,0.00865104328840971,0.00839236285537481,0.000843318528495729,0.000753518659621477,0.034361906349659,0.0140403555706143
325,0.00663713086396456,0.00425670435652137,0.000699079595506191,0.00147551787085831,0.0320181958377361,0.00754997693002224
326,0.00381701602600515,-0.000247622607275844,0.00124526221770793,0.00162694999016821,0.0303857456892729,-0.000327769812429324
327,0.00197540153749287,-0.00315351784229279,0.00287304329685867,0.00219368957914412,0.0287563726305962,-0.00753980176523328
328,0.00201346073299646,-0.00443950621411204,0.00450583500787616,0.00286862463690341,0.0268921703100204,-0.0114954728633165
329,0.00307004270143807,-0.00442105159163475,0.00386538309976459,0.00326059479266405,0.0249964073300362,-0.0108498996123672
330,0.00309024541638792,-0.00224784458987415,0.00029257038841024,0.0033004020806402,0.0221057180315256,-0.00708272587507963
331,0.00199376395903528,0.000924623804166913,-0.00358218047767878,0.00325310579501092,0.0187876801937819,-0.00333605520427227
332,0.00264052115380764,0.00212583271786571,-0.00431047147139907,0.00415188958868384,0.018403822556138,-0.00142888468690217
333,0.0055767921730876,0.000229349330766127,-0.00207551498897374,0.0048878462985158,0.0223943274468184,-0.00198741257190704
334,0.00844458770006895,-0.00411401363089681,-0.000125358710647561,0.00294454116374254,0.0292221400886774,-0.00563700823113322
335,0.00974960159510374,-0.00813866592943668,-8.74932084116153E-06,-0.000591492862440646,0.0352104604244232,-0.0102246617898345
336,0.00912615936249495,-0.00900586508214474,-0.000418825948145241,-0.00204001925885677,0.0365483015775681,-0.012059043161571
337,0.00755743123590946,-0.00731175160035491,0.000334291107719764,-0.000169004531926475,0.0339620225131512,-0.0110678598284721
338,0.00686141801998019,-0.00552590750157833,0.00267755007371306,0.00303504383191466,0.0307890400290489,-0.0102925235405564
339,0.00744727859273553,-0.00506518315523863,0.00572422472760081,0.00565283838659525,0.0284771472215652,-0.0119376657530665
340,0.00825838558375835,-0.00548221869394183,0.00806083623319864,0.00819145981222391,0.0274697430431843,-0.0148325804620981
341,0.00806273054331541,-0.00559050124138594,0.00897679477930069,0.0117375757545233,0.0275377482175827,-0.0157387778162956
342,0.00620987080037594,-0.00533771328628063,0.00864167790859938,0.0153855932876468,0.0276133697479963,-0.0134897446259856
343,0.00379047030583024,-0.00614861957728863,0.00760426791384816,0.0173284411430359,0.0276054404675961,-0.0104645537212491
344,0.00279132160358131,-0.00837354548275471,0.00676965713500977,0.017259618267417,0.0280262902379036,-0.00919027905911207
345,0.00331106572411954,-0.00951106660068035,0.00671501969918609,0.0169625617563725,0.0284979548305273,-0.00932378508150578
346,0.00412399275228381,-0.00839403178542852,0.0071686995215714,0.0176244210451841,0.0288220085203648,-0.0103030567988753
347,0.004804328083992,-0.00803617294877768,0.00816541910171509,0.0180374942719936,0.0306027978658676,-0.013676855713129
348,0.00548768322914839,-0.0100456969812512,0.0103502860292792,0.017891887575388,0.0342013202607632,-0.018926065415144
349,0.00639772228896618,-0.0116445980966091,0.0142457745969296,0.019463699311018,0.0367808155715466,-0.0217935238033533
350,0.00754875643178821,-0.0112025989219546,0.0190893821418285,0.0231724791228771,0.0356277525424957,-0.0214291773736477
351,0.00825345143675804,-0.0107854641973972,0.0219250470399857,0.0259825605899096,0.0298973433673382,-0.0228926297277212
352,0.00800858344882727,-0.0123507184907794,0.0213514845818281,0.0268161259591579,0.0215375758707523,-0.0291480030864477
353,0.00766979297623038,-0.0156198553740978,0.0206798501312733,0.0277691464871168,0.0157930329442024,-0.0369987450540066
354,0.00763663742691278,-0.0195771604776382,0.0223702006042004,0.0295083168894053,0.016122542321682,-0.0414414219558239
355,0.00663997465744615,-0.0229141246527433,0.024028155952692,0.0304093174636364,0.0199950579553843,-0.0396908409893513
356,0.00421184720471501,-0.0238911956548691,0.0228186435997486,0.0290404371917248,0.0222375243902206,-0.0327378325164318
357,0.00194951449520886,-0.0220675636082888,0.0194693859666586,0.0262380465865135,0.02057746052742,-0.0243742484599352
358,0.00188819249160588,-0.0191175639629364,0.0167222619056702,0.0238776933401823,0.0174858495593071,-0.0182256698608398
359,0.00371533771976829,-0.0174882840365171,0.0155612882226706,0.0234220754355192,0.0163148548454046,-0.0151326917111874
360,0.00535164633765817,-0.0170891992747784,0.0152855329215527,0.025102436542511,0.0177274849265814,-0.0138595178723335
361,0.00636175973340869,-0.0158600732684135,0.0158590078353882,0.0267356894910336,0.0202599931508303,-0.0137747777625918
362,0.0071938787586987,-0.0142159108072519,0.0177385192364454,0.0272028241306543,0.022126255556941,-0.0143629908561707
363,0.00729498919099569,-0.013801347464323,0.0204616785049438,0.0277277193963528,0.022906206548214,-0.0155136976391077
364,0.00687929103150964,-0.0145088955760002,0.0230874139815569,0.0287817008793354,0.0232821721583605,-0.0179577693343163
365,0.00689096050336957,-0.0155363250523806,0.0245643556118011,0.0292348004877567,0.0237263813614845,-0.0220640581101179
366,0.0075168190523982,-0.0165479183197021,0.0242957957088947,0.0282249413430691,0.024804200977087,-0.027236457914114
367,0.00862170848995447,-0.0180282313376665,0.0238987542688847,0.0270257703959942,0.0269753951579332,-0.0317430049180985
368,0.00967053137719631,-0.0205725636333227,0.0244984421879053,0.0272204894572496,0.0278697237372398,-0.0348974131047726
369,0.00992053095251322,-0.0224817581474781,0.0245479103177786,0.0286525022238493,0.0240776557475328,-0.0370954647660255
370,0.00951608829200268,-0.0217497497797012,0.0229065772145987,0.0299813318997622,0.0172717906534672,-0.0386036671698093
371,0.00902513321489096,-0.0200253501534462,0.0197895932942629,0.0295874625444412,0.0123236123472452,-0.0408471003174782
372,0.00870318245142698,-0.0189332291483879,0.0164121631532907,0.0280642788857222,0.0120175154879689,-0.0436800234019756
373,0.00872704572975636,-0.0177446715533733,0.01421342138201,0.0274829119443893,0.015640614554286,-0.0446402691304684
374,0.0089128240942955,-0.0172690954059362,0.013284002430737,0.0271292086690664,0.019507484510541,-0.0442539900541306
375,0.00919777154922485,-0.0185424648225307,0.013639897108078,0.0258243270218372,0.0210696589201689,-0.0446823053061962
376,0.00972336251288652,-0.0205623302608728,0.0150306075811386,0.024176687002182,0.0206130538135767,-0.0461728982627392
377,0.0100214211270213,-0.0226848442107439,0.0161867029964924,0.0218715630471706,0.0188030302524567,-0.0486858859658241
378,0.00918538402765989,-0.0248712934553623,0.0174633264541626,0.0192020609974861,0.0157655403017998,-0.0514498949050903
379,0.00732972333207726,-0.0259636640548706,0.0204719044268131,0.0191044490784407,0.0112417424097657,-0.0521479323506355
380,0.00572041980922222,-0.0255959611386061,0.0240799747407436,0.0229972936213017,0.00551904505118728,-0.0503659620881081
381,0.00470638554543257,-0.0256271418184042,0.025126326829195,0.0277879573404789,0.000517128792125732,-0.0488871559500694
382,0.00322371441870928,-0.0267092604190111,0.0221067257225513,0.0295188538730145,-0.00238546123728156,-0.0492011532187462
383,0.00139037740882486,-0.02670082077384,0.0160019360482693,0.0276764594018459,-0.00365059520117939,-0.048842016607523
384,0.0012873241212219,-0.0238279830664396,0.00956876389682293,0.0243997573852539,-0.00277128163725138,-0.0456453152000904
385,0.00300227710977197,-0.0197573024779558,0.00529198860749602,0.0208355318754911,0.000695192546118051,-0.0421279557049274
386,0.00435868790373206,-0.0171073526144028,0.00380936334840953,0.0171582754701376,0.00413861824199557,-0.0415928848087788
387,0.00443464471027255,-0.0155894756317139,0.00485818739980459,0.0151980035007,0.00477904779836535,-0.04270164296031
388,0.00424744188785553,-0.0136206578463316,0.00837419833987951,0.0168109461665154,0.00365706882439554,-0.0421412922441959
389,0.00527642853558064,-0.010860095731914,0.014005240984261,0.0210563037544489,0.00326600507833064,-0.0386931337416172
390,0.00674392282962799,-0.00898503325879574,0.0194974541664124,0.0248858481645584,0.00346682360395789,-0.0339897982776165
391,0.00660805543884635,-0.0102240554988384,0.021634079515934,0.0256106741726398,0.00424912525340915,-0.0317456945776939
392,0.00489424634724855,-0.0141056980937719,0.0195704661309719,0.023724727332592,0.00694773765280843,-0.0336031690239906
393,0.00273382547311485,-0.0180042013525963,0.0158835537731647,0.0227627661079168,0.0110798832029104,-0.0370016731321812
394,0.000912416086066514,-0.0189801026135683,0.0136233502998948,0.0244098342955112,0.0148999057710171,-0.0390695407986641
395,-0.000217499109567143,-0.0171585716307163,0.0125580905005336,0.0255042519420385,0.0157981626689434,-0.0403026901185513
396,-0.000629214046057314,-0.0167110096663237,0.0109958741813898,0.0235051829367876,0.0125761060044169,-0.0428996235132217
397,-0.000298863364150748,-0.0192809998989105,0.00943906884640455,0.0206596106290817,0.00849576015025377,-0.0468825176358223
398,0.00080353528028354,-0.0220202878117561,0.0096314363181591,0.0204376261681318,0.00712609430775046,-0.0493893772363663
399,0.00273558706976473,-0.0219429265707731,0.0117756007239223,0.0233631152659655,0.00814889185130596,-0.0484009459614754
400,0.00489798234775662,-0.0197356175631285,0.0137701230123639,0.0263835415244102,0.00919842813163996,-0.0459520630538464
401,0.0063053360208869,-0.018158033490181,0.0135806044563651,0.0272555723786354,0.00889302603900433,-0.0442004315555096
402,0.00664828345179558,-0.0180452689528465,0.0113628637045622,0.0268466174602509,0.00743119278922677,-0.0427793860435486
403,0.00650346558541059,-0.0187855213880539,0.00919404253363609,0.0265073496848345,0.00642982637509704,-0.0418396815657616
404,0.00628013862296939,-0.0197778232395649,0.00890090689063072,0.0268711801618338,0.00684470171108842,-0.0417980328202248
405,0.00619412260130048,-0.020107090473175,0.0101778088137507,0.0277393404394388,0.00673709949478507,-0.0415720455348492
406,0.00728626549243927,-0.0195595137774944,0.0113455904647708,0.0275214333087206,0.00356321781873703,-0.0408025607466698
407,0.00921814702451229,-0.0196826998144388,0.0110695362091064,0.0247969087213278,-0.00299413059838116,-0.0406711362302303
408,0.01047408208251,-0.0211387127637863,0.00933340936899185,0.0205255839973688,-0.0100060682743788,-0.041487094014883
409,0.0107688922435045,-0.0229315757751465,0.00710108317434788,0.0166802201420069,-0.0126853361725807,-0.0429875105619431
410,0.0106824934482574,-0.0244777128100395,0.00507668685168028,0.0141541762277484,-0.00891151838004589,-0.04567501693964
411,0.0108636999502778,-0.0262256246060133,0.00280618388205767,0.012549877166748,-0.00188636733219028,-0.0502909645438194
412,0.0112776067107916,-0.0283721722662449,8.59549036249518E-05,0.0112016936764121,0.00424608821049333,-0.0562275499105453
413,0.0115534197539091,-0.0297714434564114,-0.00208984804339707,0.010481278412044,0.00850825197994709,-0.0615812912583351
414,0.0109904306009412,-0.0299114622175694,-0.00387060246430337,0.0104148155078292,0.0098486989736557,-0.0656938329339027
415,0.009419284760952,-0.0301054399460554,-0.006112365052104,0.00984944961965084,0.00780394999310374,-0.0693680942058563
416,0.00856752321124077,-0.0308115296065807,-0.00745209259912372,0.00920229218900204,0.0058003468438983,-0.0721297115087509
417,0.00936231389641762,-0.0310238655656576,-0.00516583258286119,0.0106723345816135,0.00703725498169661,-0.0722645744681358
418,0.0107676014304161,-0.0303404033184052,0.00163918070029467,0.0152604440227151,0.0110634155571461,-0.0688096284866333
419,0.0112932473421097,-0.0293800048530102,0.00983377825468779,0.0213066469877958,0.014682593755424,-0.0620960630476475
420,0.00957641284912825,-0.0286974739283323,0.014340833760798,0.026006730273366,0.0146414516493678,-0.0536244809627533
421,0.0064767599105835,-0.0276129022240639,0.0138290962204337,0.0278273727744818,0.0117627559229732,-0.0453190207481384
422,0.00448030140250921,-0.0248848348855972,0.0112686166539788,0.0273510161787272,0.00931851845234632,-0.0379256717860699
423,0.00380803411826491,-0.0204704981297255,0.0086503317579627,0.0255954265594482,0.0067638149484992,-0.0308298319578171
424,0.00272196624428034,-0.0153161464259028,0.00531402509659529,0.0224046818912029,0.000303114327834919,-0.0239053964614868
425,0.000428632076364011,-0.00993758160620928,0.00121874455362558,0.0182848330587149,-0.0107567179948092,-0.0175354443490505
426,-0.00280795921571553,-0.00480343168601394,-0.00198784796521068,0.0149541925638914,-0.0232495069503784,-0.0110688647255301
427,-0.00632995646446943,-0.00118224427569658,-0.00358298746868968,0.0122545100748539,-0.0349120497703552,-0.00387870706617832
428,-0.00874357670545578,-0.000685749168042094,-0.00369782629422843,0.00878190994262695,-0.0436423420906067,0.00309353577904403
429,-0.00900882016867399,-0.0019334185635671,-0.00179925072006881,0.00702921440824866,-0.046250905841589,0.0106591610237956
430,-0.0080686816945672,-0.00096302613383159,0.00140849954914302,0.00994936097413301,-0.043687392026186,0.0205349791795015
431,-0.00759686296805739,0.00112836575135589,0.00456378655508161,0.0133065870031714,-0.0403956770896912,0.0287937112152576
432,-0.00773645006120205,0.000286083231912926,0.0081093106418848,0.0110602732747793,-0.038309134542942,0.0302076432853937
433,-0.0080628115683794,-0.00220222119241953,0.0115805994719267,0.00485982745885849,-0.0383103266358376,0.0276738815009594
434,-0.00860959477722645,-0.00268376339226961,0.0121175721287727,0.000687596620991826,-0.0406187288463116,0.0278491098433733
435,-0.00945011433213949,-0.000204189011128619,0.0093773240223527,0.000553831574507058,-0.0410148054361343,0.0321080945432186
436,-0.0105725200846791,0.00463379034772515,0.00676382752135396,0.00275336229242384,-0.036120843142271,0.0380057170987129
437,-0.0109723126515746,0.0103681534528732,0.00577878300100565,0.004514429718256,-0.0288552045822144,0.0430798791348934
438,-0.00998634658753872,0.0146314641460776,0.00442592613399029,0.00280122109688818,-0.0245455130934715,0.0448462516069412
439,-0.00898678228259087,0.0159013066440821,0.00158437958452851,-0.00308375293388963,-0.0250744670629501,0.0422227717936039
440,-0.00947331544011831,0.0148562369868159,-0.00115864002145827,-0.00976458843797445,-0.0279619339853525,0.0383221134543419
441,-0.0121520152315497,0.0133134433999658,-0.00289757503196597,-0.0136269619688392,-0.031582910567522,0.0380866676568985
442,-0.0172217655926943,0.0117807146161795,-0.00541636440902948,-0.0160596463829279,-0.036815918982029,0.0420503318309784
443,-0.0222665369510651,0.0112339584156871,-0.00816343445330858,-0.0183116029947996,-0.0418555065989494,0.0482892580330372
444,-0.024034047499299,0.0134383933618665,-0.00727749755606055,-0.017338439822197,-0.0437074862420559,0.0562749542295933
445,-0.0227390360087156,0.0173081122338772,-0.00206837081350386,-0.0120342271402478,-0.0434809811413288,0.0643995478749275
446,-0.0201529189944267,0.0206908099353313,0.00477054761722684,-0.00431063491851091,-0.0432664379477501,0.0707585960626602
447,-0.0166570097208023,0.0230673681944609,0.0109239770099521,0.00329836900345981,-0.041810154914856,0.0747691318392754
448,-0.0123346270993352,0.0248125344514847,0.0155256297439337,0.00804899167269468,-0.0370931774377823,0.0761480107903481
449,-0.00882004667073488,0.0259472094476223,0.0186341721564531,0.00876963511109352,-0.0315997675061226,0.075472891330719
450,-0.00732525764033198,0.0259581655263901,0.0207178983837366,0.00643198611214757,-0.0287079643458128,0.0741323232650757
451,-0.0069515872746706,0.0245864726603031,0.0217977557331324,0.00250241789035499,-0.0276360120624304,0.072391539812088
452,-0.00685604056343436,0.0218625273555517,0.0207201223820448,-0.00202056672424078,-0.0270875208079815,0.0686394572257996
453,-0.00693441508337855,0.0180464051663876,0.0174928959459066,-0.00557188503444195,-0.0267637353390455,0.0615018866956234
454,-0.00679718237370253,0.0138800861313939,0.0140122156590223,-0.00633443146944046,-0.0255132112652063,0.0522560179233551
455,-0.00615212041884661,0.00970716588199139,0.0114900637418032,-0.00419168220832944,-0.0219792332500219,0.0439661554992199
456,-0.00522612128406763,0.00593487313017249,0.00988318864256144,-0.00058089243248105,-0.0172582156956196,0.0397347435355186
457,-0.00414805114269257,0.00354018690995872,0.00970269460231066,0.00331348995678127,-0.0139071317389607,0.0409662798047066
458,-0.00336513062939048,0.00330041232518852,0.012173761613667,0.0074727525934577,-0.011715479195118,0.0459509827196598
459,-0.00448761321604252,0.00621100142598152,0.0150976562872529,0.0102615403011441,-0.0108684925362468,0.0512976758182049
460,-0.00807756278663874,0.010563331656158,0.014849117025733,0.00850022211670876,-0.0126467095687985,0.0540482997894287
461,-0.0113766733556986,0.0118641005828977,0.0126852057874203,0.00290811713784933,-0.0140338521450758,0.0522045120596886
462,-0.0116540035232902,0.00889557506889105,0.011014599353075,-0.002133495407179,-0.0122835263609886,0.0451074428856373
463,-0.00914300978183746,0.00380517588928342,0.0102177457883954,-0.00375564070418477,-0.00852961931377649,0.03471789509058
464,-0.0053126085549593,-0.000760949566029012,0.0102800065651536,-0.00199217000044882,-0.00397131079807878,0.0256048496812582
465,-0.00168853020295501,-0.00248804688453674,0.0104186935350299,0.00248447712510824,-0.000271466939011589,0.0218142718076706
466,0.000269573443802074,-0.00172557588666677,0.0103149563074112,0.00768285151571035,0.000218841290916316,0.0223943311721087
467,0.000162084252224304,-0.0011734712170437,0.0108652645722032,0.0106466738507152,-0.00235653598792851,0.0231220182031393
468,-0.00114488985855132,-0.00243747676722705,0.0123202092945576,0.0106549402698874,-0.00613486021757126,0.0215106625109911
469,-0.00289291865192354,-0.00551751162856817,0.0130357975140214,0.00815969426184893,-0.0104678058996797,0.0168944522738457
470,-0.00572520028799772,-0.00943633075803518,0.0109101040288806,0.0033160331659019,-0.0151822976768017,0.0108052054420114
471,-0.00990588031709194,-0.0116821695119143,0.00656073866412044,-0.00214939517900348,-0.0188094954937696,0.00701621640473604
472,-0.0131102474406362,-0.00988345686346293,0.00335396849550307,-0.00485899997875094,-0.0187847148627043,0.0077859265729785
473,-0.012541227042675,-0.00499268434941769,0.00335277034901083,-0.00378198525868356,-0.0134849976748228,0.0109620410948992
474,-0.00758664682507515,-0.000466128200059757,0.00580086745321751,-0.00080835958942771,-0.00497683417052031,0.0128108197823167
475,-3.11626063194126E-05,0.00172815402038395,0.00940079614520073,0.00281705264933407,0.00283075636252761,0.013029720634222
476,0.00708754081279039,0.00145110720768571,0.012427194043994,0.00600679079070687,0.0087567800655961,0.0131665430963039
477,0.0111598698422313,-0.000474790256703272,0.0132195511832833,0.00809427630156279,0.0128792189061642,0.0144804324954748
478,0.0119333770126104,-0.00209379754960537,0.0127797266468406,0.00994227826595306,0.0150540396571159,0.0179492440074682
479,0.0108330510556698,-0.00275853788480163,0.0123829636722803,0.0108950342983007,0.0155687807127833,0.0214115921407938
480,0.00865015760064125,-0.00319855194538832,0.0112153729423881,0.00993118155747652,0.0143692828714848,0.0215294454246759
481,0.00590772554278374,-0.0035343780182302,0.00937506277114153,0.00850985758006573,0.0125969378277659,0.0181230884045362
482,0.00280156312510371,-0.00482175080105662,0.00772436475381255,0.0076501970179379,0.011165477335453,0.0117480214685202
483,-6.39149657217786E-05,-0.00810209661722183,0.00647574523463845,0.00658811023458838,0.00965224951505661,0.00166469742543995
484,-0.00111054605804384,-0.0115025918930769,0.0065484531223774,0.00449903449043632,0.0089506609365344,-0.0114686535671353
485,-0.000327265850501135,-0.0122302956879139,0.0086576184257865,0.00237737945280969,0.00971423368901014,-0.0230463743209839
486,0.0013275274541229,-0.00993425119668245,0.011684151366353,0.00248247804120183,0.011607981286943,-0.0279939994215965
487,0.00346451671794057,-0.00663132639601827,0.0136744063347578,0.00488306907936931,0.0136422328650951,-0.0255493391305208
488,0.00555793615058064,-0.00347771891392767,0.0143905207514763,0.00842933729290962,0.0139133632183075,-0.0174153335392475
489,0.00634147180244327,0.000278742576483637,0.0148538528010249,0.0112321330234408,0.0121452370658517,-0.00710082100704312
490,0.00453671533614397,0.00281945965252817,0.0146856578066945,0.0105024436488748,0.00941612105816603,-0.000238385910051875
491,0.00130696315318346,0.000781177543103695,0.0131664918735623,0.00677607441321015,0.00658064521849155,0.000169541817740537
492,-0.000715363130439073,-0.00443023582920432,0.010740514844656,0.00329368840903044,0.0039138300344348,-0.00357112940400839
493,-0.00098362157586962,-0.00850902870297432,0.00812262110412121,0.00209645577706397,0.000328898226143792,-0.00652086501941085
494,-0.000399789976654574,-0.00957012642174959,0.00593179324641824,0.00286170281469822,-0.00390718691051006,-0.00621918356046081
495,0.000797321670688689,-0.00931220315396786,0.0043371794745326,0.00365542434155941,-0.00592505419626832,-0.00509804859757423
496,0.00254658656194806,-0.00993666239082813,0.0031658555381,0.00370715744793415,-0.0048050582408905,-0.00609125662595034
497,0.00440434971824288,-0.010892691090703,0.00241329334676266,0.00342567963525653,-0.00187876622658223,-0.00941146072000265
498,0.00587055459618568,-0.0105162784457207,0.00157564005348831,0.00296186842024326,0.00270031136460602,-0.0138436332345009
499,0.00699323276057839,-0.0092211589217186,0.000615186349023134,0.00320034683682024,0.00908489804714918,-0.0179688464850187
500,0.0085673239082098,-0.00886075012385845,0.00067691964795813,0.00502872094511986,0.0162413250654936,-0.0211190283298492
501,0.0113011933863163,-0.00973918475210667,0.00276529835537076,0.00806943234056234,0.0231227595359087,-0.022904384881258
502,0.014351561665535,-0.0107326647266746,0.00642005167901516,0.0108232507482171,0.0285959541797638,-0.0229429583996534
503,0.0159696210175753,-0.0115202004089952,0.00940150208771229,0.0115936603397131,0.0312951318919659,-0.021546583622694
504,0.0157307330518961,-0.0121330441907048,0.0101015390828252,0.0107767675071955,0.0311126708984375,-0.0189030338078737
505,0.0139816198498011,-0.0123325660824776,0.00878847856074572,0.0106416456401348,0.0285661052912474,-0.0151391932740808
506,0.0111799109727144,-0.0122878393158317,0.00654286658391356,0.0120328646153212,0.0247938577085733,-0.0116067118942738
507,0.00872412603348494,-0.011850880458951,0.00524913938716054,0.0143991727381945,0.0226497408002615,-0.00973159447312355
508,0.00792134366929531,-0.010511351749301,0.0063680405728519,0.0172736458480358,0.0239242836833,-0.00966398604214191
509,0.00811479985713959,-0.00785557832568884,0.00806184951215982,0.0192244611680508,0.0264150463044643,-0.0103656435385346
510,0.00747914239764214,-0.00415178760886192,0.00676817074418068,0.0185481030493975,0.0267176348716021,-0.01040362380445
511,0.00550723262131214,-0.00116999668534845,0.00288389623165131,0.0155547587200999,0.0253393072634935,-0.00996678974479437
512,0.00419263634830713,-2.74255148724478E-06,0.000214578176382929,0.0128256324678659,0.0252114105969667,-0.00991418492048979
513,0.00560223823413253,-0.000702424556948245,-0.000216629996430129,0.0117951119318604,0.0263849664479494,-0.0104248784482479
514,0.00832351204007864,-0.00414553238078952,-0.000388990214560181,0.0106853889301419,0.026426337659359,-0.0123315146192908
515,0.00945690926164389,-0.00994621217250824,-0.00117386016063392,0.00840725563466549,0.0244921743869781,-0.0166376885026693
516,0.00880313664674759,-0.0152836870402098,-0.00148915289901197,0.00734394276514649,0.0226491466164589,-0.0225797425955534
517,0.00782305840402842,-0.0165572687983513,-0.000536031497176737,0.00997976306825876,0.0222391597926617,-0.0277412571012974
518,0.00623042276129127,-0.0124891540035605,-0.000296166399493814,0.0141421118751168,0.0210547503083944,-0.0309438090771437
519,0.00331114139407873,-0.00795221235603094,-0.00311788590624928,0.0150003572925925,0.0178188402205706,-0.0339513644576073
520,0.00020917653455399,-0.00883029866963625,-0.0074779624119401,0.0118647618219256,0.0154690574854612,-0.0387238040566444
521,-0.0019250251352787,-0.0139193180948496,-0.0103475255891681,0.00768596353009343,0.0166689548641443,-0.04453369602561
522,-0.00305904471315444,-0.0174178741872311,-0.0109344944357872,0.00464014615863562,0.0203369613736868,-0.0481154173612595
523,-0.00291406270116568,-0.0160215832293034,-0.0100100236013532,0.0037679853849113,0.0235541611909866,-0.0461450070142746
524,-0.000263541471213102,-0.0116803720593452,-0.00786958169192076,0.00475092278793454,0.0255048591643572,-0.0388860069215298
525,0.00400453945621848,-0.00864065624773502,-0.00519477017223835,0.00605913763865829,0.0265792943537235,-0.0298466123640537
526,0.0064470018260181,-0.00885456427931786,-0.00374480313621461,0.00639569014310837,0.0254988726228476,-0.0228105578571558
527,0.00619820971041918,-0.0112435258924961,-0.0038914242759347,0.00548768974840641,0.0221518594771624,-0.0206978619098663
528,0.00510720768943429,-0.013921020552516,-0.00424512010067701,0.00475801061838865,0.0190676469355822,-0.0237964019179344
529,0.00368825253099203,-0.0157754980027676,-0.0038080106023699,0.00598400505259633,0.0179459359496832,-0.0298630483448505
530,0.00152714340947568,-0.0170943401753902,-0.00317171262577176,0.00791677180677652,0.0189938377588987,-0.0366606377065182
531,-0.000371411413652822,-0.0185539089143276,-0.00339529966004193,0.00793690141290426,0.0224008299410343,-0.0422022342681885
532,-0.00130617071408778,-0.0205785874277353,-0.00491802394390106,0.00569311203435063,0.0266775377094746,-0.0450781956315041
533,-0.00165568653028458,-0.0231811571866274,-0.00669750384986401,0.00307858362793922,0.0295941438525915,-0.044654656201601
534,-0.00106704991776496,-0.0251496192067862,-0.00632858416065574,0.0027692939620465,0.0306370984762907,-0.0411148406565189
535,0.000703987025190145,-0.0251727141439915,-0.00344067881815135,0.00522432522848248,0.0309639014303684,-0.0369735285639763
536,0.00284264469519258,-0.0235914066433907,-0.000408769294153899,0.0084618516266346,0.0317067913711071,-0.0353119634091854
537,0.00463740434497595,-0.0216368194669485,0.00149035430513322,0.0111452210694551,0.0324651412665844,-0.0360231064260006
538,0.00566955376416445,-0.0204577706754208,0.00249621085822582,0.0122767323628068,0.0325506255030632,-0.037223819643259
539,0.00583939114585519,-0.020774656906724,0.00237045111134648,0.0109767774119973,0.0325919128954411,-0.0382621958851814
540,0.00619727093726397,-0.0216870326548815,0.00138157559558749,0.00865103863179684,0.0350950844585896,-0.0381808131933212
541,0.00732080079615116,-0.0220193527638912,0.000511738820932806,0.00719637237489223,0.0410625599324703,-0.0362053103744984
542,0.00851043127477169,-0.0215172413736582,0.000243667076574638,0.00667625665664673,0.0482566729187965,-0.0334745980799198
543,0.00957888551056385,-0.0196491945534945,0.000658457807730883,0.00662955269217491,0.0544269904494286,-0.0307583082467318
544,0.0104977982118726,-0.0162429101765156,0.00153453135862947,0.00633836910128593,0.0580208450555801,-0.0283209588378668
545,0.0106699010357261,-0.0124009056016803,0.00249237357638776,0.00522150378674269,0.0582287460565567,-0.026543440297246
546,0.00903661083430052,-0.00916626770049334,0.00292914384044707,0.00467710569500923,0.0545012503862381,-0.0245110355317593
547,0.00512767350301147,-0.00674902554601431,0.00248688855208457,0.00571766588836908,0.0468002520501614,-0.0219811424612999
548,0.000910583417862654,-0.00634689163416624,0.00210913270711899,0.00739932060241699,0.0381817892193794,-0.0208136290311813
549,-0.00119026296306401,-0.00913121271878481,0.00266201142221689,0.0101712048053741,0.032658539712429,-0.0211142767220736
550,-3.11578405671753E-05,-0.0130070997402072,0.00448779109865427,0.0150264389812946,0.0328682437539101,-0.0195592008531094
551,0.00360016175545752,-0.0161130670458078,0.00623139645904303,0.0191827286034822,0.0385693460702896,-0.0162954535335302
552,0.00689814984798431,-0.0193204991519451,0.0051980041898787,0.0193915255367756,0.0457709841430187,-0.0170471668243408
553,0.00870042201131582,-0.0222860909998417,0.00230524525977671,0.017006641253829,0.0514532662928104,-0.0236273128539324
554,0.0100144604220986,-0.0234013255685568,0.000478209491120651,0.0147320302203298,0.0547919198870659,-0.0324559286236763
555,0.0114948274567723,-0.0225120894610882,0.000866894668433815,0.0137145752087235,0.0552843846380711,-0.0412885695695877
556,0.0130068967118859,-0.0207849517464638,0.00361361494287848,0.0134800225496292,0.0537148825824261,-0.0497176982462406
557,0.013575884513557,-0.019280344247818,0.00714979972690344,0.0123016340658069,0.0510058961808681,-0.0565138682723045
558,0.0117111252620816,-0.0186273958534002,0.00842743366956711,0.00972152221947908,0.0458699576556683,-0.0596645474433899
559,0.00775954267010093,-0.0186053477227688,0.00644220085814595,0.00683380663394928,0.0380842350423336,-0.0580102391541004
560,0.00429172953590751,-0.0179182384163141,0.00308250682428479,0.00401793280616403,0.0315089002251625,-0.0520311035215855
561,0.00242426269687712,-0.0166529212146997,0.000330973271047696,0.00125133444089442,0.029045756906271,-0.0440089479088783
562,0.00166372617240995,-0.0160673204809427,-0.000943131220992655,0.000121462660899851,0.0300977993756533,-0.0365029349923134
563,0.00192077690735459,-0.0162383448332548,-0.00104375137016177,0.00147678062785417,0.0326118431985378,-0.0305830985307693
564,0.00263719749636948,-0.0168821737170219,-0.00120206596329808,0.0027848407626152,0.0342204794287682,-0.0271058660000563
565,0.00274373288266361,-0.0178974587470293,-0.00205307966098189,0.00155296735465527,0.033927358686924,-0.0267209522426128
566,0.00186217750888318,-0.0184279568493366,-0.00310388347133994,-0.000603299529757351,0.0326078161597252,-0.0276222918182611
567,0.000797701999545097,-0.0166483782231808,-0.00330007961019874,4.26364240411203E-05,0.0317881554365158,-0.0272946804761887
568,-7.1641719841864E-05,-0.0123778432607651,-0.00290618324652314,0.00369522348046303,0.0302773173898458,-0.0261795446276665
569,-0.00111042801290751,-0.00841745641082525,-0.0027760046068579,0.00800878182053566,0.0255471300333738,-0.0256062150001526
570,-0.00221018772572279,-0.00782597903162241,-0.00254615256562829,0.0116785392165184,0.0189699567854404,-0.0256423689424992
571,-0.00309547781944275,-0.011395400390029,-0.00211848993785679,0.0130652142688632,0.0145807722583413,-0.0270208679139614
572,-0.00352441635914147,-0.0166985541582108,-0.00174805789720267,0.0107746087014675,0.0144709218293428,-0.0301275253295898
573,-0.00354241696186364,-0.0201130528002977,-0.00196131225675344,0.00636347243562341,0.017203314229846,-0.0332928039133549
574,-0.00338650960475206,-0.020147206261754,-0.00371538731269538,0.00301035400480032,0.0197737794369459,-0.0345661416649818
575,-0.003250622889027,-0.0185221135616302,-0.0069577950052917,0.00256190518848598,0.0196636244654655,-0.0333070158958435
576,-0.00320430123247206,-0.017778879031539,-0.0103109134361148,0.00489519583061337,0.0170066263526678,-0.0306421387940645
577,-0.00336824124678969,-0.016777167096734,-0.0126343248412013,0.00791413150727749,0.0148336049169302,-0.0289706811308861
578,-0.00406986707821488,-0.0136206988245249,-0.0135073531419039,0.00904313568025827,0.0145520409569144,-0.0289668291807175
579,-0.00501563539728522,-0.0108112981542945,-0.0126512302085757,0.00763393985107541,0.0150576466694474,-0.029168413951993
580,-0.00500110723078251,-0.010392383672297,-0.0104856286197901,0.00467666098847985,0.0161957368254662,-0.029059236869216
581,-0.00370403449051082,-0.0111797489225864,-0.00851884111762047,0.00206322036683559,0.0176174156367779,-0.0288717914372683
582,-0.00235917395912111,-0.0122107593342662,-0.00767930038273335,0.00150338443927467,0.0179236624389887,-0.0294983200728893
583,-0.00152133195661008,-0.0140735525637865,-0.00682406360283494,0.00226527987979352,0.0180529374629259,-0.0331212989985943
584,-0.000948399712797254,-0.0170326828956604,-0.00483155064284801,0.00299935741350055,0.0194206815212965,-0.0386573374271393
585,-0.0008959686383605,-0.0196229312568903,-0.00254756514914334,0.00371889653615654,0.0200003683567047,-0.0414920449256897
586,-0.00128794752527028,-0.0209322273731232,-0.00135238096117973,0.00364791252650321,0.0181681364774704,-0.0400746092200279
587,-0.00188280607108027,-0.0213220845907927,-0.00124450121074915,0.00238512991927564,0.0155157539993525,-0.0360586233437061
588,-0.00303862593136728,-0.0204108133912086,-0.000721458054613322,0.00197259429842234,0.013884630985558,-0.0303813423961401
589,-0.0040824580937624,-0.0183869395405054,0.000766757060773671,0.00358006614260376,0.0144840534776449,-0.0249317120760679
590,-0.00344058568589389,-0.0171808935701847,0.00112665386404842,0.00549055635929108,0.0178741570562124,-0.0237400773912668
591,-0.00103009818121791,-0.0171612482517958,-0.000910599192138761,0.0064447782933712,0.0226100273430347,-0.0276796389371157
592,0.00164644920732826,-0.0161748006939888,-0.00320164719596505,0.00728196697309613,0.0265892278403044,-0.0323391184210777
593,0.00278641749173403,-0.012613270431757,-0.00422513158991933,0.00837855879217386,0.0282001625746489,-0.0334646962583065
594,0.00201819185167551,-0.00769809586927295,-0.00549806375056505,0.00834996532648802,0.0266094990074635,-0.0306296590715647
595,0.000911482726223767,-0.00473900884389877,-0.00767897628247738,0.00648233760148287,0.0242066811770201,-0.025882376357913
596,0.000568653282243758,-0.00524639245122671,-0.00923085026443005,0.00440472178161144,0.0233818907290697,-0.0211439486593008
597,0.000345293490681797,-0.00745160691440105,-0.00961550697684288,0.00328520033508539,0.0224344097077847,-0.017869096249342
598,-0.000764611701015383,-0.00980227999389172,-0.0101532526314259,0.00228751869872212,0.0197201780974865,-0.018165135756135
599,-0.0026544698048383,-0.0122985430061817,-0.0115015506744385,0.00153118534944952,0.0157563611865044,-0.0228437427431345
600,-0.00405250350013375,-0.0150793846696615,-0.0123812397941947,0.00186989561188966,0.0115864677354693,-0.0302382912486792
601,-0.00403630174696445,-0.0179725177586079,-0.011964445002377,0.00262045906856656,0.00839667860418558,-0.0382423475384712
602,-0.00295926001854241,-0.0197392497211695,-0.0112609071657062,0.00340368016622961,0.00599199859425426,-0.0448841936886311
603,-0.0020225637126714,-0.0189417786896229,-0.0115904537960887,0.00457846047356725,0.00273165013641119,-0.0483598932623863
604,-0.00175639730878174,-0.0162657033652067,-0.012819710187614,0.00598975969478488,-0.000448304926976562,-0.048180166631937
605,-0.00176337559241802,-0.0143225295469165,-0.0138748530298471,0.00719866948202252,-0.000271127792075276,-0.0457135774195194
606,-0.00238962564617395,-0.0149441221728921,-0.0144202159717679,0.00770663237199187,0.00290842400863767,-0.0429812520742416
607,-0.003255654592067,-0.0171987693756819,-0.0136374095454812,0.00787690002471209,0.00566565478220582,-0.0416345745325089
608,-0.00271633756347001,-0.0191418398171663,-0.0101776979863644,0.00863128807395697,0.0068515008315444,-0.0425545796751976
609,-0.000694005866535008,-0.0196435321122408,-0.00497133238241076,0.0101155424490571,0.00703263003379107,-0.0437604598701
610,0.00129614642355591,-0.019328411668539,-0.000739105977118015,0.011257516220212,0.00595694128423929,-0.0424626395106316
611,0.00236049224622548,-0.0193306151777506,0.00148879841435701,0.0113342804834247,0.00435436796396971,-0.0392623133957386
612,0.00242601451463997,-0.0188505034893751,0.00212748325429857,0.0106123378500342,0.003737902501598,-0.0362515226006508
613,0.00168993650004268,-0.0181283373385668,0.00135103240609169,0.00934857130050659,0.00484976684674621,-0.034329105168581
614,0.00135748262982816,-0.0178176425397396,0.000642428523860872,0.0088195912539959,0.00852391589432955,-0.0325320325791836
615,0.00271971756592393,-0.0166567303240299,0.0025067066308111,0.00983570143580437,0.0153259169310331,-0.029173081740737
616,0.00537330657243729,-0.0145228737965226,0.00792326498776674,0.0121427290141582,0.0245855618268251,-0.0240304674953222
617,0.00698156887665391,-0.0117023093625903,0.0150805227458477,0.0164800230413675,0.032515674829483,-0.0173807460814714
618,0.00560152903199196,-0.00776628218591213,0.0201396252959967,0.0220220852643251,0.032869677990675,-0.00903635285794735
619,0.00238224607892334,-0.00423555029556155,0.0204087104648352,0.0249151550233364,0.0237493198364973,-0.000549387186765671
620,-0.000527901807799935,-0.0035846377722919,0.0154544897377491,0.0216201283037663,0.0107185328379273,0.00445209257304668
621,-0.0022081695497036,-0.00499525433406234,0.00635596457868814,0.0125036248937249,-0.00082352664321661,0.00478270370513201
622,-0.00293324305675924,-0.005254783667624,-0.00361173856072128,0.00254953396506608,-0.0112341623753309,0.00373194692656398
623,-0.00443989876657724,-0.00314762792550027,-0.0108636431396008,-0.00349657982587814,-0.0220604073256254,0.00443151220679283
624,-0.00737121887505054,0.000155987698235549,-0.0146406525745988,-0.0058161043561995,-0.0323325805366039,0.00679641403257847
625,-0.0104894889518619,0.00293210055679083,-0.0172341726720333,-0.00754200574010611,-0.0411622747778893,0.00975418742746115
626,-0.0126270791515708,0.00442412914708257,-0.0193458497524261,-0.00977938435971737,-0.0478199012577534,0.0135378763079643
627,-0.0131160458549857,0.00494985189288855,-0.0186332166194916,-0.0121868867427111,-0.0508273839950562,0.0182328186929226
628,-0.0123981423676014,0.00490034557878971,-0.015311979688704,-0.0159501899033785,-0.0509320758283138,0.02250243909657
629,-0.0111966952681541,0.00532589294016361,-0.0117673985660076,-0.0207630153745413,-0.0502593070268631,0.026038495823741
630,-0.0100326482206583,0.00758450524881482,-0.00867876783013344,-0.0234475824981928,-0.0500096306204796,0.0307526364922524
631,-0.0101221473887563,0.0119680920615792,-0.00589991128072143,-0.0220602862536907,-0.0514799952507019,0.0388819389045238
632,-0.0126615352928638,0.0167403444647789,-0.00383454537950456,-0.0187606737017632,-0.055803794413805,0.0488425344228745
633,-0.0173537861555815,0.0190658532083035,-0.00304124085232615,-0.0180963631719351,-0.062330462038517,0.055153738707304
634,-0.0220613460987806,0.019019465893507,-0.00363720976747572,-0.0215990021824837,-0.0693652629852295,0.056171465665102
635,-0.024925222620368,0.0196332894265652,-0.00477565499022603,-0.026409924030304,-0.0760163888335228,0.0568797513842583
636,-0.0263035241514444,0.022546611726284,-0.00514131551608443,-0.0304234195500612,-0.0827391892671585,0.0622898787260056
637,-0.0273862518370152,0.027269285172224,-0.00447720987722278,-0.0338784046471119,-0.0896673947572708,0.0731340497732162
638,-0.0286585092544556,0.032660897821188,-0.00427899695932865,-0.037604782730341,-0.095194049179554,0.0869462937116623
639,-0.0306018572300673,0.036746583878994,-0.006608035415411,-0.0429386869072914,-0.0983887016773224,0.0993590801954269
640,-0.0332913175225258,0.0386736802756786,-0.0114013273268938,-0.0492408759891987,-0.100527837872505,0.108121775090694
641,-0.0360839627683163,0.0386376567184925,-0.0169450305402279,-0.0549054518342018,-0.103397361934185,0.11381471902132
642,-0.0383084863424301,0.0373833887279034,-0.0214028041809797,-0.0593303367495537,-0.107037357985973,0.116822257637978
643,-0.0387101769447327,0.0386075414717197,-0.0232064984738827,-0.061614103615284,-0.108628556132317,0.117335446178913
644,-0.0365659072995186,0.0435883849859238,-0.0222104955464602,-0.0621817596256733,-0.105207361280918,0.114942409098148
645,-0.0331049747765064,0.0487650707364082,-0.0189921911805868,-0.0612866319715977,-0.0978868827223778,0.111358478665352
646,-0.0300990287214518,0.0518881045281887,-0.014287400059402,-0.0575834289193153,-0.0910052731633186,0.11103405803442
647,-0.028468394652009,0.0529067143797874,-0.00917746033519506,-0.0509455949068069,-0.0879057198762894,0.115917190909386
648,-0.0282206982374191,0.0520656034350395,-0.00437941215932369,-0.0436692833900452,-0.087963379919529,0.122894093394279
649,-0.0286113228648901,0.0492774434387684,-0.000259477907093242,-0.0388707928359509,-0.0873376801609993,0.125952854752541
650,-0.0287653803825378,0.0441293641924858,0.00233958498574793,-0.0379687622189522,-0.0839619860053062,0.121372692286968
651,-0.028134087100625,0.0380696766078472,0.00313421711325645,-0.038747251033783,-0.0789168477058411,0.111907996237278
652,-0.026757013052702,0.034075990319252,0.00367344520054758,-0.0370882451534271,-0.0735878944396973,0.104081846773624
653,-0.0257899593561888,0.0325935296714306,0.00521862274035811,-0.0330261811614037,-0.0698504969477654,0.100953631103039
654,-0.0252884775400162,0.0325430296361446,0.00721926148980856,-0.0297286044806242,-0.0688228979706764,0.101147785782814
655,-0.0237451605498791,0.0341040231287479,0.00860657449811697,-0.0272706560790539,-0.0693988725543022,0.102424934506416
656,-0.0215165019035339,0.0370386429131031,0.0091908797621727,-0.0237037781625986,-0.0709085166454315,0.103764660656452
657,-0.0202894937247038,0.039632011204958,0.00958012975752354,-0.0187013242393732,-0.0729619190096855,0.105228804051876
658,-0.0207757875323296,0.040101520717144,0.010327685624361,-0.0133365839719772,-0.074658177793026,0.106026880443096
659,-0.0221135504543781,0.0384790152311325,0.0120036508888006,-0.00897546485066414,-0.0747214183211327,0.105366826057434
660,-0.0229908432811499,0.0358569100499153,0.0136000579223037,-0.00773764261975884,-0.0723171457648277,0.102993100881577
661,-0.0230537038296461,0.0327964909374714,0.0128853870555758,-0.0113052735105157,-0.0691386461257935,0.0982934907078743
662,-0.021947231143713,0.0303075816482306,0.0108481394127011,-0.0176605526357889,-0.0657772049307823,0.0924791842699051
663,-0.0196399427950382,0.0296051576733589,0.0102204345166683,-0.0228358116000891,-0.0600469969213009,0.0881028547883034
664,-0.0171558409929276,0.030992653220892,0.0110903782770038,-0.0252458620816469,-0.0525423996150494,0.0860601514577866
665,-0.0153607940301299,0.03392319008708,0.011405092664063,-0.0259824525564909,-0.045978419482708,0.0856491029262543
666,-0.0145934047177434,0.036750540137291,0.00953205022960901,-0.0266026817262173,-0.0413465611636639,0.0859356671571732
667,-0.0148515775799751,0.0374278910458088,0.00597924506291747,-0.0271242298185825,-0.0396020859479904,0.086607351899147
668,-0.0160288419574499,0.0340961217880249,0.00271493312902749,-0.0264394301921129,-0.040999386459589,0.0867893323302269
669,-0.0174359437078238,0.0285109970718622,0.00166876381263137,-0.0236275102943182,-0.0429979749023914,0.0857840180397034
670,-0.0184228830039501,0.0256411898881197,0.00233299587853253,-0.0202117767184973,-0.0447216331958771,0.0832718759775162
671,-0.0188855975866318,0.0259627029299736,0.00282172509469092,-0.0185646843165159,-0.0465712882578373,0.0779783576726913
672,-0.0184273216873407,0.0261510349810123,0.00364744057878852,-0.0178039371967316,-0.0464074052870274,0.0700310245156288
673,-0.0171841308474541,0.0245527476072311,0.00548778101801872,-0.0162423327565193,-0.0445177108049393,0.0617731809616089
674,-0.0153851825743914,0.0216870754957199,0.00757968705147505,-0.0143974227830768,-0.0436629801988602,0.0553635507822037
675,-0.0135321300476789,0.0188583824783564,0.00919525418430567,-0.0135000515729189,-0.0441938936710358,0.0515679344534874
676,-0.0119207631796598,0.017401771619916,0.00941009726375341,-0.0128265470266342,-0.0446143448352814,0.050961010158062
677,-0.0099616376683116,0.0171151645481586,0.00766389677301049,-0.0111498003825545,-0.0442488975822926,0.0519148074090481
678,-0.00762329576537013,0.0158723872154951,0.00527413142845035,-0.00927912816405296,-0.0433182418346405,0.0495350211858749
679,-0.0052747861482203,0.0129985567182302,0.00424166163429618,-0.00854969397187233,-0.0417900159955025,0.0422163009643555
680,-0.00406776089221239,0.0105695361271501,0.00452313106507063,-0.00872318632900715,-0.0413408130407333,0.0352867096662521
681,-0.00437209196388721,0.0108763966709375,0.00499685108661652,-0.00833122432231903,-0.0429687947034836,0.034745816141367
682,-0.0052331630140543,0.0133393863216043,0.00426641665399075,-0.00781762227416039,-0.0446383841335773,0.0396970584988594
683,-0.00675608078017831,0.0150036998093128,0.000627956876996905,-0.00968506280332804,-0.0445551015436649,0.0444172546267509
684,-0.00938814878463745,0.014180320315063,-0.00526671903207898,-0.0143768396228552,-0.042083315551281,0.0458854325115681
685,-0.0118871089071035,0.0117618246003985,-0.0099372286349535,-0.0187694225460291,-0.0367193520069122,0.0456219874322414
686,-0.0115884188562632,0.00999397411942482,-0.0108940806239843,-0.0197551753371954,-0.0288534872233868,0.0449766330420971
687,-0.00859910994768143,0.0100166890770197,-0.00952677149325609,-0.0178755559027195,-0.0221290588378906,0.0420954152941704
688,-0.00549456151202321,0.0110498080030084,-0.00737294834107161,-0.0154616199433804,-0.0190451722592115,0.0355323515832424
689,-0.00338213588111103,0.0116054965183139,-0.0045168730430305,-0.0139638632535934,-0.0181955955922604,0.0273691173642874
690,-0.0026039625518024,0.0104687577113509,-0.00249922717921436,-0.013646106235683,-0.0193581748753786,0.0207974258810282
691,-0.00342157646082342,0.00728288432583213,-0.00281937490217388,-0.0142128448933363,-0.0232898499816656,0.0167629532516003
692,-0.00510158762335777,0.003241166472435,-0.00503258174285293,-0.0152136823162436,-0.0286141000688076,0.0140864979475737
693,-0.00618495978415012,-0.000133419263875112,-0.00707395421341062,-0.0159086715430021,-0.0324262455105782,0.0102973133325577
694,-0.00660728244110942,-0.00409474410116673,-0.00694603938609362,-0.0160322189331055,-0.0334801450371742,0.00303293066099286
695,-0.00760736223310232,-0.010549645870924,-0.00451842742040753,-0.0153822209686041,-0.0331508703529835,-0.00618777191266418
696,-0.00829361844807863,-0.016075799241662,-9.6708201454021E-05,-0.0121030248701572,-0.0316152162849903,-0.0116915768012404
697,-0.00634803716093302,-0.0140782259404659,0.0057433508336544,-0.00534089654684067,-0.0272549465298653,-0.00917698070406914
698,-0.00178594165481627,-0.00494134891778231,0.010600714944303,0.0014879044611007,-0.0200576037168503,-0.000727243430446833
699,0.00319745694287121,0.0040531363338232,0.0126441037282348,0.00472091510891914,-0.0115314461290836,0.00689270440489054
700,0.00638709263876081,0.00858098641037941,0.012307028286159,0.00402045343071222,-0.00379350385628641,0.0088986000046134
701,0.00819284375756979,0.00906318984925747,0.0106163173913956,0.00103390321601182,0.00178939360193908,0.00646059401333332
702,0.0103532830253243,0.00705869030207396,0.0078599127009511,-0.00188389502000064,0.00497669028118253,0.004265071824193
703,0.0117506394162774,0.00387234077788889,0.00384425953961909,-0.00303440261632204,0.00538870552554727,0.00443833600729704
704,0.0108568156138062,0.000352667964762077,-0.000957112875767052,-0.00330789550207555,0.00417481688782573,0.00455643190070987
705,0.00880223885178566,-0.00227470137178898,-0.00530184013769031,-0.00444923248142004,0.00384887983091176,0.00322220451198518
706,0.00723706092685461,-0.00306481239385903,-0.00794907100498676,-0.00635240878909826,0.00565846264362335,0.00178289134055376
707,0.00673391111195087,-0.00224996451288462,-0.00792788900434971,-0.00748456967994571,0.00925918389111757,0.00131824472919106
708,0.0074463551864028,-0.000422072829678655,-0.00511819683015347,-0.00624789064750075,0.0133026158437133,0.00218181102536619
709,0.00910496152937412,0.00157095375470817,-0.0015466227196157,-0.00385995977558196,0.0158259924501181,0.00181795889511704
710,0.0104672759771347,0.00305436621420085,-0.000188690784852952,-0.00324177881702781,0.0150332013145089,-0.00322399428114295
711,0.0101204197853804,0.00356737431138754,-0.00175694772042334,-0.00389295700006187,0.010691492818296,-0.0111758057028055
712,0.00805908720940351,0.00191084970720112,-0.00397080229595304,-0.00374844274483621,0.00541079603135586,-0.0178316663950682
713,0.00585328740999103,-0.00232586520723999,-0.00441318145021796,-0.00301619758829474,0.00224382407031953,-0.0217796768993139
714,0.00445042876526713,-0.00700808828696609,-0.0033262416254729,-0.00265577854588628,0.00076633773278445,-0.0234163347631693
715,0.00400237087160349,-0.00972187146544456,-0.00149499508552253,-0.00226981029845774,0.000241525704041123,-0.0222770795226097
716,0.00508088152855635,-0.0103434910997748,0.00114645634312183,-0.00144342938438058,0.00229217507876456,-0.0175775606185198
717,0.00741390930488706,-0.00970934983342886,0.00332519668154418,-0.0012079244479537,0.00552894361317158,-0.0112851802259684
718,0.0101133110001683,-0.0073306136764586,0.00413795094937086,-0.00104583415668458,0.00734158186241984,-0.00648096622899175
719,0.0124320769682527,-0.00317305489443243,0.00450270343571901,0.00184778508264571,0.00923905987292528,-0.00370858400128782
720,0.0129852779209614,-0.000479038921184838,0.00459288572892547,0.00715034827589989,0.012297535315156,-0.00340222986415029
721,0.0115975020453334,-0.00201780372299254,0.00392237724736333,0.0112681109458208,0.0154913831502199,-0.00653381925076246
722,0.00996970199048519,-0.00567631470039487,0.0028377880807966,0.0131768276914954,0.0182537548243999,-0.0114967478439212
723,0.00854026712477207,-0.00764806102961302,0.00127009896095842,0.0144651541486382,0.0186987034976482,-0.0152542982250452
724,0.00690784491598606,-0.00683943182229996,-0.000878634571563452,0.0156500525772572,0.015614740550518,-0.0159414373338223
725,0.00621445802971721,-0.0047609768807888,-0.00181942584458739,0.0168333146721125,0.0121339801698923,-0.0134082362055779
726,0.00774764828383923,-0.00157663703430444,0.000317210331559181,0.0195927266031504,0.0119358710944653,-0.00915557518601418
727,0.0103609394282103,0.0018986037466675,0.00403102673590183,0.0230088885873556,0.0146280694752932,-0.00713678821921349
728,0.0118603734299541,0.000832171936053783,0.00503534823656082,0.0223227422684431,0.0178552679717541,-0.0115929609164596
729,0.0126151032745838,-0.0049415547400713,0.0018026337493211,0.0166810359805822,0.0209586936980486,-0.0204440671950579
730,0.014087880961597,-0.00970588903874159,-0.0016998304054141,0.0109815010800958,0.0240855552256107,-0.0268496889621019
731,0.0162116251885891,-0.0104830143973231,-0.000938906741794199,0.00869560893625021,0.0265120752155781,-0.0274888072162867
732,0.0178906451910734,-0.00846994388848543,0.00324364402331412,0.00851902924478054,0.0266296956688166,-0.0243685990571976
733,0.0179590489715338,-0.00603047758340836,0.00631814077496529,0.00722081400454044,0.0237511191517115,-0.0212958604097366
734,0.0170270614326,-0.00335849868133664,0.00644043227657676,0.00463081337511539,0.020461592823267,-0.0190918985754251
735,0.0165291763842106,0.000480204646009952,0.0053127845749259,0.00428806152194738,0.0188482813537121,-0.0149459987878799
736,0.0164401847869158,0.0040813903324306,0.00454071024432778,0.00821497850120068,0.0182941760867834,-0.00711197638884187
737,0.0163489133119583,0.00492965104058385,0.00393367744982243,0.0138475494459271,0.0200289506465197,0.00115328899119049
738,0.0159136578440666,0.00283839902840555,0.00321166031062603,0.01762430742383,0.0248496104031801,0.00441794330254197
739,0.0147859295830131,-0.000586065230891109,0.00333854486234486,0.0189380627125502,0.0295179318636656,0.000812384067103267
740,0.0129598742350936,-0.00398890906944871,0.00455431686714292,0.0187600906938314,0.0305992029607296,-0.00747089879587293
741,0.0103986784815788,-0.00638296268880367,0.00564785394817591,0.0176479145884514,0.0274256896227598,-0.0166641138494015
742,0.00773732364177704,-0.00808784365653992,0.00597973633557558,0.0153541611507535,0.0228989366441965,-0.0237147565931082
743,0.00638597551733255,-0.00996758323162794,0.00619759317487478,0.0120806498453021,0.0205128081142902,-0.0273660253733397
744,0.00675611756742001,-0.0111579289659858,0.00748913921415806,0.0102227171882987,0.0199943259358406,-0.0272246412932873
745,0.00802477076649666,-0.0113402884453535,0.0103935552760959,0.0116128791123629,0.0201436411589384,-0.0239750929176807
746,0.00933933816850185,-0.0122500034049153,0.0129576381295919,0.0147170554846525,0.0216998569667339,-0.0206417124718428
747,0.0105084329843521,-0.0141852777451277,0.0126468315720558,0.0171573385596275,0.0252655129879713,-0.020300755277276
748,0.0122537324205041,-0.0154448309913278,0.0104086194187403,0.0177554432302713,0.0307118985801935,-0.0232423041015863
749,0.014484079554677,-0.0152475070208311,0.00831472128629684,0.0158853344619274,0.0359782017767429,-0.0276311263442039
750,0.0150180505588651,-0.0147499851882458,0.006147684995085,0.0121556278318167,0.0368156991899014,-0.031304519623518
751,0.0130999693647027,-0.0146567821502686,0.00448094261810184,0.00923918839544058,0.0331537798047066,-0.0338096357882023
752,0.0112126283347607,-0.0127372369170189,0.00509174633771181,0.00984631385654211,0.0302858464419842,-0.0360363610088825
753,0.0104318866506219,-0.00914056785404682,0.00706625077873468,0.0132295377552509,0.0306627526879311,-0.0379245616495609
754,0.00982142612338066,-0.00799138378351927,0.00852157361805439,0.0161049906164408,0.0326213948428631,-0.0390281304717064
755,0.0101170586422086,-0.00970486458390951,0.00910361669957638,0.0165084544569254,0.0351136848330498,-0.0396301709115505
756,0.010917391628027,-0.0120226200670004,0.00816237740218639,0.0143499225378037,0.0364082083106041,-0.0400349944829941
757,0.00954950414597988,-0.0129777397960424,0.0050385445356369,0.0116960359737277,0.0331852547824383,-0.0387411452829838
758,0.00662469631060958,-0.0110079795122147,0.00121398468036205,0.0105731328949332,0.0260053556412458,-0.0352534949779511
759,0.00528593407943845,-0.00776781188324094,-0.00079160527093336,0.00984002929180861,0.0192043837159872,-0.0329983197152615
760,0.0061766505241394,-0.00657000159844756,-0.000175713415956125,0.00789131317287683,0.0156533960253,-0.0343104116618633
761,0.00738357612863183,-0.00900073256343603,0.000848901632707566,0.00409321486949921,0.015060911886394,-0.0380882509052753
762,0.00779005978256464,-0.0132158668711782,0.000149767496623099,-0.000252203666605055,0.0154931815341115,-0.0416272394359112
763,0.0081480061635375,-0.0159346964210272,-0.000845391012262553,-0.00157393387053162,0.0161952767521143,-0.0429877117276192
764,0.00870647374540567,-0.0165569167584181,-0.000288031180389225,0.000908635673113167,0.0158142410218716,-0.0434570126235485
765,0.00917194504290819,-0.0164556838572025,0.00141331402119249,0.00422791158780456,0.0124364513903856,-0.0450032167136669
766,0.00952796824276447,-0.0162875931710005,0.00250238389708102,0.00601403973996639,0.00716961268335581,-0.0470151454210281
767,0.00973631255328655,-0.0157319456338882,0.00137408415321261,0.00607306091114879,0.00362748373299837,-0.0476030744612217
768,0.0100624449551106,-0.0142572866752744,-0.00134775356855243,0.00580804701894522,0.00485911453142762,-0.0452584400773048
769,0.0102978413924575,-0.0117886764928699,-0.00328123313374817,0.00680768396705389,0.00985229387879372,-0.0401798598468304
770,0.00991717353463173,-0.00918527599424124,-0.00356646836735308,0.00832414720207453,0.0151013685390353,-0.0359901189804077
771,0.00919555407017469,-0.00798115693032742,-0.00395507365465164,0.00824237801134586,0.0189634282141924,-0.0366151295602322
772,0.00837672688066959,-0.00950061529874802,-0.00576659012585878,0.00620074709877372,0.0207725539803505,-0.0419155955314636
773,0.0075184260495007,-0.0128904487937689,-0.00823496654629707,0.00392626971006393,0.020700229331851,-0.048247218132019
774,0.00682752020657063,-0.0156912039965391,-0.01059833727777,0.0029508771840483,0.0201057884842157,-0.0516984537243843
775,0.00638596434146166,-0.0164789129048586,-0.0124392146244645,0.00352894095703959,0.0192022211849689,-0.0495541281998158
776,0.00652514025568962,-0.0153918862342834,-0.0130001809448004,0.00497900601476431,0.0180159993469715,-0.0424524731934071
777,0.00761935859918594,-0.0147519614547491,-0.0116940932348371,0.00621803384274244,0.018093416467309,-0.0368462167680264
778,0.00983440224081278,-0.014989810064435,-0.00754820555448532,0.00791070703417063,0.0210355427116156,-0.0373125150799751
779,0.0120888082310557,-0.012844922952354,-0.00188051885925233,0.0102017922326922,0.0248335003852844,-0.0404596626758575
780,0.0122659374028444,-0.00837189238518476,0.000895091739948839,0.010833041742444,0.0254889912903309,-0.041872214525938
781,0.010769727639854,-0.00445253262296319,-0.000787948898505419,0.00950917787849903,0.0233832411468029,-0.0408229343593121
782,0.0101977651938796,-0.00258948421105742,-0.00403553945943713,0.00750156817957759,0.0218939557671547,-0.0394281148910522
783,0.0111799389123917,-0.00380273489281535,-0.00573175400495529,0.00491237128153443,0.0223281309008598,-0.0403959602117538
784,0.0118146706372499,-0.00804492831230164,-0.00622600736096501,0.00189012545160949,0.0230629686266184,-0.0438275076448917
785,0.0108804861083627,-0.0133756129071116,-0.00735104037448764,-0.000355032447259873,0.0222106166183949,-0.047477949410677
786,0.00982950162142515,-0.0173508282750845,-0.00774331809952855,-8.73934695846401E-05,0.019891569390893,-0.049200277775526
787,0.0102593377232552,-0.0192889515310526,-0.00563951209187508,0.00222386000677943,0.0164189413189888,-0.0491237118840218
788,0.0111862132325768,-0.0202330071479082,-0.00265330984257162,0.00470306677743793,0.0122822774574161,-0.0491735488176346
789,0.0109001398086548,-0.0210449248552322,-0.00127273867838085,0.00692322244867682,0.00929918326437473,-0.0505514517426491
790,0.00989945326000452,-0.0216417070478201,-0.0018317699432373,0.00898985750973225,0.00968507677316666,-0.0524978302419186
791,0.00944611895829439,-0.0214413274079561,-0.00264649488963187,0.0111065078526735,0.0141443889588118,-0.0533038042485714
792,0.00915811397135258,-0.0197933930903673,-0.00295969494618475,0.0132202142849565,0.0197008550167084,-0.0518793612718582
793,0.00867279712110758,-0.0159186366945505,-0.00377338868565857,0.0155374957248569,0.0226722061634064,-0.047052189707756
794,0.00862863194197416,-0.0114477807655931,-0.00577633734792471,0.017150029540062,0.0235127955675125,-0.0399179309606552
795,0.00899049267172813,-0.00934641994535923,-0.00871649757027626,0.0155991781502962,0.0241683311760426,-0.0338237434625626
796,0.00907025393098593,-0.00944890081882477,-0.0117968069389462,0.0113967824727297,0.0239661578088999,-0.0294173136353493
797,0.00887675769627094,-0.0100047001615167,-0.0138589683920145,0.00790290627628565,0.0221079718321562,-0.0254632346332073
798,0.00946934055536985,-0.0102921798825264,-0.0134558137506247,0.00740052293986082,0.0206593573093414,-0.0219349898397923
799,0.010902676731348,-0.0112993009388447,-0.0105304345488548,0.00883606262505054,0.0211200006306171,-0.0211238544434309
800,0.0113713853061199,-0.0139553537592292,-0.0075521725229919,0.00939294323325157,0.0213516857475042,-0.0250690393149853
801,0.00986697245389223,-0.0171683672815561,-0.00656540179625154,0.0078745111823082,0.01949293166399,-0.0325919426977634
802,0.00812099874019623,-0.0192524027079344,-0.00658880826085806,0.00603197049349546,0.0174051038920879,-0.0405646078288555
803,0.00827731844037771,-0.0204754713922739,-0.00534520018845797,0.00571180274710059,0.0180451180785894,-0.0475317984819412
804,0.00862273201346397,-0.0222018919885159,-0.00305957603268325,0.00594830606132746,0.0190067514777184,-0.0541024729609489
805,0.00687719928100705,-0.0225206594914198,-0.00158954109065235,0.00691685453057289,0.0160741098225117,-0.0583128295838833
806,0.0050054294988513,-0.0191780179738998,-0.000603715423494577,0.0107006672769785,0.0120559921488166,-0.0570798106491566
807,0.00502643547952175,-0.013463631272316,0.00110904639586806,0.0160691123455763,0.0118143586441875,-0.051538597792387
808,0.00570142595097423,-0.00851983856409788,0.00293781817890704,0.0189548470079899,0.0158117990940809,-0.0452630631625652
809,0.00549326557666063,-0.00729206809774041,0.00387591379694641,0.0180882886052132,0.021431939676404,-0.0394684933125973
810,0.00466976501047611,-0.00896590761840343,0.00437736790627241,0.0164051111787558,0.0256705693900585,-0.0330158546566963
811,0.00431520398706198,-0.0108000049367547,0.00500625977292657,0.0165355149656534,0.0277248173952103,-0.0260583851486444
812,0.00477102259173989,-0.0123141063377261,0.00474316626787186,0.0180828794836998,0.0282417424023151,-0.0204306114464998
813,0.0061889523640275,-0.0133968153968453,0.00330378767102957,0.0203343816101551,0.0285638831555843,-0.0164082404226065
814,0.00844146590679884,-0.0135751767084002,0.00154713587835431,0.023324579000473,0.0294401757419109,-0.0141673134639859
815,0.0103962700814009,-0.0134296361356974,-0.000710198481101543,0.0257744416594505,0.0291959661990404,-0.0159853585064411
816,0.0111955823376775,-0.0138894477859139,-0.00389027269557118,0.0255934949964285,0.0272087566554546,-0.023012813180685
817,0.0106366965919733,-0.0154519500210881,-0.00819746870547533,0.0217977520078421,0.0251532141119242,-0.0331740975379944
818,0.00938082486391068,-0.0169481988996267,-0.0129238096997142,0.016221521422267,0.0234637521207333,-0.0415092669427395
819,0.00833266973495483,-0.016368517652154,-0.0164470467716455,0.0116419987753034,0.0205307267606258,-0.0443686842918396
820,0.00782103557139635,-0.0140133453533053,-0.0173091366887093,0.00849932339042425,0.0159197170287371,-0.0431874319911003
821,0.00787896662950516,-0.0119883166626096,-0.014655951410532,0.00636701239272952,0.0111185926944017,-0.0411527641117573
822,0.00847980845719576,-0.0119664520025253,-0.00939300563186407,0.00542150810360909,0.00729274144396186,-0.0404994003474712
823,0.00983529537916183,-0.0139880776405334,-0.00390099338255823,0.00640086736530066,0.00539852539077401,-0.0422408916056156
824,0.0113229397684336,-0.0164973549544811,-6.5177031501662E-05,0.0102478060871363,0.00589328771457076,-0.0454330109059811
825,0.0117021733894944,-0.0185440015047789,0.00144734105560929,0.0148874009028077,0.00758940214291215,-0.0495503544807434
826,0.0111547978594899,-0.0200061462819576,0.000375290401279926,0.0162670370191336,0.00992183387279511,-0.0539271645247936
827,0.00994241330772638,-0.0197247005999088,-0.00334389414638281,0.0143680274486542,0.0131585886701941,-0.0546360611915588
828,0.00716243032366037,-0.0167700797319412,-0.00843004323542118,0.0115729030221701,0.0160431545227766,-0.0497746840119362
829,0.00303225102834404,-0.0128225097432733,-0.0119775692000985,0.00895947031676769,0.0162070486694574,-0.0432678647339344
830,-0.000257281673839316,-0.0107507389038801,-0.0120115494355559,0.00777860917150974,0.0125308912247419,-0.0397155433893204
831,-0.000849993957672268,-0.0117321731522679,-0.0094171054661274,0.00873163156211376,0.00713878823444247,-0.0395748615264893
832,0.000567575159948319,-0.0134478742256761,-0.00612431298941374,0.0115597452968359,0.00343089969828725,-0.0385538749396801
833,0.00245313998311758,-0.0115864016115665,-0.00341719505377114,0.0154635217040777,0.00290227821096778,-0.0331812091171741
834,0.00393219105899334,-0.00663083139806986,-0.00294947111979127,0.01771005615592,0.00397271336987615,-0.0260800570249558
835,0.00491845747455955,-0.00327274692244828,-0.00513844378292561,0.0162585619837046,0.00581062538549304,-0.021840138360858
836,0.00642040558159351,-0.00360410544089973,-0.00758958468213677,0.0117636229842901,0.0108005693182349,-0.0218928474932909
837,0.00890727061778307,-0.00623222999274731,-0.00819636043161154,0.00639708200469613,0.0188399069011211,-0.0241449363529682
838,0.0116561278700829,-0.00847455486655235,-0.00754046253859997,0.00204949826002121,0.025843657553196,-0.0262493155896664
839,0.0138479582965374,-0.00925369653850794,-0.00683306157588959,-0.00116882612928748,0.0288366936147213,-0.0284057725220919
840,0.014213708229363,-0.00919461250305176,-0.00593320606276393,-0.0030340407975018,0.0258461143821478,-0.0301817301660776
841,0.0115539887920022,-0.00953102391213179,-0.00522614130750299,-0.00345876975916326,0.016566788777709,-0.030663812533021
842,0.00739609962329268,-0.0107432091608644,-0.00513221556320786,-0.00250683864578605,0.00771791348233819,-0.030110402032733
843,0.00420003011822701,-0.0116011686623096,-0.00519418809562922,0.000789883779361844,0.00592538621276617,-0.0284873489290476
844,0.00267060496844351,-0.0112408036366105,-0.00539272418245673,0.0059796879068017,0.00987536273896694,-0.0269246306270361
845,0.0026270707603544,-0.0100696766749024,-0.00587584497407079,0.0105640226975083,0.0162323508411646,-0.0269163176417351
846,0.00329422322101891,-0.00932655856013298,-0.00704269018024206,0.0120630376040936,0.0228068511933088,-0.0285358503460884
847,0.00395988393574953,-0.00928550399839878,-0.00875998754054308,0.010784518904984,0.0275865774601698,-0.0307818986475468
848,0.00449753925204277,-0.00925033446401358,-0.00991473067551851,0.00883618462830782,0.0298878271132708,-0.0328040979802608
849,0.00471016252413392,-0.00989516638219357,-0.0105598699301481,0.00671587139368057,0.0300786849111319,-0.0353836342692375
850,0.00461176969110966,-0.0121138077229261,-0.0107680354267359,0.00457807118073106,0.0283889696002007,-0.0387994945049286
851,0.0047663957811892,-0.014804920181632,-0.00909128785133362,0.00329883466474712,0.0254441350698471,-0.0421807281672955
852,0.00617348169907928,-0.0156430751085281,-0.00510051799938083,0.00329571659676731,0.0231383293867111,-0.0453756004571915
853,0.00868031475692987,-0.0144077353179455,-0.00105322257149965,0.00427894992753863,0.0215240586549044,-0.0481930337846279
854,0.00989366136491299,-0.0134017346426845,-3.18108104693238E-05,0.00573973823338747,0.0177565589547157,-0.0493929088115692
855,0.00784561969339848,-0.0136912707239389,-0.00228273053653538,0.00715998653322458,0.0109860179945827,-0.0474555231630802
856,0.00303299259394407,-0.0147373806685209,-0.00567904207855463,0.00791999697685242,0.0037917357403785,-0.0424152538180351
857,-0.00195745378732681,-0.0156345553696156,-0.00843729823827744,0.00845569372177124,-0.000450565392384306,-0.0363436155021191
858,-0.00462598679587245,-0.0157570410519838,-0.00901647470891476,0.00946026109158993,-0.000529419106896967,-0.0320475101470947
859,-0.00430082622915506,-0.0154766160994768,-0.00564666837453842,0.0114288153126836,0.00248131225816906,-0.0297772455960512
860,-0.00154035433661193,-0.013215871527791,0.00179340585600585,0.0153492083773017,0.00700710108503699,-0.0266248546540737
861,0.00221405155025423,-0.00744687812402844,0.00959948729723692,0.0199942104518414,0.0108108893036842,-0.0217231418937445
862,0.00500909239053726,-0.00155506387818605,0.0134724099189043,0.0228783115744591,0.0120934369042516,-0.0164201240986586
863,0.00637152791023254,0.00183660734910518,0.0135229788720608,0.0243080966174603,0.0122182732447982,-0.0103277685120702
864,0.00759708788245916,0.00418836856260896,0.0126710589975119,0.02589893899858,0.0146197760477662,-0.00287400186061859
865,0.00916789844632149,0.00556706637144089,0.0115844700485468,0.0263936892151833,0.0196182448416948,0.003396219573915
866,0.0108469733968377,0.00488933734595776,0.00898035988211632,0.0237461607903242,0.0249648299068213,0.00492033688351512
867,0.0122891534119844,0.00297810160554945,0.00514548318460584,0.0194231737405062,0.0291729811578989,0.00137028854805976
868,0.0123436134308577,0.0011066704755649,0.00180354993790388,0.016520831733942,0.0306972675025463,-0.00437201838940382
869,0.010603909380734,-0.000186503733857535,6.76032868796028E-05,0.0161711890250444,0.0289049632847309,-0.0101967547088861
870,0.00830405205488205,-0.000810806814115494,-7.82795541454107E-06,0.0172608140856028,0.0253860671073198,-0.0163843035697937
871,0.00644174823537469,-0.000610758666880429,0.000711327884346247,0.0182813666760921,0.0217653475701809,-0.0219242572784424
872,0.00469902763143182,0.00032544753048569,0.000653060269542038,0.0177671834826469,0.0181330032646656,-0.0245904307812452
873,0.00333182327449322,0.00142206798773259,-0.000479236419778317,0.0155141605064273,0.0156196607276797,-0.023756455630064
874,0.00249661062844098,0.00201247120276093,-0.00178193754982203,0.013345293700695,0.0150932632386684,-0.0202183965593576
875,0.000967814587056637,0.00227068224921823,-0.00266115320846438,0.0126377753913403,0.0140309613198042,-0.0153676550835371
876,-0.00109876005444676,0.00298391142860055,-0.00229142652824521,0.0128657463937998,0.0113830799236894,-0.0110888872295618
877,-0.00219381134957075,0.00315805175341666,-0.000812886282801628,0.0122301504015923,0.00988756772130728,-0.00988448318094015
878,-0.00176130537874997,0.00194945686962456,0.00110704789403826,0.0109667452052236,0.0119041306897998,-0.0116320159286261
879,-0.000285054469713941,0.000926093780435622,0.00392229203134775,0.0118855340406299,0.0158668253570795,-0.0128939244896173
880,0.00093796179862693,0.000649942609015852,0.00657117879018188,0.014616240747273,0.016814948990941,-0.0118515864014626
881,0.000678980955854058,-0.000340588419931009,0.00611712550744414,0.0147362565621734,0.0133061101660132,-0.0100805060938001
882,-0.00118601857684553,-0.00212393933907151,0.00248763267882168,0.0114613315090537,0.00924213510006666,-0.00889395084232092
883,-0.00358340982347727,-0.00350146484561265,-0.000553723308257759,0.00923220533877611,0.00805267039686441,-0.00787937641143799
884,-0.00445290189236403,-0.00374757801182568,9.93706926237792E-05,0.0107210781425238,0.0110410219058394,-0.00680559827014804
885,-0.00250847917050123,-0.00167972128838301,0.0038952580653131,0.0151343597099185,0.0166674237698317,-0.00545106315985322
886,0.0008985799504444,0.00329987704753876,0.00703699188306928,0.0197933036834002,0.0199128873646259,-0.00389018910937011
887,0.00320058176293969,0.00850950367748737,0.00680942786857486,0.0220882371068001,0.0176783874630928,-0.00269289524294436
888,0.00309163355268538,0.0093492167070508,0.00419444683939219,0.0219452567398548,0.0122054629027843,-0.00348847615532577
889,0.00163070403505117,0.00439511053264141,0.00124833674635738,0.0197650585323572,0.0080485362559557,-0.0092747937887907
890,0.0011817462509498,-0.0030179328750819,-0.000606758170761168,0.0162912029772997,0.00801082700490952,-0.0196044612675905
891,0.00254785688593984,-0.00810352154076099,-0.000220951114897616,0.0138703128322959,0.0105187343433499,-0.0286904834210873
892,0.00490961549803615,-0.0086337449029088,0.00253883330151439,0.012682625092566,0.0122977299615741,-0.0314237773418427
893,0.00726926745846868,-0.00581065146252513,0.00520369503647089,0.0100723719224334,0.0124052157625556,-0.0275665745139122
894,0.00854410976171494,-0.00195214513223618,0.00517704430967569,0.00487919617444277,0.0114693334326148,-0.0201418399810791
895,0.00828901398926973,0.00119099812582135,0.00334490370005369,-0.00199392181821167,0.0103401029482484,-0.0132297305390239
896,0.00721219461411238,0.00399392005056143,0.00217788061127067,-0.00847303681075573,0.00973385293036699,-0.00904399715363979
897,0.00616345275193453,0.00825563352555037,0.00199436536058784,-0.011583105660975,0.00973824970424175,-0.00612082798033953
898,0.0062493602745235,0.0136805372312665,0.00221169134601951,-0.00984238740056753,0.011451187543571,-0.00250357994809747
899,0.00841021258383989,0.0173580553382635,0.00296489777974784,-0.0044507710263133,0.0154707748442888,0.00120050844270736
900,0.011094649322331,0.0167391505092382,0.00306732347235084,0.00143698265310377,0.0179788935929537,0.00248205289244652
901,0.0117379408329725,0.0125497756525874,0.00125002430286258,0.00553545029833913,0.0148951392620802,0.000194001695490442
902,0.00993527472019196,0.00788999069482088,-0.00193770800251514,0.00814071763306856,0.00747237075120211,-0.00365154631435871
903,0.00692392652854323,0.00434529921039939,-0.00593084981665015,0.00936322100460529,0.000472953950520605,-0.00704963924363256
904,0.00397882703691721,0.000372410460840911,-0.0102835949510336,0.00742003228515387,-0.00258377939462662,-0.0109265428036451
905,0.00158699136227369,-0.00521671399474144,-0.0137950405478477,0.00176239770371467,-0.00319695030339062,-0.0160798486322165
906,-0.000244523369474337,-0.00946371164172888,-0.0155538367107511,-0.00395990302786231,-0.00583757599815726,-0.0200847983360291
907,-0.000888833892531693,-0.0090083172544837,-0.0155055709183216,-0.00590758631005883,-0.0105033861473203,-0.0210909061133862
908,0.000742671254556626,-0.00481952121481299,-0.0134242465719581,-0.00445338105782866,-0.0121234348043799,-0.0206974167376757
909,0.00397625425830483,-0.00101044308394194,-0.0101297926157713,-0.00272921030409634,-0.00860719569027424,-0.0219348464161158
910,0.00581540213897824,-0.000336711847921833,-0.00779512478038669,-0.00204564468003809,-0.00304979109205306,-0.0251796394586563
911,0.00568379601463676,-0.00152985262684524,-0.00609192810952663,-0.00109398283530027,0.00273583736270666,-0.0273311510682106
912,0.00645709410309792,-0.00197418662719429,-0.00303086033090949,0.00121014821343124,0.00862363539636135,-0.0259481277316809
913,0.00941852107644081,0.000632644630968571,0.00127700646407902,0.00477772438898683,0.0137794213369489,-0.0213813614100218
914,0.0131900878623128,0.00658081751316786,0.00452550919726491,0.0066490164026618,0.0181108452379704,-0.0168054290115833
915,0.0156223978847265,0.012397700920701,0.00483965035527945,0.00458891736343503,0.0201890747994184,-0.0140496017411351
916,0.0146820340305567,0.014979456551373,0.00284539628773928,0.000456635258160532,0.0172176249325275,-0.0116342520341277
917,0.0104161500930786,0.0143299475312233,-0.000240358509472571,-0.00371621223166585,0.00993377156555653,-0.00920800864696503
918,0.00583858648315072,0.0124345868825912,-0.00343543826602399,-0.00602213246747851,0.00269788457080722,-0.00733048934489489
919,0.00290899281390011,0.0106303598731756,-0.00565200904384255,-0.00563861895352602,-0.00234887236729264,-0.0071881921030581
920,0.00109237467404455,0.00946769770234823,-0.0056801475584507,-0.00364534766413271,-0.00525591801851988,-0.01005201600492
921,0.000137918395921588,0.010023457929492,-0.00244050449691713,-0.00071283127181232,-0.0053350729867816,-0.0146203562617302
922,-0.000257081002928317,0.0120848119258881,0.0019613797776401,0.00189734960440546,-0.00511988718062639,-0.018169529736042
923,-0.000417262868722901,0.014772629365325,0.00463916268199682,0.00399325182661414,-0.007871950045228,-0.017473490908742
924,0.000345301552442834,0.0165716521441936,0.00562692387029529,0.00611315714195371,-0.0107731353491545,-0.0127295535057783
925,0.00258669955655932,0.0155407171696424,0.00487547554075718,0.00619896361604333,-0.00997377093881369,-0.0087568461894989
926,0.00587893510237336,0.0124400937929749,0.00228535803034902,0.00360545841977,-0.006023358553648,-0.00809812359511852
927,0.00893042515963316,0.00937203597277403,-0.000703505997080356,0.000633223622571677,-0.00135030888486654,-0.00935098901391029
928,0.0103651424869895,0.00733249634504318,-0.00322734145447612,-0.00129865598864853,0.00160831643734127,-0.0105645349249244
929,0.00974148977547884,0.00673302030190825,-0.0058332746848464,-0.00242823641747236,0.00122566916979849,-0.0110251354053617
930,0.00736603606492281,0.00677695544436574,-0.00911465473473072,-0.0041643874719739,-0.00198571477085352,-0.012284523807466
931,0.00453942082822323,0.00653840741142631,-0.012121295556426,-0.00708260200917721,-0.00512370141223073,-0.0153325302526355
932,0.00246440060436726,0.00623055314645171,-0.013452498242259,-0.00972114317119122,-0.00569988554343581,-0.0177886039018631
933,0.000776822154875845,0.00599597161635756,-0.0128439506515861,-0.0108678983524442,-0.00416429108008742,-0.0175155438482761
934,-0.000668507185764611,0.00650969194248319,-0.0103298025205731,-0.0110311266034842,-0.00277844467200339,-0.0147083345800638
935,-0.00169536808971316,0.00735965697094798,-0.00735006295144558,-0.0119623010978103,-0.00359660014510155,-0.0110756261274219
936,-0.00292297499254346,0.00614714249968529,-0.00674427533522248,-0.0147609878331423,-0.0062329014763236,-0.0105718402191997
937,-0.00449125841259956,0.00278068287298083,-0.00868405215442181,-0.0179915279150009,-0.00893178582191467,-0.0157841742038727
938,-0.00437627173960209,0.00077810138463974,-0.00979548972100019,-0.0186462476849556,-0.00985081028193235,-0.0222968626767397
939,-0.000904227839782834,0.00238637044094503,-0.0077125309035182,-0.0154947629198432,-0.00714018009603024,-0.0234145168215036
940,0.00341580668464303,0.00647825608029962,-0.00384112703613937,-0.0103386798873544,-0.00211133831180632,-0.0186983328312635
941,0.00506807677447796,0.0119404867291451,-0.000673979113344103,-0.00628421129658818,0.00110765697900206,-0.0125493332743645
942,0.00341665907762945,0.0161830112338066,0.000482342991745099,-0.00533562665805221,-0.00041279976721853,-0.00948435813188553
943,-0.000436174479546025,0.016291681677103,-0.000297757127555087,-0.0062325899489224,-0.00712286774069071,-0.0106802107766271
944,-0.00453389156609774,0.0137473419308662,-0.00175879604648799,-0.00744314631447196,-0.017166543751955,-0.0135153736919165
945,-0.00691360561177135,0.0100002065300941,-0.00341180199757218,-0.0107120554894209,-0.0263761673122644,-0.0168083012104034
946,-0.00761527195572853,0.00504542840644717,-0.00568832736462355,-0.0164127703756094,-0.0309179984033108,-0.0204700604081154
947,-0.00762249482795596,0.000936064694542438,-0.00774945691227913,-0.0210648439824581,-0.0299955885857344,-0.0217398107051849
948,-0.00642620353028178,-0.000655181298498064,-0.00810790900141001,-0.0225652176886797,-0.0252068396657705,-0.0193705372512341
949,-0.00358467106707394,-0.000287701346678659,-0.00622688606381416,-0.021599967032671,-0.0197044592350721,-0.0160553678870201
950,-0.000811477017123252,0.000727521837688982,-0.00284684915095568,-0.0190312117338181,-0.0169016066938639,-0.0146230272948742
951,0.000244109149207361,0.00103533256333321,0.000512883008923382,-0.0159123316407204,-0.0177657529711723,-0.0158401411026716
952,-0.000311575102386996,0.000533629325218499,0.00238814391195774,-0.0132226403802633,-0.0198655463755131,-0.0173775162547827
953,-0.00224776053801179,0.000703326775692403,0.00209667417220771,-0.0109370583668351,-0.0200516823679209,-0.0156490411609411
954,-0.00515130488201976,0.00219530984759331,0.00100476469378918,-0.0090843653306365,-0.0175183117389679,-0.0100015355274081
955,-0.00760570028796792,0.00420342991128564,0.00092213461175561,-0.00800246186554432,-0.0144641697406769,-0.00239116628654301
956,-0.00874769780784845,0.00618282845243812,0.00141286768484861,-0.00750170601531863,-0.0136569291353226,0.00422938913106918
957,-0.00873421970754862,0.00765724526718259,0.000865953741595149,-0.00747638568282127,-0.0137097341939807,0.00624953489750624
958,-0.00796242710202932,0.00787464156746864,-0.000457898888271302,-0.00722192181274295,-0.0114834178239107,0.00303392112255096
959,-0.00622495915740728,0.00730617251247168,-1.94525273400359E-06,-0.00473350705578923,-0.00710561731830239,-0.00188177661038935
960,-0.00312274694442749,0.00680969562381506,0.00282698660157621,0.000679313845466822,-0.00238805334083736,-0.00518774474039674
961,-0.000260154600255191,0.00584459817036986,0.00459948740899563,0.00671321619302034,0.000262973742792383,-0.00576333794742823
962,0.000307686743326485,0.0041653704829514,0.0027218668255955,0.0100992312654853,-0.000188427875400521,-0.00415343279018998
963,-0.00104561483021826,0.00313012301921844,-0.00111682480201125,0.00971553288400173,-0.00163808593060821,-0.0022021452896297
964,-0.00256933807395399,0.00413415348157287,-0.0034893627744168,0.00782847870141268,-0.00201735133305192,-0.0012651210417971
965,-0.0036706633400172,0.0061812880448997,-0.00185842672362924,0.00760681740939617,-0.000893506687134504,-0.0018621850758791
966,-0.00447926530614495,0.0080670053139329,0.00326179177500308,0.00968107022345066,0.000751356245018542,-0.00410890625789762
967,-0.00477271573618054,0.0116228731349111,0.00741965416818857,0.0112665966153145,0.000673955772072077,-0.00685453461483121
968,-0.00502754235640168,0.0159899536520243,0.00695083942264318,0.00876758992671967,-0.0011485661379993,-0.0082718376070261
969,-0.0061033540405333,0.0170357190072536,0.00246152235195041,0.00234206370078027,-0.00237743137404323,-0.00635523395612836
970,-0.00778997084125876,0.0152611518278718,-0.00281926267780364,-0.00377635704353452,-0.0011868781875819,0.000602812564466149
971,-0.00917798560112715,0.0139622557908297,-0.00635049538686872,-0.00640438077971339,0.00261893356218934,0.0109278634190559
972,-0.00988842453807592,0.0143563970923424,-0.0081367390230298,-0.00583987217396498,0.00661364383995533,0.0199411325156689
