,AF3,AF4,Fp1,Fp2,AF7,AF8
0,-0.00467495108023286,-0.0117110647261143,-0.00121908052824438,-0.00473076244816184,0.00981050636619329,-0.00251622730866075
1,-0.00379098090343177,-0.0125345541164279,-0.000141260534292087,-0.00298663577996194,0.0113642094656825,0.000691401772201061
2,-0.00384831917472184,-0.0124214068055153,0.00041576856165193,-0.00105833308771253,0.0127494214102626,0.00500960554927588
3,-0.00546424090862274,-0.0113712130114436,9.24895284697413E-05,0.000338075507897884,0.0121432226151228,0.00844151340425015
4,-0.00619918201118708,-0.00895849894732237,-0.000371598813217133,0.00103206268977374,0.0100064370781183,0.00970775820314884
5,-0.00598025973886251,-0.00611682701855898,-0.000938796147238463,0.000378795870346949,0.00654096342623234,0.00774236116558313
6,-0.00668826838955283,-0.00362754426896572,-0.00116838689427823,-0.000133488763822243,0.00175422860775143,0.00466555636376143
7,-0.00825115758925676,-0.00011554172670003,-0.000349155336152762,0.00110364297870547,-0.00234304112382233,0.00342572154477239
8,-0.00934137217700481,0.00460042431950569,0.00145258742850274,0.00234751612879336,-0.002272057114169,0.00315171270631254
9,-0.00872860848903656,0.00835104752331972,0.00392915541306138,0.00308486726135015,0.00248166895471513,0.00334562640637159
10,-0.0061303898692131,0.0105482321232557,0.00661132857203484,0.00514388270676136,0.00846482627093792,0.00598806701600552
11,-0.00302150147035718,0.0111344382166862,0.00916408840566874,0.00846403278410435,0.0122872982174158,0.0101502705365419
12,-0.00199837260879576,0.0096410047262907,0.0115583995357156,0.0115268118679523,0.0117884743958712,0.0126631259918213
13,-0.00463709095492959,0.00629728101193905,0.0131757017225027,0.0132556976750493,0.00763297313824296,0.012371045537293
14,-0.00945174321532249,0.00105106679257005,0.0124769248068333,0.0122813489288092,0.00353596080094576,0.00919217709451914
15,-0.01275385171175,-0.00484868790954351,0.00912475865334272,0.00802207179367542,0.0029696247074753,0.00364509411156178
16,-0.0120788933709264,-0.0082357581704855,0.00545109435915947,0.00296266423538327,0.00776663096621633,-0.00200805673375726
17,-0.00847125239670277,-0.00787533819675446,0.00370442657731473,-9.33298797463067E-05,0.0161550864577293,-0.00449961749836802
18,-0.00508625525981188,-0.00578196858987212,0.00366655783727765,-0.00161234440747648,0.0228163171559572,-0.00324992905370891
19,-0.00346949184313416,-0.00355316489003599,0.0039043789729476,-0.00292881741188467,0.0235043242573738,-0.000928521621972322
20,-0.00282160448841751,-0.00205908925272524,0.00297413812950253,-0.00446070916950703,0.0193018056452274,-0.000648465356789529
21,-0.00189342733938247,-0.00258329953067005,0.00122921704314649,-0.00567909702658653,0.015270521864295,-0.00352213508449495
22,-0.000666356063447893,-0.0056496630422771,0.000643387611489743,-0.00505510438233614,0.0133212888613343,-0.00681330123916268
23,-0.000350981921656057,-0.0103204725310206,0.00133789784740657,-0.00270845089107752,0.0112473703920841,-0.00657984940335155
24,-0.00142710318323225,-0.0136273941025138,0.00203582388348877,-0.000816276995465159,0.00792069081217051,-0.00195401534438133
25,-0.00289227766916156,-0.0127307772636414,0.0025791188236326,-0.000244795170146972,0.00433771871030331,0.00502536352723837
26,-0.00334937637671828,-0.00809604302048683,0.00359597010537982,-0.000197332090465352,0.0025786713231355,0.011025651358068
27,-0.00286812009289861,-0.00259985309094191,0.00477439165115356,-0.000317544385325164,0.00319773936644197,0.013158212415874
28,-0.00287207635119557,0.00113955175038427,0.0046369363553822,-0.000929565110709518,0.00392847182229161,0.0113814035430551
29,-0.00439512170851231,0.000775674765463918,0.00193017348647118,-0.00324620050378144,0.00283017032779753,0.00667375000193715
30,-0.00662822695448995,-0.00365732028149068,-0.00149515399243683,-0.00608893390744925,0.000601054984144866,0.00021481848671101
31,-0.00769691588357091,-0.00694973208010197,-0.00203981855884194,-0.0056847371160984,-0.00120803306344897,-0.00493751093745232
32,-0.00685906829312444,-0.00520524941384792,-7.96205786173232E-05,-0.00187109352555126,-0.00176424183882773,-0.00662545301020145
33,-0.00465240050107241,-0.000824365823063999,0.00167493685148656,0.00247826729901135,-0.000490576727315784,-0.00603068759664893
34,-0.0029779530595988,0.00216108444146812,0.00255960715003312,0.00466837920248508,0.000951133784838021,-0.00607936643064022
35,-0.0033141290768981,0.00178539333865047,0.00380230974406004,0.00357989734038711,0.000120069016702473,-0.00852344185113907
36,-0.00473140506073833,-0.00148060580249876,0.00624392973259091,0.000620535109192133,-0.00164599507115781,-0.012006588280201
37,-0.005757343955338,-0.00586743373423815,0.00767408357933164,-0.00340682617388666,-0.00148076179903001,-0.0145162222906947
38,-0.0054021175019443,-0.00977272540330887,0.00587010337039828,-0.00944616831839085,0.00098051899112761,-0.016380462795496
39,-0.00384426210075617,-0.0119584426283836,0.00237418385222554,-0.0163383558392525,0.00444125663489103,-0.0177018754184246
40,-0.00228395592421293,-0.0113870576024055,-0.000403560698032379,-0.0201102681457996,0.00719956122338772,-0.0166320838034153
41,-0.00115505896974355,-0.00769717991352081,-0.00187828554771841,-0.0185528285801411,0.00711351959034801,-0.0129621792584658
42,-0.00108299101702869,-0.00314290635287762,-0.00294014508835971,-0.0135021060705185,0.00336881657131016,-0.00922304019331932
43,-0.00295655196532607,-0.00155594618991017,-0.00452336575835943,-0.00879071932286024,-0.00267084105871618,-0.0075807748362422
44,-0.00612954515963793,-0.00261939526535571,-0.00644173938781023,-0.00602281605824828,-0.0092223733663559,-0.0067588803358376
45,-0.00912481173872948,-0.00258347252383828,-0.0078522926196456,-0.00339492992497981,-0.0141744054853916,-0.00391654763370752
46,-0.010767038911581,-0.000530805846210569,-0.00823314115405083,-0.000162721233209595,-0.0147801814600825,0.000413009576732293
47,-0.0104953926056623,0.00144039350561798,-0.00754358572885394,0.00130990403704345,-0.00998037680983543,0.00294408132322133
48,-0.00932645332068205,0.00201646308414638,-0.00607304600998759,-0.0011220081942156,-0.00257574766874313,0.00218024291098118
49,-0.00910342670977116,0.00232926476746798,-0.00444904947653413,-0.0055771772749722,0.00290757743641734,0.000749096448998898
50,-0.00993218645453453,0.00373800238594413,-0.00379081978462636,-0.00894666835665703,0.00365575263276696,0.001886400510557
51,-0.0102072497829795,0.00534837320446968,-0.0050353892147541,-0.0114444559440017,1.50273945109802E-05,0.00474682869389653
52,-0.00910020153969526,0.00534049654379487,-0.00707157840952277,-0.0135528668761253,-0.00473327981308103,0.00609343685209751
53,-0.00775247300043702,0.00334218400530517,-0.00786099769175053,-0.014429728500545,-0.00850311387330294,0.00407616887241602
54,-0.00712163280695677,0.000664128107018769,-0.00664062984287739,-0.0141640361398458,-0.0107317753136158,-0.000845664879307151
55,-0.00665623135864735,-0.00130672520026565,-0.00391629571095109,-0.0122735798358917,-0.0106264101341367,-0.00496598985046148
56,-0.00614909734576941,-0.00241872738115489,-0.000615382101386786,-0.00718202535063028,-0.00834928266704082,-0.00406499812379479
57,-0.00548059027642012,-0.000811823701951653,0.00263163377530873,0.000899352075066417,-0.00400305120274425,0.00149716006126255
58,-0.00457429885864258,0.00467644026502967,0.00418264651671052,0.00797882489860058,0.00081899156793952,0.00672964379191399
59,-0.00415677856653929,0.00888426788151264,0.00272726803086698,0.0101562570780516,0.0039372406899929,0.00753773516044021
60,-0.00394072337076068,0.00809708703309298,0.000146525344462134,0.0087797436863184,0.0065506799146533,0.00623767590150237
61,-0.00339275924488902,0.00478951772674918,-0.00123359577264637,0.00679794605821371,0.00979473907500505,0.00567422015592456
62,-0.00275207776576281,0.00160049006808549,-0.00102706928737462,0.00473165744915605,0.0127962436527014,0.00334409601055086
63,-0.000889986113179475,-0.000978451105765998,0.000665014435071498,0.0027277022600174,0.0169904455542564,-0.00230361032299697
64,0.00254920404404402,-0.00359383970499039,0.00312293064780533,0.000794209539890289,0.0233100447803736,-0.0084729865193367
65,0.00537783373147249,-0.00612197676673532,0.00522898091003299,-0.00120691559277475,0.0286175068467855,-0.0118272323161364
66,0.00611493503674865,-0.00696607260033488,0.00677141128107905,-0.00216412381269038,0.0301586482673883,-0.0110346041619778
67,0.00511451112106442,-0.00504054827615619,0.00811132695525885,-0.00131917779799551,0.027756629511714,-0.00642885360866785
68,0.0035885819233954,-0.00109717634040862,0.00960157997906208,0.000486538017867133,0.0232851039618254,0.000969414599239826
69,0.00248174625448883,0.00266339280642569,0.0104388799518347,0.0014519221149385,0.019313246011734,0.00895419903099537
70,0.00274600903503597,0.00502850534394383,0.00970528367906809,0.000582599721383303,0.0181276127696037,0.0152376182377338
71,0.00513121671974659,0.0059630498290062,0.00795680936425924,-0.00146699952892959,0.0203941520303488,0.0190993472933769
72,0.00776374572888017,0.00439942022785544,0.00538661098107696,-0.00398567831143737,0.0228142887353897,0.0200526509433985
73,0.00784412864595652,0.000804331095423549,0.00178047711960971,-0.00616515288129449,0.0210189465433359,0.0183710474520922
74,0.00490922620519996,-0.0016050903359428,-0.00210476061329246,-0.00747067434713244,0.0142481494694948,0.0157615877687931
75,7.02106190146878E-05,-0.000769251317251474,-0.00450038956478238,-0.008250224404037,0.00614146515727043,0.0131886685267091
76,-0.00429037166759372,0.00285356678068638,-0.00357873714528978,-0.00842836312949657,0.00261045224033296,0.00965913292020559
77,-0.0055541000328958,0.00664961012080312,-6.4588850364089E-05,-0.00756468856707215,0.00617875950410962,0.00386991864070296
78,-0.00364459911361337,0.00715298624709249,0.00338999950326979,-0.00618239911273122,0.0132617028430104,-0.00315876398235559
79,-0.000283080036751926,0.00473104510456324,0.00554964412003756,-0.00491515640169382,0.0194164738059044,-0.00799479428678751
80,0.00279086362570524,0.00297645526006818,0.00601438106968999,-0.00395405571907759,0.0225487519055605,-0.00886365119367838
81,0.00423947395756841,0.00243401899933815,0.00448710517957807,-0.00470567448064685,0.0220320448279381,-0.00856638886034489
82,0.004070695489645,0.00138773454818875,0.00223029823973775,-0.00714179500937462,0.0184922758489847,-0.00929066259413958
83,0.00362320360727608,0.000504739116877317,0.00132415816187859,-0.00718024559319019,0.0133585035800934,-0.00853164866566658
84,0.00373894604854286,0.0015904197935015,0.00160716951359063,-0.0036565107293427,0.00853317324072123,-0.00421153241768479
85,0.00395494000986218,0.00325405248440802,0.000422706216340885,-0.00183835218194872,0.00605326658114791,0.00192131090443581
86,0.00394061068072915,0.00267830141820014,-0.00306168245151639,-0.00447065103799105,0.00682439235970378,0.00697564287111163
87,0.00424687284976244,0.000261716602835804,-0.0067364783026278,-0.0087918508797884,0.00984169170260429,0.00842422526329756
88,0.00509505765512586,-0.00241432548500597,-0.00874500256031752,-0.0121160289272666,0.012943571433425,0.00510156340897083
89,0.00604634499177337,-0.00509657245129347,-0.00849994458258152,-0.0136331031098962,0.0144657688215375,-0.000536504201591015
90,0.00650246301665902,-0.00759552139788866,-0.00647824490442872,-0.0136255444958806,0.0138035286217928,-0.00386262941174209
91,0.00605456717312336,-0.00809992663562298,-0.00423685926944017,-0.0127316042780876,0.0111795328557491,-0.00255671143531799
92,0.00498294783756137,-0.00419472018256783,-0.00287613435648382,-0.0118157994002104,0.00798740144819021,0.00180418603122234
93,0.00386600010097027,0.0039662797935307,-0.00220349757000804,-0.011942233890295,0.00587860541418195,0.00559703400358558
94,0.00265095639042556,0.0119996322318912,-0.00213741580955684,-0.014028325676918,0.00508867437019944,0.00544350175186992
95,0.000999046838842332,0.0146190272644162,-0.00276893517002463,-0.0177441164851189,0.0051854639314115,0.000212793354876339
96,-0.000684622267726809,0.0122503051534295,-0.00329319084994495,-0.0199416261166334,0.0058639207854867,-0.00718743214383721
97,-0.00167513685300946,0.00953638181090355,-0.00249470537528396,-0.0180462133139372,0.0069447117857635,-0.0115496497601271
98,-0.00109428097493947,0.00857014860957861,-0.000173322041518986,-0.0145088732242584,0.00947533641010523,-0.0106555037200451
99,0.00133709574583918,0.00842488184571266,0.00251474534161389,-0.0128051582723856,0.0136315422132611,-0.00634422432631254
100,0.00360552687197924,0.00842233654111624,0.00456881057471037,-0.012311932630837,0.0164067093282938,-0.00058618956245482
101,0.00361635256558657,0.00864410027861595,0.00574742583557963,-0.0109639717265964,0.0153899351134896,0.00500612938776612
102,0.00262243137694895,0.00882500596344471,0.0061265304684639,-0.00871000159531832,0.0123580396175385,0.00761224143207073
103,0.00308784539811313,0.00835456699132919,0.00553495669737458,-0.00692583946511149,0.0102911228314042,0.00578306196257472
104,0.00468981731683016,0.00794445350766182,0.00348808965645731,-0.00641481205821037,0.00910722557455301,0.00172635226044804
105,0.00600515212863684,0.00873883720487356,0.000712078239303082,-0.00678876461461186,0.00772770727053285,-0.00198242696933448
106,0.00667634140700102,0.00894729979336262,-0.00149969139602035,-0.00789637584239244,0.00647970056161284,-0.00566203612834215
107,0.006372578907758,0.00666991109028459,-0.00340096699073911,-0.00953527446836233,0.00494498759508133,-0.0100074633955956
108,0.0054909149184823,0.00338177871890366,-0.00555486232042313,-0.0108395712450147,0.00283292704261839,-0.0136809460818768
109,0.00469605531543493,0.000185111974133179,-0.00790673680603504,-0.0119506753981113,0.00115435128100216,-0.015319487079978
110,0.00448529003188014,-0.00296094035729766,-0.00963106192648411,-0.0124937519431114,0.00187405594624579,-0.0147903123870492
111,0.00564940134063363,-0.00333988131023943,-0.00953751802444458,-0.0112021006643772,0.00606748647987843,-0.012341714464128
112,0.00734407780691981,0.000826728995889425,-0.00842176284641027,-0.00956726353615522,0.0109631801024079,-0.00842254981398582
113,0.00796213932335377,0.00747608533129096,-0.00773878442123532,-0.00965721625834703,0.0135637996718287,-0.00342421559616923
114,0.00708190863952041,0.0142203969880939,-0.0078710624948144,-0.0114719429984689,0.0130257429555058,0.00226553017273545
115,0.00537747982889414,0.0179825555533171,-0.00843413546681404,-0.0140228606760502,0.00965323112905025,0.00743563938885927
116,0.00365082337521017,0.0162758529186249,-0.00831813272088766,-0.0161881539970636,0.0055372528731823,0.00987198017537594
117,0.0017426386475563,0.0104777701199055,-0.0074499431066215,-0.0178260691463947,0.0027498307172209,0.00840175617486238
118,-0.000321965955663472,0.00363930244930089,-0.00733823422342539,-0.0189848728477955,0.0013558748178184,0.0041506583802402
119,-0.00123587565030903,-0.00204693665727973,-0.00818793568760157,-0.0184741225093603,0.000824977818410844,-0.00101913779508322
120,-7.45944707887247E-05,-0.00553550384938717,-0.00815742649137974,-0.0151372328400612,0.00182164611760527,-0.00542990677058697
121,0.00259436015039682,-0.00779705494642258,-0.00531673198565841,-0.00987155642360449,0.00516342278569937,-0.00893714651465416
122,0.00598845398053527,-0.0100545501336455,0.000522419170010835,-0.00466259196400642,0.00961712654680014,-0.0116600561887026
123,0.00918631162494421,-0.0113336173817515,0.0058007724583149,-0.00219225510954857,0.0112002631649375,-0.0119300819933414
124,0.0108966995030642,-0.00997854024171829,0.00651330547407269,-0.00410716235637665,0.00800115987658501,-0.00946071837097406
125,0.0103245116770267,-0.0060006519779563,0.00356181641109288,-0.0064715314656496,0.00358667690306902,-0.00542790303006768
126,0.0082653621211648,-0.00133757933508605,0.00167129398323596,-0.00383828231133521,0.00283084344118834,0.000242475463892333
127,0.00587372574955225,0.00179070420563221,0.00288531230762601,0.00228466419503093,0.00620975671336055,0.00713562592864037
128,0.0034564146772027,0.00316422968171537,0.00492920959368348,0.00615580100566149,0.00986855756491423,0.0130998725071549
129,0.00218320009298623,0.00339466449804604,0.00630911020562053,0.00495626870542765,0.0117935184389353,0.0152384946122766
130,0.00287029915489256,0.00265574851073325,0.00613627629354596,-0.000965963001362979,0.0117484908550978,0.0115642221644521
131,0.00476389843970537,0.00213823583908379,0.00313816196285188,-0.0098240552470088,0.00920042581856251,0.00201880838721991
132,0.00686627998948097,0.00210950616747141,-0.0017573272343725,-0.0186523124575615,0.00486595509573817,-0.0116686215624213
133,0.00816603749990463,0.000744935125112534,-0.00639079743996263,-0.0243755131959915,-0.000727318285498768,-0.0252885408699512
134,0.00794302206486464,-0.00351303210482001,-0.00954816490411758,-0.0260873343795538,-0.0069308802485466,-0.0349503047764301
135,0.00663740187883377,-0.009278554469347,-0.0108919115737081,-0.0253414083272219,-0.0115782134234905,-0.0398726351559162
136,0.00536750350147486,-0.0135020865127444,-0.0112195750698447,-0.0241331048309803,-0.0136228753253818,-0.0403975211083889
137,0.00512237381190062,-0.014886561781168,-0.0118940565735102,-0.0232895202934742,-0.013326108455658,-0.0374550335109234
138,0.005737179890275,-0.0130135780200362,-0.0135333826765418,-0.0225101187825203,-0.0112459296360612,-0.0336485020816326
139,0.00566920964047313,-0.00825904123485088,-0.0157661065459251,-0.0212305746972561,-0.00963039882481098,-0.0308130569756031
140,0.00439776107668877,-0.00438562175258994,-0.0173951722681522,-0.0195498839020729,-0.0103593980893493,-0.0286295525729656
141,0.00252193305641413,-0.0054706484079361,-0.0186093579977751,-0.0189973525702953,-0.0127899795770645,-0.0280506275594234
142,0.000289764982881024,-0.0100393649190664,-0.0207631699740887,-0.0205846149474382,-0.0155035788193345,-0.031452264636755
143,-0.00184374384116381,-0.0145212104544044,-0.0231107734143734,-0.0234392676502466,-0.0179358422756195,-0.0392040647566319
144,-0.00253385351970792,-0.0177266672253609,-0.0230983011424541,-0.0254318136721849,-0.019490048289299,-0.0475932694971561
145,-0.000701340555679053,-0.0184188671410084,-0.0198145788162947,-0.0244541503489017,-0.0192021820694208,-0.0513488203287125
146,0.00323568610474467,-0.0150319384410977,-0.0147797912359238,-0.0213268902152777,-0.0166912265121937,-0.0489220097661018
147,0.00838075671344996,-0.00708827888593078,-0.00943016912788153,-0.0181300416588783,-0.0114980787038803,-0.0416519679129124
148,0.0132836643606424,0.00219613104127347,-0.0047398004680872,-0.0145864691585302,-0.00394190149381757,-0.0311501212418079
149,0.0158382244408131,0.0067795105278492,-0.00139098009094596,-0.0106213660910726,0.00323309493251145,-0.0206565968692303
150,0.0160193312913179,0.00466216122731566,-4.70408886030782E-05,-0.00870710611343384,0.00701300473883748,-0.0147133208811283
151,0.0179166235029697,-0.00135918764863163,-0.00170881929807365,-0.00992827769368887,0.00661362521350384,-0.01576610468328
152,0.0240815039724112,-0.008359270170331,-0.0058627612888813,-0.0126432701945305,0.00260669877752662,-0.0219166222959757
153,0.0289372261613607,-0.0156539231538773,-0.0104497475549579,-0.0156488623470068,-0.00373299326747656,-0.0278913974761963
154,0.0270053800195456,-0.0217437166720629,-0.0142710627987981,-0.0171791631728411,-0.0100781079381704,-0.0277460478246212
155,0.0206947214901447,-0.0230689514428377,-0.0176268704235554,-0.0155309094116092,-0.0145396059378982,-0.0200581569224596
156,0.0140575589612126,-0.0192458871752024,-0.0200833957642317,-0.0123712485656142,-0.0160945449024439,-0.0115486793220043
157,0.00850649736821651,-0.0109478048980236,-0.0201843772083521,-0.011521284468472,-0.0150093846023083,-0.00855582766234875
158,0.00441158516332507,0.00278903474099934,-0.0178878791630268,-0.0148176280781627,-0.0131596866995096,-0.00691753393039107
159,0.00104934617411345,0.019410403445363,-0.0152549706399441,-0.019096752628684,-0.0124268615618348,0.00361452577635646
160,-0.00314183416776359,0.0363253243267536,-0.0145043758675456,-0.0200159158557653,-0.0144467558711767,0.025615694001317
161,-0.00782873295247555,0.0544819794595242,-0.0154215674847364,-0.0178718268871307,-0.0183396879583597,0.0468247979879379
162,-0.0104163000360131,0.0689691752195358,-0.0152323786169291,-0.0149363167583942,-0.0198354497551918,0.0517932362854481
163,-0.00935911107808352,0.0706569105386734,-0.011918380856514,-0.0112063363194466,-0.0165458545088768,0.0377290695905685
164,-0.00545760849490762,0.0669774413108826,-0.0071181901730597,-0.00773481838405132,-0.0112193673849106,0.0173347741365433
165,-0.000580053310841322,0.0757256299257278,-0.00340692140161991,-0.00699193868786097,-0.00796191859990358,0.00663585914298892
166,0.00328790675848722,0.0923875048756599,-0.00235273130238056,-0.00877553224563599,-0.00915908440947533,0.00576524762436748
167,0.00432503269985318,0.0966245532035828,-0.0061396649107337,-0.0119404578581452,-0.0165611561387777,0.00314685562625527
168,-0.0006536784931086,0.0823983997106552,-0.0167929604649544,-0.0195651445537806,-0.0305517483502626,-0.0055089402012527
169,-0.0133404433727264,0.0568851418793201,-0.0363576896488667,-0.0373344235122204,-0.0501201786100864,-0.018130250275135
170,-0.0287832785397768,0.030016977339983,-0.0621211118996143,-0.0606164745986462,-0.07203259319067,-0.0312045607715845
171,-0.0401739738881588,0.011980245821178,-0.0806059166789055,-0.0712091997265816,-0.0872293263673782,-0.0395089760422707
172,-0.0434595867991447,0.00735864182934165,-0.0782802700996399,-0.0575179979205132,-0.0848971083760262,-0.040809903293848
173,-0.0362496934831142,0.0108738867565989,-0.0551863685250282,-0.0284614562988281,-0.0639823973178864,-0.0378611274063587
174,-0.019510680809617,0.0093168243765831,-0.0221935287117958,-7.47572412365116E-05,-0.0337324030697346,-0.0362414941191673
175,0.00154568802099675,-0.00640440220013261,0.00892174895852804,0.0200315825641155,-0.00393557781353593,-0.0403070859611034
176,0.0193834975361824,-0.0303861368447542,0.0299992766231298,0.0304326061159372,0.0183250121772289,-0.0476666130125523
177,0.0286777652800083,-0.0435699969530106,0.0384889766573906,0.0303399171680212,0.0308111626654863,-0.0515602640807629
178,0.0301748290657997,-0.0348797962069511,0.038759633898735,0.0239455197006464,0.0372381396591663,-0.0488184504210949
179,0.0271644871681929,-0.018217908218503,0.0352196581661701,0.0165050439536572,0.0387167707085609,-0.0421398058533669
180,0.0214810073375702,-0.00986923091113567,0.0280002094805241,0.00678926100954413,0.0321065969765186,-0.0347188822925091
181,0.0141954030841589,-0.00857739150524139,0.01777458563447,-0.00368611165322363,0.018720630556345,-0.0244110394269228
182,0.00658427039161325,-0.00652135582640767,0.00657596439123154,-0.00795835256576538,0.00407686783000827,-0.00829671323299408
183,0.00100475642830133,-0.00204110867343843,-0.00234156847000122,-0.0038726816419512,-0.00797754339873791,0.00971036124974489
184,0.00185865035746247,-0.00019107197294943,-0.00575480330735445,0.0021615803707391,-0.016534086316824,0.0191759411245584
185,0.0111137051135302,-0.00278262956999242,-0.00573534006252885,0.00115578039549291,-0.0216575171798468,0.0131407706066966
186,0.0206504836678505,-0.00408286741003394,-0.0107283694669604,-0.0116478996351361,-0.0241842288523912,-0.00252137891948223
187,0.0201058033853769,0.00323688331991434,-0.026486499235034,-0.0315547175705433,-0.0251001138240099,-0.014552466571331
188,0.00884537864476442,0.0187134072184563,-0.0460932031273842,-0.0480803549289703,-0.025162173435092,-0.0174167416989803
189,-0.00926722586154938,0.0287891309708357,-0.0569975636899471,-0.0614822246134281,-0.0293738450855017,-0.0198927540332079
190,-0.0287851486355066,0.022746229544282,-0.0534158833324909,-0.0775920078158379,-0.0411631390452385,-0.0310590378940105
191,-0.0399437509477139,0.00642461841925979,-0.0387634187936783,-0.0867246314883232,-0.0510867983102798,-0.045835193246603
192,-0.0370360724627972,-0.0108651947230101,-0.0212746504694223,-0.0747006013989449,-0.0474104732275009,-0.0538638345897198
193,-0.0242175366729498,-0.0245454832911491,-0.00569963222369552,-0.0447191521525383,-0.0312738046050072,-0.0532057732343674
194,-0.00888228043913841,-0.031003201380372,0.00806406792253256,-0.012789772823453,-0.011258133687079,-0.0476248860359192
195,0.00337469764053822,-0.0309629440307617,0.0190052539110184,0.00752458162605762,0.00501909665763378,-0.0404295362532139
196,0.00973440613597631,-0.0297463648021221,0.0242939069867134,0.0129982996731997,0.0133061930537224,-0.0346685200929642
197,0.0108341174200177,-0.0302273239940405,0.0223159454762936,0.00874134711921215,0.0135137727484107,-0.032294362783432
198,0.0094820037484169,-0.0299238860607147,0.0144054647535086,0.000967498868703842,0.00803480949252844,-0.0320241041481495
199,0.0077733532525599,-0.0248574949800968,0.00422148965299129,-0.00626986613497138,-7.22441909601912E-05,-0.0306781474500895
200,0.00558406999334693,-0.0146873779594898,-0.00451535917818546,-0.0103543223813176,-0.00781831610947847,-0.027059480547905
201,0.00295134889893234,-0.00246562459506094,-0.0089671928435564,-0.0102986041456461,-0.0127118537202477,-0.021723473444581
202,0.000823183567263186,0.00796057563275099,-0.0082730520516634,-0.00778112420812249,-0.0150045305490494,-0.0147710535675287
203,-0.000571814249269664,0.013946296647191,-0.00381196360103786,-0.00507809687405825,-0.0167356636375189,-0.00637333793565631
204,-0.00125054619275033,0.015291316434741,0.00178350589703768,-0.00288964482024312,-0.0181826818734407,0.00174481433350593
205,-0.00155878684017807,0.011558317579329,0.00517452461645007,-0.00281379139050841,-0.0195667613297701,0.00591500988230109
206,-0.00280579505488276,0.0025074549484998,0.00419861264526844,-0.00643710745498538,-0.0222616102546453,0.00462793931365013
207,-0.0064261551015079,-0.00626069260761142,-0.00107426021713763,-0.0120200347155333,-0.0265914313495159,5.76552738493774E-05
208,-0.0118027282878757,-0.00722923083230853,-0.00836595240980387,-0.016846377402544,-0.03196831792593,-0.00516958441585302
209,-0.015684450045228,-0.0005937559180893,-0.0137728881090879,-0.0202982500195503,-0.0359596610069275,-0.00921296328306198
210,-0.0154807046055794,0.00796488672494888,-0.0142222046852112,-0.0219202730804682,-0.0355344153940678,-0.00988670531660318
211,-0.0118959387764335,0.0124299610033631,-0.0101600764319301,-0.0210015084594488,-0.0320061631500721,-0.00647355709224939
212,-0.00713005615398288,0.00876989215612412,-0.00462439469993114,-0.0186468493193388,-0.028472401201725,-0.00217206100933254
213,-0.00263987155631185,-0.00100022507831454,2.19685080082854E-05,-0.0163997765630484,-0.0258090626448393,-5.21287656738423E-05
214,0.00072570308111608,-0.0113073708489537,0.00204905867576599,-0.0147142456844449,-0.0237421430647373,-0.00158418563660234
215,0.00281707919202745,-0.0188183821737766,0.000761006667744368,-0.0128258476033807,-0.0203980263322592,-0.00795042887330055
216,0.0037321881391108,-0.0230624135583639,-0.0023167144972831,-0.0109133599326015,-0.0138975912705064,-0.0172539167106152
217,0.00265332637354732,-0.0241345819085836,-0.00606996892020106,-0.0110269542783499,-0.00754235219210386,-0.0243566669523716
218,-0.000767937919590622,-0.0214293543249369,-0.00999314896762371,-0.0132693499326706,-0.00608476484194398,-0.0253306813538074
219,-0.00410577328875661,-0.0136507507413626,-0.011763084679842,-0.0143574476242065,-0.00823456235229969,-0.0196125134825706
220,-0.0043637496419251,-0.00251383963041008,-0.00909839104861021,-0.0122109074145556,-0.00937364809215069,-0.0103725316002965
221,-0.00173768412787467,0.00581452855840325,-0.00277587329037488,-0.00794685538858175,-0.00759142683818936,-0.00246021756902337
222,0.00158420857042074,0.00727439159527421,0.00383908464573324,-0.00373343727551401,-0.00417103245854378,0.00213739508762956
223,0.00372428819537163,0.00297467154450715,0.00729651935398579,-0.00279827951453626,-0.00110416137613356,0.00332218315452337
224,0.00358918774873018,-0.00346938660368323,0.00646365573629737,-0.00706943962723017,0.000948987260926515,0.000861805048771203
225,0.00124858121853322,-0.00834706053137779,0.00338876224122941,-0.0140355303883553,0.00209390139207244,-0.00478123687207699
226,-0.00239630346186459,-0.0103327995166183,0.000683058751747012,-0.0192984044551849,0.000298588420264423,-0.0116358567029238
227,-0.00626478483900428,-0.0114672118797898,-0.000622361141722649,-0.0194919612258673,-0.00501895416527987,-0.0155138270929456
228,-0.00867550354450941,-0.0132615994662046,-3.34921878675232E-06,-0.0134168826043606,-0.0099322721362114,-0.013793702237308
229,-0.00770470127463341,-0.0134596470743418,0.00214104913175106,-0.00410189991816878,-0.0122666014358401,-0.00847788900136948
230,-0.00421077059581876,-0.0113045955076814,0.00359369814395905,0.00284376530908048,-0.0138831920921803,-0.00254617165774107
231,-0.00113281619269401,-0.0102715417742729,0.00251334509812295,0.00454910099506378,-0.0154829686507583,0.00197857315652072
232,0.000550330325495452,-0.0123763149604201,-0.00129649776499718,0.0021670872811228,-0.015289094299078,0.00337583152577281
233,0.00109339354094118,-0.0161238759756088,-0.00678353058174253,-0.00145435146987438,-0.0129208499565721,0.00240548141300678
234,0.000369178858818486,-0.0186906754970551,-0.01155308727175,-0.00398503430187702,-0.00987816136330366,0.00255074864253402
235,-0.000914728734642267,-0.0186675805598497,-0.0131475441157818,-0.00463039008900523,-0.00684698531404138,0.00473521463572979
236,-0.00178443489130586,-0.0170082561671734,-0.010393813252449,-0.00375745515339077,-0.00411132117733359,0.00526078371331096
237,-0.00202128174714744,-0.0151991574093699,-0.00380223547108471,-0.00242995121516287,-0.00228806817904115,0.00142105889972299
238,-0.00143498345278203,-0.0145261688157916,0.00365041894838214,-0.00164530472829938,-0.00084794603753835,-0.0045151449739933
239,-0.000344358588336036,-0.0155994016677141,0.00714046414941549,-0.00199788506142795,-0.000125381120597012,-0.00905949529260397
240,-6.33071031188592E-05,-0.0172532796859741,0.00447397585958242,-0.0032403371296823,-0.00215259799733758,-0.0113378884270787
241,-0.00174709863495082,-0.0165145453065634,-0.00149056024383754,-0.004121417645365,-0.00695457961410284,-0.0123224137350917
242,-0.00589010491967201,-0.0126154469326139,-0.00699794292449951,-0.00431006401777267,-0.0132541405037045,-0.0136332884430885
243,-0.0114332810044289,-0.00943228602409363,-0.01012097671628,-0.00479663722217083,-0.0195911377668381,-0.0155176920816302
244,-0.015149712562561,-0.00902501307427883,-0.0103479232639074,-0.00554428063333035,-0.0233355071395636,-0.0154907014220953
245,-0.0155458748340607,-0.0101436292752624,-0.00891084689646959,-0.00550246564671397,-0.0239353608340025,-0.0115071460604668
246,-0.0136090042069554,-0.0123410755768418,-0.00670708948746324,-0.00415461929515004,-0.0231960657984018,-0.00326997227966785
247,-0.00949287228286266,-0.0141540486365557,-0.00384443323127925,-0.000641259073745459,-0.0210400018841028,0.00857838895171881
248,-0.00447652582079172,-0.0138486213982105,-0.00220826803706586,0.00507028494030237,-0.0171228293329477,0.0195797812193632
249,-0.000657307100482285,-0.0120407808572054,-0.00299487891606987,0.00945154298096895,-0.0127436788752675,0.0237532891333103
250,0.00178306445013732,-0.0103225205093622,-0.00472679594531655,0.00858324021100998,-0.00823384150862694,0.0203159619122744
251,0.00318095996044576,-0.00955811236053705,-0.00521326530724764,0.00406153034418821,-0.00326841440983117,0.0134520493447781
252,0.00370490318164229,-0.0092668766155839,-0.00309173995628953,0.00152781093493104,0.0019199630478397,0.00763843674212694
253,0.00316149252466857,-0.00844223890453577,0.000108648404420819,0.00248755211941898,0.00505969300866127,0.00383774214424193
254,0.00155215221457183,-0.0072321817278862,0.00248888065107167,0.00425856420770288,0.00368711445480585,0.00129517097957432
255,0.000177918453118764,-0.00717780785635114,0.00437058554962277,0.0055150156840682,0.000293083925498649,0.000582368229515851
256,-0.000152018401422538,-0.00904799811542034,0.00511627364903688,0.00511364731937647,-0.00156786676961929,0.00166611152235419
257,-0.000198857800569385,-0.0115019734948874,0.00397832086309791,0.00268071424216032,-0.0024894627276808,0.00316313235089183
258,-0.000720316718798131,-0.0132335880771279,0.00229048472829163,0.000207069737371057,-0.0038010342977941,0.00352992466650903
259,-0.00147576769813895,-0.0145188504830003,0.00178292684722692,-0.000544788897968829,-0.00422062585130334,0.00247888010926545
260,-0.0016029094113037,-0.0152151323854923,0.00339560839347541,0.00120022136252373,-0.00249609793536365,0.00155883422121406
261,-0.000301858817692846,-0.0145566454157233,0.00629583792760968,0.00462846271693707,0.000195370012079366,0.00192660570610315
262,0.0021650951821357,-0.0127405067905784,0.00798871647566557,0.00790223106741905,0.00249616405926645,0.00378724513575435
263,0.00476084928959608,-0.0114577459171414,0.0072708735242486,0.0114372568204999,0.00460935058072209,0.00742232706397772
264,0.00679328618571162,-0.0129040079191327,0.0049142986536026,0.0155639918521047,0.00674205739051104,0.0110139986500144
265,0.00678588869050145,-0.0161583367735147,0.0012171536218375,0.0176410414278507,0.00745480321347713,0.0114564476534724
266,0.00315051688812673,-0.0175847765058279,-0.00402154074981809,0.0165728311985731,0.00491289095953107,0.00962371192872524
267,-0.00248406874015927,-0.0161314662545919,-0.00948316603899002,0.0143735045567155,-0.000599691178649664,0.00949709489941597
268,-0.00584144843742251,-0.0140191167593002,-0.0117388004437089,0.012440113350749,-0.00557192414999008,0.0118380133062601
269,-0.00456534419208765,-0.0137700689956546,-0.00845203548669815,0.0101075759157538,-0.00574532803148031,0.0128628192469478
270,-0.000673860951792449,-0.0151631766930223,-0.00130338652525097,0.0078129954636097,-0.00165339768864214,0.0109513634815812
271,0.00247165700420737,-0.0149845564737916,0.0059159966185689,0.00781210418790579,0.00205833930522203,0.0093629127368331
272,0.00428720843046904,-0.0126825105398893,0.0103697758167982,0.00898932572454214,0.00271442905068398,0.00994413997977972
273,0.00564944790676236,-0.0111280437558889,0.0114723425358534,0.00762620661407709,0.000596228230278939,0.0114221852272749
274,0.00570393865928054,-0.0106411688029766,0.010170815512538,0.00424835691228509,-0.00231635104864836,0.0131699768826365
275,0.00396237848326564,-0.00861052609980106,0.00839033629745245,0.00349514023400843,-0.00290810619480908,0.0148351080715656
276,0.00186812470201403,-0.00375814875587821,0.00787396170198917,0.00651976326480508,0.000288758630631492,0.0144687872380018
277,-0.000388010870665312,0.00109039491508156,0.0072165965102613,0.00921709183603525,0.0042613004334271,0.0116959074512124
278,-0.00337525364011526,0.00160733389202505,0.00433904817327857,0.00904801487922668,0.00530305877327919,0.00996028818190098
279,-0.00582097470760345,-0.00210990500636399,0.000630647875368595,0.00751091726124287,0.00353329838253558,0.01179189234972
280,-0.00683321850374341,-0.00662287324666977,-0.00225301482714713,0.00656709121540189,-0.000423594290623441,0.015482934191823
281,-0.00637598289176822,-0.00943742506206036,-0.0039461012929678,0.00694599794223905,-0.00527304271236062,0.018201619386673
282,-0.003972795791924,-0.0104978093877435,-0.00372027629055083,0.00781617220491171,-0.00698757823556662,0.0188649762421846
283,-0.00112377584446222,-0.0114267868921161,-0.0018523377366364,0.00904393754899502,-0.00402269046753645,0.0186254940927029
284,-0.000250931101618335,-0.0130015537142754,0.000292542477836832,0.0122980242595077,0.00081359688192606,0.0184269286692142
285,-0.00108170032035559,-0.0142857898026705,0.00204694853164256,0.0170370005071163,0.00470184162259102,0.0167084112763405
286,-0.00228027044795454,-0.0144959073513746,0.00386275933124125,0.0200791880488396,0.00600732117891312,0.0124191306531429
287,-0.00401457445695996,-0.0144361117854714,0.00542939314618707,0.0188301429152489,0.00281837536022067,0.0067542428150773
288,-0.00607139151543379,-0.0129264825955033,0.00552262552082539,0.0148892682045698,-0.00378312449902296,0.00241771573200822
289,-0.00609387131407857,-0.00874775089323521,0.00484993774443865,0.0119331888854504,-0.0068176444619894,0.000402714475058019
290,-0.00368597521446645,-0.00535257207229733,0.00499669089913368,0.0103002469986677,-0.00192771968431771,-0.00068367290077731
291,-0.00154061894863844,-0.00435095233842731,0.00592863373458385,0.00937860272824764,0.00668332492932677,0.000607366790063679
292,-0.000968144508078694,-0.00369891221635044,0.00664383685216308,0.00931996386498213,0.0134234977886081,0.00604280037805438
293,-0.00173169677145779,-0.00260915793478489,0.00731689110398293,0.00993493106216192,0.0158216245472431,0.0131848379969597
294,-0.00282801687717438,-0.00216983770951629,0.00964864622801542,0.0106431068852544,0.0147163085639477,0.0177097599953413
295,-0.0022400738671422,-0.00485310703516006,0.0133003210648894,0.0101193226873875,0.0138025768101215,0.0169054977595806
296,-0.000243156275246292,-0.00820922292768955,0.0149981286376715,0.00854367669671774,0.0137365190312266,0.0133170429617167
297,0.000190533697605133,-0.00632040714845061,0.0123219406232238,0.00688519235700369,0.011050034314394,0.0119992159307003
298,-0.00212935591116548,-0.000694693590048701,0.0062034553848207,0.0052458536811173,0.00514545338228345,0.0154186207801104
299,-0.00601880857720971,0.00402964418753982,-0.000761903298553079,0.00412272429093719,-0.000904658227227628,0.0226119589060545
300,-0.00982580799609423,0.00726743508130312,-0.00653633428737521,0.00328050297684968,-0.00424699764698744,0.0290413685142994
301,-0.0115835154429078,0.00936374068260193,-0.00977294892072678,0.00152090401388705,-0.00387655105441809,0.0294651407748461
302,-0.0102046905085444,0.009230125695467,-0.0101350313052535,-0.000767209858167917,-0.00201618624851108,0.0225144792348146
303,-0.00494219595566392,0.00680666463449597,-0.00830602645874023,-0.0011199580039829,-0.00209018518216908,0.011837718077004
304,0.00435098959133029,0.00287339300848544,-0.00482782861217856,0.00248113414272666,-0.00334892724640667,0.00229109823703766
305,0.0121703445911407,-0.00381697295233607,-0.000598673766944557,0.00953840930014849,-0.00318886945024133,-0.00352901592850685
306,0.0114720975980163,-0.013884630985558,0.00219318666495383,0.0158774014562368,-0.00200344622135162,-0.00672893831506372
307,0.00253552128560841,-0.0237265881150961,0.00183860363904387,0.0166172608733177,-0.00167694000992924,-0.00981893669813871
308,-0.00962672755122185,-0.0278463549911976,-0.00155360216740519,0.0115248747169971,-0.00423553353175521,-0.0124506680294871
309,-0.0197149533778429,-0.0258211549371481,-0.00492672668769956,0.00492863543331623,-0.00821963418275118,-0.0149289313703775
310,-0.0241357814520597,-0.0228658467531204,-0.00431508477777243,0.00127638329286128,-0.00934742577373981,-0.0181691963225603
311,-0.0236842092126608,-0.0207471344619989,-0.00050516304327175,0.00126208574511111,-0.00729845417663455,-0.0178717449307442
312,-0.0218631308525801,-0.0167423877865076,0.00211470643989742,0.0037485146895051,-0.00512118823826313,-0.00969223491847515
313,-0.0204536784440279,-0.0115978764370084,0.00137276074383408,0.00774283148348331,-0.0051386090926826,0.00348804239183664
314,-0.0190059002488852,-0.00869626738131046,-0.00151627429295331,0.0106251770630479,-0.00781627744436264,0.0143808163702488
315,-0.0170673821121454,-0.00630953628569841,-0.00399577803909779,0.0111910775303841,-0.011613629758358,0.0177815109491348
316,-0.0144103839993477,-0.00138582452200353,-0.00453842896968126,0.0113693829625845,-0.0139660825952888,0.0138568505644798
317,-0.0119319623336196,0.00271682091988623,-0.00430760299786925,0.0118625238537788,-0.0141265988349915,0.00681495480239391
318,-0.0114357704296708,0.0022637287620455,-0.00525905331596732,0.0106068998575211,-0.0127355456352234,0.000879219966009259
319,-0.013384185731411,0.0001306714839302,-0.00833496637642384,0.00481812283396721,-0.0109327603131533,-0.00193544174544513
320,-0.0138725219294429,0.00257250154390931,-0.0126236053183675,-0.00513348774984479,-0.00909470394253731,0.000243115136981942
321,-0.0069133285433054,0.010765410028398,-0.0149750942364335,-0.013950633816421,-0.00521519221365452,0.00978992413729429
322,0.00447711814194918,0.0187161527574062,-0.0128383534029126,-0.015532516874373,0.00102742738090456,0.0249206013977528
323,0.0107547054067254,0.0199089534580708,-0.00682242633774877,-0.00867094844579697,0.00732656102627516,0.0379297509789467
324,0.0084622073918581,0.0133504839614034,-0.000566806935239583,0.000333550473442301,0.0115044685080647,0.040756817907095
325,8.22745860205032E-05,0.008772948756814,0.00277644186280668,0.00429319031536579,0.0120666706934571,0.0338040553033352
326,-0.00973374024033546,0.0171552207320929,0.00417462224140763,0.00448831077665091,0.00895145535469055,0.0256348438560963
327,-0.0169680900871754,0.0325588174164295,0.00482710404321551,0.00564757687970996,0.00319368322379887,0.0209194738417864
328,-0.0225497502833605,0.0387441366910934,0.0013010649709031,0.00699586188420653,-0.00506898760795593,0.0179776232689619
329,-0.0301804691553116,0.0282596275210381,-0.00949784740805626,0.00559567101299763,-0.0162936300039291,0.0159445907920599
330,-0.0385852158069611,0.0137996720150113,-0.0246017780154943,0.0032130922190845,-0.0269772727042437,0.0165464486926794
331,-0.0397159941494465,0.0125839291140437,-0.037615854293108,0.00549568980932236,-0.0296051166951656,0.0207080282270908
332,-0.0281451735645533,0.0166239477694035,-0.0406531617045403,0.0135252000764012,-0.019736148416996,0.0249994210898876
333,-0.008483761921525,0.00704148691147566,-0.0261138584464788,0.0208682231605053,-0.00181183777749538,0.0218341778963804
334,0.00857730396091938,-0.0164505820721388,0.00324981263838708,0.0209393985569477,0.0119415270164609,0.00523101165890694
335,0.0160768087953329,-0.040127370506525,0.0323645807802677,0.0151956062763929,0.0143689038231969,-0.0197202004492283
336,0.0146365975961089,-0.0522549226880074,0.0466995164752007,0.0115898754447699,0.0088052973151207,-0.0388427823781967
337,0.00757751194760203,-0.0507551431655884,0.0429559014737606,0.0126010989770293,0.000326705980114639,-0.0443540550768375
338,-0.000688389060087502,-0.0416111871600151,0.0286259073764086,0.0127723682671785,-0.00558017147704959,-0.0403845831751823
339,-0.00529994908720255,-0.031432006508112,0.0132319033145905,0.00914469175040722,-0.00426545506343246,-0.033695749938488
340,-0.0047926246188581,-0.0223217960447073,0.00239220471121371,0.0044202134013176,0.00280734710395336,-0.0263593532145023
341,-0.000744710850995034,-0.0129396887496114,-0.00294632161967456,-0.000154120614752173,0.0110874269157648,-0.0178194846957922
342,0.00357617856934667,-0.000981127843260765,-0.00462054088711739,-0.0064161797054112,0.0176895130425692,-0.00963112525641918
343,0.00451054284349084,0.0130368564277887,-0.0028325910679996,-0.0134975742548704,0.0214256960898638,-0.00543382344767451
344,0.000926955137401819,0.0227406341582537,0.00110222527291626,-0.0181946884840727,0.0205911621451378,-0.00650053098797798
345,-0.00476308772340417,0.0218277964740992,0.00196627527475357,-0.0196127817034721,0.0146225830540061,-0.00969125423580408
346,-0.00821777246892452,0.012881476432085,-0.00144207337871194,-0.0181909296661615,0.00674957782030106,-0.0113134188577533
347,-0.00679955817759037,0.00540056731551886,-0.00507744122296572,-0.014136727899313,-0.00134088180493563,-0.00970464292913675
348,-0.00220938329584897,0.0032791062258184,-0.00687027256935835,-0.0103648230433464,-0.00992267578840256,-0.00557823991402984
349,0.00102590001188219,0.00353530095890164,-0.00800626259297132,-0.00913075916469097,-0.0158765092492104,-0.000639249628875405
350,0.000434326997492462,0.00619198987260461,-0.010011337697506,-0.00614543352276087,-0.0174201168119907,0.00698756612837315
351,-0.00116891518700868,0.012445698492229,-0.0117771560326219,0.00289368280209601,-0.0157027151435614,0.0200034081935883
352,0.00258347624912858,0.0186986774206162,-0.010424098931253,0.0146684991195798,-0.00994147825986147,0.0354437083005905
353,0.0116677796468139,0.020581254735589,-0.0066164736635983,0.0216525979340076,-0.00152241170872003,0.0457678884267807
354,0.0161782931536436,0.0173570439219475,-0.0030588093213737,0.0204852074384689,0.0056124166585505,0.0461033768951893
355,0.0109990406781435,0.0114481095224619,-0.000545883434824646,0.014822599478066,0.00934015493839979,0.0392890721559525
356,0.00199228478595614,0.00575614254921675,0.000771772058214992,0.0091909933835268,0.00908121559768915,0.0306728854775429
357,-0.00482954038307071,0.00111726636532694,-0.000703696976415813,0.00370891252532601,0.00575073249638081,0.0228246748447418
358,-0.00883804447948933,-0.00292933289892972,-0.0106420814990997,-0.00403199624270201,-0.000713478017132729,0.0170200672000647
359,-0.0112173845991492,-0.0052905511111021,-0.0294277388602495,-0.0141044855117798,-0.0113793816417456,0.0142895076423883
360,-0.0129091870039701,-0.00429251184687018,-0.0413412116467953,-0.0219605080783367,-0.0229479856789112,0.0138192055746913
361,-0.0146805224940181,-0.00178951455745846,-0.0321991182863712,-0.0214799121022224,-0.0284788031131029,0.0127241490408778
362,-0.0164351798593998,0.000320434162858874,-0.00950107909739017,-0.0110183171927929,-0.0246075373142958,0.0101416558027267
363,-0.0166520401835442,0.0027652436401695,0.00940036959946156,0.00274026091210544,-0.0142174549400806,0.00734388269484043
364,-0.0129642514511943,0.0051306439563632,0.0171061288565397,0.00964691210538149,-0.00305125140585005,0.00416342215612531
365,-0.00569475442171097,0.00592308910563588,0.0159706640988588,0.00627468898892403,0.00492736976593733,0.000124867190606892
366,0.000127019433421083,0.00561022618785501,0.00977494195103645,-0.00173918984364718,0.00927041564136744,-0.00325609021820128
367,0.000104670085420366,0.00698702409863472,0.00235708802938461,-0.00717495242133737,0.0105846030637622,-0.00284820538945496
368,-0.00470008002594113,0.0109877670183778,-0.00188421830534935,-0.00703872321173549,0.00955233816057444,0.00345296901650727
369,-0.00999435223639011,0.0149941258132458,-0.00164551718626171,-0.0024641000200063,0.00760071305558085,0.0134049942716956
370,-0.012373891659081,0.0154278324916959,-0.000777215813286603,0.00256270030513406,0.00565577391535044,0.0205780826508999
371,-0.0105167310684919,0.0112809250131249,-0.00335026672109962,0.00476924842223525,0.00328366435132921,0.0203619115054607
372,-0.00363135896623135,0.0055012097582221,-0.00867957528680563,0.00481317983940244,0.000398183678044006,0.0152835380285978
373,0.00602550758048892,0.00134257064200938,-0.0127884019166231,0.00549648376181722,-0.000900138868018985,0.012023726478219
374,0.0113556925207376,7.97816301201237E-06,-0.0133439917117357,0.0083236787468195,0.000215005173231475,0.0149176903069019
375,0.00837187934666872,0.00191780109889805,-0.0116361258551478,0.0114384675398469,0.000370093010133132,0.0232771448791027
376,0.000675165967550129,0.00561150396242738,-0.0102371955290437,0.0115520572289824,-0.00244489824399352,0.0321041531860828
377,-0.00647933967411518,0.0072323358617723,-0.0102026611566544,0.00889657903462648,-0.00557568110525608,0.0357687696814537
378,-0.0105495555326343,0.00609446503221989,-0.00979540776461363,0.00694598071277142,-0.00611259182915092,0.0328557416796684
379,-0.011036722920835,0.00553053617477417,-0.0067140394821763,0.00662715081125498,-0.00392463058233261,0.0250794887542725
380,-0.00961847323924303,0.00640619033947587,-0.00194935023318976,0.00594391021877527,-0.00115406035911292,0.0144335962831974
381,-0.00952786486595869,0.00790580362081528,0.00119849713519216,0.00427454011514783,-0.000829783268272877,0.00621899589896202
382,-0.0114899231120944,0.0107542304322124,0.00153022026643157,0.00243423948995769,-0.00365094747394323,0.00460029998794198
383,-0.012688166461885,0.0145059702917933,9.47848675423302E-05,0.0016169905429706,-0.00611051078885794,0.00692475633695722
384,-0.0117079224437475,0.0174355432391167,-0.00337370112538338,0.00258714496158063,-0.00572025356814265,0.0107961064204574
385,-0.00969885382801294,0.0184198338538408,-0.00879908166825771,0.00455612502992153,-0.00339220510795712,0.0153170991688967
386,-0.00701620941981673,0.0164056941866875,-0.0130611872300506,0.00643634283915162,0.000183256866876036,0.0171544626355171
387,-0.00375104765407741,0.0109851537272334,-0.012827848084271,0.00878207944333553,0.00434325449168682,0.0150224221870303
388,-0.00169019133318216,0.00459047174081206,-0.00840822793543339,0.0126281473785639,0.00658482825383544,0.0116736795753241
389,-0.00331777706742287,-0.000343651976436377,-0.00446118647232652,0.0145171135663986,0.00424161646515131,0.00680346041917801
390,-0.0078792255371809,-0.00440239813178778,-0.00436804490163922,0.010670623742044,-0.00131704704836011,-0.00130116729997098
391,-0.0112152956426144,-0.00794647540897131,-0.00713454326614738,0.00374782248400152,-0.00658816518262029,-0.0090338671579957
392,-0.01077373418957,-0.0090959994122386,-0.0109038604423404,-0.00200178753584623,-0.0107732648029923,-0.0116563690826297
393,-0.00736646261066198,-0.00708640413358808,-0.0141137903556228,-0.00430287467315793,-0.0129341585561633,-0.00832513999193907
394,-0.0033489796333015,-0.00496977102011442,-0.0149642992764711,-0.00285304943099618,-0.00987552013248205,-0.00236992281861603
395,-0.000517504289746284,-0.00545610580593348,-0.0134375505149364,-0.00013694929657504,-0.00203482434153557,0.0019654065836221
396,0.000322181993396953,-0.00750812375918031,-0.0119767654687166,0.000902449595741928,0.00469484459608793,0.003285774262622
397,0.000730322324670851,-0.00897497031837702,-0.0114921163767576,-0.000457399321021512,0.00647384347394109,0.00287360581569374
398,0.0043006744235754,-0.00897901970893145,-0.00936493184417486,-0.00222682976163924,0.00500203622505069,0.00290310336276889
399,0.00954065844416618,-0.00653964094817638,-0.00370206474326551,-0.0014562722062692,0.00346569926477969,0.00551310880109668
400,0.0108878444880247,-0.00116489268839359,0.00245599215850234,0.00214828620664775,0.00274034752510488,0.0109951244667172
401,0.00814308505505323,0.00436381110921502,0.00523746479302645,0.00731676304712892,0.00243833940476179,0.0174317732453346
402,0.00548214511945844,0.00688604079186916,0.00472464598715305,0.0127818491309881,0.00322843296453357,0.0225034262984991
403,0.00435042614117265,0.00652440870180726,0.00214485940523446,0.0155126135796309,0.00544015550985932,0.0238307379186153
404,0.00311770057305694,0.0051357289776206,-0.00108889793045819,0.0136628318578005,0.00911255646497011,0.0206172857433558
405,0.00071925378870219,0.00382944173179567,-0.00196225894615054,0.0098425904288888,0.0141822779551148,0.0153526347130537
406,-0.00196950254030526,0.00357265188358724,0.000988360494375229,0.0083289286121726,0.0183196887373924,0.0119110736995935
407,-0.00356789072975516,0.0054274476133287,0.00501134339720011,0.0102217011153698,0.01836265809834,0.0122396592050791
408,-0.00397394876927137,0.00827780738472939,0.00625648908317089,0.0125008253380656,0.0141337150707841,0.0141647718846798
409,-0.00349173345603049,0.00901485793292522,0.00345932133495808,0.0121962996199727,0.00867023412138224,0.0143496673554182
410,-0.00252368673682213,0.00564381247386336,-0.00206849025562406,0.0104304617270827,0.00410908740013838,0.0134018855169415
411,-0.00277870567515492,0.000761779316235334,-0.00793544854968786,0.00936562195420265,-0.000243856295128353,0.0127493347972631
412,-0.00549538666382432,-0.00282161217182875,-0.012019052170217,0.00752130849286914,-0.00490259472280741,0.0102914944291115
413,-0.00958612468093634,-0.00569910556077957,-0.0126102557405829,0.00459644617512822,-0.00815695710480213,0.0055596511811018
414,-0.0131083130836487,-0.00674417521804571,-0.00866053532809019,0.00345493643544614,-0.00777687923982739,0.00214471900835633
415,-0.0143450871109962,-0.00537764234468341,-0.00151916476897895,0.00431109685450792,-0.00311642908491194,0.0015201314818114
416,-0.0127237234264612,-0.00388473528437316,0.00516798719763756,0.00624906830489635,0.00305768917314708,0.00249323132447898
417,-0.00922656431794167,-0.00393894594162703,0.00770233990624547,0.00929236505180597,0.00621582008898258,0.00386618869379163
418,-0.00477650202810764,-0.00612214999273419,0.00535428803414106,0.0123185226693749,0.00641932105645537,0.00383767625316978
419,-0.000553000194486231,-0.00965159293264151,0.000571815297007561,0.013639104552567,0.00677987420931458,0.00304927211254835
420,0.00225478084757924,-0.0131773250177503,-0.00386047246865928,0.0119116781279445,0.00778092769905925,0.00259791640564799
421,0.00354910502210259,-0.0152850523591042,-0.00571181438863277,0.00862992089241743,0.00844756420701742,0.00182792125269771
422,0.00417470000684261,-0.0142745114862919,-0.00462136697024107,0.00734554277732968,0.00806330796331167,0.00149574829265475
423,0.00727778254076838,-0.0107015538960695,-0.00242010178044438,0.00815002806484699,0.00697041070088744,0.000711256579961628
424,0.0141000812873244,-0.00754553265869617,-0.000372917798813432,0.00802218727767468,0.0068158283829689,-0.00202368036843836
425,0.0189791601151228,-0.00576231395825744,0.00119074725080282,0.00591566879302263,0.00764022674411535,-0.00398268271237612
426,0.0169407092034817,-0.00364841124974191,0.00143833679612726,0.003549495479092,0.00801258720457554,-0.00204505957663059
427,0.0107994228601456,-0.00123120949137956,0.000475703825941309,0.00174251024145633,0.00881314836442471,0.00188845302909613
428,0.00578919099643826,0.000327294372254983,7.64739961596206E-05,0.000721161311957985,0.0110044106841087,0.00540955318138003
429,0.00235827476717532,0.000972453795839101,0.00107329455204308,0.00242596608586609,0.0124712018296123,0.0104244276881218
430,-0.00163780397269875,0.00205681659281254,0.0027469084598124,0.0077092107385397,0.010924031957984,0.0180820692330599
431,-0.00581662310287356,0.00447683688253164,0.00375282089225948,0.0128651978448033,0.00578832672908902,0.0240584518760443
432,-0.00818147882819176,0.00475124316290021,0.00299015012569726,0.0134784337133169,-0.00122815254144371,0.0228807367384434
433,-0.00766481040045619,7.52883061068133E-05,0.00154492375440896,0.0106110535562038,-0.0055644535459578,0.0157984681427479
434,-0.00445806002244353,-0.00669107912108302,0.00111608463339508,0.00737828994169831,-0.00415599578991532,0.00891008693724871
435,-0.000740896968636662,-0.0119475843384862,0.000468109734356403,0.00388969294726849,5.46920564374886E-05,0.00473044719547033
436,0.000741694821044803,-0.0141649432480335,-0.00172410171944648,-0.00053119205404073,0.00310050719417632,0.000962120539043099
437,0.000349806097801775,-0.0137226590886712,-0.00357463373802602,-0.00509026413783431,0.00487086270004511,-0.00462106056511402
438,-0.000326718844007701,-0.0122055420652032,-0.00333518115803599,-0.007867063395679,0.00459074508398771,-0.0105097638443112
439,-0.00114119634963572,-0.0103812580928206,-0.00140234921127558,-0.00696384161710739,0.00124056055210531,-0.0129139693453908
440,-0.00223144725896418,-0.00872210972011089,0.000749066064599901,-0.0028979096096009,-0.00277141644619405,-0.0102912504225969
441,-0.00342799630016088,-0.00750814378261566,0.00126416701823473,0.000838290085084736,-0.0053292796947062,-0.00448732916265726
442,-0.00366656109690666,-0.00585140148177743,-0.000278912164503708,0.00193538295570761,-0.00644769333302975,0.00227569229900837
443,-0.00194038625340909,-0.00393897946923971,-0.00182867108378559,0.00159832800272852,-0.0059542590752244,0.00947545189410448
444,0.00120371172670275,-0.00279688485898077,-0.00151301641017199,0.0011552507057786,-0.00386165850795805,0.0167172588407993
445,0.00462636398151517,-0.000414408830692992,0.000230713849305175,0.00147893419489264,-0.00147278420627117,0.0232109166681767
446,0.00802105572074652,0.00498497346416116,0.00267833098769188,0.00414647534489632,-7.87285534897819E-05,0.0277549531310797
447,0.0128818657249212,0.00970726925879717,0.00467143207788467,0.00736937811598182,-0.00013954215683043,0.027076032012701
448,0.0185147915035486,0.00972130801528692,0.0047912853769958,0.00711281364783645,0.000808868207968771,0.0188499838113785
449,0.019609609618783,0.0068406886421144,0.00376401981338859,0.00387824140489101,0.00609395699575543,0.0061429375782609
450,0.0145664131268859,0.00280877179466188,0.00292038358747959,0.00181923492345959,0.013520902954042,-0.0058026947081089
451,0.00824128743261099,-0.00243223062716424,0.00249568419530988,0.00269893952645361,0.0183491297066212,-0.0145627446472645
452,0.00392437959089875,-0.00616518827155232,0.000958724296651781,0.00366721954196692,0.0178155954927206,-0.0209482461214066
453,0.000959094788413495,-0.00679665338248014,-0.00275720213539898,0.00221653888002038,0.0118104014545679,-0.0257898010313511
454,-0.00177847465965897,-0.00524624949321151,-0.00660636043176055,-0.000446228368673474,0.00354399182833731,-0.0274790246039629
455,-0.00464373966678977,-0.00419906293973327,-0.0081199100241065,-0.00279980688355863,-0.00326316803693771,-0.0257043037563562
456,-0.00712215900421143,-0.00688659679144621,-0.00672847265377641,-0.00398394418880343,-0.00623268913477659,-0.0230792257934809
457,-0.00832531880587339,-0.0125071862712502,-0.00413319375365973,-0.00371729163452983,-0.00455406028777361,-0.021527323871851
458,-0.00846228934824467,-0.0169184748083353,-0.00304920831695199,-0.002525340532884,-0.000368459819583222,-0.0202142372727394
459,-0.00798639375716448,-0.0181373339146376,-0.00476263975724578,-0.00157788000069559,0.0029962295666337,-0.0177483838051558
460,-0.00503529375419021,-0.0166289303451777,-0.00754438200965524,-0.00289150536991656,0.00488629005849361,-0.0143336448818445
461,0.0015375247457996,-0.0114995194599032,-0.00806693453341722,-0.0061933621764183,0.00636587757617235,-0.00942352972924709
462,0.00769332284107804,-0.00309083377942443,-0.00589616596698761,-0.00912711396813393,0.00745823141187429,-0.00311201298609376
463,0.00939526129513979,0.00462216092273593,-0.00270664854906499,-0.00998412445187569,0.00812948867678642,0.00169270241167396
464,0.00774856237694621,0.00839593820273876,0.00183200521860272,-0.00782006420195103,0.00779902236536145,0.00260752812027931
465,0.00504274573177099,0.00761725101619959,0.00755608314648271,-0.00385675928555429,0.00412042764946818,-0.00149466702714562
466,0.00236221612431109,0.003367975121364,0.0114543614909053,-0.000272606761427596,-0.00173468922730535,-0.00967141892760992
467,0.00104500213637948,-0.000758883194066584,0.0111595457419753,0.00243133935146034,-0.0045346962288022,-0.017520671710372
468,0.00208487408235669,-0.000546046125236899,0.00727427843958139,0.00365503295324743,-0.00198735459707677,-0.0215874873101711
469,0.0050528310239315,0.00426842179149389,0.00271085742861032,0.00221779313869774,0.0048284106887877,-0.0217796321958303
470,0.00737889017909765,0.00932018086314201,-5.85786947340239E-05,-0.000997660798020661,0.012057620100677,-0.0194221381098032
471,0.0073067806661129,0.011112435720861,-0.000219308596570045,-0.00357698346488178,0.0159735083580017,-0.0165791772305965
472,0.00656305300071836,0.00997733417898417,0.00242424989119172,-0.00426526134833694,0.0179762784391642,-0.0139395715668797
473,0.0061242301017046,0.0089726559817791,0.00601627165451646,-0.00321266800165176,0.0189052224159241,-0.00795974582433701
474,0.00518569303676486,0.0111684110015631,0.00748502556234598,-0.00275088031776249,0.0155429039150476,0.00154167274013162
475,0.00605934578925371,0.0144446492195129,0.00620425306260586,-0.00459744920954108,0.00671403855085373,0.00873322878032923
476,0.0110463909804821,0.0132711483165622,0.00338997412472963,-0.0064023002050817,-0.0030006745364517,0.0117063131183386
477,0.014909889549017,0.00634548207744956,-0.00011026826541638,-0.0058176931925118,-0.00835517514497042,0.012622157111764
478,0.0115322843194008,-0.00226419721730053,-0.00342854950577021,-0.00324407476000488,-0.00844502542167902,0.0128174927085638
479,0.00331391370855272,-0.00764049123972654,-0.00534083414822817,-0.000538712134584785,-0.00440674182027578,0.0123250726610422
480,-0.00447708182036877,-0.00767416739836335,-0.00613607279956341,0.000451719417469576,0.000828046351671219,0.0104465559124947
481,-0.0097061088308692,-0.00383382523432374,-0.0056420206092298,-0.000313804834149778,0.00474963989108801,0.00676841801032424
482,-0.0117208007723093,0.000779902620706707,-0.00143923645373434,-0.00117454340215772,0.00795407500118017,0.001858128933236
483,-0.010683030821383,0.0025965457316488,0.00481772841885686,-0.00141136127058417,0.00972059648483992,-0.00372164859436452
484,-0.0073192180134356,-7.79519687057473E-05,0.00809964910149574,-0.000830187520477921,0.00886758044362068,-0.00870358571410179
485,-0.00299002672545612,-0.00445187790319324,0.00759058585390449,0.000459453702205792,0.0065910997800529,-0.0115338498726487
486,0.000623126805294305,-0.00590439466759562,0.00570353213697672,0.00113789516035467,0.00390463788062334,-0.0124289048835635
487,0.0028812400996685,-0.00279243523254991,0.00387009303085506,-0.000112290632387158,0.000677507778163999,-0.0119415773078799
488,0.00393772963434458,0.00252165365964174,0.0025215104687959,-0.00400978000834584,-0.00374024151824415,-0.0104020014405251
489,0.00418050028383732,0.00793889909982681,0.00256889499723911,-0.00853167101740837,-0.0080509539693594,-0.00831274036318064
490,0.00372734107077122,0.013000875711441,0.00465438468381763,-0.00948443915694952,-0.00866472721099854,-0.00573183968663216
491,0.00264052464626729,0.0163955613970757,0.00762210274115205,-0.00551007920876145,-0.00540664559230208,-0.00244517438113689
492,0.0015818802639842,0.0164286084473133,0.00936873815953732,0.00175897881854326,-0.00233694119378924,0.00169203360565007
493,0.00117242010310292,0.0135058062151074,0.00850715953856707,0.0100021744146943,-0.00144807726610452,0.00599233061075211
494,0.000843472313135862,0.0094029325991869,0.00509785721078515,0.0155904069542885,-0.000937768956646323,0.00835222937166691
495,-0.000341035716701299,0.00435654958710074,0.00109476095531136,0.0161456055939198,0.00068088888656348,0.00733820628374815
496,-0.00211709039285779,-0.000557830499019474,-0.00113652355503291,0.0127494717016816,0.00202747900038958,0.00305613689124584
497,-0.00472640432417393,-0.00330774555914104,-0.00131328287534416,0.00734230503439903,0.000428930128691718,-0.00309133110567927
498,-0.00880642887204885,-0.00447249412536621,-0.000800738751422614,0.00162883254233748,-0.004112190566957,-0.00846128910779953
499,-0.0123208127915859,-0.00549221690744162,-0.000167630263604224,-0.00222229678183794,-0.00797548890113831,-0.0110071506351233
500,-0.0126127945259213,-0.00578962825238705,0.000462827185401693,-0.00279371091164649,-0.00921663362532854,-0.0101242046803236
501,-0.00950382184237242,-0.00315234367735684,4.32691704190802E-05,-0.0014891647733748,-0.00970740336924791,-0.00681644957512617
502,-0.00414291257038713,0.00247365981340408,-0.00157027575187385,-0.000692638801410794,-0.010112963616848,-0.00293190265074372
503,0.00129035918507725,0.00788935460150242,-0.003545843064785,-0.00148540211375803,-0.00906274560838938,0.000830154807772487
504,0.00410283543169498,0.0106094526126981,-0.0056668883189559,-0.00407891813665628,-0.00628833239898086,0.00499921850860119
505,0.00482882047072053,0.0105548352003098,-0.00805946532636881,-0.00752790225669742,-0.00434597209095955,0.00978070683777332
506,0.00732153002172709,0.00986828934401274,-0.00950776785612106,-0.00938236806541681,-0.00659968378022313,0.0149676194414496
507,0.0105308126658201,0.0099596930667758,-0.00695814611390233,-0.00767081743106246,-0.0121834930032492,0.0196460634469986
508,0.00837062764912844,0.00850303471088409,2.88836199615616E-05,-0.00383640918880701,-0.0171679854393005,0.0211388505995274
509,0.000913302763365209,0.00478619523346424,0.00734819704666734,-0.00091357680503279,-0.0209721345454454,0.0176760256290436
510,-0.00597649998962879,0.00115174171514809,0.0107493828982115,-9.33253759285435E-05,-0.0245884768664837,0.0108003756031394
511,-0.00877940095961094,-0.00153299060184509,0.0097335409373045,-0.000324804161209613,-0.0247586034238338,0.00408706860616803
512,-0.00835291855037212,-0.00285824714228511,0.00723766069859266,0.00068127125268802,-0.0194417163729668,0.000714473892003298
513,-0.00745864911004901,-0.00233006454072893,0.00564771890640259,0.00355065311305225,-0.011823570355773,0.000781396869570017
514,-0.00735929235816002,-0.00181149481795728,0.00495568243786693,0.00621359841898084,-0.0057602790184319,0.00214619818143547
515,-0.00714302388951182,-0.0029823190998286,0.00508747063577175,0.00733859231695533,-0.00300831464119256,0.00401335302740335
516,-0.00589150656014681,-0.00352813140489161,0.00701324129477143,0.00779162999242544,-0.00287303351797163,0.00721003208309412
517,-0.00366709590889513,-0.00132791069336236,0.0129787130281329,0.0084666283801198,-0.00309781520627439,0.0117749189957976
518,-0.000751447514630854,0.0025729772169143,0.0238502416759729,0.0097224498167634,-0.001531902118586,0.0164374615997076
519,0.00217914278618991,0.00678125815466046,0.0323293134570122,0.00951194297522306,-0.000558350060600787,0.017820630222559
520,0.00572741311043501,0.00959065090864897,0.0301806628704071,0.00577301206067204,-0.0031067153904587,0.0122686875984073
521,0.0112359235063195,0.00871731154620647,0.0204886123538017,0.00303886993788183,-0.00491504417732358,0.00186101126018912
522,0.0171919334679842,0.00473713083192706,0.0106486491858959,0.00657185865566134,-0.00213616969995201,-0.00738356309011579
523,0.0208857897669077,0.00168919155839831,0.00358056789264083,0.0141762783750892,0.00279264943674207,-0.00987185351550579
524,0.0217833872884512,-0.000254076381679624,-0.000666365667711943,0.0187112595885992,0.00781300663948059,-0.00493361242115498
525,0.0209809858351946,-0.00552956108003855,-0.00662653567269444,0.0161688197404146,0.0121451215818524,0.000151799555169418
526,0.0195101574063301,-0.0141050275415182,-0.0196876861155033,0.0100884605199099,0.0132887484505773,-0.000646886532194912
527,0.0166172403842211,-0.0212891977280378,-0.0322359688580036,0.00383586017414927,0.00961292069405317,-0.00742137990891933
528,0.00976131577044725,-0.0242294445633888,-0.030168803408742,-0.00444691861048341,5.89980154472869E-05,-0.0176900867372751
529,0.000375321164028719,-0.0231773015111685,-0.0131602417677641,-0.0145852891728282,-0.0134439757093787,-0.0256954580545425
530,-0.00666085351258516,-0.0191200878471136,0.00640705646947026,-0.0208791140466928,-0.0242557339370251,-0.0257183369249105
531,-0.00941803026944399,-0.012832410633564,0.0193627346307039,-0.0176687389612198,-0.0283764824271202,-0.0180594269186258
532,-0.00718923239037395,-0.00592355150729418,0.0250948667526245,-0.00539276888594031,-0.0261957067996264,-0.00735343340784311
533,-0.000311714626150206,0.000718675029929727,0.025461258366704,0.00971721112728119,-0.0199607387185097,0.00286461063660681
534,0.00724142836406827,0.00919238571077585,0.0222237091511488,0.0205018948763609,-0.012407542206347,0.0111875394359231
535,0.0109364511445165,0.0204717926681042,0.0168338473886251,0.0220679678022861,-0.00585661130025983,0.0165746752172709
536,0.00938910152763128,0.0301335118710995,0.00942015647888184,0.0145279988646507,-0.00233933026902378,0.018584618344903
537,0.00475380336865783,0.0335276648402214,0.000499612651765347,0.00222327723167837,-0.00229105888865888,0.0171225611120462
538,0.00125319662038237,0.0312934778630733,-0.00724662095308304,-0.0109898820519447,-0.00509679690003395,0.012637191452086
539,0.00245318794623017,0.0262192450463772,-0.0103924376890063,-0.0217135455459356,-0.00880748126655817,0.00747734634205699
540,0.00604321761056781,0.0204595606774092,-0.00857292301952839,-0.0264981612563133,-0.0101659717038274,0.00500828772783279
541,0.00618218164891005,0.0149461580440402,-0.00596631178632379,-0.0260480754077435,-0.00970056001096964,0.00528527610003948
542,0.00259972363710403,0.00884946528822184,-0.00746923638507724,-0.0253286678344011,-0.0117157427594066,0.00273693865165114
543,-0.000279330153716728,0.00181924318894744,-0.0114715788513422,-0.0241058226674795,-0.0157973691821098,-0.00482205487787724
544,0.000457455578725785,-0.00501270825043321,-0.00999870430678129,-0.0152363125234842,-0.0160051379352808,-0.0113823115825653
545,0.00407269131392241,-0.00928615499287844,0.000268710049567744,0.00248827366158366,-0.0104649597778916,-0.0125352311879396
546,0.00713340565562248,-0.00921926181763411,0.0133977616205812,0.0205569230020046,-0.00391135551035404,-0.0104635749012232
547,0.00693868892267346,-0.00673431437462568,0.0218283217400312,0.0297211389988661,-0.000314803037326783,-0.00901057571172714
548,0.00408976525068283,-0.00488019455224276,0.0227107480168343,0.0270913261920214,0.00047385081415996,-0.00808741059154272
549,0.000633059360552579,-0.00370865967124701,0.0178092401474714,0.0166432149708271,-0.000701009412296116,-0.00499863270670176
550,-0.00257940334267914,-0.000235807252465747,0.0108320219442248,0.00495101138949394,-0.0039463909342885,0.000923891784623265
551,-0.00485425721853971,0.00847580842673779,0.00505944062024355,-0.00284812925383449,-0.00823482777923346,0.00824965257197618
552,-0.00531922886148095,0.0196378454566002,0.00179133121855557,-0.00563722616061568,-0.0109604997560382,0.0138491913676262
553,-0.00430154940113425,0.0256567280739546,0.000854339625220746,-0.006127854809165,-0.010160394012928,0.0146819986402988
554,-0.00238044466823339,0.0230725482106209,0.00237898249179125,-0.00668340642005205,-0.004372947383672,0.0105719966813922
555,-0.000876161328051239,0.0164658315479755,0.00509120943024755,-0.00701641058549285,0.00429808301851153,0.00617859978228807
556,-0.000732908432837576,0.0116617027670145,0.00612085685133934,-0.00747740641236305,0.0101437494158745,0.00550995301455259
557,-0.000919014331884682,0.00904820114374161,0.00428339093923569,-0.00973210111260414,0.0108414385467768,0.00661394651979208
558,7.99077097326517E-05,0.0055878940038383,0.000515555264428258,-0.0126560432836413,0.00750202313065529,0.0083418432623148
559,0.00550079811364412,0.00058529112720862,-0.0035962937399745,-0.0136748719960451,0.00258148624561727,0.0100712720304728
560,0.013805665075779,-0.00340043869800866,-0.00749973813071847,-0.0116296913474798,-0.00177116401027888,0.00907766632735729
561,0.0162772238254547,-0.00524406600743532,-0.0112159540876746,-0.00661466736346483,-0.00433739880099893,0.00488567119464278
562,0.0105931265279651,-0.00567949842661619,-0.0140078691765666,-0.00157142663374543,-0.00399329653009772,8.03710936452262E-05
563,0.00243088114075363,-0.00495328195393085,-0.0152235571295023,-0.000268924806732684,-0.00133610586635768,-0.00260379421524704
564,-0.00369288166984916,-0.00408444181084633,-0.014603597112,-0.00270969141274691,0.00270606926642358,-0.00371319754049182
565,-0.00618923269212246,-0.00491988891735673,-0.0112886447459459,-0.00639462424442172,0.00725435605272651,-0.00565578741952777
566,-0.00567053072154522,-0.00698990281671286,-0.00491297384724021,-0.00855773035436869,0.00862426776438951,-0.00800760928541422
567,-0.00397543795406818,-0.00817957520484924,0.00235696532763541,-0.00692305853590369,0.00409996835514903,-0.00833847746253014
568,-0.00159163633361459,-0.00744059635326266,0.00788210798054934,-0.00186143757309765,-0.00289207021705806,-0.00598859135061502
569,0.00186292896978557,-0.00418609380722046,0.011153387837112,0.0038353253621608,-0.00730996625497937,-0.00163860607426614
570,0.00561062106862664,0.00173036602791399,0.0119218099862337,0.00685755349695683,-0.0076345126144588,0.00411357684060931
571,0.00779870571568608,0.00925336685031652,0.00918966718018055,0.00468028895556927,-0.00471402099356055,0.00895108468830585
572,0.00752128101885319,0.0156946443021297,0.00496247224509716,-0.00187283218838274,0.000230062185437419,0.00878372695297003
573,0.00592816015705466,0.017209043726325,0.00322698429226875,-0.00874910596758127,0.0057854619808495,0.00195477204397321
574,0.00411730539053679,0.0120965456590056,0.00499661918729544,-0.0123676620423794,0.00983282271772623,-0.00791469495743513
575,0.0020146647002548,0.00348463724367321,0.0086037740111351,-0.0109334858134389,0.0101422872394323,-0.0135743701830506
576,-0.000242084846831858,-0.00245035160332918,0.0125211924314499,-0.00500337826088071,0.0080978749319911,-0.0111419074237347
577,-0.00165752088651061,-0.00267916382290423,0.0167323481291533,0.00165730458684266,0.00907999090850353,-0.00412659859284759
578,-0.00136913068126887,-0.000298987375572324,0.0199289675801992,0.0048106275498867,0.0139148076996207,0.002528574783355
579,0.000187142242793925,0.00138081179466099,0.0181489773094654,0.00372062623500824,0.0164097938686609,0.00720576010644436
580,0.00125079089775682,0.00257502659223974,0.0101916966959834,0.00107476708944887,0.0120802521705627,0.0097074257209897
581,0.000794038060121238,0.00337757566012442,0.000479421141790226,-0.000600339844822884,0.00339997233822942,0.00928758550435305
582,-0.00104018684942275,0.00264126318506897,-0.00567192072048783,-0.00027236103778705,-0.00493267178535461,0.00592531822621822
583,-0.00370479095727205,0.00160216714721173,-0.00599819933995605,0.00191385310608894,-0.0110310278832912,0.00200886488892138
584,-0.00475777499377728,0.00126549834385514,-0.00133724964689463,0.00441427109763026,-0.0145758800208569,-0.000217149659874849
585,-0.00215968070551753,-0.000768003636039793,0.0049114041030407,0.00664275186136365,-0.0163078010082245,-7.41191761335358E-05
586,0.00300690252333879,-0.00469519756734371,0.00870717596262693,0.00925191026180983,-0.017513221129775,0.00248233461752534
587,0.010934391990304,-0.00729365227743983,0.00770061928778887,0.0112994872033596,-0.0172481462359428,0.00547563564032316
588,0.0215963646769524,-0.00642020162194967,0.00265308120287955,0.0107982670888305,-0.0138705959543586,0.00646551512181759
589,0.0285986457020044,-0.00293697672896087,-0.00227878522127867,0.00715570291504264,-0.00760809332132339,0.00556485587731004
590,0.0259933713823557,0.000401103490730748,-0.00272894697263837,0.00271241134032607,0.000151576838106848,0.00497715407982469
591,0.0165578499436378,0.00151984952390194,0.00134043535217643,0.00122162897605449,0.00791554152965546,0.00625437125563622
592,0.00764522096142173,0.000602341664489359,0.00631290720775723,0.00303446152247489,0.0149076879024506,0.00758280558511615
593,0.00337393837980926,-0.00057292403653264,0.0100623480975628,0.00507577694952488,0.0201488025486469,0.00663637416437268
594,0.00279394001699984,0.000547567498870194,0.0125889051705599,0.00604960834607482,0.0215678364038467,0.00537146488204598
595,0.00310828466899693,0.00511853583157063,0.0134058007970452,0.00624445360153914,0.0172803178429604,0.00719263404607773
596,0.00287294434383512,0.0100937942042947,0.0133651569485664,0.00534576084464788,0.00861247163265944,0.0120243178680539
597,0.00197749258950353,0.011921800673008,0.0138903670012951,0.00423086481168866,-0.000184114542207681,0.0174026899039745
598,0.000148421546327882,0.0104388082399964,0.014151263050735,0.00465124752372503,-0.00571665354073048,0.0203833486884832
599,-0.00192384154070169,0.00780655955895782,0.0139568718150258,0.00761961285024881,-0.00641913106665015,0.0205808524042368
600,-0.00232918094843626,0.00491124810650945,0.0144178196787834,0.0117002008482814,-0.00291391811333597,0.0199357569217682
601,-2.77556046057725E-05,-0.000295615172944963,0.0156194884330034,0.0136142810806632,0.00319702085107565,0.0167553182691336
602,0.00324989692308009,-0.00783438794314861,0.0160755887627602,0.0127726700156927,0.00860385596752167,0.00910202506929636
603,0.00449612084776163,-0.0136985164135695,0.0142082450911403,0.0113560538738966,0.00813889689743519,-0.00107484124600887
604,0.00397114967927337,-0.0154145229607821,0.0104799093678594,0.0111362533643842,0.0032220846042037,-0.0107683399692178
605,0.00456213532015681,-0.0142418686300516,0.00690318224951625,0.0120773687958717,0.00141743174754083,-0.0167611893266439
606,0.00661264639347792,-0.00995196215808392,0.00479671033099294,0.0120361046865582,0.00481612281873822,-0.0180785693228245
607,0.00824160221964121,-0.00236860360018909,0.00366755318827927,0.00838874094188213,0.00930184591561556,-0.0178199335932732
608,0.00946820247918367,0.00433434452861547,0.0033770170994103,0.00219302088953555,0.0122410180047154,-0.0177845489233732
609,0.012797461822629,0.00716895330697298,0.0044097644276917,-0.00198746961541474,0.0141834309324622,-0.0151986805722117
610,0.0185617916285992,0.00662753451615572,0.00567769352346659,-0.00190528540406376,0.0154848648235202,-0.00828108843415976
611,0.0205408316105604,0.00433213682845235,0.00516312755644321,0.000110868706542533,0.0150295235216618,0.000666556414216757
612,0.0139453019946814,0.00316358357667923,0.00253307563252747,0.000630607188213617,0.0128749581053853,0.00918078050017357
613,0.00359303085133433,0.00432124454528093,0.000313880678731948,-0.00115070515312254,0.0104982051998377,0.0151940397918224
614,-0.00365386507473886,0.00546519877389073,0.00074141746154055,-0.00337468693032861,0.00746843218803406,0.0168542824685574
615,-0.00689732376486063,0.00484520336613059,0.00274287792854011,-0.00421811314299703,0.00200098310597241,0.0144930807873607
616,-0.00865624845027924,0.00313569186255336,0.00362484762445092,-0.00401524174958467,-0.00588644295930862,0.00887618865817785
617,-0.0100176194682717,0.002588672330603,0.00264181499369442,-0.00402471842244267,-0.0126233473420143,0.00179656699765474
618,-0.0104360207915306,0.00551290577277541,0.00104573194403201,-0.00386719172820449,-0.0136301796883345,-0.00285529321990907
619,-0.00947208888828754,0.00985306221991777,0.000278869090834633,-0.00202710530720651,-0.0090840058401227,-0.00332077173516154
620,-0.00716812675818801,0.0109743112698197,0.00193434220273048,0.00127858167979866,-0.00299268029630184,-0.000851943215820938
621,-0.00467197084799409,0.00820179656147957,0.00537486979737878,0.00374975218437612,0.00175417715217918,0.00229086261242628
622,-0.00287716463208199,0.00338451424613595,0.00798552576452494,0.00374893937259912,0.00584473414346576,0.00281054712831974
623,-0.00133353343699127,-0.00205323076806962,0.00885461363941431,0.00169586075935513,0.0110285021364689,4.89980775455479E-05
624,-0.000247554795350879,-0.00690957019105554,0.00849656946957111,-0.00108338112477213,0.0161869674921036,-0.00275844591669738
625,-0.000375872623408213,-0.0105442218482494,0.00755538931116462,-0.00384794571436942,0.0192898940294981,-0.00400075595825911
626,-0.0013025023508817,-0.011504802852869,0.00657020369544625,-0.00565538927912712,0.0203075855970383,-0.00390397617593408
627,-0.0018451971700415,-0.00839604996144772,0.00595910334959626,-0.00454649981111288,0.019775778055191,-0.00156500842422247
628,-0.00216732313856483,-0.00352044054307044,0.00538714183494449,-0.00077244610292837,0.017134502530098,0.0021872790530324
629,-0.00250104744918644,0.000131500695715658,0.00506055075675249,0.00419498607516289,0.0139833651483059,0.00514071760699153
630,-0.00196444313041866,0.00306787970475852,0.00593498721718788,0.00998934544622898,0.0131615661084652,0.00634362921118736
631,-0.00120913679711521,0.00507481396198273,0.00685962429270148,0.0141836516559124,0.013832445256412,0.00464165629819036
632,-0.000897393678314984,0.00400630477815866,0.00653237011283636,0.0147813176736236,0.014347012154758,0.000777249573729932
633,-1.7485350554125E-06,0.000367900298442692,0.00542778754606843,0.01298354472965,0.0146008329465985,-0.00199505663476884
634,0.00126150366850197,-0.00363457901403308,0.00392470555379987,0.00926282908767462,0.0141427973285317,-0.0026981073897332
635,0.00192175095435232,-0.00662449235096574,0.00279477192088962,0.0040989276021719,0.0131755787879229,-0.0023293374106288
636,0.00428959680721164,-0.007188287563622,0.00275899469852448,0.000745926226954907,0.0117749888449907,7.44721546652727E-05
637,0.0107529824599624,-0.00517482776194811,0.00242850393988192,0.00119734380859882,0.00931276474148035,0.00489938352257013
638,0.0167184434831142,-0.00220306240953505,0.000713976449333131,0.00332208559848368,0.0069879712536931,0.00967644061893225
639,0.0161026660352945,0.001705267932266,-0.000927394139580429,0.00552300736308098,0.00574211543425918,0.0139612937346101
640,0.00986669771373272,0.00751185463741422,-0.00068932626163587,0.00875066593289375,0.00515936594456434,0.0188773535192013
641,0.00252151698805392,0.0137235522270203,0.00172677577938885,0.0114983441308141,0.00608174502849579,0.0215398650616407
642,-0.00324399420060217,0.0170552954077721,0.00565456552430987,0.0109464395791292,0.00783340353518724,0.0185128636658192
643,-0.00633868668228388,0.0149638010188937,0.00946939364075661,0.00800532288849354,0.00790332350879908,0.0103906905278564
644,-0.00715207820758224,0.00749089894816279,0.0106113450601697,0.00478623155504465,0.00599928386509418,-0.00081318081356585
645,-0.0072898855432868,-0.00154953205492347,0.00881490670144558,0.00238929153420031,0.00246561923995614,-0.0117547465488315
646,-0.00676440820097923,-0.00714207533746958,0.00677093304693699,0.00222196383401752,-0.00154059869237244,-0.0174062978476286
647,-0.00507501978427172,-0.00765632651746273,0.00537893874570727,0.00469275889918208,-0.0038607285823673,-0.0158161669969559
648,-0.0030802539549768,-0.00384132214821875,0.00306542846374214,0.00790962111204863,-0.00414818711578846,-0.0100016137585044
649,-0.00146314431913197,0.00211798446252942,-0.000338337849825621,0.00924764387309551,-0.00178374932147563,-0.00394235039129853
650,-0.000956002972088754,0.00598787516355515,-0.00342866382561624,0.00818931125104427,0.00349133461713791,0.00170693243853748
651,-0.00182401726488024,0.0061134765855968,-0.00566843012347817,0.00613056588917971,0.00936387572437525,0.00799405016005039
652,-0.00292839109897614,0.00462538516148925,-0.00738117983564734,0.00383671326562762,0.0138773759827018,0.0134475231170654
653,-0.00394167890772223,0.00308100949041545,-0.00851208250969648,0.0012759689707309,0.0150375934317708,0.0156558305025101
654,-0.0057489350438118,0.00125754030887038,-0.00917842984199524,-0.000860307656694204,0.0100442059338093,0.0147260390222073
655,-0.00740839960053563,0.00127317232545465,-0.00929523166269064,-0.000795534171629697,0.000472165906103328,0.0128952441737056
656,-0.00684763537719846,0.00443904893472791,-0.00825562980026007,0.00104079721495509,-0.00792062655091286,0.0103534627705812
657,-0.00446905428543687,0.00623155059292912,-0.00689121941104531,0.00217928201891482,-0.0112717039883137,0.00531672313809395
658,-0.00204859697259963,0.00437197228893638,-0.00618854770436883,0.00219465186819434,-0.00923469662666321,-0.00149224954657257
659,-0.000778342422563583,0.00137494958471507,-0.00546915037557483,0.00246357941068709,-0.00487363152205944,-0.00708420621231198
660,-0.00125302246306092,-0.000709032989107072,-0.00441363267600536,0.00403753528371453,-0.00258315447717905,-0.008167564868927
661,-0.00293459417298436,-0.00088187912479043,-0.00412924541160464,0.00573642505332828,-0.00382354715839028,-0.00409696949645877
662,-0.0041845110245049,0.000720342271961272,-0.00530918594449759,0.00497952895238996,-0.00669338647276163,0.00141423591412604
663,-0.00179898564238101,0.00295660854317248,-0.0070918332785368,0.00124481471721083,-0.00838420446962118,0.00444493209943175
664,0.00440300768241286,0.00475593889132142,-0.00899533089250326,-0.00406939722597599,-0.00835509784519672,0.00373654486611485
665,0.00793343782424927,0.0056672184728086,-0.0107202474027872,-0.0091607291251421,-0.0085027888417244,0.000311556592350826
666,0.0047116344794631,0.00568148633465171,-0.0108974603936076,-0.0122231589630246,-0.00988950673490763,-0.00328425760380924
667,-0.00185470608994365,0.00573099171742797,-0.00910322088748217,-0.0127816498279572,-0.011247125454247,-0.00520006660372019
668,-0.00762662570923567,0.00665020616725087,-0.00558091280981898,-0.0114668319001794,-0.0106652062386274,-0.00533360196277499
669,-0.0118479831144214,0.00655376957729459,-0.000869470939505845,-0.00905909948050976,-0.00822299160063267,-0.00516042066738009
670,-0.0147381676360965,0.00269992672838271,0.00231212517246604,-0.00687719928100705,-0.00527002476155758,-0.00711006298661232
671,-0.0160140842199326,-0.00398089457303286,0.00132490089163184,-0.00580709520727396,-0.00250441767275333,-0.0109578175470233
672,-0.0153058264404535,-0.00854788534343243,-0.00287094945088029,-0.00577766122296453,-0.00047603010898456,-0.0129452310502529
673,-0.0120434006676078,-0.00798059068620205,-0.00656473496928811,-0.00620057573541999,0.000741451047360897,-0.0113613810390234
674,-0.00685783242806792,-0.00492788664996624,-0.0074026919901371,-0.0061045209877193,0.00152914470527321,-0.00888150557875633
675,-0.000809132819995284,-0.00324066402390599,-0.00609183870255947,-0.00562808755785227,0.00295026926323771,-0.00871726591140032
676,0.00523765850812197,-0.00374373747035861,-0.00452566705644131,-0.00608614552766085,0.00598324276506901,-0.0116393314674497
677,0.00826422683894634,-0.00465787155553699,-0.00382707524113357,-0.00725093437358737,0.00988054648041725,-0.0156444329768419
678,0.00659973965957761,-0.0039391228929162,-0.00226320023648441,-0.00713835284113884,0.0144945122301579,-0.0182673390954733
679,0.00249434029683471,-0.00266297324560583,0.00178418948780745,-0.00499305920675397,0.0181942377239466,-0.0190196149051189
680,-0.00129042600747198,-0.00300395675003529,0.00616923253983259,-0.00100276607554406,0.0175581891089678,-0.0172334052622318
681,-0.00337712909094989,-0.00455926219001412,0.00813944451510906,0.0038828058168292,0.0128155155107379,-0.011808660812676
682,-0.00350437988527119,-0.00623894017189741,0.00778957549482584,0.00745731731876731,0.00764477625489235,-0.00510158156976104
683,-0.00196452811360359,-0.0062524089589715,0.00718485098332167,0.00878019910305738,0.00543161621317267,-0.000969295506365597
684,-0.000764052558224648,-0.00362001662142575,0.00665180711075664,0.0082016484811902,0.00472500268369913,0.000729796011000872
685,-0.00163522106595337,-0.00132233835756779,0.00477572297677398,0.00549792684614658,0.00140220939647406,0.000905511376913637
686,-0.00310277659446001,-0.000140243995701894,0.00122223631478846,-0.000160816518473439,-0.00387473497539759,-0.00158874224871397
687,-0.00313755520619452,0.00344164692796767,-0.00291494443081319,-0.0080200657248497,-0.00699384836480021,-0.00492884684354067
688,-0.00199610064737499,0.0086425943300128,-0.00562556739896536,-0.0149742774665356,-0.00620699487626553,-0.00636944966390729
689,-0.00158298236783594,0.0106506710872054,-0.00535534415394068,-0.0180268306285143,-0.00367788295261562,-0.00548468716442585
690,-0.00106286781374365,0.00669753830879927,-0.00400578370317817,-0.0175032932311296,-0.00367876747623086,-0.00291950651444495
691,0.00260165543295443,-0.00122946477495134,-0.00511288456618786,-0.0158364567905664,-0.00754536315798759,-0.000556707615032792
692,0.00640097307041287,-0.00658907275646925,-0.00823813304305077,-0.0130398031324148,-0.0121987396851182,0.00053194462088868
693,0.00491443835198879,-0.00566420285031199,-0.00952882785350084,-0.0084514832124114,-0.0142008308321238,0.0010345425689593
694,-0.000958439370151609,-0.00210604979656637,-0.00786963384598494,-0.00455415574833751,-0.0132770827040076,0.000484850665088743
695,-0.00747461803257465,-0.000392616610042751,-0.00683831330388784,-0.00274624745361507,-0.012107958085835,-0.00120889954268932
696,-0.0119315199553967,-0.00057978619588539,-0.00848770420998335,0.000263828755123541,-0.011445083655417,-0.00203053117729723
697,-0.0131345121189952,-0.00136652623768896,-0.0100941611453891,0.00598888890817761,-0.0101070571690798,-0.00296295224688947
698,-0.0116571942344308,-0.00159868295304477,-0.00851916428655386,0.0111095448955894,-0.00771810300648212,-0.00600888626649976
699,-0.00862718932330608,-0.000569385418202728,-0.00441438006237149,0.012258562259376,-0.00418958906084299,-0.0097733112052083
700,-0.00529755232855678,0.000942112994380295,-0.000720798212569207,0.00912241358309984,-0.00145275495015085,-0.0116727445274591
701,-0.00286778761073947,0.00300468388013542,0.00157482002396137,0.0046420325525105,-0.00217108358629048,-0.00940904952585697
702,-0.00154715834651142,0.00615733861923218,0.00339179811999202,0.00184592115692794,-0.00479884352535009,-0.00348081183619797
703,-0.00156530132517219,0.00858663022518158,0.00460662599653006,0.000193367668543942,-0.00640680873766541,0.00184390542563051
704,-0.00327196274884045,0.00809765327721834,0.00400938326492906,-0.00194164458662272,-0.00703275669366121,0.00368500594049692
705,-0.00575211504474282,0.00488850381225348,0.00204513571225107,-0.00331740919500589,-0.0069298418238759,0.00341225485317409
706,-0.0074827466160059,0.00238395063206553,0.000429070496466011,-0.00258258869871497,-0.00501509848982096,0.00214062049053609
707,-0.00667683873325586,0.00373656628653407,-0.000396579620428383,-0.00196961127221584,-0.00101971661206335,-0.00149372708983719
708,-0.00290295132435858,0.00574141414836049,-0.000975784205365926,-0.00382398162037134,0.00299397297203541,-0.00657232198864222
709,0.00117470230907202,0.00496210111305118,-0.00213021412491798,-0.0071043255738914,0.00387894012965262,-0.00908081326633692
710,0.00278583448380232,0.00372281344607472,-0.00368083291687071,-0.010120190680027,0.00210112892091274,-0.00825976952910423
711,0.00197069346904755,0.00422233901917934,-0.00353902718052268,-0.0114339049905539,0.00115448457654566,-0.00705746794119477
712,-0.000478321366244927,0.0050255679525435,-0.0017079496756196,-0.0103061515837908,0.000405189115554094,-0.00773310568183661
713,-0.00426746625453234,0.00350185018032789,-0.00141496839933097,-0.00855588167905808,-0.00310719478875399,-0.0108400201424956
714,-0.00762024754658341,-0.000201715200091712,-0.00350883835926652,-0.00642889132723212,-0.00794394686818123,-0.0144570684060454
715,-0.00624260865151882,-0.00338156567886472,-0.00533259380608797,-0.00213019782677293,-0.00967578589916229,-0.0161236189305782
716,0.00140141521114856,-0.0046971719712019,-0.00542973959818482,0.00252887606620789,-0.00525154219940305,-0.0159016419202089
717,0.00849911198019981,-0.00471526337787509,-0.00458646938204765,0.00378438271582127,0.00417116656899452,-0.0148399602621794
718,0.00861831288784742,-0.00363095873035491,-0.00286753126420081,0.000949409324675798,0.0142894079908729,-0.0129020074382424
719,0.00375561392866075,-0.00100086233578622,0.000327993970131502,-0.00351721933111548,0.0209762211889029,-0.00953379459679127
720,-0.00182795047294348,0.00206659617833793,0.0033650069963187,-0.00757497735321522,0.0215742830187082,-0.00553649803623557
721,-0.00568670313805342,0.0036227295640856,0.00400231080129743,-0.0111109092831612,0.0177594292908907,-0.00285619380883873
722,-0.00655555259436369,0.00390658807009459,0.0025333606172353,-0.0136741865426302,0.0136399511247873,-0.00210920232348144
723,-0.00528137572109699,0.00381692266091704,0.000148332357639447,-0.0139369824901223,0.0106709506362677,-0.00289344205521047
724,-0.00388689246028662,0.00296784471720457,-0.0026981367263943,-0.0118601890280843,0.00882990192621946,-0.00512911705300212
725,-0.00337201450020075,0.0018246890977025,-0.00510613434016705,-0.00907546281814575,0.00876351911574602,-0.00781398080289364
726,-0.00361704151146114,0.000951379653997719,-0.0065247998572886,-0.00734527595341206,0.0108009986579418,-0.00987528916448355
727,-0.00461466563865542,-0.000978269730694592,-0.00830842088907957,-0.00697206938639283,0.0121119730174541,-0.0103504918515682
728,-0.0053800456225872,-0.00410584127530456,-0.010509149171412,-0.00593111244961619,0.0105709610506892,-0.00775326183065772
729,-0.00416911533102393,-0.00659982208162546,-0.0106502305716276,-0.00182073877658695,0.00928946025669575,-0.00330823054537177
730,-0.00250339484773576,-0.006221869494766,-0.00839666556566954,0.00387299689464271,0.00960427243262529,-0.000614238670095801
731,-0.00331133091822267,-0.00156426709145308,-0.00612653139978647,0.00614077551290393,0.00784146785736084,-0.00133287429343909
732,-0.0060243858024478,0.0048366510309279,-0.00491647142916918,0.00308083998970687,0.00220170826651156,-0.00358478561975062
733,-0.00864044949412346,0.00918756797909737,-0.00435177097097039,-0.00250814505852759,-0.00468449108302593,-0.00542548066005111
734,-0.0105425603687763,0.0103105017915368,-0.00437757978215814,-0.00820523872971535,-0.00968010723590851,-0.00851889327168465
735,-0.0119698774069548,0.00828535389155149,-0.00548705784603953,-0.0135116064921021,-0.0123553341254592,-0.0144989378750324
736,-0.0127095207571983,0.00438186060637236,-0.00747058913111687,-0.0163291171193123,-0.0129140801727772,-0.0213398765772581
737,-0.0113915903493762,0.000667589250952005,-0.00799681711941957,-0.0139345042407513,-0.00928020942956209,-0.0262456778436899
738,-0.00747460639104247,-0.00266419816762209,-0.00545951118692756,-0.00870742741972208,-0.00100409518927336,-0.0285198427736759
739,-0.00314447260461748,-0.006678756326437,-0.00214310106821358,-0.00589537993073463,0.00755097949877381,-0.0287117175757885
740,-0.000638322380837053,-0.0101817594841123,-0.000689319742377847,-0.00663134828209877,0.0111511452123523,-0.0264639146625996
741,0.00210577249526978,-0.0104724075645208,-0.00134511466603726,-0.00765948044136167,0.0085694994777441,-0.0212028436362743
742,0.00608484214171767,-0.00726739363744855,-0.00333063188008964,-0.0065990979783237,0.00396867236122489,-0.0139971328899264
743,0.00659032305702567,-0.0030356680508703,-0.00448956387117505,-0.00458175130188465,0.00254450878128409,-0.0066230446100235
744,0.00189928594045341,-0.000335758173605427,-0.00300365756265819,-0.00306873908266425,0.00483344634994864,-0.000368211622117087
745,-0.0042478390969336,-0.000327378016663715,-0.000132276574731804,-0.00215679407119751,0.00887523218989372,0.00414412515237927
746,-0.00904337130486965,-0.00219172867946327,0.000995939131826162,-0.00142076006159186,0.0129368277266622,0.00751386396586895
747,-0.011977662332356,-0.00292014586739242,-0.00169996183831245,-0.000385676452424377,0.0135439103469253,0.0103630516678095
748,-0.0135109843686223,-0.000476017274195328,-0.00696856016293168,0.000133401525090449,0.00863411370664835,0.0113554503768682
749,-0.0140061341226101,0.00285732001066208,-0.0118530532345176,-0.00143385224509984,0.00114707800094038,0.00816328730434179
750,-0.0133544197306037,0.00357158482074738,-0.0151055604219437,-0.00499426387250423,-0.00551788788288832,0.00101581541821361
751,-0.0116932140663266,0.00165060674771667,-0.0164339859038591,-0.0083918385207653,-0.0109526999294758,-0.00680569233372808
752,-0.00851640105247498,-0.000518896267749369,-0.015348058193922,-0.010406794026494,-0.0141178267076612,-0.0135716749355197
753,-0.00350773893296719,-0.0012388521572575,-0.0130872549489141,-0.011734914034605,-0.0134314280003309,-0.0186685398221016
754,0.00166946207173169,-0.000779583817347884,-0.0113306893035769,-0.0122721139341593,-0.0100007886067033,-0.0200204271823168
755,0.00567005062475801,-0.00131532014347613,-0.0101736206561327,-0.011381771415472,-0.00547603145241737,-0.0175086352974176
756,0.00846273824572563,-0.00274275522679091,-0.00915991514921188,-0.0093075092881918,-0.000882451888173819,-0.0131137082353234
757,0.00862017460167408,-0.00211087428033352,-0.00851766765117645,-0.00821626093238592,0.00144441169686615,-0.00948571413755417
758,0.00482611078768969,0.000218788569327444,-0.00971130188554525,-0.0106624625623226,-0.000122225741506554,-0.00925842393189669
759,-0.000761974428314716,0.00181883713230491,-0.012132809497416,-0.0139221707358956,-0.00327188731171191,-0.00997001398354769
760,-0.00455545587465167,0.00243941741064191,-0.0120657160878181,-0.0127219185233116,-0.00430334592238069,-0.00560438679531217
761,-0.00432997616007924,0.00254047708585858,-0.00794253312051296,-0.00798059348016977,-0.000352789822500199,0.00348248728550971
762,-0.000960445438977331,0.00335731892846525,-0.00291062286123633,-0.00498612504452467,0.00839029997587204,0.0109036201611161
763,0.0023933406919241,0.00543657969683409,-0.00109786668326706,-0.00574407679960132,0.0170660875737667,0.0133495461195707
764,0.00383916590362787,0.00618817424401641,-0.00272163073532283,-0.00917489919811487,0.0215451586991549,0.0110387541353703
765,0.00326570426113904,0.00364264170639217,-0.00438566273078322,-0.0133611420169473,0.0214397609233856,0.00464834505692124
766,0.00257316883653402,-0.000878440798260272,-0.00379665684886277,-0.0151848020032048,0.0190192777663469,-0.00347489747218788
767,0.00514409365132451,-0.00520450249314308,-0.00242119375616312,-0.013799617998302,0.0164051353931427,-0.0109959095716476
768,0.00947410427033901,-0.00744829187169671,-0.0023558649700135,-0.0117438677698374,0.0135918669402599,-0.0170431789010763
769,0.00957502797245979,-0.00576220871880651,-0.00344385881908238,-0.0109389517456293,0.0105725592002273,-0.0192469097673893
770,0.00449203047901392,-0.00183284271042794,-0.00476112309843302,-0.0116441119462252,0.00757933594286442,-0.0156413093209267
771,-0.00098517828155309,0.000765726726967841,-0.00504777254536748,-0.0122614009305835,0.0053886454552412,-0.00747190602123737
772,-0.0037003078032285,0.00180107378400862,-0.00364563427865505,-0.0107895322144032,0.00541827920824289,0.00215473934076726
773,-0.00378314056433737,0.00269267545081675,-0.0015320546226576,-0.00718272710219026,0.0087092537432909,0.00986230373382568
774,-0.002128632273525,0.00401738798245788,0.000560839136596769,-0.00249923672527075,0.0140734491869807,0.0135691072791815
775,-0.00068945117527619,0.0041517112404108,0.0027050799690187,0.00042810570448637,0.0171169992536306,0.0113946655765176
776,-0.000448370061349124,0.00164514291100204,0.00545640848577023,-0.000558329513296485,0.0155345927923918,0.0038683305028826
777,-0.000125959661090747,-0.0015711368760094,0.00877049658447504,-0.00350116984918714,0.0112180225551128,-0.00310304155573249
778,0.000431677617598325,-0.00359570048749447,0.0105995517224073,-0.00582605740055442,0.00667038513347507,-0.0049776048399508
779,0.000527015014085919,-0.00462116813287139,0.00926099438220263,-0.00723380455747247,0.00398048711940646,-0.00333603285253048
780,-0.000310974864987656,-0.00464045070111752,0.00543291075155139,-0.0083484947681427,0.00396343553438783,-0.00113136693835258
781,-0.00250810664147139,-0.00160439766477793,0.000209381905733608,-0.00915446504950523,0.00514140911400318,0.00140211859252304
782,-0.00409709196537733,0.00463587837293744,-0.0042539956048131,-0.00965138431638479,0.00754889706149697,0.00301876338198781
783,-0.00308030750602484,0.0101443696767092,-0.00501303467899561,-0.0103970281779766,0.0114204343408346,0.000846155860926956
784,-0.0008843929390423,0.0122060803696513,-0.00283385952934623,-0.0109194163233042,0.012749114073813,-0.00349931488744915
785,0.000783027266152203,0.0108447223901749,-0.000833017053082585,-0.00992390234023333,0.00877375062555075,-0.00646644365042448
786,0.00169425643980503,0.00768983410671353,-0.000412070570746437,-0.00778937572613359,0.00154053035657853,-0.00764821423217654
787,0.0024158398155123,0.00483153806999326,-0.00148388545494527,-0.00612096861004829,-0.00502301985397935,-0.0073306025005877
788,0.003747463459149,0.00227908347733319,-0.00335681461729109,-0.0055517265573144,-0.00674890866503119,-0.0062005827203393
789,0.005709417629987,-0.00150021933950484,-0.00401925761252642,-0.00533119169995189,-0.00155400834046304,-0.00684561813250184
790,0.00730781443417072,-0.00618548737838864,-0.00230341660790145,-0.00519473804160953,0.00774505920708179,-0.010411448776722
791,0.00673632277175784,-0.0096052773296833,-0.000373137212591246,-0.00662018358707428,0.0153215480968356,-0.0151264313608408
792,0.0043952246196568,-0.00975300557911396,9.08166039153002E-05,-0.00899391435086727,0.0180442351847887,-0.0176459588110447
793,0.00553204398602247,-0.0060448762960732,-6.76077688694932E-05,-0.00932571850717068,0.017045896500349,-0.0152070103213191
794,0.0119283264502883,-0.00133607012685388,0.000442150369053707,-0.00760615197941661,0.0147015815600753,-0.00975798722356558
795,0.0154700791463256,0.00096291652880609,0.00160884670913219,-0.00635482976213098,0.0107495002448559,-0.0067134783603251
796,0.0105241760611534,0.00149717344902456,0.00222166208550334,-0.00631599128246307,0.00381638994440436,-0.00803311262279749
797,0.00164887984283268,0.00142211129423231,0.00179230887442827,-0.00646961526945233,-0.00309357140213251,-0.0120679177343845
798,-0.00529395043849945,-0.000219378780457191,0.0012535386485979,-0.00589141389355063,-0.00534902233630419,-0.0176340043544769
799,-0.00914109498262405,-0.00215190462768078,0.00203940598294139,-0.00390478875488043,-0.00191929994616658,-0.0219792481511831
800,-0.0115305613726377,-0.000924775376915932,0.00287715345621109,-0.00104468187782913,0.00309649971313775,-0.0199589561671019
801,-0.0119752837345004,0.00350060313940048,0.00158841535449028,5.7949531765189E-05,0.0064344615675509,-0.0127751622349024
802,-0.00888276565819979,0.0078433770686388,-0.00145254097878933,-0.00200925325043499,0.00866177119314671,-0.00731961475685239
803,-0.00412758719176054,0.00931000337004662,-0.00545849977061152,-0.00576665811240673,0.0079384371638298,-0.0051776859909296
804,9.62819249252789E-05,0.00683485204353929,-0.00922521203756332,-0.00913255475461483,0.002701181685552,-0.00413127895444632
805,0.00364303099922836,0.00256380951032043,-0.0110001293942332,-0.00981405470520258,-0.00484804529696703,-0.00171143363695592
806,0.00639480212703347,-6.77395146340132E-05,-0.0102661363780499,-0.00775593006983399,-0.0100289788097143,0.00263076182454824
807,0.00801111105829477,-0.000351835100445896,-0.00775894662365317,-0.005566515494138,-0.00925982091575861,0.00645336648449302
808,0.00785189121961594,0.000605468114372343,-0.00368403550237417,-0.0038540787063539,-0.0045978375710547,0.00924029946327209
809,0.00580385467037559,0.00251610134728253,0.00156961160246283,-0.00236915191635489,4.69179976789746E-05,0.011989014223218
810,0.00362823205068707,0.00493610510602593,0.00601811241358519,-0.00195833807811141,0.00365560175850987,0.0145104788243771
811,0.0026135181542486,0.0064445473253727,0.00857105758041143,-0.00195528194308281,0.00658634537830949,0.0160367619246244
812,0.00248422031290829,0.00661057885736227,0.0092854080721736,-0.00197163666598499,0.00854684878140688,0.0149501254782081
813,0.00341681065037847,0.00543818157166243,0.00824885535985231,-0.00374444667249918,0.00968083180487156,0.00928402226418257
814,0.00560298096388578,0.00347768748179078,0.00749109918251634,-0.00571429077535868,0.0112626934424043,0.00091930729104206
815,0.00756654189899564,0.00247570546343923,0.00857013557106256,-0.00382404611445963,0.0134724089875817,-0.00538887176662683
816,0.00708352448418736,0.00249178986996412,0.00883249472826719,0.000259050983004272,0.0144549235701561,-0.00834241881966591
817,0.00425799796357751,0.00179358490277082,0.00616384809836745,0.0012262751115486,0.0135232163593173,-0.00989958178251982
818,0.00152300915215164,0.000545232091099024,0.00266056973487139,-0.00149677332956344,0.0117314280942082,-0.0105992322787642
819,0.000727703736629337,0.000104595041193534,0.000705069804098457,-0.00448338221758604,0.00988242775201797,-0.0103279128670692
820,0.00214190827682614,8.28346164780669E-05,0.000776834844145924,-0.00517236441373825,0.00916557386517525,-0.0099131353199482
821,0.00507264351472259,0.000473350693937391,0.00255941995419562,-0.00282680639065802,0.0102055324241519,-0.00743099069222808
822,0.00747536914423108,0.00272946059703827,0.00432370463386178,0.000115375332825352,0.00994684267789125,-0.00182289467193186
823,0.00737791182473302,0.00622972240671515,0.0041762962937355,0.000656410295050591,0.00549099314957857,0.00333293294534087
824,0.00589736644178629,0.00836293864995241,0.0028017470613122,-0.000498209847137332,0.00065846904180944,0.00632136221975088
825,0.00562352640554309,0.00828790944069624,0.00249276217073202,-0.00236887065693736,0.000365902786143124,0.00679713720455766
826,0.00825439486652613,0.00622938107699156,0.00395771907642484,-0.00578153971582651,0.00365445553325117,0.00328099401667714
827,0.0137822218239307,0.00280060106888413,0.00447512278333306,-0.00963473133742809,0.00614181300625205,-0.00134315411560237
828,0.0176532287150621,0.00106734293513,0.00136496219784021,-0.011103393509984,0.00425978889688849,-0.00188837514724582
829,0.0147520359605551,0.00406784377992153,-0.00248293648473918,-0.00906954146921635,-0.000119391195767093,0.00283506931737065
830,0.0067255343310535,0.0101472921669483,-0.00272349617443979,-0.00555315660312772,-0.00232174945995212,0.0105548771098256
831,-0.00118399772327393,0.0149760600179434,-0.000661367084830999,-0.00339761818759143,-0.00209941435605288,0.0179957281798124
832,-0.00555201433598995,0.0165273156017065,0.000681309029459953,-0.00235530803911388,-0.0011259134626016,0.0225649811327457
833,-0.00628957618027925,0.0162280276417732,0.00050564861157909,-0.000597604142967612,-0.000326833076542243,0.0240493807941675
834,-0.0054299714975059,0.0167976822704077,-0.000508064345922321,0.00177594879642129,5.84183289902285E-05,0.02419613301754
835,-0.00315410061739385,0.0184437371790409,-0.000190508377272636,0.00375079805962741,0.00282441661693156,0.0232752300798893
836,0.00133409362751991,0.0205244403332472,0.00263858190737665,0.00584226148203015,0.00914789829403162,0.0206571687012911
837,0.00575148547068238,0.0225115530192852,0.00572113692760468,0.00814599730074406,0.013689624145627,0.0167183000594378
838,0.00771491136401892,0.0201057773083448,0.00655338633805513,0.00873156543821096,0.0129211163148284,0.010489322245121
839,0.00835578236728907,0.0104932282119989,0.00625490257516503,0.00665707280859351,0.00981722958385944,0.00150212412700057
840,0.00868760235607624,-0.000351057591615245,0.00688892090693116,0.00393500830978155,0.00620049517601728,-0.00604365114122629
841,0.00764581700786948,-0.00359872193075717,0.00791128445416689,0.00355405360460281,0.00154688640031964,-0.00801854208111763
842,0.00448763649910688,0.00129876297432929,0.00743927853181958,0.00554670393466949,-0.00469848606735468,-0.00576657382771373
843,0.000871543074026704,0.00760979624465108,0.00590351969003677,0.00700877653434873,-0.0115214688703418,-0.00393865304067731
844,-0.00107268732972443,0.0114736640825868,0.00467676343396306,0.00666307704523206,-0.0149858081713319,-0.00266338209621608
845,-0.00167153205256909,0.0125826047733426,0.00360426725819707,0.00493812281638384,-0.0137317553162575,0.00012561802577693
846,-0.00147796794772148,0.0100971898064017,0.00349227641709149,0.00255254306830466,-0.00945472437888384,0.000676200375892222
847,-0.00011136254761368,0.00478114420548081,0.00551819149404764,0.00188039499334991,-0.00254474114626646,-0.00213515083305538
848,0.000782347284257412,-0.000773167703300714,0.00810525752604008,0.00395057257264853,0.00438071275129914,-0.00405913544818759
849,-0.00113200244959444,-0.00394097901880741,0.00900010671466589,0.00715820351615548,0.00632204813882709,-0.0013510633725673
850,-0.00457143457606435,-0.0034871397074312,0.00832829717546701,0.00903261918574572,0.00325935031287372,0.00591433187946677
851,-0.00672392453998327,-0.00160219497047365,0.00677181035280228,0.00662320712581277,-0.000192684499779716,0.0121159674599767
852,-0.00669244304299355,-3.01786167256068E-05,0.00441087828949094,0.000564618618227541,-0.000916934746783227,0.0143672497943044
853,-0.00535319512709975,0.00262506911531091,0.000849212112370878,-0.00542735960334539,-0.000522897578775883,0.0144295925274491
854,-0.00344496383331716,0.00663858093321323,-0.00335132936015725,-0.00901578366756439,-0.00153948343358934,0.0122249005362391
855,-0.00104919367004186,0.00997972581535578,-0.00567118125036359,-0.00857743248343468,-0.00309646246023476,0.0094762621447444
856,0.000518531654961407,0.010200472548604,-0.00581405824050307,-0.00447839219123125,-0.00452900864183903,0.00971835944801569
857,0.000509851553943008,0.00663509778678417,-0.00554644595831633,0.000737295718863606,-0.00622682739049196,0.0120048718526959
858,0.000277527171419933,0.00219859904609621,-0.0042515411041677,0.00529185961931944,-0.00644260784611106,0.0129926316440105
859,0.000770552782341838,-0.000329524569679052,-0.000791241298429668,0.00824534799903631,-0.0029563345015049,0.00983584020286798
860,0.00126019166782498,-0.00141703383997083,0.00294482614845037,0.00933234859257936,0.00267890281975269,0.00291687250137329
861,0.00115505850408226,-0.00268000108189881,0.00467006955295801,0.00806885305792093,0.00605205167084932,-0.00316979014314711
862,0.00208527222275734,-0.0034845657646656,0.00517534650862217,0.0045907418243587,0.00565161323174834,-0.00514233484864235
863,0.00746842287480831,-0.000519732537213713,0.00559259718284011,0.00146435399074107,0.00297168991528451,-0.00497358990833163
864,0.0175935942679644,0.0055490406230092,0.00529823172837496,0.000137373572215438,-0.00133948761504143,-0.00616511469706893
865,0.0254841204732656,0.00775824254378676,0.00463712960481644,-0.000661806436255574,-0.00533647648990154,-0.00961976684629917
866,0.0244937017560005,0.00343363732099533,0.00453119864687324,-0.00121178349945694,-0.00623608333989978,-0.0144137404859066
867,0.0154048157855868,-0.00162145879585296,0.00458945799618959,0.000126356448163278,-0.00726234028115869,-0.0159826669842005
868,0.00308869150467217,-0.00388300069607794,0.00490484945476055,0.00384266232140362,-0.012215324677527,-0.0112113980576396
869,-0.00727251823991537,-0.00478671491146088,0.00537063460797071,0.0073085855692625,-0.0178130585700274,-0.00499553419649601
870,-0.0126605425029993,-0.00496621383354068,0.00388032384216785,0.00621854374185205,-0.0205426458269358,-0.00415696715936065
871,-0.0126377465203404,-0.00439574848860502,0.000400125107262284,0.000108437328890432,-0.0194836333394051,-0.00864984281361103
872,-0.0092929620295763,-0.00389808276668191,-0.00210732338018715,-0.00633474951609969,-0.0142258098348975,-0.0116440337151289
873,-0.00656636571511626,-0.00473506050184369,-0.0027898489497602,-0.00950685888528824,-0.00760899111628532,-0.00904247071594
874,-0.00689780013635755,-0.00674657057970762,-0.00340713653713465,-0.00944821909070015,-0.00426354864612222,-0.00303802662529051
875,-0.00873346067965031,-0.0076249442063272,-0.00486641051247716,-0.00745611917227507,-0.00473349215462804,0.00218486832454801
876,-0.00793290510773659,-0.0054212654940784,-0.00628818571567535,-0.00448313495144248,-0.00488812290132046,0.00399524718523026
877,-0.00325913308188319,-0.00182078056968749,-0.00711058080196381,-0.00198500533588231,-0.00229352433234453,0.00205747503787279
878,0.00270294165238738,0.000466823403257877,-0.00701624806970358,-0.000634676543995738,0.00109075452201068,-0.000790858059190214
879,0.00733150541782379,0.00210752175189555,-0.00560277095064521,0.000227186348638497,0.00280853267759085,-1.41269958930934E-06
880,0.00951132364571095,0.00443508615717292,-0.00402216939255595,-3.70309203390207E-06,0.000778240617364645,0.00397107983008027
881,0.00915109273046255,0.00714431516826153,-0.00329170282930136,-0.000608720351010561,-0.00633134786039591,0.00805766321718693
882,0.00667584221810102,0.00984576623886824,-0.00185290025547147,0.00155284523498267,-0.0155686568468809,0.0132594462484121
883,0.00341274216771126,0.0120218778029084,0.00174212804995477,0.00656952150166035,-0.0218758657574654,0.0192239638417959
884,0.00102372630499303,0.0123578552156687,0.00515601877123117,0.0110079823061824,-0.0231809429824352,0.0216458365321159
885,0.000705236045178026,0.00977640599012375,0.00569403683766723,0.0126696368679404,-0.0199971832334995,0.0169992055743933
886,0.00264966487884521,0.00497239222750068,0.00478038797155023,0.0121569996699691,-0.0137955825775862,0.00589575059711933
887,0.00638845004141331,-0.000441338634118438,0.00563390599563718,0.0109028164297342,-0.00577243743464351,-0.00659329351037741
888,0.0108072021976113,-0.00523435790091753,0.00847427546977997,0.00964061077684164,0.00273454398848116,-0.0165455155074596
889,0.0140156978741288,-0.00786285381764174,0.010178872384131,0.00754589401185513,0.00949821341782808,-0.0223458409309387
890,0.0154899442568421,-0.00822652783244848,0.00862993020564318,0.00338980881497264,0.0135044660419226,-0.0225558690726757
891,0.0163172297179699,-0.00824640784412622,0.00527208065614104,-0.000645530177280307,0.0163985975086689,-0.0180330537259579
892,0.0187008902430534,-0.00829201657325029,0.0025690826587379,-0.000906868954189122,0.0195647496730089,-0.0118368174880743
893,0.0246637463569641,-0.00799945648759604,0.000809525779914111,0.00192913715727627,0.021231422200799,-0.00706229126080871
894,0.0298207607120276,-0.00785686541348696,-0.00114929105620831,0.00437774229794741,0.0190650913864374,-0.00395338190719485
895,0.0265033598989248,-0.00738491537049413,-0.00327298138290644,0.00461078807711601,0.0134981255978346,-0.000401268363930285
896,0.0161920506507158,-0.00623780023306608,-0.0040069124661386,0.00228370074182749,0.00795436464250088,0.00265904422849417
897,0.00653813173994422,-0.00549304485321045,-0.00262647564522922,-0.00225334800779819,0.00541744846850634,0.00171183119527996
898,9.43278282647952E-05,-0.00509150139987469,-0.00111638347152621,-0.00747319310903549,0.00437088822945952,-0.00119831855408847
899,-0.00457171583548188,-0.00375868240371346,-0.0015840093838051,-0.010993892326951,0.00122818443924189,-0.000986199476756155
900,-0.00711601227521896,-0.000668235006742179,-0.00229383795522153,-0.0104015721008182,-0.00261623086407781,0.00121709308587015
901,-0.00638553313910961,0.00487779779359698,-0.000501526286825538,-0.00511531345546246,-0.00308263162150979,0.00251388968899846
902,-0.00321710971184075,0.0102264257147908,0.00307277822867036,0.0019843983463943,-0.000912715040612966,0.00213362625800073
903,0.000150438616401516,0.0106001729145646,0.00585768604651093,0.00750673050060868,0.000281376502243802,0.000935856602154672
904,0.00217699911445379,0.00636534672230482,0.00665833754464984,0.0104085188359022,-0.000462426367448643,0.00138544465880841
905,0.00269283936358988,0.00140289042610675,0.00632466981187463,0.0105781303718686,-0.0015083848265931,0.00393972173333168
906,0.00211014621891081,-0.00234266347251832,0.00636263424530625,0.00842556450515985,-0.0021286706905812,0.00761804077774286
907,0.00117704109288752,-0.00462285149842501,0.00661576027050614,0.00541934231296182,-0.00373109802603722,0.0119003262370825
908,0.00112610589712858,-0.00640678033232689,0.00633040582761168,0.00248746923170984,-0.00576057517901063,0.014026990160346
909,0.00275678979232907,-0.00901731569319963,0.00706224143505096,0.000144628938869573,-0.00469978619366884,0.0112176211550832
910,0.00469021871685982,-0.0115864155814052,0.00982291717082262,9.40614336286671E-05,-0.00110029650386423,0.0080514382570982
911,0.00512172700837255,-0.0124396635219455,0.0123819690197706,0.00234985793940723,0.00150501471944153,0.0100575499236584
912,0.00453040841966867,-0.0113141629844904,0.0127715999260545,0.0044666975736618,0.00378720322623849,0.0125771574676037
913,0.00412117782980204,-0.00892515666782856,0.0111921094357967,0.00514936354011297,0.00759959872812033,0.00973837357014418
914,0.00395431835204363,-0.00686607928946614,0.00763091864064336,0.00459414394572377,0.0111475680023432,0.00410114880651236
915,0.0031519012991339,-0.00512099405750632,0.00208475044928491,0.00360153010115027,0.0120503874495626,-0.00104589003603905
916,0.00102632900234312,-0.00239803898148239,-0.00349859660491347,0.00201701000332832,0.010507270693779,-0.00687688402831554
917,-0.00215935660526156,-0.00131388555746526,-0.00596860842779279,-0.000454227556474507,0.00830890610814095,-0.0130359614267945
918,-0.00365292350761592,-0.00516224326565862,-0.00294366362504661,-0.00183462619315833,0.00951358117163181,-0.0158725846558809
919,-0.00151359266601503,-0.010894725099206,0.0032745273783803,-0.000945637875702232,0.0145170139148831,-0.0137026691809297
920,0.000415599904954433,-0.0123482793569565,0.0061753555200994,0.00106003344990313,0.0152172325178981,-0.00780269457027316
921,-0.000824478745926172,-0.00937357917428017,0.00415290193632245,0.00236385501921177,0.00839769560843706,-0.00183120474684983
922,-0.00321042304858565,-0.00651618419215083,0.00144742475822568,0.000531122379470617,-2.95328718493693E-05,0.00068871775874868
923,-0.0050563090480864,-0.00518161151558161,-0.000183540629222989,-0.0048242611810565,-0.0055771148763597,0.000584742752835155
924,-0.0065191756002605,-0.00410656724125147,-0.00174064433667809,-0.00928309094160795,-0.00790120847523212,0.00143910525366664
925,-0.00715990317985415,-0.00269289896823466,-0.0029589575715363,-0.00862090103328228,-0.00806693080812693,0.0051810797303915
926,-0.00627666851505637,-0.00237537012435496,-0.00338725070469081,-0.00527779338881373,-0.0073915901593864,0.00762978615239263
927,-0.00518268346786499,-0.0040545011870563,-0.00362037704326212,-0.00288133090361953,-0.00785685237497091,0.00630495604127645
928,-0.00427888799458742,-0.00562199018895626,-0.00410288153216243,-0.000433174951467663,-0.0103004723787308,0.00593680655583739
929,0.000514011946506798,-0.00654314318671823,-0.00459574162960052,0.00176285451743752,-0.0115434918552637,0.00634878361597657
930,0.0104390922933817,-0.00825537461787462,-0.00421828078106046,0.00158714514691383,-0.00703492853790522,0.00427455315366387
931,0.0181879512965679,-0.00999686121940613,-0.00255723763257265,0.000209840698516928,0.00240844837389886,0.0019948217086494
932,0.0179687701165676,-0.0104961451143026,-0.000598692218773067,-0.000366234016837552,0.010967961512506,0.00202522054314613
933,0.0115396762266755,-0.010779189877212,0.000448423437774181,-0.000985196558758616,0.0149224177002907,0.0018445469904691
934,0.00243236985988915,-0.0110518205910921,0.000277780811302364,-0.00274331402033567,0.0143708596006036,-1.80323331733234E-05
935,-0.00647655455395579,-0.00916803069412708,-0.000213614126550965,-0.00436984561383724,0.0106956800445914,0.00102785625495017
936,-0.012809538282454,-0.00479650031775236,0.000536220672074705,-0.00464756181463599,0.00613748654723167,0.00735385483130813
937,-0.0164571423083544,0.000386812636861578,0.00214985944330692,-0.00508284289389849,0.00185325182974339,0.0145886177197099
938,-0.0180809255689383,0.0042732460424304,0.00347645254805684,-0.00534112099558115,-0.00152168900240213,0.0195475798100233
939,-0.0168594848364592,0.00493671279400587,0.00525957578793168,-0.00153782521374524,-0.00234443368390203,0.0223427601158619
940,-0.0128771588206291,0.00300562544725835,0.00707507692277431,0.00640136701986194,-0.00186333421152085,0.021889166906476
941,-0.00824461784213781,0.000777079840190709,0.0076071391813457,0.0146366162225604,-0.00246958038769662,0.0172300338745117
942,-0.00513300998136401,-0.00202440214343369,0.00678598042577505,0.0181831475347281,-0.0037728026509285,0.0076875826343894
943,-0.00451258011162281,-0.00723824230954051,0.00485631264746189,0.0138895455747843,-0.0047665536403656,-0.00605759071186185
944,-0.00578894047066569,-0.012887810356915,0.00236295978538692,0.00572826899588108,-0.00565584236755967,-0.0193527303636074
945,-0.00731555745005608,-0.0151435723528266,-0.000253847654676065,0.000265187700279057,-0.00709697837010026,-0.0268381871283054
946,-0.00708290515467525,-0.0132451169192791,-0.00166581769008189,-0.000322897481964901,-0.00708369724452496,-0.0267496686428785
947,-0.00463914126157761,-0.00949853472411633,-0.000139144278364256,0.00227886973880231,-0.00279487576335669,-0.0223936252295971
948,-0.00141925201751292,-0.00602933624759316,0.00373882404528558,0.0060179871506989,0.00343971629627049,-0.0173564236611128
949,0.0007885797531344,-0.00335293123498559,0.00697788177058101,0.00951876118779182,0.00552053470164537,-0.0106811095029116
950,0.00107595673762262,-0.00252134422771633,0.00698397541418672,0.0105844847857952,0.00242681056261063,-0.00283330935053527
951,0.000302084226859733,-0.00366605399176478,0.00430158525705338,0.00823819451034069,-0.000134401634568349,0.00276776077225804
952,-0.00108023337088525,-0.00423669815063477,0.000948136497754604,0.00428401306271553,0.000687134161125869,0.00605581374838948
953,-0.002888502785936,-0.00305071659386158,-0.00132927286904305,0.000651494599878788,0.00350285856984556,0.00863456353545189
954,-0.00374520616605878,-0.000959848577622324,-0.00130779994651675,-0.00121547165326774,0.0068997060880065,0.0119315320625901
955,-0.00363245001062751,0.00286632031202316,9.54611750785261E-05,-0.000468974641989917,0.00818803533911705,0.0169856678694487
956,-0.0039872988127172,0.00754300318658352,0.00152167805936188,0.0023499287199229,0.0060630957596004,0.0215715989470482
957,-0.00439575733616948,0.00808921921998262,0.00336413900367916,0.00460174167528749,0.0042719985358417,0.0214297696948051
958,-0.00332888145931065,0.00386358774267137,0.0050985524430871,0.00462397374212742,0.00598083902150393,0.0176709536463022
