,AF3,AF4,Fp1,Fp2,AF7,AF8
0,-0.00185136252548546,0.0139408428221941,-0.016109649091959,0.000604083703365177,-0.0306906625628471,0.0125748300924897
1,0.000701609940733761,0.0101769370958209,-0.012541301548481,-0.00464923912659287,-0.0259938109666109,0.00200835173018277
2,0.0062059685587883,0.00694098230451345,-0.0121661797165871,-0.0147046819329262,-0.0215548351407051,-0.0119252949953079
3,0.0112562589347363,0.00565217388793826,-0.0177801102399826,-0.0266967359930277,-0.0230198819190264,-0.024015249684453
4,0.0132362172007561,0.00590802961960435,-0.0272485744208097,-0.0368200279772282,-0.0307780560106039,-0.0313215889036655
5,0.0126666892319918,0.00757470866665244,-0.0359075032174587,-0.0426800027489662,-0.0405586026608944,-0.0328652486205101
6,0.0116020459681749,0.0100449034944177,-0.0426673889160156,-0.0472206845879555,-0.0493183135986328,-0.0322394445538521
7,0.0104227717965841,0.0111979069188237,-0.0505333431065083,-0.056115411221981,-0.0572701841592789,-0.0355112068355083
8,0.00897032767534256,0.0106689594686031,-0.0612184777855873,-0.0703833997249603,-0.0647497475147247,-0.0439048707485199
9,0.0079213185235858,0.00964795798063278,-0.073082871735096,-0.0861311629414558,-0.071637362241745,-0.0546280071139336
10,0.00833707675337791,0.00872065871953964,-0.0832384377717972,-0.0991408377885818,-0.0780384615063667,-0.0656644478440285
11,0.0109821725636721,0.00812657456845045,-0.0898806750774384,-0.10759773850441,-0.0828912109136581,-0.0757708549499512
12,0.0145251220092177,0.00747562246397138,-0.094348207116127,-0.112726867198944,-0.085977204144001,-0.0835433974862099
13,0.0173342768102884,0.00664423918351531,-0.0989784821867943,-0.116853803396225,-0.0882634818553925,-0.0882018357515335
14,0.0202393308281899,0.00624055834487081,-0.104352004826069,-0.121967762708664,-0.0898006707429886,-0.0913465842604637
15,0.0237718280404806,0.00658757705241442,-0.110896930098534,-0.129228264093399,-0.0924131572246552,-0.0953069478273392
16,0.0270311906933784,0.00804178230464458,-0.11873821914196,-0.13767783343792,-0.0986264869570732,-0.100089319050312
17,0.0288983099162579,0.00999621208757162,-0.126383572816849,-0.14560866355896,-0.107332043349743,-0.105488009750843
18,0.0285119954496622,0.0110766422003508,-0.132087171077728,-0.152241051197052,-0.115336522459984,-0.111804373562336
19,0.0268834568560123,0.0116412686184049,-0.135736271739006,-0.157514870166779,-0.121109746396542,-0.118102848529816
20,0.0252596959471703,0.0119771994650364,-0.139706060290337,-0.163265377283096,-0.126354679465294,-0.124559000134468
21,0.0239625498652458,0.0118391718715429,-0.145399644970894,-0.170575603842735,-0.132467225193977,-0.131234273314476
22,0.0240993499755859,0.0125850671902299,-0.151005953550339,-0.176921173930168,-0.137844368815422,-0.135679870843887
23,0.0250827390700579,0.0144943138584495,-0.155147358775139,-0.180570051074028,-0.141902774572372,-0.137085869908333
24,0.0235735140740871,0.0155151784420013,-0.159424960613251,-0.183352902531624,-0.147471502423286,-0.137558102607727
25,0.0199879314750433,0.0149770434945822,-0.165639877319336,-0.187738209962845,-0.155085414648056,-0.138869538903236
26,0.0187268648296595,0.0146145867183805,-0.171819120645523,-0.192800402641296,-0.160364419221878,-0.140575528144836
27,0.0198068544268608,0.0153469704091549,-0.175043404102325,-0.1948052495718,-0.162208408117294,-0.141192331910133
28,0.0199153795838356,0.0160579271614552,-0.175320342183113,-0.193052262067795,-0.163586869835854,-0.141392692923546
29,0.0194910112768412,0.0158067680895329,-0.174728587269783,-0.192522868514061,-0.164030268788338,-0.144269451498985
30,0.0211037881672382,0.0152605948969722,-0.175605997443199,-0.19737420976162,-0.161989808082581,-0.150348231196404
31,0.0238994043320417,0.0155043015256524,-0.178351163864136,-0.204233929514885,-0.159806326031685,-0.155043929815292
32,0.0253572352230549,0.0163600482046604,-0.180885568261147,-0.207414597272873,-0.159164652228355,-0.15499658882618
33,0.0255903396755457,0.0169759467244148,-0.181350573897362,-0.205677345395088,-0.158214882016182,-0.151485905051231
34,0.0258184242993593,0.0171095617115498,-0.180296272039413,-0.200869739055634,-0.155957445502281,-0.146872818470001
35,0.0259391497820616,0.0170714166015387,-0.179587498307228,-0.196060568094254,-0.154169723391533,-0.143233492970467
36,0.0257857050746679,0.0176003109663725,-0.180161774158478,-0.19372121989727,-0.154509112238884,-0.141332343220711
37,0.0264755375683308,0.0191420670598745,-0.180864289402962,-0.193698525428772,-0.155433759093285,-0.140021622180939
38,0.0289697851985693,0.0209229476749897,-0.179345637559891,-0.194190040230751,-0.153759002685547,-0.138404816389084
39,0.0324847474694252,0.0222271662205458,-0.17489892244339,-0.1938266903162,-0.148918524384499,-0.136833980679512
40,0.0341327711939812,0.0223879758268595,-0.170353263616562,-0.193327113986015,-0.144598513841629,-0.136790201067925
41,0.032736137509346,0.0213058106601238,-0.167995512485504,-0.192824050784111,-0.142962485551834,-0.138810083270073
42,0.0306479278951883,0.0202872380614281,-0.16577360033989,-0.190130218863487,-0.141066431999207,-0.140775814652443
43,0.028963366523385,0.0195426270365715,-0.16139030456543,-0.184847727417946,-0.137332364916801,-0.14018777012825
44,0.0275680851191282,0.0188972689211369,-0.155663803219795,-0.179129093885422,-0.133408412337303,-0.135961025953293
45,0.0265361499041319,0.0185251459479332,-0.151201874017715,-0.175242766737938,-0.131444498896599,-0.129010781645775
46,0.0250565111637115,0.0178894810378551,-0.149459913372993,-0.173526719212532,-0.132424905896187,-0.121089838445187
47,0.0230247993022203,0.0172957647591829,-0.149243697524071,-0.171802893280983,-0.13441190123558,-0.112096168100834
48,0.0217074044048786,0.0178181063383818,-0.148751080036163,-0.168183505535126,-0.134958162903786,-0.101067639887333
49,0.0218247808516026,0.0196773707866669,-0.146804541349411,-0.162405088543892,-0.133098170161247,-0.0890635848045349
50,0.0224507879465818,0.0217634625732899,-0.142995104193687,-0.155363216996193,-0.128215923905373,-0.0790130272507668
51,0.0221852045506239,0.0224627815186977,-0.138263836503029,-0.149003058671951,-0.120820201933384,-0.0730710849165916
52,0.0209935791790485,0.021479832008481,-0.133573561906815,-0.144277393817902,-0.112655587494373,-0.0703203156590462
53,0.0203355439007282,0.0198815278708935,-0.128412261605263,-0.139786452054977,-0.104468390345573,-0.0679731965065002
54,0.021033763885498,0.0185128264129162,-0.122043438255787,-0.133663311600685,-0.0964262336492538,-0.0645773857831955
55,0.0213652290403843,0.0170884281396866,-0.115939259529114,-0.12615692615509,-0.0905117243528366,-0.0608142390847206
56,0.0197961907833815,0.0147758750244975,-0.111787810921669,-0.119314514100552,-0.0877017602324486,-0.0581151135265827
57,0.0179322771728039,0.0120462598279119,-0.10817064344883,-0.113485410809517,-0.0848556533455849,-0.0563465878367424
58,0.0174582302570343,0.0106950281187892,-0.102784752845764,-0.106044434010983,-0.078855000436306,-0.0530516877770424
59,0.0173432528972626,0.0108772488310933,-0.0954496413469315,-0.0959148108959198,-0.0703500881791115,-0.0472587831318378
60,0.016638332977891,0.0105926943942904,-0.0882513523101807,-0.0866703763604164,-0.0621951632201672,-0.0421394631266594
61,0.0166040845215321,0.00901490915566683,-0.0826606601476669,-0.0807408541440964,-0.0558813661336899,-0.0401753783226013
62,0.0168585814535618,0.00679634232074022,-0.0777364820241928,-0.0759721845388412,-0.0511544235050678,-0.0394762866199017
63,0.0153478691354394,0.00483131734654307,-0.0726812034845352,-0.0702784061431885,-0.0477619618177414,-0.0367191918194294
64,0.0125448694452643,0.00384581019170582,-0.0683370754122734,-0.064447283744812,-0.0451194420456886,-0.0311973243951797
65,0.0106001142412424,0.00418593734502792,-0.0652088224887848,-0.0599953755736351,-0.0418760739266872,-0.0247548762708902
66,0.0109036453068256,0.00679102493450046,-0.0616189353168011,-0.0555606819689274,-0.0364952124655247,-0.0177561808377504
67,0.0125570576637983,0.0106783732771873,-0.0565716028213501,-0.0491506606340408,-0.0291749071329832,-0.0103499181568623
68,0.0132126230746508,0.0126140471547842,-0.0516854114830494,-0.041514378041029,-0.0224784072488546,-0.00429828418418765
69,0.0120598562061787,0.0119681200012565,-0.0475116185843945,-0.0336075238883495,-0.0174990221858025,0.000681927951518446
70,0.00965882930904627,0.010362914763391,-0.0429674386978149,-0.0261195674538612,-0.0132827032357454,0.00587470643222332
71,0.0070850201882422,0.0085512101650238,-0.0382917821407318,-0.0205877739936113,-0.00951057113707066,0.0103434575721622
72,0.00589643931016326,0.00709289498627186,-0.0345135517418385,-0.016848336905241,-0.00622647162526846,0.0133257582783699
73,0.00635799765586853,0.00664772232994437,-0.0315175205469131,-0.0130255855619907,-0.00329394522123039,0.0158033147454262
74,0.00743698189035058,0.00731662660837173,-0.0284952279180288,-0.00842584483325481,-0.000167404912644997,0.0190473608672619
75,0.00865689571946859,0.00884120166301727,-0.0251750499010086,-0.0037246597930789,0.00390094285830855,0.0236476492136717
76,0.00960732717067003,0.0100992489606142,-0.0223218202590942,-0.000500122550874949,0.00839779525995255,0.02846460044384
77,0.00916929915547371,0.00984808150678873,-0.0207644123584032,8.37018815218471E-05,0.0115970866754651,0.0316149443387985
78,0.00694209896028042,0.00782756321132183,-0.0199255514889956,-0.00121406756807119,0.0124245937913656,0.0322691202163696
79,0.00419444777071476,0.00486039696261287,-0.0180102493613958,-0.00223802123218775,0.0115029560402036,0.0314725190401077
80,0.00279968488030136,0.00282306270673871,-0.0138213727623224,-0.000683557067532092,0.0109031544998288,0.0319262258708477
81,0.00345708942040801,0.0025639261584729,-0.00877420324832201,0.00320692313835025,0.012472115457058,0.0343565754592419
82,0.00499033182859421,0.00301890983246267,-0.00521292490884662,0.00709635810926557,0.0160287860780954,0.0367559306323528
83,0.0053948201239109,0.00325451046228409,-0.00368557590991259,0.0100142974406481,0.0192285142838955,0.038242369890213
84,0.00442991545423865,0.00379115249961615,-0.00280332867987454,0.0129988491535187,0.0210730116814375,0.040025170892477
85,0.00324568757787347,0.00515603646636009,-0.00128853146452457,0.0167027022689581,0.0225242208689451,0.0424469485878944
86,0.00204046186991036,0.00601467024534941,0.000333900621626526,0.0197834149003029,0.023758614435792,0.0434534177184105
87,0.000992532237432897,0.00555175449699163,0.00195888592861593,0.0220110472291708,0.0257060248404741,0.0423862189054489
88,0.000495466927532107,0.00539617752656341,0.0050449431873858,0.0257842186838388,0.0297403428703547,0.0424855276942253
89,0.000111208995804191,0.00633005006238818,0.0100129041820765,0.0314776040613651,0.0349330455064774,0.0457911938428879
90,-0.000432041910244152,0.00741538405418396,0.015348544344306,0.036287534981966,0.0388079360127449,0.0501413270831108
91,-0.00115167594049126,0.00831905473023653,0.0193677730858326,0.0389891639351845,0.0392742156982422,0.053539827466011
92,-0.00283424789085984,0.00865757651627064,0.0207063518464565,0.0400594435632229,0.0360562242567539,0.0555053167045116
93,-0.00493639707565308,0.00845278333872557,0.0197821892797947,0.0403551459312439,0.0323094837367535,0.0564650297164917
94,-0.00574995297938585,0.00817139726132154,0.0187003407627344,0.0404833443462849,0.0314934849739075,0.0567598007619381
95,-0.00509862881153822,0.00726274121552706,0.0185745097696781,0.0395882800221443,0.0342199616134167,0.0548462383449078
96,-0.00417083641514182,0.00487483432516456,0.0196175239980221,0.0378531515598297,0.0392600707709789,0.0494533106684685
97,-0.00395680079236627,0.00117855228018016,0.0213657878339291,0.0369351655244827,0.0440117344260216,0.0425042733550072
98,-0.00417180685326457,-0.00166326307225972,0.0227773673832417,0.0378625690937042,0.0456350594758987,0.0391724742949009
99,-0.00504459068179131,-0.00205393484793603,0.0228209048509598,0.0398287996649742,0.0420622564852238,0.042459812015295
100,-0.00699992477893829,-0.00133985583670437,0.022279404103756,0.0411077067255974,0.0356972739100456,0.0497013218700886
101,-0.00881566852331162,-0.0011058053933084,0.0230773314833641,0.0414304099977016,0.0317665822803974,0.0566807612776756
102,-0.00896439328789711,-0.000507165095768869,0.0251166224479675,0.0422507002949715,0.0311757735908031,0.0622508637607098
103,-0.00705121923238039,0.001518020988442,0.0274387784302235,0.0444191545248032,0.0323407985270023,0.0676552578806877
104,-0.00428595067933202,0.00408391281962395,0.0297854840755463,0.0467482954263687,0.0339799486100674,0.0729641392827034
105,-0.00201359787024558,0.00609975308179855,0.0323107652366161,0.0483804494142532,0.0351948700845242,0.077217236161232
106,-0.000156321752001531,0.00689850328490138,0.0347858034074306,0.0495660901069641,0.0365212596952915,0.0792210400104523
107,0.0016432530246675,0.00581528572365642,0.0364852398633957,0.0499745309352875,0.0386260263621807,0.0773438438773155
108,0.00290459464304149,0.00311149773187935,0.0370085425674915,0.0491231754422188,0.0409534797072411,0.071469247341156
109,0.00373610341921449,0.000313259341055527,0.0369185507297516,0.0478889718651772,0.0432859659194946,0.063974529504776
110,0.004213722422719,-0.00182452611625195,0.0367654711008072,0.0471243150532246,0.045170646160841,0.0567778125405312
111,0.00324145331978798,-0.00370064843446016,0.0359432250261307,0.0465156435966492,0.0446920841932297,0.0499385520815849
112,0.000779807160142809,-0.0048576476983726,0.0344555899500847,0.0467078350484371,0.041692066937685,0.0445490926504135
113,-0.00213412055745721,-0.00517285987734795,0.0333938747644424,0.0482017025351524,0.0387365184724331,0.042248222976923
114,-0.00452173501253128,-0.00514055043458939,0.0334638096392155,0.0505219772458076,0.0376631356775761,0.0434875227510929
115,-0.0056643458083272,-0.00406020227819681,0.0344970412552357,0.0536383986473084,0.0383808352053165,0.047697763890028
116,-0.0059767016209662,-0.00168166751973331,0.0354273580014706,0.0565991401672363,0.0398834384977818,0.0520790368318558
117,-0.0062767225317657,0.000725955702364445,0.0355437807738781,0.0583132803440094,0.0410105586051941,0.0534393712878227
118,-0.00686063105240464,0.00241114548407495,0.0357059799134731,0.0594916231930256,0.0420213341712952,0.0523352548480034
119,-0.00818517338484526,0.00330715975724161,0.0363304167985916,0.0606065019965172,0.0436100475490093,0.0515913292765617
120,-0.00977548956871033,0.00394442211836576,0.036791954189539,0.0613007731735706,0.0453080423176289,0.0534779205918312
121,-0.0100536532700062,0.00535096926614642,0.0375224128365517,0.0618264898657799,0.0467589907348156,0.0587643645703793
122,-0.00937148649245501,0.00672194827347994,0.0389949753880501,0.0619606748223305,0.0475124605000019,0.0649167224764824
123,-0.00937714520841837,0.00661480193957686,0.0406559035181999,0.0613656155765057,0.0471577644348145,0.068919263780117
124,-0.0103969043120742,0.00529626430943608,0.0419732332229614,0.0603985451161861,0.0466113276779652,0.0700157731771469
125,-0.0118681723251939,0.00334706576541066,0.0428872741758823,0.0593446344137192,0.0467243641614914,0.0684429854154587
126,-0.0130827771499753,0.000902093597687781,0.0442090816795826,0.0589669421315193,0.0477552078664303,0.0653691813349724
127,-0.0130892479792237,-0.001678621978499,0.0463563241064548,0.059713639318943,0.0502490103244781,0.0617951862514019
128,-0.0119668068364263,-0.00394257018342614,0.0478026755154133,0.0606613531708717,0.0529770962893963,0.0577994659543037
129,-0.0108315758407116,-0.00523662008345127,0.0474883988499641,0.0608510076999664,0.0539199709892273,0.0544048212468624
130,-0.0100141679868102,-0.00536820897832513,0.0464892946183681,0.0597485303878784,0.0532867349684238,0.0528745092451572
131,-0.00933997053653002,-0.00526531599462032,0.0460888110101223,0.057415846735239,0.0515713505446911,0.0526447370648384
132,-0.00855863373726606,-0.00556966476142406,0.0465840958058834,0.055236428976059,0.0488715507090092,0.0523609668016434
133,-0.0075080250389874,-0.00595731800422072,0.0477193295955658,0.0547023862600327,0.0460157468914986,0.0519986189901829
134,-0.0062992968596518,-0.00564550189301372,0.0488736815750599,0.0556667670607567,0.043591745197773,0.0529107265174389
135,-0.00540628284215927,-0.0044731143862009,0.0492179170250893,0.056757278740406,0.0414444245398045,0.0553877763450146
136,-0.00523165753111243,-0.00352856423705816,0.0488066934049129,0.057054165750742,0.0399073921144009,0.0573706217110157
137,-0.0053588361479342,-0.00400714948773384,0.0483905524015427,0.056392777711153,0.0395859107375145,0.0566829741001129
138,-0.00566712999716401,-0.00587689969688654,0.0481731817126274,0.0550231151282787,0.0396130606532097,0.0538974218070507
139,-0.00686719128862023,-0.00784450862556696,0.0479898937046528,0.053890623152256,0.0383623577654362,0.0520509257912636
140,-0.00905229616910219,-0.00897897873073816,0.0480454117059708,0.054192315787077,0.0359496474266052,0.0530014410614967
141,-0.0114240804687142,-0.0100723747164011,0.0481345914304256,0.0554964430630207,0.033931091427803,0.0547915920615196
142,-0.0130357267335057,-0.0115756159648299,0.0479055643081665,0.0565584152936935,0.0329927876591682,0.0552141293883324
143,-0.0134348757565022,-0.0123645141720772,0.0479796901345253,0.0570542588829994,0.0327495597302914,0.0549545139074326
144,-0.0130741633474827,-0.0121129965409637,0.0492130033671856,0.0565697252750397,0.0334879718720913,0.0545206367969513
145,-0.0125378612428904,-0.0111339408904314,0.0515673942863941,0.0551981627941132,0.0356045551598072,0.0537047237157822
146,-0.0119219291955233,-0.0089890593662858,0.053600899875164,0.0536666363477707,0.0375889427959919,0.0537831597030163
147,-0.0108919311314821,-0.0054429154843092,0.0543600767850876,0.0526844039559364,0.0377514995634556,0.056660607457161
148,-0.00951072759926319,-0.00141186721157283,0.0543188713490963,0.0528228580951691,0.0363081507384777,0.0621035769581795
149,-0.00864124204963446,0.00107164890505373,0.0534746795892715,0.0529398955404758,0.0347721166908741,0.0662208124995232
150,-0.00841506104916334,0.000861383625306189,0.051753718405962,0.0519442148506641,0.0338836833834648,0.0654665231704712
151,-0.0078975111246109,-0.000794372754171491,0.0503387711942196,0.0513656511902809,0.0332492180168629,0.0606763660907745
152,-0.00708882231265306,-0.00275577697902918,0.0501750968396664,0.0520884171128273,0.0332897379994392,0.0541036874055862
153,-0.00711778644472361,-0.00488597853109241,0.0503551885485649,0.0525108277797699,0.0340607762336731,0.0477887317538261
154,-0.00809672940522432,-0.0061558079905808,0.0494981557130814,0.0514435507357121,0.0342430658638477,0.044386949390173
155,-0.00865987315773964,-0.00544485077261925,0.0481676831841469,0.0494423359632492,0.0338956043124199,0.0454228967428207
156,-0.00821805652230978,-0.00350239337421954,0.0477677620947361,0.0473434589803219,0.0345142967998981,0.04938580468297
157,-0.00750237889587879,-0.00225857947953045,0.0484578460454941,0.0451220571994781,0.0364640466868877,0.0527072846889496
158,-0.00677172839641571,-0.00281981332227588,0.0494332164525986,0.04244589433074,0.0388028398156166,0.0530125945806503
159,-0.00599913019686937,-0.00463750399649143,0.0495469719171524,0.0395777560770512,0.0405911542475224,0.0506436713039875
160,-0.00562416156753898,-0.00589168630540371,0.0484348647296429,0.0375242009758949,0.0411649942398071,0.0479606799781322
161,-0.00611176015809178,-0.00556984916329384,0.0467941612005234,0.0370152145624161,0.0403454527258873,0.0467903055250645
162,-0.00728254904970527,-0.00437013059854507,0.0456151030957699,0.0381400920450687,0.039174746721983,0.04743792116642
163,-0.00844111852347851,-0.00313578988425434,0.0451390668749809,0.0400467701256275,0.0384654700756073,0.0492018051445484
164,-0.00925924628973007,-0.00163293397054076,0.0447601638734341,0.041365772485733,0.0380066819489002,0.0509725585579872
165,-0.0101432064548135,0.000916033459361643,0.044606264680624,0.0420373566448689,0.0374744795262814,0.052713967859745
166,-0.0111572332680225,0.00417882390320301,0.045384481549263,0.0429494567215443,0.03695148229599,0.05498206615448
167,-0.0108683090656996,0.00695965671911836,0.0471163392066956,0.0444658286869526,0.0377312898635864,0.057478241622448
168,-0.00844359397888184,0.00841880217194557,0.0490615889430046,0.0458477549254894,0.0406078435480595,0.0588187500834465
169,-0.00484231486916542,0.00861645117402077,0.0505164638161659,0.0463524162769318,0.0442693531513214,0.0583147704601288
170,-0.00172411161474884,0.00822355784475803,0.050989206880331,0.0460996255278587,0.0465406328439713,0.0566443391144276
171,-0.000706305319909006,0.0075919646769762,0.0503028966486454,0.0453233309090137,0.0458726100623608,0.0546386316418648
172,-0.00138515955768526,0.00697252806276083,0.0492894239723682,0.0442546457052231,0.0428455173969269,0.0530504994094372
173,-0.00185644545126706,0.00638812687247992,0.0487451963126659,0.0428134128451347,0.0401986241340637,0.0518128238618374
174,-0.00159017450641841,0.0055082468315959,0.0484296344220638,0.0407081879675388,0.0403495579957962,0.0498379245400429
175,-0.00117005489300936,0.00478799780830741,0.0481567606329918,0.038621436804533,0.0427779369056225,0.0471540875732899
176,-0.00171672482974827,0.004693235270679,0.0471316277980804,0.0370896868407726,0.0435794703662395,0.0452432408928871
177,-0.00439411355182529,0.00522976461797953,0.0442160777747631,0.0357446521520615,0.0397746376693249,0.0450858287513256
178,-0.00830157939344645,0.00687937811017036,0.0406752787530422,0.0351986326277256,0.0332449488341808,0.0467304736375809
179,-0.0114519158378243,0.00919419154524803,0.0384054183959961,0.036022711545229,0.0273372307419777,0.0490626767277718
180,-0.0138727761805058,0.0100012738257647,0.0368550941348076,0.0365860834717751,0.0230718702077866,0.0497252456843853
181,-0.0163989067077637,0.00793486554175615,0.0348688736557961,0.0350369960069656,0.0209322143346071,0.0469185635447502
182,-0.0179858114570379,0.00420639896765351,0.0329713337123394,0.0315524451434612,0.022027900442481,0.0408729277551174
183,-0.0173086822032928,0.00114639033563435,0.0322615690529346,0.027703795582056,0.0263953674584627,0.0338872112333775
184,-0.0151041923090816,0.000121012672025245,0.0325263515114784,0.0245744530111551,0.0320214368402958,0.0284631811082363
185,-0.0134620647877455,0.000544512062333524,0.0323908962309361,0.02201858907938,0.0355253182351589,0.0252732876688242
186,-0.0128566371276975,0.000982154509983957,0.0319768078625202,0.0204378515481949,0.0365704335272312,0.0241863243281841
187,-0.0117882173508406,0.000969290907960385,0.0327053517103195,0.0204517412930727,0.0383263938128948,0.0245554037392139
188,-0.00980755407363176,0.000614894204773009,0.0340582430362701,0.0208596903830767,0.041526023298502,0.0244825482368469
189,-0.0081068379804492,-0.000324639142490923,0.0341927707195282,0.0200661458075047,0.0442171134054661,0.0226951278746128
190,-0.007271533831954,-0.00164433673489839,0.032617773860693,0.018227307125926,0.0455415137112141,0.0203408990055323
191,-0.00664844643324614,-0.00277340761385858,0.0303963366895914,0.0163391958922148,0.0460051894187927,0.0189877711236477
192,-0.0057176286354661,-0.00364008266478777,0.0288736559450626,0.0147742126137018,0.046007301658392,0.0182823613286018
193,-0.00505489483475685,-0.00422339281067252,0.0279174149036407,0.0134825091809034,0.0444658547639847,0.0174051523208618
194,-0.00541191734373569,-0.00439184391871095,0.0265097338706255,0.0125078391283751,0.0403559282422066,0.016468895599246
195,-0.00630605919286609,-0.00419209664687514,0.0252226516604424,0.0120621053501964,0.0357662551105022,0.0155196925625205
196,-0.00707126827910542,-0.00427050748839974,0.0248124245554209,0.0121988384053111,0.0334798209369183,0.0134492497891188
197,-0.00730034010484815,-0.00565568963065743,0.0248268507421017,0.0125186238437891,0.0338269434869289,0.00906707439571619
198,-0.00601134775206447,-0.00788158178329468,0.025422066450119,0.0122321015223861,0.0363334491848946,0.00345651339739561
199,-0.00343444128520787,-0.00861674733459949,0.0269136782735586,0.0111170578747988,0.0397765412926674,-6.93736583343707E-05
200,-0.00136119150556624,-0.00697000604122877,0.0286216363310814,0.0097059328109026,0.0418827161192894,0.000922640087082982
201,-0.000549350224900991,-0.00444185175001621,0.0305560808628798,0.00904863141477108,0.0422521755099297,0.00624527735635638
202,-0.000911895127501339,-0.00227863830514252,0.0327472127974033,0.00994141772389412,0.0412361063063145,0.0137167600914836
203,-0.00220755930058658,-0.00112295255530626,0.0333730950951576,0.0104216290637851,0.0386335067451,0.0193386971950531
204,-0.00343811209313571,-0.000982877798378468,0.0320447348058224,0.00872382055968046,0.0359520465135574,0.0207857675850391
205,-0.00455093663185835,-0.00126673490740359,0.0310769081115723,0.00686433725059032,0.0342125929892063,0.0195874907076359
206,-0.00684925727546215,-0.00204399158246815,0.0315215699374676,0.00678787706419826,0.032055426388979,0.0171252619475126
207,-0.00943071208894253,-0.00329555966891348,0.0323402471840382,0.00776200648397207,0.0293449424207211,0.0134004075080156
208,-0.0101621365174651,-0.00388988177292049,0.0325375758111477,0.00931613054126501,0.027383279055357,0.010554158128798
209,-0.010260590352118,-0.00277634663507342,0.0322902277112007,0.0135822566226125,0.0255935098975897,0.0131943039596081
210,-0.0117640141397715,-0.000543732661753893,0.0330169536173344,0.0221071802079678,0.0235977526754141,0.0220942292362452
211,-0.0136279119178653,0.000737824011594057,0.0365162305533886,0.0323265269398689,0.0242300927639008,0.0315548665821552
212,-0.0135081633925438,-0.00124445208348334,0.042796827852726,0.0386446788907051,0.0300913359969854,0.0337481610476971
213,-0.0102667398750782,-0.00592885399237275,0.0493416115641594,0.0375800132751465,0.0394499786198139,0.0253089535981417
214,-0.00521449092775583,-0.0103925969451666,0.0522102154791355,0.0300207082182169,0.0468544028699398,0.00996241066604853
215,-0.00098352215718478,-0.0136455344036222,0.0487995631992817,0.0188011173158884,0.0480516254901886,-0.00647570751607418
216,0.00133261608425528,-0.0162069220095873,0.0413189567625523,0.00830638501793146,0.0445442944765091,-0.0200694352388382
217,0.00206204084679484,-0.0186214428395033,0.0340684466063976,0.00217701168730855,0.0404664278030396,-0.0295515991747379
218,0.00164240098092705,-0.0212434232234955,0.0288372058421373,0.000482026487588882,0.0371672287583351,-0.0361337512731552
219,0.0012184833176434,-0.0241550281643867,0.0258035231381655,0.00141643930692226,0.0350722819566727,-0.0422313250601292
220,0.00188546336721629,-0.027232151478529,0.0248767267912626,0.00349746993742883,0.035597175359726,-0.049180131405592
221,0.00313323270529509,-0.0299500431865454,0.025030454620719,0.00577401602640748,0.0385263562202454,-0.0563539005815983
222,0.00412338366732001,-0.0318947024643421,0.0245916061103344,0.00734788877889514,0.0411812663078308,-0.0631372481584549
223,0.00498369010165334,-0.0330052711069584,0.0226737502962351,0.00796752981841564,0.0406324714422226,-0.0695250183343887
224,0.0059754615649581,-0.0336128547787666,0.0203239843249321,0.00836643390357494,0.0367253422737122,-0.0754015296697617
225,0.00704629393294454,-0.0339356735348701,0.0188153963536024,0.00899091735482216,0.0319918468594551,-0.0805851370096207
226,0.00863320752978325,-0.0338707454502583,0.0180487912148237,0.00925472658127546,0.0298309177160263,-0.0853891745209694
227,0.0105598140507936,-0.033746276050806,0.0175002403557301,0.0089044189080596,0.0316673368215561,-0.0901577845215797
228,0.0119860386475921,-0.0336946919560432,0.0170457642525434,0.00904212240129709,0.0359028689563274,-0.0943436250090599
229,0.0130656119436026,-0.03384068608284,0.0166088119149208,0.00975213013589382,0.040236447006464,-0.0982290208339691
230,0.0139787560328841,-0.0345493368804455,0.0151505386456847,0.00986109580844641,0.0422745794057846,-0.102309688925743
231,0.0147390151396394,-0.0353945530951023,0.0126299215480685,0.0100771831348538,0.0423938818275929,-0.105443231761456
232,0.0154568562284112,-0.0365614853799343,0.0109785692766309,0.0115071982145309,0.0442417860031128,-0.108275860548019
233,0.0157934110611677,-0.0387842692434788,0.0108584193512797,0.0134882759302855,0.048954151570797,-0.112978011369705
234,0.0153625039383769,-0.0413988083600998,0.0107601433992386,0.0150250848382711,0.0535011813044548,-0.1189269348979
235,0.0135332439094782,-0.0438034683465958,0.00857856776565313,0.0151459146291018,0.054054968059063,-0.124314725399017
236,0.0103539349511266,-0.046481478959322,0.00378806749358773,0.0130698652938008,0.0505589172244072,-0.129416450858116
237,0.00774916494265199,-0.0490445829927921,-0.00095945259090513,0.0101658534258604,0.0475857630372047,-0.134762391448021
238,0.00726427277550101,-0.050114780664444,-0.00233286200091243,0.00961441732943058,0.0486533120274544,-0.138957470655441
239,0.00821198243647814,-0.0491963177919388,-0.000103542777651455,0.0128043238073587,0.0525327995419502,-0.140869110822678
240,0.0091872988268733,-0.0472462475299835,0.00302939023822546,0.0176116600632668,0.0559686124324799,-0.141539752483368
241,0.0104897012934089,-0.045513179153204,0.00520979287102818,0.0210341792553663,0.0579554885625839,-0.142242848873138
242,0.0129726361483335,-0.0449107363820076,0.00655336584895849,0.0220306757837534,0.0595194771885872,-0.143261089920998
243,0.0159680377691984,-0.0462210327386856,0.00716979941353202,0.0215714573860168,0.0612072385847569,-0.144866079092026
244,0.0189715810120106,-0.0485037118196487,0.00689075468108058,0.0218411292880774,0.062810979783535,-0.145910412073135
245,0.0223137810826302,-0.0492531508207321,0.00607365742325783,0.0247673895210028,0.0644252225756645,-0.144237115979195
246,0.0249540116637945,-0.0482649467885494,0.00512721436098218,0.0299100317060947,0.0658685266971588,-0.140650868415833
247,0.0252602398395538,-0.0479399412870407,0.00386323663406074,0.0345252938568592,0.0661485493183136,-0.138835832476616
248,0.0238619446754456,-0.0493345595896244,0.00242285104468465,0.0368597395718098,0.0655767321586609,-0.14053800702095
249,0.0220294129103422,-0.051649272441864,0.000901501218322665,0.0373413786292076,0.0649064034223557,-0.144186198711395
250,0.0199169684201479,-0.0537487715482712,-0.000907213718164712,0.0374020412564278,0.0633276775479317,-0.147356003522873
251,0.0181543119251728,-0.0542387701570988,-0.00177011091727763,0.0392727740108967,0.0603416711091995,-0.147643685340881
252,0.0176711771637201,-0.0525578744709492,-0.000532694393768907,0.0432607531547546,0.0570619851350784,-0.145201370120049
253,0.0185179151594639,-0.0489114671945572,0.00182646862231195,0.0474100261926651,0.0544389449059963,-0.142598658800125
254,0.0199843235313892,-0.0443333573639393,0.00403503607958555,0.0503885559737682,0.0528710596263409,-0.141699001193047
255,0.0210467241704464,-0.0412579961121082,0.00514479214325547,0.0515614487230778,0.0523039251565933,-0.143058955669403
256,0.0213533658534288,-0.0407097898423672,0.00423374585807323,0.0519063100218773,0.0512807741761208,-0.14460177719593
257,0.0216251611709595,-0.0419606417417526,0.00198996532708406,0.0528674907982349,0.0499069951474667,-0.144680052995682
258,0.0226445086300373,-0.0445334240794182,0.000819753855466843,0.0538166761398315,0.0509460754692554,-0.145000576972961
259,0.0240413825958967,-0.0476744920015335,0.00243515358306468,0.0539287924766541,0.0554969906806946,-0.146350830793381
260,0.0251345299184322,-0.0500700995326042,0.006397002376616,0.0536992996931076,0.0621943846344948,-0.14709883928299
261,0.0258416142314672,-0.0508369989693165,0.0106562534347177,0.0537109151482582,0.0686811208724976,-0.146071225404739
262,0.0256914328783751,-0.0504394881427288,0.0129386046901345,0.0537817664444447,0.0721334964036942,-0.143656715750694
263,0.0240743849426508,-0.0498980805277824,0.0129073923453689,0.0539348945021629,0.0713928118348122,-0.140634477138519
264,0.0212075039744377,-0.0493823289871216,0.0117750484496355,0.0543824285268784,0.0684441179037094,-0.137023821473122
265,0.0187171176075935,-0.0479608960449696,0.0106763448566198,0.0550247132778168,0.0669159963726997,-0.131529465317726
266,0.0179110392928123,-0.044923935085535,0.0104460008442402,0.0560885183513165,0.0677502080798149,-0.122405759990215
267,0.0188588052988052,-0.0407931618392468,0.0116267614066601,0.0579541139304638,0.0694783926010132,-0.11013899743557
268,0.0211461707949638,-0.0369353219866753,0.0141527941450477,0.0600071959197521,0.0712314322590828,-0.0989189445972443
269,0.0228210780769587,-0.0343226939439774,0.0168921202421188,0.0613559819757938,0.071136437356472,-0.0923460572957993
270,0.0219778679311275,-0.0327484011650085,0.017809247598052,0.0616662390530109,0.0667664408683777,-0.0898566916584969
271,0.0197794996201992,-0.0321224704384804,0.0163823496550322,0.0606708973646164,0.0600735545158386,-0.0897631645202637
272,0.018761120736599,-0.0322009399533272,0.0149311181157827,0.0595095194876194,0.0556566156446934,-0.0900114253163338
273,0.0186680108308792,-0.0320115834474564,0.0144650936126709,0.0595174431800842,0.0531715862452984,-0.089270181953907
274,0.0178680941462517,-0.0315898396074772,0.0140127902850509,0.0593772903084755,0.0502333231270313,-0.0899078547954559
275,0.0162241216748953,-0.031696118414402,0.0133039280772209,0.0569375045597553,0.0470081493258476,-0.0933834984898567
276,0.014322817325592,-0.0313383303582668,0.0125451851636171,0.0524957925081253,0.0437567979097366,-0.0956801250576973
277,0.0128033393993974,-0.0285177119076252,0.0124772526323795,0.0485878437757492,0.0407143086194992,-0.091082327067852
278,0.0115816732868552,-0.0239259917289019,0.013255275785923,0.0467239506542683,0.0379314459860325,-0.0785206705331802
279,0.0106625137850642,-0.0201100148260593,0.0135270729660988,0.0460965633392334,0.0348082557320595,-0.0631661266088486
280,0.0108344303444028,-0.0177219528704882,0.0131376180797815,0.0459304042160511,0.0324300862848759,-0.0506551340222359
281,0.0121753979474306,-0.0165813844650984,0.0135096879675984,0.046144787222147,0.0328492633998394,-0.0432818345725536
282,0.013750372454524,-0.0175923947244883,0.0146249551326036,0.0459513254463673,0.0352038815617561,-0.0414363257586956
283,0.0145236412063241,-0.020734379068017,0.0151968849822879,0.0445143505930901,0.0365996509790421,-0.0436897166073322
284,0.0147268511354923,-0.023919153958559,0.015331351198256,0.0421192906796932,0.0366562828421593,-0.0473281443119049
285,0.0144826611503959,-0.0256698522716761,0.0154745317995548,0.0392029769718647,0.0355941839516163,-0.0501260012388229
286,0.0131790284067392,-0.0258565023541451,0.0149435345083475,0.0361445136368275,0.031859066337347,-0.0504187233746052
287,0.0115601839497685,-0.0241222940385342,0.0137716606259346,0.034172248095274,0.0266542565077543,-0.0470555238425732
288,0.00996142067015171,-0.0212778896093369,0.012397532351315,0.0337475389242172,0.0231328196823597,-0.0409230925142765
289,0.00743413437157869,-0.0191249810159206,0.0111877582967281,0.0340475551784039,0.0212709382176399,-0.0345185622572899
290,0.00436799926683307,-0.0173444878309965,0.0110134491696954,0.0348359607160091,0.0191264934837818,-0.0287570040673018
291,0.00254101771861315,-0.0148770632222295,0.0119757745414972,0.0355856493115425,0.0166883934289217,-0.0235017407685518
292,0.00262260972522199,-0.0127107547596097,0.0131512135267258,0.0351685769855976,0.015033770352602,-0.0197592005133629
293,0.00388567894697189,-0.0114380642771721,0.0135973477736115,0.0341870523989201,0.0138459783047438,-0.0174764506518841
294,0.00531290983781219,-0.0104961823672056,0.01269890088588,0.0335927791893482,0.0121620567515492,-0.0154951475560665
295,0.00557508831843734,-0.0103842718526721,0.0106864171102643,0.0328381471335888,0.00976832397282124,-0.0134911332279444
296,0.00446689035743475,-0.011501400731504,0.00938912760466337,0.0320830680429935,0.00795336347073317,-0.0108864437788725
297,0.0024805951397866,-0.0133537985384464,0.00960761401802301,0.0318850614130497,0.00722758984193206,-0.00733398180454969
298,-2.55777285929071E-05,-0.0146121783182025,0.00987699627876282,0.0320785380899906,0.00631971191614866,-0.00320731778629124
299,-0.00163878744933754,-0.0137943616136909,0.00964689254760742,0.0326607190072536,0.00555633986368775,0.000848243827931583
300,-0.00112500204704702,-0.0111810155212879,0.00979179050773382,0.0330649614334106,0.00635153660550714,0.00348497903905809
301,0.000491418177261949,-0.00857014209032059,0.0102856978774071,0.0317869558930397,0.0078367916867137,0.003138322615996
302,0.000710213498678058,-0.00742992525920272,0.00995878875255585,0.0285263173282146,0.00756890140473843,-3.79991179215722E-05
303,-0.00118165963795036,-0.00766643695533276,0.0085175009444356,0.0251995343714952,0.004617840051651,-0.00344707840122283
304,-0.00358116161078215,-0.00817766319960356,0.00682649994269013,0.0236388333141804,5.03038318129256E-05,-0.00439503416419029
305,-0.0045346338301897,-0.0073615238070488,0.00606652582064271,0.0241143424063921,-0.00386955728754401,-0.00183094048406929
306,-0.00403792783617973,-0.00505831837654114,0.00636840844526887,0.0251739267259836,-0.00577613292261958,0.0026410820428282
307,-0.00345867220312357,-0.00294901616871357,0.0071071763522923,0.0257444530725479,-0.0060137677937746,0.00706447521224618
308,-0.00328080262988806,-0.00150289584416896,0.00789423659443855,0.0263917036354542,-0.00596448313444853,0.0120785189792514
309,-0.00360275292769074,-0.000443344993982464,0.00830564275383949,0.0269458759576082,-0.00682898284867406,0.0177943948656321
310,-0.0038177827373147,0.000336959434207529,0.00874610338360071,0.0269462112337351,-0.00741419056430459,0.022455858066678
311,-0.00346823129802942,0.00123559217900038,0.00941742863506079,0.0264856293797493,-0.0076041566208005,0.0245951600372791
312,-0.0034815757535398,0.00200494844466448,0.00968724582344294,0.0251631326973438,-0.00971092190593481,0.0242498945444822
313,-0.00372740696184337,0.0026303599588573,0.0099946241825819,0.0233118962496519,-0.0127106485888362,0.024021515622735
314,-0.00367769342847168,0.00344246462918818,0.0107662063091993,0.0220896899700165,-0.0141652412712574,0.0266346577554941
315,-0.00461510429158807,0.00413285521790385,0.0107629094272852,0.0212779100984335,-0.0153392637148499,0.0316063575446606
316,-0.00672362931072712,0.00505994446575642,0.00972646567970514,0.0200816243886948,-0.0170691609382629,0.0362062379717827
317,-0.00866538938134909,0.00641614198684692,0.00859330222010612,0.0183394383639097,-0.0183689445257187,0.0379974953830242
318,-0.0100560784339905,0.00742111355066299,0.00750528229400516,0.0162371713668108,-0.0197732411324978,0.0371705703437328
319,-0.0113381780683994,0.0078664617612958,0.00683620385825634,0.0142772188410163,-0.0226608440279961,0.0357807204127312
320,-0.0132953440770507,0.00774717191234231,0.00676140002906322,0.0124507760629058,-0.0273248646408319,0.034654974937439
321,-0.0156025970354676,0.00746375927701592,0.00662125134840608,0.0109920473769307,-0.0316832549870014,0.034291073679924
322,-0.0169734377413988,0.00791224278509617,0.00629280647262931,0.0112676257267594,-0.0332050919532776,0.0361305214464664
323,-0.0177012085914612,0.00868351850658655,0.00598054332658648,0.0136315589770675,-0.0326581448316574,0.0398658663034439
324,-0.0187622606754303,0.00858334358781576,0.00559920398518443,0.0158562399446964,-0.0325557850301266,0.0425577573478222
325,-0.0195286851376295,0.00792948622256517,0.00587325869128108,0.0164517164230347,-0.033488504588604,0.0429111756384373
326,-0.0191958509385586,0.0074758012779057,0.00744229508563876,0.0160261131823063,-0.0350541137158871,0.0420558080077171
327,-0.0178898312151432,0.00740080513060093,0.00903339777141809,0.0146867884323001,-0.0368654169142246,0.0407921746373177
328,-0.0157465618103743,0.00854266714304686,0.00932993460446596,0.012765334919095,-0.0383852794766426,0.0401306673884392
329,-0.0134119754657149,0.0111585026606917,0.00900492258369923,0.0111725125461817,-0.0397453121840954,0.040687307715416
330,-0.0117504354566336,0.0144695341587067,0.00961192231625319,0.0106510929763317,-0.0407954752445221,0.0426123812794685
331,-0.0108896102756262,0.0171947255730629,0.0109946057200432,0.0109089072793722,-0.041262436658144,0.0455743409693241
332,-0.010601157322526,0.0180762447416782,0.0114519940689206,0.0105097321793437,-0.0418352857232094,0.0481134094297886
333,-0.00995798595249653,0.0175582990050316,0.0107899745926261,0.00920117553323507,-0.0425062291324139,0.0495526492595673
334,-0.00861090421676636,0.0167239718139172,0.00987925659865141,0.00792070664465427,-0.0428764931857586,0.0506089590489864
335,-0.00738547695800662,0.0160080902278423,0.00938118249177933,0.00747327227145433,-0.042720515280962,0.0522210821509361
336,-0.00600385200232267,0.0158050786703825,0.0101703889667988,0.00797181110829115,-0.0413094721734524,0.0541765466332436
337,-0.0042519373819232,0.0161906760185957,0.011623490601778,0.00846518762409687,-0.0399686843156815,0.0560827814042568
338,-0.00304113118909299,0.0171778723597527,0.0122648449614644,0.00853820517659187,-0.0410390459001064,0.0593059174716473
339,-0.00258953729644418,0.0193894524127245,0.0123845655471087,0.00924995634704828,-0.0434874780476093,0.0652080774307251
340,-0.00230630720034242,0.0223651491105556,0.0124349687248468,0.010565685108304,-0.0445230975747108,0.0715425536036491
341,-0.00168887223117054,0.0235464256256819,0.0117784328758717,0.0108407298102975,-0.0434524789452553,0.0734594985842705
342,-0.00106911291368306,0.0215225480496883,0.0104366112500429,0.00946737453341484,-0.0414216332137585,0.0688966736197472
343,-0.000897088553756475,0.0182106029242277,0.00942435301840305,0.00762329110875726,-0.0391263104975224,0.0602149739861488
344,-0.000960931472945958,0.0163273569196463,0.00930117163807154,0.00681657856330276,-0.036938238888979,0.0514538735151291
345,-0.00184537249151617,0.0161608215421438,0.00907768215984106,0.00637899432331324,-0.0366952233016491,0.0451991446316242
346,-0.00391031708568335,0.0164669435471296,0.00811059307307005,0.00463473424315453,-0.0391773991286755,0.0422006510198116
347,-0.00637225201353431,0.0166060384362936,0.00693560997024179,0.00165299593936652,-0.0425445511937141,0.0425966903567314
348,-0.00841205380856991,0.0168345682322979,0.00608165096491575,-0.00143347447738051,-0.0448397286236286,0.0456210039556026
349,-0.00923705007880926,0.0175486039370298,0.00636107241734862,-0.00351561931893229,-0.0445798262953758,0.0493032447993755
350,-0.00846527330577374,0.0176007151603699,0.00807187240570784,-0.00495525496080518,-0.0414724908769131,0.0512903854250908
351,-0.0062847645021975,0.0163170918822289,0.00982914119958878,-0.00689840503036976,-0.0386134199798107,0.0516757480800152
352,-0.00315505242906511,0.015941433608532,0.00966492109000683,-0.00852881651371717,-0.0394084192812443,0.0536868125200272
353,-0.000108606400317512,0.0180308949202299,0.00742233637720346,-0.00836142059415579,-0.0425104647874832,0.0590076707303524
354,0.00120900629553944,0.0208894331008196,0.00473774177953601,-0.00689525809139013,-0.0447744131088257,0.0651654377579689
355,0.000569102936424315,0.022620964795351,0.00310503970831633,-0.00576863111928105,-0.044939924031496,0.068925715982914
356,-0.000836179009638727,0.0230390913784504,0.00288177910260856,-0.00592518877238035,-0.0435053035616875,0.0696191489696503
357,-0.00235350127331913,0.0229593124240637,0.00361570459790528,-0.00702815409749746,-0.0418324023485184,0.0688013359904289
358,-0.00346447597257793,0.0236781276762486,0.00521497474983335,-0.00821779202669859,-0.0406916029751301,0.0679771304130554
359,-0.00370562844909728,0.0255446918308735,0.00802643410861492,-0.00893917586654425,-0.039247028529644,0.067710243165493
360,-0.00323477433994412,0.0275121331214905,0.0108559420332313,-0.00937282666563988,-0.036733727902174,0.0683546587824821
361,-0.00237793428823352,0.0287220161408186,0.0116205560043454,-0.0102455485612154,-0.0344963073730469,0.0694875046610832
362,-0.00115273694973439,0.029668053612113,0.0112676545977592,-0.0103067578747869,-0.0329796969890594,0.0711789131164551
363,-0.000523624941706657,0.0310642421245575,0.0115012442693114,-0.00741371838375926,-0.0326836369931698,0.0746970847249031
364,-0.00154832482803613,0.0319820381700993,0.0114204669371247,-0.00297144311480224,-0.0347292348742485,0.0782236903905869
365,-0.00234000384807587,0.0308981034904718,0.010988044552505,-0.000594022450968623,-0.0357056297361851,0.0772020518779755
366,-0.00187845912296325,0.0272973999381065,0.0108575876802206,-0.00211928621865809,-0.0331962443888187,0.0706015974283218
367,-0.00172568811103702,0.0220662783831358,0.0105892410501838,-0.00659048184752464,-0.029530817642808,0.0617288127541542
368,-0.00134245806839317,0.017466451972723,0.0106480410322547,-0.0112507902085781,-0.0256813429296017,0.0541528351604939
369,0.000136645860038698,0.0152984093874693,0.0115231573581696,-0.0136149544268847,-0.0221832282841206,0.0500738956034184
370,0.00158121925778687,0.0151216275990009,0.0125731192529202,-0.0133112967014313,-0.0206156484782696,0.0499219261109829
371,0.00250971759669483,0.0158316344022751,0.0132971778512001,-0.0113720530644059,-0.0209935903549194,0.0530427098274231
372,0.00290456949733198,0.0169744063168764,0.0134428199380636,-0.00935892667621374,-0.0225609634071589,0.057929303497076
373,0.00216967100277543,0.0181565526872873,0.0128557365387678,-0.00871392991393805,-0.025157468393445,0.0620592758059502
374,0.000456504960311577,0.0191872287541628,0.0122768944129348,-0.0091472128406167,-0.0281610023230314,0.0644344985485077
375,-0.00121861067600548,0.0201678834855556,0.0129572153091431,-0.00937096681445837,-0.0301399193704128,0.0658322870731354
376,-0.00183829490561038,0.0214113127440214,0.0151861384510994,-0.0087753888219595,-0.0302527844905853,0.0668436586856842
377,-0.00186140625737607,0.0223747603595257,0.0171125661581755,-0.00826277118176222,-0.029888492077589,0.066788986325264
378,-0.00271357037127018,0.022073894739151,0.0159644447267056,-0.00974402762949467,-0.0316046625375748,0.0647485330700874
379,-0.00388968177139759,0.0213800352066755,0.0119243897497654,-0.0132013410329819,-0.0356830731034279,0.0618597865104675
380,-0.00385124003514647,0.0216847844421864,0.0082983011379838,-0.0162011198699474,-0.0399444699287415,0.0600457414984703
381,-0.00279867835342884,0.0228448417037725,0.0071027185767889,-0.0170523133128881,-0.0427716560661793,0.0600656233727932
382,-0.00262366817332804,0.0242362134158611,0.00725559610873461,-0.0158568974584341,-0.045123353600502,0.0626185238361359
383,-0.00387856969609857,0.0256507135927677,0.00729557778686285,-0.0136365173384547,-0.0468744970858097,0.0676441565155983
384,-0.00533198937773705,0.0265073198825121,0.00715780118480325,-0.0120485620573163,-0.0457453392446041,0.0720903500914574
385,-0.00639664381742477,0.0264156889170408,0.00726686371490359,-0.0116139650344849,-0.0426967367529869,0.0735668614506722
386,-0.00665831565856934,0.025925736874342,0.00792844593524933,-0.0115258488804102,-0.0403291992843151,0.0734937489032745
387,-0.00589191587641835,0.0252398233860731,0.00890924129635096,-0.012512220069766,-0.0391796417534351,0.0726731792092323
388,-0.00451133726164699,0.0249285195022821,0.0100235873833299,-0.0147821521386504,-0.0385879911482334,0.070637010037899
389,-0.00304333539679646,0.0255704559385777,0.0112987523898482,-0.0164663251489401,-0.0376782603561878,0.0682761147618294
390,-0.00208245730027556,0.0265361685305834,0.0120334411039948,-0.0167362485080957,-0.0363335497677326,0.0668996348977089
391,-0.0016570728039369,0.027504013851285,0.0113452365621924,-0.0164299365133047,-0.0352181605994701,0.0671441778540611
392,-0.00154169090092182,0.0281466040760279,0.00866198539733887,-0.0172579735517502,-0.035516194999218,0.0680055990815163
393,-0.00156190013512969,0.0284216515719891,0.00500492192804813,-0.0193033535033464,-0.0379015579819679,0.0685963779687881
394,-0.00176083797123283,0.0286373682320118,0.00215729721821845,-0.0212226957082748,-0.0411922335624695,0.0689207166433334
395,-0.00237691844813526,0.027727983891964,7.09579762769863E-05,-0.0233856271952391,-0.0431034788489342,0.0680469274520874
396,-0.00206831493414938,0.0251010935753584,-0.000966733496170491,-0.025746513158083,-0.0415291525423527,0.0653543323278427
397,-0.000147195329191163,0.0217447262257338,-0.000330569426296279,-0.0270368289202452,-0.0374421030282974,0.0610009767115116
398,0.00110395718365908,0.0190495457500219,0.000610973977018148,-0.027090460062027,-0.0347550474107265,0.056087002158165
399,0.000176918023498729,0.0188488680869341,0.00134684820659459,-0.0258265640586615,-0.0354566164314747,0.0537159740924835
400,-0.00292227929458022,0.0210698638111353,0.00247858720831573,-0.0234120059758425,-0.040228221565485,0.055724274367094
401,-0.00721757020801306,0.0230670962482691,0.00311024463735521,-0.0214455854147673,-0.0479467920958996,0.0602673143148422
402,-0.00982675049453974,0.0230376925319433,0.00287896557711065,-0.021013867110014,-0.0524145998060703,0.064201295375824
403,-0.00935681909322739,0.0210168343037367,0.00193242728710175,-0.022183682769537,-0.050001222640276,0.064839780330658
404,-0.00729294866323471,0.0184279270470142,0.000457045971415937,-0.0242907777428627,-0.0439824350178242,0.061840645968914
405,-0.00520295929163694,0.0167581457644701,-0.000230219433433376,-0.0260091070085764,-0.0378589034080505,0.0576049983501434
406,-0.00394002674147487,0.0160483680665493,9.02703977772035E-05,-0.026578126475215,-0.0335685908794403,0.0545393414795399
407,-0.00437878398224711,0.0152232674881816,0.00030769532895647,-0.0266724098473787,-0.0331763364374638,0.0528642199933529
408,-0.0066994302906096,0.0135926036164165,-0.000448058999609202,-0.0272582117468119,-0.0371583923697472,0.0515732169151306
409,-0.00926604028791189,0.0117661794647574,-0.00177633040584624,-0.0275916960090399,-0.0419850833714008,0.0507198348641396
410,-0.0105775045230985,0.0106497788801789,-0.00274905376136303,-0.0268674865365028,-0.044044766575098,0.0513682328164577
411,-0.0110016474500299,0.0102712064981461,-0.00373679539188743,-0.0263329073786736,-0.0444765724241734,0.0536720938980579
412,-0.011000283062458,0.00968829076737165,-0.00510706985369325,-0.0277602653950453,-0.0450508967041969,0.0560011342167854
413,-0.0099453330039978,0.00896444171667099,-0.00605694763362408,-0.0303805563598871,-0.0446554012596607,0.0574033185839653
414,-0.00756286317482591,0.00941430032253265,-0.00598281482234597,-0.0317419916391373,-0.0426021032035351,0.0580072030425072
415,-0.00492685940116644,0.0114023117348552,-0.00520062725991011,-0.0311585310846567,-0.0400893315672874,0.0580950267612934
416,-0.00348861492238939,0.0142633356153965,-0.00412504794076085,-0.029333958402276,-0.0380551367998123,0.0591257698833942
417,-0.00414621783420444,0.0167033653706312,-0.00328952027484775,-0.0271402187645435,-0.03734340518713,0.0616440437734127
418,-0.00630055414512753,0.0174926035106182,-0.00301838852465153,-0.0257281512022018,-0.0382089018821716,0.0634743720293045
419,-0.00840434152632952,0.0165847465395927,-0.0027835420332849,-0.0253867376595736,-0.0392826534807682,0.0627768933773041
420,-0.00951628480106592,0.015013693831861,-0.00232796068303287,-0.0251195840537548,-0.0394079126417637,0.0603662021458149
421,-0.00946747232228518,0.0141453044489026,-0.0019550914876163,-0.0243855137377977,-0.0383195169270039,0.0576150044798851
422,-0.00882984418421984,0.0142791392281652,-0.00146918033715338,-0.0234640780836344,-0.0361565761268139,0.054724108427763
423,-0.00821806956082582,0.014325893484056,-0.000242934038396925,-0.0227181315422058,-0.0334886573255062,0.0518201552331448
424,-0.00745126139372587,0.0141233475878835,0.00173724291380495,-0.0223345085978508,-0.0315347872674465,0.0502213649451733
425,-0.00595841463655233,0.0150193013250828,0.00387479807250202,-0.021840400993824,-0.0308967679738998,0.0516312830150127
426,-0.00423114839941263,0.016965189948678,0.00484991213306785,-0.021557591855526,-0.0316099599003792,0.0551501959562302
427,-0.00343688856810331,0.0188628975301981,0.0037415677215904,-0.0223468113690615,-0.0340496823191643,0.0583754368126392
428,-0.00334929209202528,0.0206778421998024,0.00202743406407535,-0.0232593473047018,-0.0367777086794376,0.0606639012694359
429,-0.00306276860646904,0.0218987669795752,0.0011861331295222,-0.0236180480569601,-0.0377347134053707,0.0613228790462017
430,-0.00278773484751582,0.0212177634239197,0.000409950036555529,-0.0245832204818726,-0.0381140038371086,0.0590100027620792
431,-0.00350203854031861,0.0184946581721306,-0.00157801283057779,-0.0269837807863951,-0.0404566451907158,0.0541026592254639
432,-0.00520171644166112,0.0153207369148731,-0.0043102134950459,-0.0293780267238617,-0.0443428754806519,0.0494041256606579
433,-0.00648948363959789,0.0135879041627049,-0.00627622148022056,-0.0291420370340347,-0.0474184565246105,0.0477284491062164
434,-0.00674795173108578,0.0139233851805329,-0.00750652328133583,-0.0260275807231665,-0.049048837274313,0.0491970404982567
435,-0.00621439283713698,0.0157978497445583,-0.00845916848629713,-0.0223311576992273,-0.0488421767950058,0.0524388328194618
436,-0.00519456434994936,0.0181267354637384,-0.00869763642549515,-0.0199592597782612,-0.0462671369314194,0.056528776884079
437,-0.00394928921014071,0.0190624222159386,-0.00766340084373951,-0.0201001856476069,-0.0415200591087341,0.0596666410565376
438,-0.00201262580230832,0.0176941640675068,-0.00436121877282858,-0.0224855206906796,-0.0342876724898815,0.0604731366038322
439,0.000425616133725271,0.0159548819065094,0.000319536251481622,-0.0245547741651535,-0.0278898496180773,0.0607630200684071
440,0.00264022708870471,0.0152668887749314,0.00352487619966269,-0.0251214299350977,-0.0269335769116879,0.0607097074389458
441,0.00474565988406539,0.0152221517637372,0.00494748819619417,-0.0242396201938391,-0.0300162304192781,0.0583315119147301
442,0.00677404645830393,0.0154404882341623,0.005885552149266,-0.0218450259417295,-0.0326209850609303,0.0540421903133392
443,0.00771714700385928,0.0154360523447394,0.00577023718506098,-0.0195791237056255,-0.0333716236054897,0.0491901338100433
444,0.00704294675961137,0.0153027903288603,0.00422417931258678,-0.0187730081379414,-0.0337894633412361,0.0446725785732269
445,0.00543311750516295,0.0154092945158482,0.0024088816717267,-0.0192347839474678,-0.0345523618161678,0.0409028269350529
446,0.00344710843637586,0.0157866813242435,0.00109562883153558,-0.0203289873898029,-0.0348105616867542,0.0383444353938103
447,0.00154336169362068,0.0167689826339483,0.000421544216806069,-0.0209683421999216,-0.0337589122354984,0.0383084900677204
448,0.000666983076371253,0.0183899495750666,0.000706601305864751,-0.0206302888691425,-0.0314461328089237,0.0412188693881035
449,0.00118167046457529,0.0204490572214127,0.00197123060934246,-0.0201767832040787,-0.0287940464913845,0.0460073500871658
450,0.00160573213361204,0.0230193585157394,0.00265422905795276,-0.0210486762225628,-0.0286008361726999,0.0512411259114742
451,0.000501187052577734,0.0251807831227779,0.00172237353399396,-0.0233638137578964,-0.0322827398777008,0.0554021820425987
452,-0.00151673157233745,0.025473777204752,0.000793920014984906,-0.0250305477529764,-0.0363419950008392,0.0576359629631042
453,-0.00241833063773811,0.0246427152305841,0.00153207266703248,-0.0236592963337898,-0.0374779142439365,0.0587559901177883
454,-0.00129731802735478,0.0243733450770378,0.00349560263566673,-0.0192568749189377,-0.0372388735413551,0.0596905872225761
455,0.000603006628807634,0.0246870759874582,0.00527627905830741,-0.0142648760229349,-0.038266196846962,0.0604675151407719
456,0.00228161527775228,0.025208592414856,0.00611516367644072,-0.0108550516888499,-0.0398942530155182,0.0616635270416737
457,0.0036761574447155,0.0254798531532288,0.00597325712442398,-0.0100250951945782,-0.0400613844394684,0.0628195255994797
458,0.00474449107423425,0.0246503241360188,0.0051232036203146,-0.0118618980050087,-0.0383475981652737,0.0622153393924236
459,0.00501500722020864,0.0231669209897518,0.00394953135401011,-0.0143469301983714,-0.0362698622047901,0.0608432665467262
460,0.00415157480165362,0.0225635338574648,0.00317530706524849,-0.0147625552490354,-0.0350609347224236,0.0611404366791248
461,0.00276531605049968,0.0232180207967758,0.0033319650683552,-0.0134718380868435,-0.0343111157417297,0.062406100332737
462,0.00121495057828724,0.0243459343910217,0.00359946279786527,-0.0128687359392643,-0.0346849896013737,0.0621111504733562
463,-0.000604400411248207,0.0253333654254675,0.00344795733690262,-0.0131957642734051,-0.037524189800024,0.0598145313560963
464,-0.00185092305764556,0.0263446550816298,0.00397290103137493,-0.0127308452501893,-0.0408612377941608,0.0576661080121994
465,-0.00157347496133298,0.0279800575226545,0.00549751194193959,-0.0110986502841115,-0.0420342534780502,0.0577361583709717
466,-0.000240175591898151,0.0294767413288355,0.0063884281553328,-0.0103107504546642,-0.0418805778026581,0.0590026564896107
467,0.00150618271436542,0.0299723651260138,0.00597763061523438,-0.0114473300054669,-0.0413895063102245,0.0596569031476974
468,0.0036145756021142,0.0305426865816116,0.00595898227766156,-0.0129352482035756,-0.0392861254513264,0.060133021324873
469,0.00560801336541772,0.0314800702035427,0.00740179372951388,-0.0139702297747135,-0.0346509665250778,0.0604776367545128
470,0.00693683559074998,0.0317013375461102,0.00918550789356232,-0.0153245637193322,-0.0288749225437641,0.0598354414105415
471,0.00705529469996691,0.0307685993611813,0.00921840034425259,-0.0171445347368717,-0.0253420248627663,0.0578870512545109
472,0.00554535305127501,0.0286130644381046,0.00671021547168493,-0.0189352575689554,-0.025886382907629,0.0543122626841068
473,0.00364695861935616,0.0256830733269453,0.00398654164746404,-0.0201191678643227,-0.0278876237571239,0.0495865531265736
474,0.00262083089910448,0.0230534374713898,0.00345446937717497,-0.0201038438826799,-0.0284334719181061,0.0453436262905598
475,0.00169867451768368,0.0214703120291233,0.00411424087360501,-0.0190588235855103,-0.0282775741070509,0.0426566228270531
476,0.00012107447400922,0.0211619213223457,0.00376440584659576,-0.0181780755519867,-0.0289409384131432,0.0411528497934341
477,-0.00164144858717918,0.0218204446136951,0.00213973759673536,-0.0181691348552704,-0.0302498694509268,0.0399859845638275
478,-0.00317105697467923,0.0227017626166344,7.72738058003597E-05,-0.018645728006959,-0.0317241698503494,0.0389876589179039
479,-0.00478843273594975,0.0230597965419292,-0.00229642470367253,-0.0195259898900986,-0.0335776545107365,0.0380769334733486
480,-0.00654510734602809,0.0226366780698299,-0.00463638314977288,-0.0211034696549177,-0.0361638367176056,0.0366107746958733
481,-0.00712760305032134,0.0220564622431993,-0.00539257423952222,-0.0227308552712202,-0.0383865498006344,0.0344386845827103
482,-0.00542843714356422,0.0217626877129078,-0.00393554801121354,-0.023600347340107,-0.0381399281322956,0.0320846885442734
483,-0.00271820183843374,0.021585613489151,-0.00146729254629463,-0.0229662973433733,-0.0361387729644775,0.0310619864612818
484,-0.00148742808960378,0.0216589346528053,0.00116481422446668,-0.0189948733896017,-0.0354316122829914,0.033929605036974
485,-0.00241781235672534,0.0218715202063322,0.00458436226472259,-0.0109286336228251,-0.0363674871623516,0.040908221155405
486,-0.00378234498202801,0.0211552064865828,0.00991628784686327,-0.00119552516844124,-0.0356334447860718,0.0483208447694778
487,-0.00383741920813918,0.0185684058815241,0.0163297802209854,0.00540362624451518,-0.0309238135814667,0.0511167086660862
488,-0.00228678830899298,0.0150258289650083,0.0205330960452557,0.00485204253345728,-0.0239916052669287,0.0462336130440235
489,-0.000104962797195185,0.0121004488319159,0.0195959601551294,-0.00252227764576674,-0.018553463742137,0.0350317060947418
490,0.00188052491284907,0.0101008405908942,0.0140186259523034,-0.0125357015058398,-0.016468895599246,0.0222087856382132
491,0.00381417456083,0.00869188085198402,0.00746555626392365,-0.020903043448925,-0.0163697768002748,0.011371205560863
492,0.00551351578906178,0.00681260041892529,0.00293502467684448,-0.0265123564749956,-0.0159900281578302,0.00174023071303964
493,0.00675466051325202,0.00319631048478186,0.000826339644845575,-0.0304931160062552,-0.0135180847719312,-0.00880855694413185
494,0.00809696968644857,-0.00127079908270389,0.000111343826574739,-0.0326462686061859,-0.00845721736550331,-0.0192183516919613
495,0.00992449466139078,-0.00415184767916799,-3.36947123287246E-05,-0.0314290970563889,-0.0029158410616219,-0.0271121077239513
496,0.0118778860196471,-0.00497385486960411,2.43890317506157E-05,-0.0273805297911167,0.0008751864079386,-0.0329367965459824
497,0.0129318553954363,-0.00543326139450073,-0.000169502425706014,-0.0227470248937607,0.00220355577766895,-0.0383462868630886
498,0.0125963538885117,-0.00666711991652846,-0.000347453082213178,-0.0181605387479067,0.00135464675258845,-0.0428968034684658
499,0.0122050549834967,-0.00867067184299231,0.000312247721012682,-0.0137158073484898,0.000257691455772147,-0.0462763383984566
500,0.0131971882656217,-0.0112510807812214,0.00182700122240931,-0.0104584032669663,0.00148786115460098,-0.0501572228968143
501,0.0149972569197416,-0.0144857801496983,0.00313936802558601,-0.00903525948524475,0.00536079751327634,-0.0559043437242508
502,0.0162631571292877,-0.0180350039154291,0.00198112474754453,-0.00955432094633579,0.00864192750304937,-0.0630401447415352
503,0.0168470647186041,-0.0203314311802387,-0.00261416891589761,-0.0106557831168175,0.00850785430520773,-0.0691085085272789
504,0.0169092696160078,-0.0212913695722818,-0.00845433864742517,-0.0108493017032743,0.00631111580878496,-0.0730728954076767
505,0.0162862800061703,-0.0229521654546261,-0.0127705493941903,-0.0108019337058067,0.0053357882425189,-0.0771532505750656
506,0.015304097905755,-0.0252821259200573,-0.0143980178982019,-0.010577505454421,0.00677066156640649,-0.0820231288671494
507,0.0143355699256063,-0.0270116813480854,-0.0140915019437671,-0.00922155752778053,0.0086101358756423,-0.0866082608699799
508,0.0135115552693605,-0.0280874073505402,-0.0126569336280227,-0.00621437188237906,0.00937215145677328,-0.0902831852436066
509,0.013054165057838,-0.028873510658741,-0.010260907933116,-0.00238327705301344,0.010383534245193,-0.0932503789663315
510,0.0126772513613105,-0.0305131580680609,-0.00823808275163174,-0.000283197936369106,0.0123245362192392,-0.0974411889910698
511,0.0119150979444385,-0.0337848775088787,-0.0079398499801755,-0.000489302037749439,0.014117281883955,-0.103178255259991
512,0.0112602673470974,-0.0374012999236584,-0.00886626355350018,-0.000941341393627226,0.0150927025824785,-0.107864640653133
513,0.0113571444526315,-0.0398013293743134,-0.00964605156332254,-0.000301758554996923,0.0155385043472052,-0.10991346091032
514,0.012100568972528,-0.0409898348152637,-0.00957909505814314,0.0016827272484079,0.0168042723089457,-0.110219351947308
515,0.0133333504199982,-0.0416688956320286,-0.0087980879470706,0.00493330368772149,0.0201903581619263,-0.110494613647461
516,0.0149576552212238,-0.0423450618982315,-0.00731325894594193,0.00866926740854979,0.0250872001051903,-0.111847147345543
517,0.0169621873646975,-0.0432901494204998,-0.00528606399893761,0.0113306967541575,0.0296529531478882,-0.114711716771126
518,0.0190483313053846,-0.0438296087086201,-0.00387491076253355,0.0124771986156702,0.0322726517915726,-0.118093699216843
519,0.0198031831532717,-0.0435019470751286,-0.00401551043614745,0.0134320370852947,0.032449759542942,-0.120114795863628
520,0.0186363533139229,-0.0431340299546719,-0.00523783266544342,0.0145728243514895,0.0309128444641829,-0.12099926173687
521,0.0170061085373163,-0.0433248244225979,-0.00618763919919729,0.0153175573796034,0.0294313598424196,-0.122350759804249
522,0.0169546995311975,-0.0436010994017124,-0.00494032399728894,0.016625901684165,0.0305858831852674,-0.123947262763977
523,0.0187345519661903,-0.0437598079442978,-0.00154557486530393,0.0188416671007872,0.0343485809862614,-0.124975778162479
524,0.0204613842070103,-0.0449573881924152,0.00068962323712185,0.0191834531724453,0.0377758257091045,-0.126614332199097
525,0.0210275705903769,-0.0475016497075558,-0.000117283052532002,0.0165819339454174,0.0393970347940922,-0.129477545619011
526,0.0205989610403776,-0.0500356666743755,-0.002322006970644,0.0140050780028105,0.0395179577171803,-0.132181867957115
527,0.0196883529424667,-0.0520542524755001,-0.00405940879136324,0.0127409435808659,0.0388373769819736,-0.134899169206619
528,0.0191248301416636,-0.0538206957280636,-0.0051413900218904,0.0111731262877584,0.0385603941977024,-0.138692542910576
529,0.0190622676163912,-0.0551630519330502,-0.00559948105365038,0.00927103869616985,0.0394172817468643,-0.142342790961266
530,0.0195055082440376,-0.0556992739439011,-0.00432764738798141,0.00919041875749826,0.0416138730943203,-0.143679022789001
531,0.0208293572068214,-0.0548764429986477,-0.000691250781528652,0.0121188201010227,0.0449309088289738,-0.141780331730843
532,0.0222549755126238,-0.0535702109336853,0.00332671171054244,0.0159128420054913,0.0478033907711506,-0.138437628746033
533,0.0226643178611994,-0.0533905066549778,0.00517905363813043,0.0176587533205748,0.0488155893981457,-0.135826244950294
534,0.0220561884343624,-0.0536197796463966,0.00447820266708732,0.017371254041791,0.0478370636701584,-0.132984057068825
535,0.0209871418774128,-0.0528223551809788,0.00283651240170002,0.016734691336751,0.0458802096545696,-0.12859570980072
536,0.0203561075031757,-0.0511586330831051,0.00260868133045733,0.0165367778390646,0.0444855056703091,-0.1236861795187
537,0.0205560717731714,-0.0500399880111218,0.00392361357808113,0.0154837388545275,0.0439960211515427,-0.120590090751648
538,0.0206107702106237,-0.049751553684473,0.00512628350406885,0.0131462281569839,0.0438586659729481,-0.11976832896471
539,0.0192000549286604,-0.0482639893889427,0.00604630168527365,0.0122454902157187,0.0426788628101349,-0.118336655199528
540,0.0157890785485506,-0.0450821369886398,0.00704651232808828,0.0141634168103337,0.0389657765626907,-0.114820152521133
541,0.0113247372210026,-0.042308833450079,0.00803944654762745,0.0170562472194433,0.0342560708522797,-0.111267410218716
542,0.00793222710490227,-0.0410635508596897,0.00877359788864851,0.0183504428714514,0.0315462090075016,-0.109533056616783
543,0.00724285980686545,-0.0407331585884094,0.0088128000497818,0.0171173810958862,0.0317710563540459,-0.109446167945862
544,0.00887517631053925,-0.0411052256822586,0.00830876175314188,0.0148223424330354,0.0338545218110085,-0.110462866723537
545,0.0107779745012522,-0.0424031168222427,0.00743692275136709,0.0128575973212719,0.0357637070119381,-0.112581886351109
546,0.011572097428143,-0.0438671372830868,0.00612074974924326,0.0113693671301007,0.0360166281461716,-0.114629097282887
547,0.011539040133357,-0.044591661542654,0.00505194580182433,0.0106758419424295,0.0352997630834579,-0.1139135658741
548,0.0113562233746052,-0.0440533459186554,0.00496036885306239,0.0116666322574019,0.0353427417576313,-0.108177691698074
549,0.0110712870955467,-0.0418994463980198,0.00561415450647473,0.0143694104626775,0.0360217168927193,-0.0972642973065376
550,0.0101844640448689,-0.0383424982428551,0.00667077908292413,0.0178029276430607,0.0356471501290798,-0.0833970308303833
551,0.00810819491744041,-0.0345402210950851,0.00748067209497094,0.0200273282825947,0.0330680124461651,-0.0709512457251549
552,0.00561086740344763,-0.0312461443245411,0.00762574793770909,0.0195366255939007,0.0292739495635033,-0.0632720366120338
553,0.00451082270592451,-0.0281221680343151,0.00784351676702499,0.017494210973382,0.026826124638319,-0.0592830516397953
554,0.00522395549342036,-0.0255787391215563,0.00852985493838787,0.0159771759063005,0.0268841944634914,-0.0560100674629211
555,0.00689019076526165,-0.0239634085446596,0.00956497807055712,0.0162917114794254,0.028641615062952,-0.051994550973177
556,0.00785042345523834,-0.0232991278171539,0.00954343006014824,0.0176020115613937,0.0295847691595554,-0.0487701594829559
557,0.0072629339993,-0.0233422499150038,0.00732197426259518,0.0183837711811066,0.0282807163894176,-0.047746405005455
558,0.00679489644244313,-0.0225244462490082,0.0049169659614563,0.019430985674262,0.0269437674432993,-0.0469705164432526
559,0.00795096717774868,-0.020102160051465,0.00434260070323944,0.0211425479501486,0.0270288325846195,-0.0449186526238918
560,0.0107174105942249,-0.0175698660314083,0.00567080918699503,0.0217764377593994,0.0284950267523527,-0.0432577654719353
561,0.0139018809422851,-0.0164866372942925,0.00810554530471563,0.0210332125425339,0.0317207016050816,-0.0431535542011261
562,0.0156462080776691,-0.0161737836897373,0.0105871371924877,0.0210853982716799,0.0355306677520275,-0.0422837734222412
563,0.0152880502864718,-0.0149542978033423,0.0123369647189975,0.0228897277265787,0.037884097546339,-0.0385024584829807
564,0.0135527057573199,-0.0122708352282643,0.0130285276100039,0.0256200116127729,0.0378599427640438,-0.0322971232235432
565,0.0111004672944546,-0.00920485146343708,0.0127807501703501,0.0278211589902639,0.0358256623148918,-0.0263392254710197
566,0.00821602344512939,-0.00724838627502322,0.0119612980633974,0.0281133353710175,0.0334961526095867,-0.0236585568636656
567,0.0059323888272047,-0.00634565390646458,0.0116892466321588,0.0273586269468069,0.0335792787373066,-0.0233761183917522
568,0.00502413744106889,-0.00597384385764599,0.012749538756907,0.0271911006420851,0.0367328077554703,-0.022387657314539
569,0.004953658208251,-0.00587878609076142,0.0139096397906542,0.0274638365954161,0.0397013388574123,-0.0197563245892525
570,0.00496186036616564,-0.00554549787193537,0.01346346270293,0.0271784383803606,0.0391938351094723,-0.0164564196020365
571,0.00468920497223735,-0.00474581494927406,0.0115454355254769,0.0259537119418383,0.03552520647645,-0.0134102003648877
572,0.00454844208434224,-0.00353524810634553,0.00985355209559202,0.0242252703756094,0.0314337834715843,-0.0107756201177835
573,0.00527645694091916,-0.00165404041763395,0.0101677207276225,0.0231680683791637,0.0294745154678822,-0.00781756080687046
574,0.00637367507442832,0.00083058257587254,0.0126646617427468,0.0234655737876892,0.0294368881732225,-0.0039326106198132
575,0.00641764421015978,0.0021654695738107,0.0154630485922098,0.0234676823019981,0.0287501662969589,-0.00141395768150687
576,0.00508331833407283,0.00125494424719363,0.0167319681495428,0.0214700158685446,0.0263454020023346,-0.0028844615444541
577,0.00323278713040054,-0.00010232761997031,0.0161685422062874,0.0187367256730795,0.0229484830051661,-0.00636856118217111
578,0.00130240491125733,-0.000522060319781303,0.0142541015520692,0.0170616880059242,0.0189073234796524,-0.008098429068923
579,-0.000654742587357759,-0.000778238987550139,0.011424770578742,0.0159542895853519,0.0148008726537228,-0.00732237147167325
580,-0.00215638452209532,-0.000864137778989971,0.00779916532337666,0.0140742529183626,0.0114312935620546,-0.00557134440168738
581,-0.00268185720779002,0.000434995716204867,0.00367232784628868,0.0111393546685576,0.00887317210435867,-0.0043463921174407
582,-0.00227175536565483,0.00273699010722339,0.000741435622330755,0.00832366570830345,0.00767610408365726,-0.00451541040092707
583,-0.00178280856925994,0.00445117242634296,0.000664592662360519,0.00772526394575834,0.00914279650896788,-0.00492547126486897
584,-0.00182039756327868,0.00535772973671556,0.00284810666926205,0.0100632272660732,0.0132608525454998,-0.00361159862950444
585,-0.00270301243290305,0.00612799217924476,0.00516902189701796,0.0132383108139038,0.0172615498304367,-0.000808774202596396
586,-0.00427612848579884,0.00734692206606269,0.00636319303885102,0.0152347758412361,0.0182740092277527,0.0027792330365628
587,-0.00494779087603092,0.00925889518111944,0.00709806149825454,0.0163209605962038,0.0164617281407118,0.00704185850918293
588,-0.00399930542334914,0.01129234675318,0.00850037392228842,0.0177592299878597,0.0139750503003597,0.0114387422800064
589,-0.00280599785037339,0.0126670422032475,0.00980469305068254,0.0196313466876745,0.0115087321028113,0.014601057395339
590,-0.00218999315984547,0.0132862012833357,0.00900248065590858,0.0200912375003099,0.00836566183716059,0.0151924146339297
591,-0.00123836740385741,0.0139582371339202,0.00654564844444394,0.0184226054698229,0.00615008780732751,0.0143242347985506
592,9.0476285549812E-05,0.0149054899811745,0.00409646658226848,0.0158152673393488,0.00662678387016058,0.0142316706478596
593,0.000775695370975882,0.0160730928182602,0.00202060560695827,0.0137627013027668,0.00805942062288523,0.0166255030781031
594,0.000623479252681136,0.0181809701025486,0.000548157491721213,0.0137539459392428,0.00815289095044136,0.0224725585430861
595,-0.000579544459469616,0.0204687844961882,-0.000399434211431071,0.0153681188821793,0.00742486864328384,0.0298911929130554
596,-0.00254612974822521,0.0214616414159536,-0.000725079444237053,0.0169195551425219,0.00789817050099373,0.0355717428028584
597,-0.0043116738088429,0.0210277251899242,8.98026119102724E-05,0.0172754507511854,0.00950596667826176,0.0376334525644779
598,-0.00541659817099571,0.0198836140334606,0.0017343305516988,0.0161911342293024,0.0105149950832129,0.0362153612077236
599,-0.00577338924631476,0.0192660558968782,0.00319926929660141,0.0147352442145348,0.010393138974905,0.0334002859890461
600,-0.00637471443042159,0.01902867667377,0.00326304510235786,0.0131183322519064,0.00969915185123682,0.0304376389831305
601,-0.00780098419636488,0.0183575581759214,0.00189099891576916,0.0106934914365411,0.0094610508531332,0.0272170193493366
602,-0.0091713247820735,0.0178514830768108,0.00039317985647358,0.00817898660898209,0.00980781484395266,0.0248206183314323
603,-0.0105353929102421,0.0177561938762665,-0.000549739052075893,0.00642842799425125,0.00931012723594904,0.0246549732983112
604,-0.0125214913859963,0.0177166666835546,-0.00101173750590533,0.00542920036241412,0.00683095818385482,0.0268205255270004
605,-0.0148510988801718,0.0179784912616014,-0.000809516524896026,0.00573755940422416,0.00218392442911863,0.0311501193791628
606,-0.016924612224102,0.0183943565934896,0.00019748775230255,0.00760838761925697,-0.00353489746339619,0.0370282307267189
607,-0.0182160940021276,0.017877446487546,0.00120888091623783,0.00908007565885782,-0.00813048612326384,0.0415816269814968
608,-0.0183517280966043,0.0162770804017782,0.0012838615803048,0.00901163090020418,-0.0105396006256342,0.0425851009786129
609,-0.0176789220422506,0.0148537773638964,0.000433188717579469,0.00847949646413326,-0.0112321488559246,0.041138581931591
610,-0.0166394170373678,0.0146218901500106,-0.000269522628514096,0.00835477840155363,-0.00997552275657654,0.0392425060272217
611,-0.0149830635637045,0.0159005932509899,0.00029275834094733,0.00911363586783409,-0.00616944720968604,0.0385751314461231
612,-0.0126608870923519,0.0186829529702663,0.002178167225793,0.0107242297381163,-0.00066901498939842,0.0400974042713642
613,-0.0101222386583686,0.022600319236517,0.00516989454627037,0.0126193538308144,0.00417229393497109,0.0432179309427738
614,-0.00824270118027925,0.0260027348995209,0.00846196059137583,0.0138145005330443,0.0058400989510119,0.0458791442215443
615,-0.00805603247135878,0.0267389100044966,0.0102626718580723,0.0133073078468442,0.00345929432660341,0.0463153310120106
616,-0.00943682342767715,0.0249044559895992,0.00972218438982964,0.0116587691009045,-0.0018543106270954,0.0452050939202309
617,-0.0117385378107429,0.0217455122619867,0.00707230484113097,0.00929388869553804,-0.00874977186322212,0.0431732758879662
618,-0.0139786591753364,0.0186129882931709,0.00330324028618634,0.0064867939800024,-0.0161551777273417,0.0405237786471844
619,-0.0141211906448007,0.0175679642707109,0.00090906344121322,0.00529475184157491,-0.0212483238428831,0.0402515791356564
620,-0.0118625126779079,0.0185894034802914,0.00120652304030955,0.00592766283079982,-0.0212784614413977,0.0439991466701031
621,-0.00916558131575584,0.0198958851397038,0.00290250685065985,0.00651159463450313,-0.0163676310330629,0.0494551658630371
622,-0.00723219802603126,0.0215171724557877,0.00456356815993786,0.00656236475333571,-0.00883123558014631,0.0539403781294823
623,-0.00652923947200179,0.0234302412718534,0.00447998847812414,0.00530842877924442,-0.00264785042963922,0.0555369555950165
624,-0.00736980326473713,0.0240459479391575,0.00109711266122758,0.00178107863757759,-0.00102899502962828,0.0540881790220737
625,-0.00893126893788576,0.0233844015747309,-0.00383821432478726,-0.00223128567449749,-0.00343590462580323,0.0519077479839325
626,-0.0101258410140872,0.0224579442292452,-0.00726679526269436,-0.00488961953669786,-0.00641850987449288,0.0499740839004517
627,-0.010394548997283,0.0216438639909029,-0.0083089442923665,-0.00631472654640675,-0.00696127535775304,0.0475729331374168
628,-0.0100546171888709,0.0211743507534266,-0.00704205175861716,-0.00641849217936397,-0.00474233971908689,0.044808566570282
629,-0.00999633595347404,0.0205216687172651,-0.0044513326138258,-0.00577642628923059,-0.00199236324988306,0.0415891073644161
630,-0.0103413425385952,0.0189199820160866,-0.0031380164436996,-0.00618107803165913,-0.00200818525627255,0.0376585498452187
631,-0.0111370626837015,0.0167520772665739,-0.0045475740917027,-0.0081380233168602,-0.00616445671766996,0.0343308076262474
632,-0.0116785606369376,0.0153130972757936,-0.00664307083934546,-0.0103874765336514,-0.0110371252521873,0.0335839278995991
633,-0.010669581592083,0.0151998363435268,-0.00701634213328362,-0.0115268127992749,-0.0128487758338451,0.0355295613408089
634,-0.009163455106318,0.0160110909491777,-0.00677046505734324,-0.0113337123766541,-0.013272256590426,0.0386407785117626
635,-0.0091853141784668,0.0168329365551472,-0.00792364217340946,-0.0113117629662156,-0.0149066327139735,0.0410145781934261
636,-0.0107224555686116,0.0168362334370613,-0.00966096017509699,-0.012282052077353,-0.0172321237623692,0.0414751842617989
637,-0.012328845448792,0.0160999242216349,-0.010049750097096,-0.0134053090587258,-0.01876918412745,0.0406085401773453
638,-0.0132436286658049,0.0151530746370554,-0.00889934785664082,-0.0145124541595578,-0.018979512155056,0.0397233441472054
639,-0.0132577270269394,0.0146710425615311,-0.00668383250012994,-0.0155702410265803,-0.0178561136126518,0.0398298539221287
640,-0.0119320265948772,0.0152431335300207,-0.00358839822001755,-0.0160025116056204,-0.0155604621395469,0.041384894400835
641,-0.00971394032239914,0.0168038047850132,-0.000360520731192082,-0.015458813868463,-0.0136214774101973,0.0445514544844627
642,-0.00758595811203122,0.0189244076609612,0.0025678554084152,-0.0139394300058484,-0.012938923202455,0.0490639135241508
643,-0.00609809719026089,0.0209331065416336,0.0050492100417614,-0.01242954749614,-0.0130147403106093,0.0533120110630989
644,-0.00580989103764296,0.0218412410467863,0.00591021263971925,-0.0124527169391513,-0.0147858345881104,0.0550780147314072
645,-0.00730020832270384,0.0209965892136097,0.00481960503384471,-0.0142957959324121,-0.0199122503399849,0.0535901784896851
646,-0.0103369923308492,0.0188510157167912,0.00321513111703098,-0.0169330146163702,-0.0281338952481747,0.0503003336489201
647,-0.013459493406117,0.0166043732315302,0.00151432934217155,-0.0191887114197016,-0.0360937975347042,0.0474225804209709
648,-0.0151159344241023,0.0153866605833173,-0.000960713427048177,-0.019986629486084,-0.0392013937234879,0.0465910546481609
649,-0.0148137537762523,0.0156012354418635,-0.00373507454060018,-0.0189595222473145,-0.0358775965869427,0.0482583716511726
650,-0.0137937106192112,0.0159624423831701,-0.00619415519759059,-0.0178354326635599,-0.0290518663823605,0.0502470731735229
651,-0.01341169513762,0.0150949247181416,-0.00819298718124628,-0.0185830276459455,-0.0224470049142838,0.0496147237718105
652,-0.0128210596740246,0.0138515513390303,-0.00828364863991737,-0.0198914688080549,-0.0165460091084242,0.0471643134951591
653,-0.0110805509611964,0.0136369075626135,-0.00548638729378581,-0.0195788759738207,-0.0107958354055882,0.0458749458193779
654,-0.00878110621124506,0.0147729683667421,-0.00113236997276545,-0.0178243517875671,-0.00621526269242167,0.0467144474387169
655,-0.00703423609957099,0.0166867896914482,0.00230259378440678,-0.016103932633996,-0.00409666867926717,0.0488116517663002
656,-0.0062908991239965,0.0184644982218742,0.00320789241231978,-0.0155464028939605,-0.00448137847706676,0.0516812466084957
657,-0.00615621637552977,0.0198604669421911,0.0027160479221493,-0.0154460985213518,-0.00646709650754929,0.0558591671288013
658,-0.00663909642025828,0.0210598558187485,0.00280193868093193,-0.0143351852893829,-0.00952578708529472,0.0609667301177979
659,-0.00757102621719241,0.021869208663702,0.00367392972111702,-0.0123341046273708,-0.012168362736702,0.0651455223560333
660,-0.00769375870004296,0.0222993195056915,0.00479788100346923,-0.0104088112711906,-0.0125360786914825,0.067312940955162
661,-0.0067079933360219,0.0223221201449633,0.00555184576660395,-0.00970590393990278,-0.0117552578449249,0.0671181455254555
662,-0.00593673717230558,0.0207949057221413,0.00540378363803029,-0.0116569483652711,-0.0115712769329548,0.0634584575891495
663,-0.00645485520362854,0.0171700045466423,0.00421716459095478,-0.0161222480237484,-0.0125209735706449,0.0564514510333538
664,-0.00828069541603327,0.0128963263705373,0.00223299139179289,-0.020735701546073,-0.0155843887478113,0.0486405752599239
665,-0.0106915570795536,0.0093239052221179,0.000444816221715882,-0.023455424234271,-0.0206734705716372,0.0426466166973114
666,-0.0126379253342748,0.00698535237461329,-0.000732757616788149,-0.0240744967013597,-0.0256469957530499,0.0403145141899586
667,-0.0132700074464083,0.00668639177456498,-0.00164838926866651,-0.0228501819074154,-0.0283887926489115,0.0426573604345322
668,-0.0124405361711979,0.0092089157551527,-0.00184878322761506,-0.0194088518619537,-0.0286758523434401,0.0491606332361698
669,-0.00992115493863821,0.0141829960048199,-0.00103438145015389,-0.0142144812270999,-0.0269024260342121,0.0573043935000896
670,-0.00673501286655664,0.0185435023158789,-0.000810179277323186,-0.0103430040180683,-0.0237674247473478,0.062382098287344
671,-0.00542018143460155,0.0191281698644161,-0.00235088053159416,-0.0101151494309306,-0.0213050469756126,0.0619590505957603
672,-0.00671497173607349,0.0163229741156101,-0.00488071655854583,-0.0126910051330924,-0.0214816965162754,0.0584387183189392
673,-0.00895767565816641,0.0134531920775771,-0.00716236140578985,-0.0158269293606281,-0.0235942434519529,0.0554397962987423
674,-0.0104145258665085,0.013115125708282,-0.00751702068373561,-0.0173073150217533,-0.0244793444871902,0.0543761849403381
675,-0.0106640458106995,0.0138925546780229,-0.00538191525265574,-0.0176123678684235,-0.0225982666015625,0.0528845563530922
676,-0.00952905230224133,0.01412583142519,-0.00244918279349804,-0.0184147451072931,-0.0193185210227966,0.0492767505347729
677,-0.00778476288542151,0.0146763222292066,-0.0006248087156564,-0.0191271025687456,-0.0176952220499516,0.0461212918162346
678,-0.00745157990604639,0.015703147277236,-0.000876557489391416,-0.0192618854343891,-0.0201007109135389,0.0451087839901447
679,-0.00886750873178244,0.0161630231887102,-0.0028644057456404,-0.0197039376944304,-0.0245046764612198,0.0446721240878105
680,-0.0105627132579684,0.0160333793610334,-0.00485465070232749,-0.0202748719602823,-0.0267236456274986,0.0444571115076542
681,-0.0112493010237813,0.0161465220153332,-0.00548190111294389,-0.0203960668295622,-0.0258691646158695,0.0454414635896683
682,-0.010797381401062,0.0166602954268456,-0.00530489580705762,-0.0204937700182199,-0.0241073723882437,0.0471653081476688
683,-0.0100759426131845,0.0172724053263664,-0.00535608688369393,-0.0203155465424061,-0.0227130223065615,0.0489864684641361
684,-0.00955022685229778,0.0177199803292751,-0.00530613632872701,-0.0193592999130487,-0.0212597027420998,0.0502934828400612
685,-0.00897457636892796,0.0175314098596573,-0.00456068944185972,-0.0185449719429016,-0.0198806449770927,0.0498790256679058
686,-0.00864843372255564,0.0163324791938066,-0.00364707107655704,-0.0187933295965195,-0.0199046451598406,0.0477567128837109
687,-0.00896800681948662,0.0144588826224208,-0.00308893178589642,-0.0195599347352982,-0.0212995167821646,0.0453461334109306
688,-0.00934237521141768,0.0130274184048176,-0.00229852134361863,-0.0195030923932791,-0.0221619233489037,0.0439863689243793
689,-0.00972063932567835,0.0125124156475067,-0.00139487686101347,-0.0187220722436905,-0.0223363097757101,0.0440749488770962
690,-0.0103076510131359,0.0120526412501931,-0.001959492219612,-0.0191963948309422,-0.0226396098732948,0.0447393581271172
691,-0.0100272810086608,0.0118467332795262,-0.00417721131816506,-0.0213259179145098,-0.0225276630371809,0.0457288846373558
692,-0.0085179852321744,0.01260822173208,-0.00670371158048511,-0.0235891751945019,-0.0224764905869961,0.0476921088993549
693,-0.00694488687440753,0.013131083920598,-0.00876111257821321,-0.0253198612481356,-0.0239567365497351,0.0499032437801361
694,-0.00543567584827542,0.0131218088790774,-0.00904430449008942,-0.0256833042949438,-0.0258122012019157,0.0515986457467079
695,-0.00354322791099548,0.0141828218474984,-0.00688550435006619,-0.0235881023108959,-0.026011785492301,0.0532760918140411
696,-0.00227435678243637,0.0159547720104456,-0.0041350950486958,-0.019974309951067,-0.0244655385613441,0.0545513369143009
697,-0.00249280198477209,0.0169799216091633,-0.00228039477951825,-0.016168512403965,-0.0217177458107471,0.0549212656915188
698,-0.00352350459434092,0.0176737625151873,-0.00110878807026893,-0.0123588908463717,-0.018859751522541,0.0553215444087982
699,-0.0038377377204597,0.0187489837408066,0.000307595386402681,-0.00914519932121038,-0.0163687914609909,0.0562766492366791
700,-0.00304315215907991,0.0194196924567223,0.00213000038638711,-0.00795737188309431,-0.0144636742770672,0.0568255744874477
701,-0.00273305969312787,0.0186317544430494,0.00283550610765815,-0.00951927714049816,-0.0146994879469275,0.0559401027858257
702,-0.00351057946681976,0.0171676110476255,0.00186925753951073,-0.0120824091136456,-0.0167620573192835,0.0546649508178234
703,-0.00378153100609779,0.0165725294500589,0.00079541391460225,-0.0135276587679982,-0.018032118678093,0.0542623102664948
704,-0.00347329210489988,0.016121419146657,0.000438718794612214,-0.014296930283308,-0.0179712940007448,0.0531893633306026
705,-0.004022893961519,0.0146816782653332,0.000736229587346315,-0.0148644158616662,-0.0173794291913509,0.0503602027893066
706,-0.00495089497417212,0.0133218094706535,0.00173366954550147,-0.0147953145205975,-0.0161412935703993,0.0471498556435108
707,-0.00526776723563671,0.0134229334071279,0.00267668138258159,-0.0143214734271169,-0.0151462852954865,0.045032911002636
708,-0.00466479966416955,0.0150598511099815,0.00309030595235527,-0.0136072915047407,-0.0153296161442995,0.044396098703146
709,-0.00309595046564937,0.0172052010893822,0.00353047554381192,-0.0124797243624926,-0.0158829316496849,0.0450436063110828
710,-0.00210165651515126,0.0182979684323072,0.00403661886230111,-0.0111032892018557,-0.0169938765466213,0.0467232689261436
711,-0.00279843737371266,0.0175629053264856,0.00407735630869865,-0.00998177099972963,-0.0193552114069462,0.0484719201922417
712,-0.00422846572473645,0.0158549658954144,0.00400158343836665,-0.00893211457878351,-0.0210604518651962,0.0492450185120106
713,-0.00560975540429354,0.0146051486954093,0.00407414464280009,-0.00765477074310184,-0.0207571368664503,0.0486640185117722
714,-0.00620157783851027,0.0147242173552513,0.0033759034704417,-0.0066617731936276,-0.0194740574806929,0.0469189025461674
715,-0.00537673104554415,0.0156882777810097,0.00143466610461473,-0.00664247712120414,-0.0178325492888689,0.044506348669529
716,-0.00415182765573263,0.0159630738198757,-0.000681080971844494,-0.00778094260022044,-0.0160841979086399,0.0418558418750763
717,-0.00404649134725332,0.0148385958746076,-0.00127031945157796,-0.00926190428435802,-0.0150455264374614,0.039158258587122
718,-0.00548721756786108,0.012406874448061,-0.000211145757930353,-0.0104195699095726,-0.0158971790224314,0.0359236933290958
719,-0.00762405386194587,0.00951716862618923,0.000946204178035259,-0.0114870294928551,-0.0191285684704781,0.0326310023665428
720,-0.00907969009131193,0.0081541845574975,0.00167748855892569,-0.0118642067536712,-0.0231909528374672,0.0318521000444889
721,-0.00874727871268988,0.00956331379711628,0.00282130087725818,-0.0102768521755934,-0.0248602461069822,0.0352798476815224
722,-0.00700138555839658,0.0125524243339896,0.00451503973454237,-0.00741275353357196,-0.0226638969033957,0.0409574955701828
723,-0.00506780901923776,0.01525520067662,0.00614435644820333,-0.00527551490813494,-0.0191487558186054,0.045453816652298
724,-0.00315987458452582,0.0169414319097996,0.00699338270351291,-0.004903060849756,-0.0168972201645374,0.0473172850906849
725,-0.00164489087183028,0.0171835627406836,0.00583818927407265,-0.00648319674655795,-0.0157915912568569,0.0465980507433414
726,-0.0006741764373146,0.0167441591620445,0.00307697127573192,-0.00817670207470655,-0.0149157661944628,0.0451812073588371
727,0.000136483111418784,0.0170916188508272,0.000856133527122438,-0.00735551211982965,-0.0144987916573882,0.0460729263722897
728,0.000731570180505514,0.0176318325102329,-1.61663847393356E-05,-0.00477366428822279,-0.0146994218230248,0.0489654019474983
729,0.00135116302408278,0.0172799658030272,9.79523829300888E-05,-0.0032818173058331,-0.0144799472764134,0.0508141629397869
730,0.00165362539701164,0.0161549635231495,0.00060552783543244,-0.00444943783804774,-0.0137957381084561,0.0496699623763561
731,0.000944920582696795,0.0141803771257401,0.0010463276412338,-0.00801731087267399,-0.0130307655781507,0.0451807789504528
732,-0.000911502749659121,0.0109874084591866,0.00138106476515532,-0.0129460375756025,-0.0120822126045823,0.0380804240703583
733,-0.00375552685000002,0.00761015992611647,0.0019857850857079,-0.017578236758709,-0.0113470572978258,0.0309945717453957
734,-0.00593229802325368,0.00595449702814221,0.00368457427248359,-0.0198722947388887,-0.0107292532920837,0.0270836018025875
735,-0.00563561078161001,0.00656580273061991,0.00654651736840606,-0.0193623416125774,-0.0102864168584347,0.0272269565612078
736,-0.00371630326844752,0.00886719580739737,0.00890680029988289,-0.0174221806228161,-0.0118758706375957,0.0305382423102856
737,-0.00215560360811651,0.0117885237559676,0.00860674306750298,-0.0160330161452293,-0.0165436007082462,0.034689761698246
738,-0.00152421579696238,0.0140249822288752,0.00582799641415477,-0.0157738737761974,-0.0222455970942974,0.0370377153158188
739,-0.0013214583741501,0.0148602072149515,0.00310274353250861,-0.0156292859464884,-0.0269144605845213,0.0368636809289455
740,-0.00122317206114531,0.013908906839788,0.00232483888976276,-0.0153672602027655,-0.029970096424222,0.0344111062586308
741,-0.0014305436052382,0.0116720106452703,0.00287220091558993,-0.0157497655600309,-0.0311094671487808,0.0305909421294928
742,-0.00177814264316112,0.0100444005802274,0.00265457574278116,-0.0173064824193716,-0.0309189856052399,0.0271549858152866
743,-0.00155058526434004,0.0103516206145287,0.00139764440245926,-0.0189463850110769,-0.0305570010095835,0.0260196123272181
744,-0.00106684281490743,0.0115946223959327,0.000323038810165599,-0.0192248150706291,-0.0302198138087988,0.0273319017142057
745,-0.000963861530181021,0.012275118380785,-0.000150795909576118,-0.0187664795666933,-0.0285237226635218,0.0282034408301115
746,-0.00121569877956063,0.0125298360362649,-0.000368536508176476,-0.0186329837888479,-0.0251348074525595,0.0269532781094313
747,-0.00167789414990693,0.0129916360601783,-0.00045550602953881,-0.0182729456573725,-0.0213260482996702,0.0256364233791828
748,-0.00188948400318623,0.0136928698047996,0.000264564790995792,-0.01669498719275,-0.0174997337162495,0.026019724085927
749,-0.00189230986870825,0.0143345752730966,0.00133122666738927,-0.0148155130445957,-0.0147883892059326,0.0269924346357584
750,-0.00198686821386218,0.0146600157022476,0.00132697448134422,-0.0146657209843397,-0.0145784756168723,0.0264644324779511
751,-0.00188300875015557,0.0142115373164415,0.000512014550622553,-0.0168704725801945,-0.0153420278802514,0.0230430830270052
752,-0.00137065153103322,0.0128413503989577,9.11100942175835E-05,-0.0201448071748018,-0.0146612748503685,0.0177839957177639
753,-0.00118118443060666,0.011255738325417,-0.000131167093059048,-0.0226661413908005,-0.0137957893311977,0.0142032159492373
754,-0.00260277627967298,0.0101454192772508,-0.000836279592476785,-0.0229957029223442,-0.0159105472266674,0.0150323258712888
755,-0.00523427734151483,0.0103938933461905,-0.000372329086530954,-0.0189595874398947,-0.0202704053372145,0.0216129440814257
756,-0.00769232865422964,0.0116255665197968,0.0030339143704623,-0.0101210558786988,-0.0235537625849247,0.0320652835071087
757,-0.00936785247176886,0.0112084476277232,0.00836147740483284,-0.000979193486273289,-0.0234040357172489,0.0392176285386086
758,-0.00916190631687641,0.0076472838409245,0.0137395430356264,0.00305436481721699,-0.0184550415724516,0.0367203056812286
759,-0.0064958930015564,0.00193128373939544,0.0171308964490891,0.000153207569383085,-0.0100925248116255,0.0249904729425907
760,-0.00274914293549955,-0.00380805414170027,0.0160562302917242,-0.0081794885918498,-0.00291785108856857,0.00904581323266029
761,0.000310285860905424,-0.00787279102951288,0.0103339226916432,-0.0182472914457321,-0.00046289965393953,-0.00626116758212447
762,0.00206469721160829,-0.00991301517933607,0.00357968942262232,-0.0253277793526649,-0.00166322267614305,-0.0184775311499834
763,0.00361696863546968,-0.0105904303491116,-0.000939035613555461,-0.0278672557324171,-0.00235116225667298,-0.0281507391482592
764,0.00604441249743104,-0.0113629410043359,-0.00381794618442655,-0.0289821680635214,-0.000171441584825516,-0.0373824723064899
765,0.00914324540644884,-0.0130761256441474,-0.00556241674348712,-0.0302079003304243,0.00370744033716619,-0.046955943107605
766,0.0120782293379307,-0.015799093991518,-0.00496393581852317,-0.0295407231897116,0.00754641788080335,-0.0565776862204075
767,0.0131889646872878,-0.0196700692176819,-0.00408044923096895,-0.0273631177842617,0.00927790720015764,-0.0663172081112862
768,0.0117380134761333,-0.0234042108058929,-0.00666659837588668,-0.0267422925680876,0.0062640868127346,-0.075444869697094
769,0.00933457631617785,-0.0251948554068804,-0.0118280285969377,-0.0272757932543755,-0.000472021929454058,-0.081478551030159
770,0.00763966562226415,-0.0260993838310242,-0.015317247249186,-0.0257600378245115,-0.00529206404462457,-0.0834316164255142
771,0.00718013849109411,-0.0288830734789371,-0.0157638285309076,-0.0226782970130444,-0.00381632335484028,-0.0849876403808594
772,0.00871452689170837,-0.0331365801393986,-0.0158760286867619,-0.0214387644082308,0.00289145577698946,-0.089683935046196
773,0.0123707028105855,-0.0361951850354671,-0.0183239635080099,-0.0233824942260981,0.0102335652336478,-0.0964056849479675
774,0.0166286453604698,-0.0375945083796978,-0.0223918296396732,-0.0266194734722376,0.0155606605112553,-0.102622210979462
775,0.0197470355778933,-0.0381060838699341,-0.0252623818814754,-0.0281260292977095,0.0192380473017693,-0.106726124882698
776,0.0205806083977222,-0.0380086563527584,-0.0260452106595039,-0.026893887668848,0.0207803249359131,-0.108539119362831
777,0.0193794574588537,-0.038049440830946,-0.0257703326642513,-0.0242867842316628,0.0199664868414402,-0.110036790370941
778,0.0172009933739901,-0.0394386388361454,-0.0259377304464579,-0.0224235076457262,0.0182264223694801,-0.113232009112835
779,0.014547579921782,-0.0426328554749489,-0.02836605720222,-0.0231157634407282,0.0159196518361568,-0.118437632918358
780,0.012074887752533,-0.0468296445906162,-0.0324251540005207,-0.0265224799513817,0.0134401442483068,-0.125314190983772
781,0.0106723746284842,-0.0499630682170391,-0.0350469388067722,-0.0302056241780519,0.0132801327854395,-0.131938129663467
782,0.010036270134151,-0.0503234639763832,-0.0358836948871613,-0.0317239835858345,0.015714468434453,-0.135123401880264
783,0.0095527209341526,-0.0483045764267445,-0.03639280423522,-0.0307467244565487,0.0177905932068825,-0.133968204259872
784,0.00916368328034878,-0.0457051880657673,-0.0357941575348377,-0.0275958254933357,0.0176561754196882,-0.130124434828758
785,0.00809811241924763,-0.043969701975584,-0.0336330719292164,-0.0228415634483099,0.0153613034635782,-0.125429004430771
786,0.00622510677203536,-0.043173685669899,-0.0311947725713253,-0.0181397516280413,0.0130660785362124,-0.121171824634075
787,0.0052553522400558,-0.0426224209368229,-0.0293526630848646,-0.0156575124710798,0.0135189201682806,-0.118239432573318
788,0.00643693935126066,-0.0414292439818382,-0.027750113978982,-0.0154029913246632,0.0171217545866966,-0.115885071456432
789,0.00896613951772451,-0.0392448902130127,-0.0258797910064459,-0.0152836861088872,0.0222109444439411,-0.112497217953205
790,0.0112277530133724,-0.0363322570919991,-0.0243704672902822,-0.0140161262825131,0.0263429973274469,-0.107426084578037
791,0.0121241929009557,-0.0334173627197742,-0.0237866081297398,-0.011744043789804,0.0275625865906477,-0.101069912314415
792,0.0117155583575368,-0.0313696749508381,-0.0232297014445066,-0.00891591981053352,0.0265340600162745,-0.0944042280316353
793,0.0110708745196462,-0.02982172742486,-0.0218451768159866,-0.00569027522578835,0.0254520438611507,-0.0878214314579964
794,0.0112032797187567,-0.0281878635287285,-0.0201229117810726,-0.00280100316740572,0.0248865745961666,-0.0820762142539024
795,0.0123503971844912,-0.0268246158957481,-0.0180239342153072,-0.00140227854717523,0.0248358231037855,-0.078962117433548
796,0.0135687356814742,-0.0264348927885294,-0.0151206124573946,-0.00173416070174426,0.0250845104455948,-0.079308994114399
797,0.01441599894315,-0.0271039269864559,-0.0125730093568563,-0.00319032534025609,0.0248448718339205,-0.0817416906356812
798,0.0151183130219579,-0.0280604846775532,-0.0119972992688417,-0.004916001111269,0.0242208279669285,-0.0834067314863205
799,0.0147179802879691,-0.0286317002028227,-0.0134210102260113,-0.00578387686982751,0.0233829934149981,-0.0822830870747566
800,0.012827848084271,-0.0281554237008095,-0.0149684874340892,-0.00482395803555846,0.0227327663451433,-0.0781028047204018
801,0.0109294941648841,-0.0260428823530674,-0.0147081203758717,-0.00218942086212337,0.0236318726092577,-0.0719494223594666
802,0.0100000835955143,-0.0228851065039635,-0.0127446046099067,0.000995693728327751,0.0260601490736008,-0.0658772513270378
803,0.00937269534915686,-0.0202269591391087,-0.0110721858218312,0.00318727316334844,0.0278148055076599,-0.0619140453636646
804,0.00856840331107378,-0.0188239850103855,-0.0109565351158381,0.00340774608775973,0.0267433859407902,-0.0610314458608627
805,0.00820790883153677,-0.0184839349240065,-0.0115379393100739,0.00220266217365861,0.0235218405723572,-0.062904879450798
806,0.00838944409042597,-0.0192730687558651,-0.0118969026952982,0.000384535873308778,0.0206270609050989,-0.066570870578289
807,0.00761116528883576,-0.0214794166386127,-0.0129608912393451,-0.00233509368263185,0.0176235921680927,-0.0710374638438225
808,0.0048639802262187,-0.0243607442826033,-0.0158520247787237,-0.00600021844729781,0.012487543746829,-0.0747851878404617
809,0.00162846385501325,-0.0259989146143198,-0.0190472006797791,-0.00901790615171194,0.0067296214401722,-0.0756412222981453
810,3.27658271999098E-05,-0.025461932644248,-0.0197096709161997,-0.00966124050319195,0.00379337999038398,-0.0724691301584244
811,-0.000158829221618362,-0.0238755289465189,-0.0176022797822952,-0.00837428215891123,0.00329122575931251,-0.0666150972247124
812,-7.07824729033746E-05,-0.0219475533813238,-0.0141417989507318,-0.00636311620473862,0.00247878395020962,-0.0600563399493694
813,0.000692452245857567,-0.0195747278630733,-0.0106330690905452,-0.00410120794549584,0.00104786118026823,-0.0537797510623932
814,0.00235218484885991,-0.0178491044789553,-0.00918438099324703,-0.00286028394475579,-0.000695354829076678,-0.0490793660283089
815,0.00377321569249034,-0.0173432473093271,-0.0101988632231951,-0.00338304252363741,-0.00332536618225276,-0.046602588146925
816,0.00383603502996266,-0.0168720949441195,-0.0115657337009907,-0.00449151219800115,-0.00603986205533147,-0.0450624451041222
817,0.00270907743833959,-0.0155693031847477,-0.0117751406505704,-0.00502317398786545,-0.00672614062204957,-0.0431061647832394
818,0.00126898544840515,-0.0141817219555378,-0.010935241356492,-0.00549113331362605,-0.00438109133392572,-0.0416334010660648
819,0.00042457680683583,-0.0136794801801443,-0.00984537228941917,-0.00686302129179239,0.000684293743688613,-0.0420946888625622
820,0.000606765213888139,-0.0136836525052786,-0.00926966033875942,-0.00853612087666988,0.00722914841026068,-0.0432470105588436
821,0.000480846589198336,-0.013080757111311,-0.0100084627047181,-0.00954936724156141,0.0118262674659491,-0.042685616761446
822,-0.00118771032430232,-0.0116885490715504,-0.0116415610536933,-0.0101883560419083,0.0118872467428446,-0.0399794541299343
823,-0.00330388871952891,-0.0107347806915641,-0.0114192999899387,-0.0105087924748659,0.00918760057538748,-0.0363445058465004
824,-0.00418910989537835,-0.011058266274631,-0.00760907772928476,-0.00945266056805849,0.0067329490557313,-0.0326746068894863
825,-0.00321430247277021,-0.0118173761293292,-0.00219331798143685,-0.00660015922039747,0.00554910115897655,-0.0294032692909241
826,-0.00185915385372937,-0.0117496503517032,0.00119363598059863,-0.00265601230785251,0.00413890602067113,-0.0267239939421415
827,-0.00199915817938745,-0.010558795183897,0.000996028655208647,0.0015996714355424,0.00216923584230244,-0.0243390090763569
828,-0.00350349536165595,-0.00930179562419653,-0.00138481217436492,0.00480233784765005,0.00240217614918947,-0.0223712101578712
829,-0.00522120157256722,-0.00872885994613171,-0.00425011059269309,0.00567922322079539,0.00538473343476653,-0.0209449362009764
830,-0.00591318309307098,-0.00780643615871668,-0.00660118414089084,0.00505797611549497,0.00877439044415951,-0.018928486853838
831,-0.0060532963834703,-0.00642619095742702,-0.00862324703484774,0.0038430648855865,0.00979061797261238,-0.0159642919898033
832,-0.00694030383601785,-0.00573446601629257,-0.0107556348666549,0.00193158944603056,0.00709982588887215,-0.013262715190649
833,-0.00769362831488252,-0.0056599834933877,-0.0115882288664579,0.000138178118504584,0.00347595848143101,-0.0117944935336709
834,-0.00721899559721351,-0.00605785613879561,-0.0101952571421862,-0.000719042145647109,0.00268212286755443,-0.0120628448203206
835,-0.00594509486109018,-0.00693237595260143,-0.00740104168653488,-0.000736643094569445,0.00458055455237627,-0.0137279434129596
836,-0.00479611335322261,-0.00744283059611917,-0.00427731731906533,-0.000272513512754813,0.00564414914697409,-0.0154420826584101
837,-0.00444911746308208,-0.00721576623618603,-0.00180585705675185,0.000233685786952265,0.00380046898499131,-0.0157972667366266
838,-0.00470929313451052,-0.00643087737262249,-0.000856351165566593,0.000796085631009191,0.000596848374698311,-0.0137431276962161
839,-0.00489434506744146,-0.0051028486341238,-0.00165690714493394,0.00150669366121292,-0.00204569147899747,-0.00953179318457842
840,-0.00495567824691534,-0.00366504094563425,-0.00302686379291117,0.00169466936495155,-0.00359712308272719,-0.00486602773889899
841,-0.00580476364120841,-0.00294136023148894,-0.00382171990349889,0.00082867470337078,-0.00500065740197897,-0.000807091244496405
842,-0.00781988818198442,-0.00318509503267705,-0.0042488556355238,-0.00065552000887692,-0.00776960188522935,0.00255430792458355
843,-0.00999357458204031,-0.00406264886260033,-0.00488396594300866,-0.00223760679364204,-0.0111749609932303,0.00464733364060521
844,-0.0109730204567313,-0.00517033878713846,-0.005680694244802,-0.00410151295363903,-0.0125460093840957,0.00460235308855772
845,-0.0100790048018098,-0.00628985883668065,-0.0057374662719667,-0.0060213734395802,-0.0102863050997257,0.00264776288531721
846,-0.00783225800842047,-0.00763495313003659,-0.00466445926576853,-0.00737003330141306,-0.00531077431514859,-9.79482429102063E-05
847,-0.0052330014295876,-0.00876055099070072,-0.00304256496019661,-0.00786443985998631,7.27104634279385E-05,-0.00218701199628413
848,-0.00281461863778532,-0.00862834416329861,-0.000901416991837323,-0.00688690692186356,0.0043921279720962,-0.00213283090852201
849,-0.000635777076240629,-0.00732550723478198,0.00195369217544794,-0.0043088193051517,0.00732889072969556,-0.00027212145505473
850,0.00111589988227934,-0.00571706704795361,0.00465480796992779,-0.00117458228487521,0.00776779325678945,0.00176189967896789
851,0.00198063696734607,-0.00439459644258022,0.00663546985015273,0.00144086894579232,0.00463405484333634,0.00330997630953789
852,0.00177618442103267,-0.00350855756551027,0.00815461948513985,0.00314256153069437,-0.000693821755703539,0.00490342220291495
853,0.000754800217691809,-0.00317458109930158,0.00888806954026222,0.0037602405063808,-0.00564841693267226,0.00676697492599487
854,-7.18021910870448E-05,-0.00331280892714858,0.00886263325810432,0.00330869480967522,-0.00804230384528637,0.00812051817774773
855,0.000200586160644889,-0.00332463812083006,0.0089684221893549,0.00282835913822055,-0.0076134642586112,0.00852542091161013
856,0.000984291429631412,-0.0033023371361196,0.00921505782753229,0.00299596786499023,-0.00658982573077083,0.00792456511408091
857,0.00162414624355733,-0.00342734693549573,0.00875697750598192,0.00312596489675343,-0.00606720754876733,0.00680996058508754
858,0.00198110798373818,-0.00250500673428178,0.00769848050549626,0.00354936951771379,-0.00548192346468568,0.00720442412421107
859,0.00104845454916358,-0.000167203266755678,0.00664979359135032,0.00513738254085183,-0.00587569735944271,0.0104803964495659
860,-0.00108134467154741,0.00167700403835624,0.00582644809037447,0.00687432754784822,-0.00755681656301022,0.0151717765256763
861,-0.00318008731119335,0.000921156199183315,0.00510294223204255,0.00688975630328059,-0.00867204088717699,0.0187156442552805
862,-0.00492697209119797,-0.00231490703299642,0.00413651205599308,0.00462199281901121,-0.00831232126802206,0.0200916957110167
863,-0.00567114911973476,-0.0058366940356791,0.00363083207048476,0.00106519984547049,-0.00590575812384486,0.0197542533278465
864,-0.0051664081402123,-0.00824812799692154,0.00420326180756092,-0.00260098837316036,-0.00120649870950729,0.0180694609880447
865,-0.00458643632009625,-0.00951389037072659,0.00451254611834884,-0.00554069224745035,0.00350561761297286,0.0155055914074183
866,-0.00469721714034677,-0.00918993540108204,0.00357519392855465,-0.00705911125987768,0.00550640467554331,0.0136029692366719
867,-0.00493974611163139,-0.00692741153761745,0.00266742799431086,-0.00686938548460603,0.00494357477873564,0.0137621257454157
868,-0.00486731855198741,-0.00345578696578741,0.00304787536151707,-0.00514477491378784,0.00318764196708798,0.0161133836954832
869,-0.0046882564201951,4.72898937005084E-05,0.00424864422529936,-0.00271468586288393,0.000992526300251484,0.019867243245244
870,-0.00394330220296979,0.00298590958118439,0.00549291120842099,-0.000609820068348199,-0.000350759917637333,0.0235349871218205
871,-0.00261093047447503,0.00471144216135144,0.00625125458464026,0.000217859720578417,1.3059033335594E-05,0.0251071713864803
872,-0.00192589417565614,0.00439526839181781,0.00635661371052265,-0.000531832280103117,0.00141549366526306,0.024057874456048
873,-0.0026439530774951,0.00257421331480145,0.00660647824406624,-0.00159688503481448,0.00299691688269377,0.0221783090382814
874,-0.00519959954544902,0.000315792480250821,0.00684286886826158,-0.0021715578623116,0.00279630208387971,0.020578620955348
875,-0.00835218653082848,-0.00155973888467997,0.0064777797088027,-0.00239314395003021,0.000529745651874691,0.0194018073379993
876,-0.00988863781094551,-0.00283053889870644,0.00580659555271268,-0.00269513530656695,-0.00119780737441033,0.0185822881758213
877,-0.0102772982791066,-0.00373629876412451,0.00435141008347273,-0.00375361344777048,-0.00257361214607954,0.0178350266069174
878,-0.0104780066758394,-0.00368583272211254,0.00220640981569886,-0.00497482903301716,-0.00449504144489765,0.0177072435617447
879,-0.0100664831697941,-0.00253420392982662,0.00102682679425925,-0.00525678554549813,-0.00512873148545623,0.0182036831974983
880,-0.00936765410006046,-0.00155402580276132,0.00134988967329264,-0.00470965402200818,-0.00371619570069015,0.018269395455718
881,-0.00915579777210951,-0.00146632385440171,0.00223884242586792,-0.00384418619796634,-0.00131681351922452,0.0181578453630209
882,-0.00935729686170816,-0.00164357246831059,0.00295988935977221,-0.00297931348904967,0.00108708231709898,0.0188416354358196
883,-0.0100454306229949,-0.00142740015871823,0.00310254818759859,-0.00263252365402877,0.00203580944798887,0.0200365055352449
884,-0.0109950928017497,-0.00122391898185015,0.00315495324321091,-0.00323228491470218,0.00122714461758733,0.0203446466475725
885,-0.0114162294194102,-0.00173490424640477,0.00398742547258735,-0.00498014176264405,-0.000360343256033957,0.0184628870338202
886,-0.0110588846728206,-0.00217745080590248,0.00531125254929066,-0.00710246386006474,-0.0027481836732477,0.0154494037851691
887,-0.0103229433298111,-0.00162620400078595,0.00658003892749548,-0.00818773359060287,-0.00674321549013257,0.0137177957221866
888,-0.0103532178327441,-0.000966944498941302,0.00736173987388611,-0.00829988438636065,-0.0128352604806423,0.0137970931828022
889,-0.0119981002062559,-0.00158307561650872,0.00651295157149434,-0.00893528293818235,-0.0194087941199541,0.0144605645909905
890,-0.0141852106899023,-0.00340187735855579,0.00391537882387638,-0.0106411995366216,-0.023042343556881,0.0146606508642435
891,-0.0151158766821027,-0.00533302268013358,0.000797067594248801,-0.0128390612080693,-0.0224082674831152,0.0139473583549261
892,-0.0144511330872774,-0.00627686502411962,-0.00164721882902086,-0.0145045733079314,-0.0189256370067596,0.0128845935687423
893,-0.0129707446321845,-0.00522694177925587,-0.0023566756863147,-0.0144490171223879,-0.0146529981866479,0.0129383811727166
894,-0.0107255410403013,-0.0019032497657463,-0.00113840121775866,-0.0124071799218655,-0.0107362810522318,0.014985928311944
895,-0.00737407011911273,0.00276242126710713,0.000740278046578169,-0.00882284343242645,-0.00747263431549072,0.0190129410475492
896,-0.0043216091580689,0.00674079637974501,0.000893609190825373,-0.00504009472206235,-0.00704195396974683,0.0233728867024183
897,-0.00258502806536853,0.00856373272836208,-0.000954302202444524,-0.00260935956612229,-0.00984147936105728,0.0256057884544134
898,-0.0012364488793537,0.00851423945277929,-0.00271295965649188,-0.00176419806666672,-0.0120215537026525,0.025261590257287
899,8.7447464466095E-05,0.00743240909650922,-0.00357029959559441,-0.00146807532291859,-0.0114803155884147,0.0239014457911253
900,0.00146399543154985,0.0060939178802073,-0.00335331470705569,-0.000908676942344755,-0.00895089283585548,0.0228542741388083
901,0.00333379115909338,0.00526998611167073,-0.00177250127308071,-0.000702993071172386,-0.00520085263997316,0.022119989618659
902,0.00543384067714214,0.00505266757681966,2.50314024015097E-05,-0.00193820602726191,-0.00118795630987734,0.0209327675402164
903,0.00646831467747688,0.00506513519212604,3.83903861802537E-05,-0.00472866324707866,0.000521968060638756,0.019203182309866
904,0.0058758370578289,0.00591822527348995,-0.00156313425395638,-0.00713988998904824,-0.00209165411069989,0.0187867395579815
905,0.00525440694764256,0.00809223484247923,-0.00239127152599394,-0.0076042003929615,-0.00707012554630637,0.0204100552946329
906,0.00571385119110346,0.0107271280139685,-0.00128745555412024,-0.00706292362883687,-0.0113932881504297,0.02223857678473
907,0.00642442423850298,0.0129646183922887,0.00126241450197995,-0.00641148816794157,-0.0147614125162363,0.0233367364853621
908,0.00569126894697547,0.0135667324066162,0.00353840086609125,-0.00639216369017959,-0.0188309736549854,0.0230358298867941
909,0.00318708876147866,0.0123780872672796,0.00395193509757519,-0.00705872196704149,-0.0234674848616123,0.0212295763194561
910,0.000907889974769205,0.0119675379246473,0.00357095501385629,-0.00649265432730317,-0.0262175276875496,0.0200012419372797
911,0.000164167824550532,0.0142991701141,0.00429328717291355,-0.00365554657764733,-0.0267530474811792,0.0212230887264013
912,0.00059770664665848,0.0184471923857927,0.00581458769738674,0.00031475568539463,-0.0264329146593809,0.0245083328336477
913,0.000860020460095257,0.0215373318642378,0.00641582999378443,0.00354138948023319,-0.0257615931332111,0.0271743796765804
914,0.000582447741180658,0.0223062727600336,0.00601906608790159,0.00539369322359562,-0.0236770883202553,0.0278058536350727
915,0.00154100265353918,0.0223348811268806,0.00561412703245878,0.00620545912533998,-0.0185039956122637,0.0279374290257692
916,0.00357374199666083,0.0226464997977018,0.00500303925946355,0.00619347626343369,-0.0123608103021979,0.0296088084578514
917,0.00409129075706005,0.0227953586727381,0.0037170120049268,0.00595172960311174,-0.00956645328551531,0.0334398597478867
918,0.00258825579658151,0.0220056176185608,0.00247246609069407,0.00558214774355292,-0.0101564479991794,0.0372240133583546
919,0.000962409598287195,0.020431550219655,0.00256770919077098,0.00479674944654107,-0.0109843509271741,0.0386039912700653
920,0.000658345874398947,0.0189302954822779,0.00396537082269788,0.00329048559069633,-0.0105415368452668,0.0372793488204479
921,0.00183583563193679,0.018068028613925,0.00526621332392097,0.00126435467973351,-0.00960897095501423,0.0346292853355408
922,0.00338089256547391,0.0186780598014593,0.00568377273157239,0.000952459289692342,-0.00977242738008499,0.0342427268624306
923,0.0035427724942565,0.0201806146651506,0.00520269479602575,0.00309029081836343,-0.0114311203360558,0.0367733687162399
924,0.00153039454016835,0.0204662438482046,0.0037623904645443,0.00493522174656391,-0.0138103235512972,0.0382744520902634
925,-0.0021819076500833,0.0187046453356743,0.00171898328699172,0.00500578945502639,-0.0166876167058945,0.0371797010302544
926,-0.00567642459645867,0.0154642183333635,0.000249181437538937,0.00424524024128914,-0.019046364352107,0.0348633602261543
927,-0.00733158551156521,0.0117013789713383,-0.000230242949328385,0.0030472872313112,-0.0194266736507416,0.0320792607963085
928,-0.00782317016273737,0.00879721809178591,-0.000629591988399625,0.0011540490668267,-0.0188256856054068,0.0292965341359377
929,-0.00781792029738426,0.00772104598581791,-0.00103625596966594,-0.000828755903057754,-0.0185718219727278,0.0274465046823025
930,-0.00717586418613791,0.00804377254098654,-0.000931910122744739,-0.00186212954577059,-0.018914956599474,0.0273893587291241
931,-0.00609263870865107,0.00869601219892502,0.000342706975061446,-0.00149313767906278,-0.0204348284751177,0.0285319574177265
932,-0.00448679598048329,0.00862644519656897,0.00368810864165425,-9.86926461337134E-05,-0.022064408287406,0.0283496584743261
933,-0.00216585188172758,0.00739510729908943,0.00778110884130001,0.00133151654154062,-0.021565405651927,0.0254451259970665
934,0.000595941208302975,0.00572604173794389,0.0101427342742682,0.00200204527936876,-0.0183321423828602,0.0216736532747746
935,0.00322638149373233,0.00471845641732216,0.0105111943557858,0.00195280066691339,-0.0133645674213767,0.0196675583720207
936,0.00475968420505524,0.00463004596531391,0.00979437213391066,0.00147490366362035,-0.00875687040388584,0.0202872548252344
937,0.0046320385299623,0.00494159571826458,0.00872174743562937,0.000388617452699691,-0.00598280411213636,0.0226678196340799
938,0.0040029832161963,0.00551939941942692,0.00853979960083961,-0.00115314894355834,-0.00441246526315808,0.0257842633873224
939,0.0042881197296083,0.00622219545766711,0.00972363725304604,-0.00231637642718852,-0.00349308899603784,0.0287303477525711
940,0.00498209847137332,0.00608761282637715,0.0111651215702295,-0.00253564468584955,-0.00381206977181137,0.0301484316587448
941,0.00554380984976888,0.00473675457760692,0.0124027030542493,-0.00184019561856985,-0.00417242804542184,0.0293856207281351
942,0.00634633610025048,0.0030734152533114,0.0133609306067228,-0.00114181661047041,-0.00348332151770592,0.0272815749049187
943,0.00654393434524536,0.00206231675110757,0.0128897614777088,-0.00141753442585468,-0.00450620986521244,0.0260464046150446
944,0.00513193756341934,0.00195707892999053,0.0106293251737952,-0.00253048865124583,-0.00901100412011147,0.0276187527924776
945,0.00288064242340624,0.00188767770305276,0.00782302673906088,-0.00449059950187802,-0.0139125799760222,0.0305687319487333
946,0.00116992625407875,0.00143600453156978,0.00593300862237811,-0.00707378750666976,-0.0158240459859371,0.0322037041187286
947,0.000222926420974545,0.00182409537956119,0.00565167190507054,-0.00860906299203634,-0.0147367073222995,0.0328999795019627
948,-0.000126305210869759,0.00372686609625816,0.00619527092203498,-0.00845993403345346,-0.0121667310595512,0.0339344032108784
949,0.000431604363257065,0.0062014888972044,0.00638543767854571,-0.0078967809677124,-0.00962037593126297,0.0347000807523727
950,0.00147173821460456,0.00747471069917083,0.00646366877481341,-0.00786868762224913,-0.00786110945045948,0.0338697172701359
951,0.00221593980677426,0.00672058714553714,0.00699380459263921,-0.00831244327127934,-0.00585270067676902,0.0311675071716309
952,0.00193587294779718,0.00507476646453142,0.00706703402101994,-0.00857018306851387,-0.00337770255282521,0.0282211806625128
953,0.000486082659335807,0.00375569239258766,0.00595165835693479,-0.00809508375823498,-0.00164206977933645,0.0267836879938841
954,-0.00122615112923086,0.00259347283281386,0.00436360202729702,-0.00742141902446747,-0.000887001166120172,0.0266653522849083
955,-0.00249603809788823,0.00122949341312051,0.00362490606494248,-0.00725257769227028,-0.000109520246041939,0.026836384087801
956,-0.00306679191999137,0.000258590676821768,0.00446836370974779,-0.00730532733723521,0.00161093263886869,0.0269776806235313
957,-0.00299301138147712,0.000501073431223631,0.00594625482335687,-0.00723749445751309,0.00356752541847527,0.0271491426974535
958,-0.00268598273396492,0.001329256570898,0.00683694146573544,-0.00731890555471182,0.0044900574721396,0.0267793778330088
959,-0.00315459677949548,0.00110924476757646,0.0065766554325819,-0.0077263000421226,0.00311408680863678,0.025230972096324
960,-0.00433611869812012,-9.54890419961885E-05,0.0055442713201046,-0.0081178480759263,-0.000353438896127045,0.0230955332517624
961,-0.00454041641205549,-0.00109343195799738,0.00531492894515395,-0.00809018034487963,-0.00344692193903029,0.0213344972580671
962,-0.00346879498101771,-0.00155201158486307,0.00632782792672515,-0.00748215988278389,-0.00543577363714576,0.0202243719249964
963,-0.00222206092439592,-0.00180169765371829,0.00695453025400639,-0.00674665393307805,-0.00724000902846456,0.0196181703358889
964,-0.00177838979288936,-0.0022258716635406,0.00588835077360272,-0.006572550162673,-0.00941782537847757,0.0194661617279053
965,-0.00221651676110923,-0.00231768796220422,0.00419178372249007,-0.00627329014241695,-0.0115931034088135,0.0204317290335894
966,-0.00279878871515393,-0.00100519589614123,0.00368211418390274,-0.0044240290299058,-0.0122048826888204,0.0236871652305126
967,-0.00352659123018384,0.00165277125779539,0.00458627194166183,-0.00089648982975632,-0.0113489078357816,0.0293966997414827
968,-0.00386645901016891,0.00439041201025248,0.00638131378218532,0.002900819061324,-0.00957383587956429,0.0349324606359005
969,-0.00292706210166216,0.00572951650246978,0.00815851893275976,0.00474562263116241,-0.00676763569936156,0.0365925431251526
970,-0.00154628755990416,0.00522842397913337,0.00867199897766113,0.00407415442168713,-0.00434416811913252,0.0342202670872211
971,-0.00162525777705014,0.0040476149879396,0.0070077613927424,0.00245712487958372,-0.00485475035384297,0.0307090152055025
972,-0.00377286924049258,0.00412336736917496,0.0035930029116571,0.00150322623085231,-0.00928203109651804,0.0285352766513824
973,-0.00633861683309078,0.00580964656546712,0.000643146748188883,0.0016542817465961,-0.0146538382396102,0.0283070225268602
974,-0.00818576011806726,0.00741161685436964,-0.000653465685900301,0.00216571753844619,-0.0181946121156216,0.0296830199658871
975,-0.00970164686441422,0.00776725355535746,-0.000547887641005218,0.00281540537253022,-0.0203965473920107,0.0328310392796993
976,-0.0109509117901325,0.00658547878265381,0.00105789920780808,0.0036148049402982,-0.0217714179307222,0.0362641774117947
977,-0.0114072728902102,0.00472639175131917,0.00358154228888452,0.00452452898025513,-0.0218066889792681,0.0375685915350914
978,-0.0113683938980103,0.00296316994354129,0.00525958696380258,0.00493279891088605,-0.0199858285486698,0.035502053797245
979,-0.0115720257163048,0.000378185621229932,0.00498299859464169,0.00300005450844765,-0.0164494216442108,0.0296986419707537
980,-0.011540062725544,-0.00185921462252736,0.0038442830555141,-0.000289074669126421,-0.0119488909840584,0.0236738920211792
