,AF3,AF4,Fp1,Fp2,AF7,AF8
0,-0.0164748951792717,0.00625606393441558,-0.00964038074016571,-0.00880363862961531,-0.0509144701063633,0.00390540482476354
1,-0.0174921099096537,0.0035323987249285,-0.00938352104276419,-0.00616573309525847,-0.0510231107473373,0.00178835762199014
2,-0.0166984871029854,0.00227533536963165,-0.00909274537116289,-0.00225563300773501,-0.045120257884264,0.00222910544835031
3,-0.013700483366847,0.00159317988436669,-0.00831772945821285,6.10874267295003E-05,-0.0325193330645561,0.0037084047216922
4,-0.0110766626894474,-0.00106797565240413,-0.00851404294371605,-0.00138805794995278,-0.0183336846530437,0.00388856139034033
5,-0.0104001807048917,-0.00514887319877744,-0.00911661051213741,-0.00358361518010497,-0.00780374370515347,0.00416853418573737
6,-0.0104435011744499,-0.00684485258534551,-0.00742930127307773,-0.0022383676841855,-0.00174966792110354,0.00723735895007849
7,-0.0102974567562342,-0.00465103331953287,-0.00284368963912129,0.00180317729245871,0.00102119089569896,0.0114701855927706
8,-0.0104073155671358,-0.000517670530825853,0.00293435272760689,0.00558976316824555,0.00141025288030505,0.0139345359057188
9,-0.0109585514292121,0.00318493950180709,0.00814696494489908,0.00811764691025019,0.000886778405401856,0.0153945842757821
10,-0.0111491605639458,0.00491614826023579,0.0108949868008494,0.00830774009227753,0.0013899413170293,0.0166542455554008
11,-0.0116483923047781,0.00426832772791386,0.00924882665276527,0.00543249445036054,0.00104171643033624,0.0162826459854841
12,-0.0135379144921899,0.00273959315381944,0.00408005993813276,0.00184604723472148,-0.00312196998856962,0.0149102732539177
13,-0.0150726735591888,0.00246122409589589,-0.00107318232767284,0.000928654219023883,-0.00892002135515213,0.0146434670314193
14,-0.0158018581569195,0.00281704706139863,-0.00497021246701479,0.00219870498403907,-0.0140038141980767,0.0142798433080316
15,-0.0172771401703358,0.00178278016392142,-0.00828922539949417,0.00296181510202587,-0.0180488359183073,0.0114832883700728
16,-0.0196029562503099,-0.000162309544975869,-0.0105593940243125,0.00303048803471029,-0.0199833251535892,0.007272744551301
17,-0.0215479359030724,-0.000671070301905274,-0.0101542472839355,0.00380246434360743,-0.0185285359621048,0.00496473163366318
18,-0.0217394530773163,0.0017821763176471,-0.00577861862257123,0.00587343564257026,-0.0148429526016116,0.00729436753317714
19,-0.0204142425209284,0.00607772311195731,0.000500380934681743,0.00781146343797445,-0.0125922132283449,0.0133724557235837
20,-0.0180653054267168,0.00968678761273623,0.00516729336231947,0.00805456750094891,-0.0120911281555891,0.019623389467597
21,-0.0148068014532328,0.0105401016771793,0.0072214868851006,0.00748645281419158,-0.0109019130468369,0.0235835239291191
22,-0.0119538018479943,0.00796380452811718,0.0070275398902595,0.00729005923494697,-0.00851426646113396,0.024537431076169
23,-0.0101043591275811,0.0039498801343143,0.00531499926000834,0.00736302882432938,-0.0045835911296308,0.0234081130474806
24,-0.00867964513599873,0.000885045097675174,0.00313942320644856,0.00706752529367805,0.00111058983020484,0.0215985421091318
25,-0.00787166133522987,-0.000755457382183522,0.00138790812343359,0.00708565674722195,0.00598537782207131,0.0204763244837523
26,-0.00844382680952549,-0.0017692866967991,0.00101711414754391,0.00877128168940544,0.00728688156232238,0.0202623773366213
27,-0.0106261530891061,-0.00316759222187102,0.00188911147415638,0.0103736156597734,0.00508443871513009,0.018538711592555
28,-0.0137315131723881,-0.00469939038157463,0.0023927001748234,0.00915725994855165,0.000768363534007221,0.0142118465155363
29,-0.0166441034525633,-0.00543917017057538,0.00155100435949862,0.00528834760189056,-0.00403282791376114,0.0091756833717227
30,-0.0179041381925344,-0.00480199744924903,0.000560389889869839,0.00172279111575335,-0.00692850910127163,0.00639964127913117
31,-0.0165908690541983,-0.00283746770583093,0.00103755481541157,0.00149510707706213,-0.00711935525760055,0.00760161876678467
32,-0.0130937891080976,-0.00126653979532421,0.00313430628739297,0.00505113136023283,-0.00642781890928745,0.0113499825820327
33,-0.0087076323106885,-0.000922093284316361,0.00564444763585925,0.0104078520089388,-0.00668468186631799,0.0153757371008396
34,-0.00530062336474657,0.000279821222648025,0.00649963831529021,0.0145335393026471,-0.00933289155364037,0.0180060751736164
35,-0.00473660556599498,0.00173425825778395,0.00402886839583516,0.0149570796638727,-0.0145431887358427,0.0169890187680721
36,-0.00675778882578015,0.000541343935765326,-0.000588687602430582,0.011869041249156,-0.0185222905129194,0.0117065813392401
37,-0.00915778055787086,-0.00212632492184639,-0.00401108711957932,0.00791110005229712,-0.0179823227226734,0.00522707030177116
38,-0.0110809076577425,-0.00310071767307818,-0.00485735712572932,0.00481862667948008,-0.0148068256676197,0.00120280880946666
39,-0.0123439719900489,-0.00146726169623435,-0.00411277217790484,0.00222519086673856,-0.0117687676101923,0.00134232710115612
40,-0.0128402812406421,0.00105927197728306,-0.00388868059962988,-0.00102700013667345,-0.0105480598285794,0.0052882288582623
41,-0.0129792205989361,0.00338449818082154,-0.00561002362519503,-0.00464753061532974,-0.0116829825565219,0.011748612858355
42,-0.0122429030016065,0.00654615135863423,-0.00772087974473834,-0.00640610046684742,-0.0127382287755609,0.0190402865409851
43,-0.0098548224195838,0.0106415972113609,-0.00773843191564083,-0.00515499617904425,-0.0108752399682999,0.0243275221437216
44,-0.0059990375302732,0.0142717696726322,-0.00546193029731512,-0.00235505332238972,-0.00648508220911026,0.025369742885232
45,-0.00272592413239181,0.0152671188116074,-0.00347104365937412,-0.000375335570424795,-0.00332857691682875,0.0220893453806639
46,-0.00272169662639499,0.0114587033167481,-0.00435361778363585,-0.000486300938064232,-0.0052242549136281,0.0156898386776447
47,-0.00555030675604939,0.0038091919850558,-0.00742655014619231,-0.00231160409748554,-0.0111607983708382,0.00863633863627911
48,-0.00781676638871431,-0.00400114059448242,-0.00983074493706226,-0.00470955111086369,-0.014925436116755,0.00340467668138444
49,-0.00828495714813471,-0.0092881815508008,-0.0104664890095592,-0.00652621360495687,-0.0133624877780676,0.00115035090129822
50,-0.00859151873737574,-0.0114995334297419,-0.0104248654097319,-0.00661281729117036,-0.0096276393160224,0.00201317341998219
51,-0.00798501539975405,-0.0112536940723658,-0.00952634215354919,-0.00395644037052989,-0.00553609384223819,0.00463595241308212
52,-0.00536226248368621,-0.009802027605474,-0.00728090805932879,0.000615933618973941,-0.00216364907100797,0.00682153273373842
53,-0.00311385281383991,-0.00905699841678143,-0.0053605493158102,0.00353364506736398,-0.00284367310814559,0.00622736383229494
54,-0.00321947922930121,-0.00976635701954365,-0.00560752302408218,0.00225744373165071,-0.00745935132727027,0.00211842404678464
55,-0.00473088771104813,-0.0103345485404134,-0.00775003898888826,-0.00156301143579185,-0.0115342093631625,-0.00283573241904378
56,-0.00571863679215312,-0.009637501090765,-0.0097631523385644,-0.0045665861107409,-0.0117148123681545,-0.00617313664406538
57,-0.00553990807384253,-0.00834614690393209,-0.0103081781417131,-0.00497175008058548,-0.00828860513865948,-0.00750946346670389
58,-0.0047794901765883,-0.0068226745352149,-0.00948453042656183,-0.00300709903240204,-0.00367304496467113,-0.00623223558068275
59,-0.00430885143578053,-0.00533025898039341,-0.00765659706667066,-0.000882324471604079,-0.00086555170128122,-0.00323675642721355
60,-0.0044968519359827,-0.00432713888585567,-0.00485018780454993,-0.000750791048631072,-0.00134531978983432,-0.00100568367633969
61,-0.00473102694377303,-0.00290758861228824,-0.00190845027100295,-0.00158164720050991,-0.00413771579042077,0.000376321841031313
62,-0.00458786077797413,0.00016304012387991,-0.000101370402262546,-0.000538268883246928,-0.00727181788533926,0.00297792232595384
63,-0.00406649988144636,0.00437541818246245,0.00100162671878934,0.0032486910931766,-0.00825256668031216,0.0076307374984026
64,-0.00362936616875231,0.00661888113245368,0.00131788919679821,0.00635302998125553,-0.00637089461088181,0.0110889617353678
65,-0.00351919909007847,0.00471716793254018,0.000154524299432524,0.00515202153474092,-0.00313045247457922,0.0102512184530497
66,-0.00324442819692194,0.00125562760513276,-0.00169084523804486,0.00125152489636093,-0.000308055576169863,0.00784173514693975
67,-0.00383260496892035,-0.00102138216607273,-0.00397069286555052,-0.00213360972702503,-0.000216221393202432,0.00746905850246549
68,-0.00579955987632275,-0.0020812472794205,-0.00608527706936002,-0.00312565010972321,-0.00299677951261401,0.00918422732502222
69,-0.00713303778320551,-0.00172398332506418,-0.00618010759353638,-0.000741898897103965,-0.00571269216015935,0.0109934480860829
70,-0.0063420650549233,0.000402583944378421,-0.00357506098225713,0.00350083620287478,-0.00625945627689362,0.011282934807241
71,-0.00435134442523122,0.00276222079992294,-0.000112560599518474,0.00655012903735042,-0.00562262907624245,0.0104409037157893
72,-0.00345315225422382,0.00309427478350699,0.00126333103980869,0.00696867052465677,-0.00597725296393037,0.00953313615173101
73,-0.00371391139924526,0.00210649170912802,0.000737237045541406,0.00640174094587564,-0.00666733551770449,0.00947447493672371
74,-0.00292252469807863,0.00144750892650336,0.00113060511648655,0.00737194111570716,-0.00482134288176894,0.0103626111522317
75,-0.000114391572424211,0.000507187505718321,0.00363169843330979,0.0110872052609921,0.00133795256260782,0.011532025411725
76,0.00402687257155776,-0.000700390490237623,0.00698406342417002,0.0153367724269629,0.0111340992152691,0.0116775967180729
77,0.00853700004518032,-0.000526019197423011,0.00918284803628922,0.0151852397248149,0.0207211151719093,0.00887801498174667
78,0.0118661634624004,0.00111540197394788,0.00934052467346191,0.00995473098009825,0.0254848841577768,0.00367516092956066
79,0.0116857131943107,0.00231096986681223,0.00800454337149858,0.00352300982922316,0.0242181979119778,-0.0010616424260661
80,0.00815823767334223,0.0026336966548115,0.00641294242814183,-0.000898820522706956,0.0196210592985153,-0.00233398447744548
81,0.00493499683216214,0.00307495356537402,0.0049832253716886,-0.00256379507482052,0.0153037300333381,0.000628262583632022
82,0.00443176925182343,0.00340004381723702,0.00322040123865008,-0.00208661123178899,0.012388227507472,0.00559078063815832
83,0.00490173557773232,0.00293335365131497,0.00108290172647685,-0.000492419640067965,0.008591846562922,0.0107346456497908
84,0.00341232982464135,0.0015171681297943,-0.00173840136267245,-0.000387122156098485,0.00220632227137685,0.0148323532193899
85,0.000715251371730119,0.000478274712804705,-0.00449830899015069,-0.00261070975102484,-0.00390995386987925,0.0171514451503754
86,-2.32594957196852E-05,0.00185799587052315,-0.00488999718800187,-0.00432993518188596,-0.00604649214074016,0.0185794979333878
87,0.00183076923713088,0.00490533653646708,-0.00268946541473269,-0.00362463505007327,-0.00448047090321779,0.0196527820080519
88,0.00473188841715455,0.00721176480874419,0.000685278733726591,-0.00106199877336621,-0.00206322502344847,0.0197011902928352
89,0.00716846575960517,0.00765023939311504,0.00369588774628937,0.0013023444917053,-0.000370178517187014,0.0181974601000547
90,0.00834908057004213,0.00690559670329094,0.00507724843919277,0.00215051718987525,0.00168396555818617,0.0158738605678082
91,0.00799070950597525,0.00576944230124354,0.00508453277871013,0.00145291141234338,0.00420303968712687,0.012635376304388
92,0.00604875292629004,0.00380477751605213,0.00408926233649254,-0.00128300406504422,0.00496842851862311,0.00718285050243139
93,0.00421575689688325,0.00185719667933881,0.00279558636248112,-0.00447688810527325,0.00415691221132874,0.00138436397537589
94,0.00428316975012422,0.00125008076429367,0.00207771710120142,-0.00462099071592093,0.0043209264986217,-0.00110116985160857
95,0.00511973258107901,0.000700755044817925,0.000882895081304014,-0.0013421579496935,0.00545224500820041,-0.000375234987586737
96,0.00585094839334488,-0.00117190589662641,-0.000522689253557473,0.00290693691931665,0.00673167034983635,0.00080318923573941
97,0.00754174031317234,-0.0033476606477052,0.00012524587509688,0.00630931463092566,0.0089167570695281,0.001537254313007
98,0.00993273593485355,-0.0039405832067132,0.0021879670675844,0.007782191503793,0.010715002194047,0.00299336039461195
99,0.0120645007118583,-0.00191888422705233,0.0031631023157388,0.00736762955784798,0.00971874687820673,0.00673537841066718
100,0.0136515190824866,0.00170820392668247,0.00247212685644627,0.00616054609417915,0.00617615366354585,0.0126571543514729
101,0.0137343788519502,0.00394959282130003,0.000642525672446936,0.00376304541714489,0.00238224724307656,0.0171592738479376
102,0.0121416980400682,0.00319800479337573,-0.00141758134122938,-7.92637292761356E-05,0.00126928754616529,0.0172992069274187
103,0.0104639986529946,0.00131086143665016,-0.00178504933137447,-0.00281099369749427,0.00421011913567781,0.0148036992177367
104,0.00952637288719416,0.000573188241105527,0.000251347228186205,-0.00224016769789159,0.00924571044743061,0.0127897029742599
105,0.00870143156498671,0.000836743682157248,0.0023827375844121,0.000168043246958405,0.0128383412957191,0.0120741156861186
106,0.00747627159580588,0.000805795833002776,0.00278223934583366,0.00149313418660313,0.0130185429006815,0.0118712019175291
107,0.00716485548764467,0.000605760375037789,0.0032439639326185,0.00133668107446283,0.0122112268581986,0.011652747169137
108,0.00918975193053484,0.000833811529446393,0.00528546469286084,0.000493346597068012,0.0136788189411163,0.0101815517991781
109,0.0105199022218585,0.000211607592063956,0.00625811889767647,-0.00178635178599507,0.0140886027365923,0.00587130850180984
110,0.0076241372153163,-0.00246340176090598,0.00428537651896477,-0.00487556541338563,0.00942285265773535,5.47310555703007E-05
111,0.00359838013537228,-0.00518248463049531,0.00256488006561995,-0.00458159437403083,0.0048607774078846,-0.00256346026435494
112,0.00221382710151374,-0.00591632118448615,0.00286374124698341,0.000337183853844181,0.00573724508285522,0.000876009813509882
113,0.00191097299102694,-0.00615718029439449,0.00266546220518649,0.00446272408589721,0.00989096239209175,0.00656201876699924
114,0.00156447873450816,-0.00668463623151183,0.00204499438405037,0.00414952542632818,0.0162772983312607,0.00954921077936888
115,0.00184134382288903,-0.00522528635337949,0.00259711034595966,0.00169362314045429,0.0233290754258633,0.010779800824821
116,0.00201815715990961,-0.0022035944275558,0.00285397749394178,-0.00047659786650911,0.0255326945334673,0.0126657076179981
117,0.00249991822056472,-0.000526432355400175,0.00235380884259939,-0.00105874775908887,0.022969625890255,0.0151742668822408
118,0.00362265552394092,0.000937253702431917,0.00203061406500638,0.00042134226532653,0.018603103235364,0.0179319679737091
119,0.00385898165404797,0.00418601045385003,0.00212991726584733,0.00253473175689578,0.0129865165799856,0.020234627649188
120,0.00341470935381949,0.00736310053616762,0.00346784200519323,0.00516090961173177,0.00937425158917904,0.0214004721492529
121,0.003249371657148,0.00806515477597713,0.00523032248020172,0.00774261029437184,0.0103016188368201,0.0202515553683043
122,0.00313366483896971,0.0065650106407702,0.00523330364376307,0.00784026365727186,0.0132951941341162,0.0158725585788488
123,0.00308985984884202,0.0048006740398705,0.0032436812762171,0.0055294050835073,0.0155273368582129,0.0102299572899938
124,0.00311611406505108,0.00342206167988479,0.000224872230319306,0.00250805099494755,0.015824630856514,0.0055745467543602
125,0.00266448920592666,0.00182377616874874,-0.00265582534484565,-5.0826962251449E-05,0.0144578339532018,0.00245293136686087
126,0.00131925439927727,-0.000747983693145216,-0.00418168399482965,-0.0016183425905183,0.0137235578149557,0.000557179213501513
127,-7.98232576926239E-05,-0.00436354335397482,-0.00446103885769844,-0.00300403381697834,0.0154408812522888,-0.00123875634744763
128,5.75295671296772E-05,-0.00754313683137298,-0.00499571720138192,-0.00512812240049243,0.0182377900928259,-0.00347034377045929
129,0.00159271433949471,-0.00893229339271784,-0.00614708522334695,-0.00651390012353659,0.0190548002719879,-0.00389939011074603
130,0.00338294077664614,-0.00833943299949169,-0.00590981403365731,-0.00401958916336298,0.0169747360050678,-0.000127048202557489
131,0.00502449553459883,-0.00692291650921106,-0.0032557756640017,0.00201865215785801,0.0135097848251462,0.00597933493554592
132,0.00650411285459995,-0.00619950890541077,5.29344360984396E-05,0.00757968332618475,0.0100667122751474,0.0112577453255653
133,0.00831755995750427,-0.00552407698705792,0.0020542205311358,0.010222190991044,0.0071113589219749,0.0155644714832306
134,0.0111800124868751,-0.00282556796446443,0.00271674618124962,0.0104666128754616,0.005102613940835,0.0200480949133635
135,0.0137856137007475,0.000915431941393763,0.00191637792158872,0.00853477325290442,0.00371398939751089,0.0226300749927759
136,0.0142166661098599,0.00300944852642715,-0.000243891568970867,0.00518495636060834,0.00221474841237068,0.020779637619853
137,0.0134784057736397,0.00385339744389057,-0.0011231143726036,0.00373825966380537,0.00155296246521175,0.0164812430739403
138,0.0132680349051952,0.004414735827595,0.000396735675167292,0.00470773596316576,0.00267917360179126,0.0114149479195476
139,0.0137297501787543,0.00496907299384475,0.0025528718251735,0.00521825440227985,0.00492741400375962,0.00581312365829945
140,0.0137623585760593,0.0067959357984364,0.00364679633639753,0.00418927101418376,0.00609438167884946,0.0020225690677762
141,0.0122354403138161,0.0103278988972306,0.00313414447009563,0.00258182175457478,0.00477704592049122,0.00203705439344049
142,0.00987966265529394,0.0138404928147793,0.00196484383195639,0.00158835633192211,0.00285629322752357,0.00481478776782751
143,0.00795328989624977,0.0141632733866572,0.000959948811214417,0.00135372066870332,0.00272007565945387,0.00699992291629314
144,0.0065382793545723,0.0103006148710847,0.000539805798325688,0.00218482012860477,0.00473352521657944,0.00715535366907716
145,0.00490995310246944,0.00542955286800861,0.00178918079473078,0.00491030653938651,0.00718372641131282,0.00749812880530953
146,0.00304111698642373,0.00239803362637758,0.00504602212458849,0.0082568172365427,0.00770311802625656,0.00866019260138273
147,0.00262315175496042,0.000920754217077047,0.00911075808107853,0.00909558683633804,0.0064230733551085,0.00823833886533976
148,0.00456029223278165,-0.000831719662528485,0.0117833279073238,0.00525078363716602,0.00536942528560758,0.0046944310888648
149,0.00743889203295112,-0.00359535869210958,0.0112395798787475,-0.000403071549953893,0.00551807135343552,0.000392353627830744
150,0.00932395830750465,-0.00692763598635793,0.00759967043995857,-0.00284749595448375,0.00691475812345743,-0.00113261584192514
151,0.00905011128634214,-0.0106826666742563,0.00199025962501764,-0.00264956965111196,0.0092979334294796,-0.000258762564044446
152,0.00600380217656493,-0.0141607969999313,-0.00506635801866651,-0.00429023476317525,0.0102405529469252,0.000466488301753998
153,0.00165795790962875,-0.0149573115631938,-0.0118267564103007,-0.00852019246667624,0.00764580257236958,0.00104482111055404
154,-0.000793684739619493,-0.0113511877134442,-0.0154095878824592,-0.0117547372356057,0.00341185880824924,0.00329101271927357
155,-0.000872799835633487,-0.00605014245957136,-0.015713369473815,-0.0128345256671309,-0.000263173104031011,0.00616025319322944
156,0.000462444848380983,-0.00238736579194665,-0.0140136787667871,-0.0127885481342673,-0.0019823326729238,0.00786211993545294
157,0.00231784186325967,-0.000733071065042168,-0.0111263664439321,-0.0117117576301098,-0.00117775239050388,0.00815131794661283
158,0.00301258033141494,-0.000869726529344916,-0.00809899345040321,-0.0101389652118087,0.000718339637387544,0.00605202140286565
159,0.0023562905844301,-0.00237728189677,-0.0055697881616652,-0.00828237552195787,0.00308513687923551,0.00256764166988432
160,0.00164352939464152,-0.00491324160248041,-0.00352169084362686,-0.00464572012424469,0.00658978940919042,0.00112720998004079
161,0.00115463533438742,-0.00849521439522505,-0.00159926479682326,0.000893427815753967,0.00990737229585648,0.00184799626003951
162,-0.000165369288879447,-0.0116189355030656,-0.000514283194206655,0.00513925682753325,0.00990642886608839,0.00250208820216358
163,-0.00205251970328391,-0.0124098993837833,-0.000713056593667716,0.00601235823705792,0.00685193575918674,0.00257264939136803
164,-0.00285776727832854,-0.0107971113175154,-0.00113758165389299,0.00369409983977675,0.00434635020792484,0.00111203850246966
165,-0.00214118883013725,-0.0075786029919982,-0.0014239166630432,-0.00154034676961601,0.00466217193752527,-0.00292286160402
166,-0.00066758319735527,-0.0036134326364845,-0.00224045198410749,-0.00796810537576675,0.00635650008916855,-0.00784730911254883
167,-8.9444938566885E-06,-0.000241109941271134,-0.00471397582441568,-0.0134582417085767,0.0052648801356554,-0.0107168573886156
168,-0.000813556485809386,0.00138456467539072,-0.00861336570233107,-0.0169218517839909,0.000713270215783268,-0.00952782202512026
169,-0.00146143313031644,0.00130593159701675,-0.0117986099794507,-0.0180849097669125,-0.00358494906686246,-0.00509538780897856
170,-0.00189128436613828,-0.000728265848010778,-0.0141633432358503,-0.0189776662737131,-0.00708074541762471,-0.00131512433290482
171,-0.00315618072636426,-0.00461241276934743,-0.0166477765887976,-0.0208123214542866,-0.0111504141241312,-0.000577593746129423
172,-0.00387864257209003,-0.00881736353039742,-0.0180600695312023,-0.021388690918684,-0.0138385584577918,-0.00219704210758209
173,-0.00320301670581102,-0.0124425124377012,-0.0182070881128311,-0.0197279546409845,-0.0145615730434656,-0.00547237927094102
174,-0.00267140194773674,-0.0148710226640105,-0.0184729695320129,-0.0177575629204512,-0.0150623936206102,-0.00996370799839497
175,-0.00352305709384382,-0.0156501810997725,-0.0193218365311623,-0.0174537431448698,-0.0152491200715303,-0.0149900838732719
176,-0.00556168984621763,-0.0159747879952192,-0.0208131987601519,-0.0200067311525345,-0.0152226528152823,-0.0203820578753948
177,-0.00799475610256195,-0.017684580758214,-0.022860350087285,-0.025653762742877,-0.0168887842446566,-0.0263562332838774
178,-0.00952977128326893,-0.0204151570796967,-0.0242164209485054,-0.0319231860339642,-0.0211559925228357,-0.0315261073410511
179,-0.00896169804036617,-0.021942762658,-0.0235451385378838,-0.0354085266590118,-0.0257887374609709,-0.0334257483482361
180,-0.00619256915524602,-0.0213133115321398,-0.0213365945965052,-0.0357407219707966,-0.0278356894850731,-0.0321494303643703
181,-0.00196311227045953,-0.0191652998328209,-0.0188282858580351,-0.0341860838234425,-0.02651222422719,-0.0291396100074053
182,0.0021205865778029,-0.0169767960906029,-0.0170485991984606,-0.0320693217217922,-0.0235402248799801,-0.0251264646649361
183,0.00393529003486037,-0.0164328571408987,-0.017508327960968,-0.0310815684497356,-0.0228665918111801,-0.0218400694429874
184,0.00312830484472215,-0.0179233551025391,-0.0208271201699972,-0.0320542268455029,-0.0260128416121006,-0.0213158894330263
185,0.00190568412654102,-0.0196978654712439,-0.0245023928582668,-0.0336320400238037,-0.0293936412781477,-0.0230134148150682
186,0.00131235166918486,-0.0198183618485928,-0.0258609056472778,-0.0328786037862301,-0.030590895563364,-0.0243490878492594
187,-1.78945356310578E-05,-0.0191466528922319,-0.0261449404060841,-0.0299090966582298,-0.0313638933002949,-0.0252249501645565
188,-0.00289628328755498,-0.0202729776501656,-0.0281097386032343,-0.0293942261487246,-0.0338729508221149,-0.0285785440355539
189,-0.00704536121338606,-0.0236076936125755,-0.0319160968065262,-0.0341734476387501,-0.0383942201733589,-0.0349947959184647
190,-0.0106066940352321,-0.0266485344618559,-0.0346096456050873,-0.0412032678723335,-0.0426715165376663,-0.0412669703364372
191,-0.011217393912375,-0.0276297945529222,-0.0342180840671062,-0.0463428311049938,-0.0441354103386402,-0.0445355921983719
192,-0.0100214192643762,-0.0273700542747974,-0.0337831974029541,-0.049053467810154,-0.0434935949742794,-0.0446649603545666
193,-0.0095215542241931,-0.0265362020581961,-0.036593284457922,-0.050167690962553,-0.0427636466920376,-0.0426422357559204
194,-0.00930232182145119,-0.0252215694636106,-0.0398974157869816,-0.0490376651287079,-0.0418910980224609,-0.038939543068409
195,-0.00775799667462707,-0.0235508438199759,-0.0392619967460632,-0.0448507815599442,-0.0388629958033562,-0.0340233482420444
196,-0.00529073923826218,-0.0200749356299639,-0.0354363061487675,-0.0389596708118916,-0.0329552255570889,-0.0289783701300621
197,-0.00355281191878021,-0.0144279533997178,-0.0315886326134205,-0.0332258082926273,-0.0260267350822687,-0.0247938428074121
198,-0.00342542142607272,-0.00928158685564995,-0.0294084195047617,-0.0277835801243782,-0.0205600522458553,-0.022024242207408
199,-0.00366088096052408,-0.00546771893277764,-0.0280753150582314,-0.0206616781651974,-0.0174835454672575,-0.0195457227528095
200,-0.00207273964770138,-0.00183734367601573,-0.025145810097456,-0.0118184108287096,-0.0154908830299973,-0.0161606650799513
201,0.000894612516276538,0.00101628480479121,-0.020710289478302,-0.00567450607195497,-0.0133929420262575,-0.0130346100777388
202,0.0040900120511651,0.00333668338134885,-0.015541598200798,-0.00357929011806846,-0.0102549456059933,-0.00987783912569284
203,0.00739826029166579,0.00628056516870856,-0.00957749504595995,-0.00295447930693626,-0.00661795400083065,-0.00500381691381335
204,0.00957587826997042,0.00880304723978043,-0.00452294759452343,-0.00326119898818433,-0.00584160862490535,0.00080323254223913
205,0.00871128588914871,0.00904874410480261,-0.00243598548695445,-0.00544792180880904,-0.00964006315916777,0.00480460748076439
206,0.00487176794558764,0.00727351102977991,-0.00303634558804333,-0.00851976126432419,-0.0150433694943786,0.00554727343842387
207,9.70236360444687E-05,0.00494015216827393,-0.00509102130308747,-0.0104411533102393,-0.018515033647418,0.00307294214144349
208,-0.00349572533741593,0.00291313766501844,-0.00787143502384424,-0.0112515892833471,-0.0193698275834322,-0.00304652797058225
209,-0.00403498951345682,0.00266374461352825,-0.0096172271296382,-0.0113863088190556,-0.01765370182693,-0.0116337537765503
210,-0.00158204277977347,0.00450385827571154,-0.00916444696485996,-0.0104681393131614,-0.0144492760300636,-0.0195888690650463
211,0.00212140730582178,0.00659438595175743,-0.00671668024733663,-0.00810257345438004,-0.012209608219564,-0.0249099656939507
212,0.00552251655608416,0.00788778066635132,-0.00311522767879069,-0.00392156234011054,-0.0115910554304719,-0.0269082188606262
213,0.00640878500416875,0.00800591334700584,-0.00097474898211658,0.00114882411435246,-0.0116492500528693,-0.0252608768641949
214,0.00373052107170224,0.00706728594377637,-0.00160434981808066,0.00547087611630559,-0.0126829454675317,-0.0196986440569162
215,0.000322739419061691,0.00640003755688667,-0.00292481970973313,0.00833204109221697,-0.0144395651295781,-0.0105369342491031
216,-0.00099174992647022,0.00600758707150817,-0.00314004998654127,0.00939429644495249,-0.0148482518270612,-0.000935543444938958
217,-0.00076546095078811,0.00478552561253309,-0.00221166457049549,0.00913863535970449,-0.0132771208882332,0.00481049437075853
218,0.00034162963856943,0.0032887551933527,-3.12619922624435E-05,0.0099612744525075,-0.0109514929354191,0.00635281996801496
219,0.00169126584660262,0.00232636625878513,0.00308980443514884,0.0133401211351156,-0.010027764365077,0.00630925176665187
220,0.00155054219067097,0.00262402696534991,0.00595192471519113,0.0172235388308764,-0.0112731037661433,0.00672290520742536
221,-0.000297557737212628,0.00539640290662646,0.00748391263186932,0.0184431914240122,-0.012791158631444,0.00800743699073792
222,-0.0022203701082617,0.0107162836939096,0.0072233946993947,0.0166509989649057,-0.0135531667619944,0.00994563102722168
223,-0.00345125584863126,0.0162948034703732,0.00486609665676951,0.013565119355917,-0.0141518767923117,0.0120752714574337
224,-0.00411172257736325,0.0190028939396143,0.00104973546694964,0.0115236379206181,-0.0139818135648966,0.0140175893902779
225,-0.00367368897423148,0.0172864980995655,-0.00177323701791465,0.0130697041749954,-0.01125274784863,0.0158543959259987
226,-0.00203650863841176,0.0126572214066982,-0.00247668102383614,0.0161902904510498,-0.00599072733893991,0.0151702677831054
227,0.00089273985940963,0.0103443842381239,-0.00170415069442242,0.015858480706811,0.000773426552768797,0.00908189918845892
228,0.00408270908519626,0.0126919597387314,-0.00103017641231418,0.0102871423587203,0.00702517898753285,-0.00208113249391317
229,0.00465492345392704,0.0163343474268913,-0.00230890768580139,0.00190162600483745,0.00941366422921419,-0.0144986724480987
230,0.00236776517704129,0.0182939469814301,-0.00475972844287753,-0.00494285486638546,0.00810715556144714,-0.0225331746041775
231,0.000596133409999311,0.0180710218846798,-0.00566359981894493,-0.00757115939632058,0.00649571092799306,-0.0239523574709892
232,0.00248027709312737,0.0169597268104553,-0.00283300457522273,-0.00609816797077656,0.00650691008195281,-0.0208340361714363
233,0.00757049303501844,0.0163807775825262,0.00279878871515393,-0.00240581668913364,0.00685697421431541,-0.0162432361394167
234,0.012557240203023,0.0165442172437906,0.00725903874263167,0.00191003712825477,0.00591784482821822,-0.0114042088389397
235,0.0150639805942774,0.0170595198869705,0.00790277402848005,0.00603378098458052,0.00427815830335021,-0.00580077106133103
236,0.0155712170526385,0.0176451485604048,0.00613219337537885,0.00942408293485641,0.00347993127070367,0.000658299599308521
237,0.0158108957111835,0.0178430452942848,0.00482574244961143,0.0122941136360168,0.00425474345684052,0.00667154416441917
238,0.0156314298510551,0.0163845121860504,0.0044351234100759,0.0143388509750366,0.00481570465490222,0.00982195511460304
239,0.0139095149934292,0.0134455282241106,0.00424203928560019,0.0151299629360437,0.00363220064900815,0.00974983908236027
240,0.0117924259975553,0.0114235961809754,0.0048494590446353,0.0154091799631715,0.00301569746807218,0.00868519488722086
241,0.0118601778522134,0.0117815751582384,0.00766520854085684,0.0161377377808094,0.00668280944228172,0.0077242418192327
242,0.0147184478119016,0.0141182858496904,0.0126760946586728,0.0178510900586843,0.0150198191404343,0.00692573701962829
243,0.0166090354323387,0.0165445003658533,0.0164012219756842,0.0195399448275566,0.021307272836566,0.00674179336056113
244,0.0145087884739041,0.0171678476035595,0.0160785559564829,0.0197008270770311,0.0202856436371803,0.0079325633123517
245,0.0115136718377471,0.0163639690726995,0.0140740470960736,0.0193798933178186,0.0171134285628796,0.0118935545906425
246,0.0105213653296232,0.0146858477964997,0.0129590211436152,0.0205635353922844,0.0159332528710365,0.0182604007422924
247,0.0110152112320066,0.0123657155781984,0.0128488736227155,0.0242751017212868,0.0152494329959154,0.0245398357510567
248,0.01188147906214,0.0108345448970795,0.0135204177349806,0.0301407817751169,0.0144159067422152,0.0291559286415577
249,0.0117166806012392,0.0108303660526872,0.0139781283214688,0.0348292216658592,0.0125685064122081,0.0308988057076931
250,0.0102421287447214,0.0118986442685127,0.0132402805611491,0.0343161784112453,0.00938377622514963,0.0284248236566782
251,0.00868711434304714,0.0138322720304132,0.0112792607396841,0.0278098173439503,0.00692339148372412,0.022053437307477
252,0.00821218825876713,0.0157045628875494,0.0087188147008419,0.0180619359016418,0.0073752379976213,0.0137700997292995
253,0.00940319057554007,0.0164905190467834,0.00748711125925183,0.0106153143569827,0.0116626676172018,0.00731884781271219
254,0.0111816944554448,0.0165607295930386,0.00862076599150896,0.00947952829301357,0.0179196409881115,0.00571152381598949
255,0.0112693998962641,0.0161213893443346,0.0111140850931406,0.013044822961092,0.0230400338768959,0.00773263070732355
256,0.00936498865485191,0.0158076398074627,0.0146469678729773,0.018038472160697,0.0265340805053711,0.0113361645489931
257,0.00646102707833052,0.0167004615068436,0.0185052026063204,0.0227032788097858,0.0280620343983173,0.0156234120950103
258,0.00239974912256002,0.0179142076522112,0.0199321117252111,0.0252767074853182,0.0250070113688707,0.0182628035545349
259,-0.00338230724446476,0.0170251782983541,0.017003508284688,0.0241861920803785,0.0168989039957523,0.0163618363440037
260,-0.009038046002388,0.0140279196202755,0.0123851411044598,0.0214507319033146,0.00955629162490368,0.0111044310033321
261,-0.011878521181643,0.0108738886192441,0.00969075690954924,0.0202407781034708,0.00801949575543404,0.00644196197390556
262,-0.0108517492190003,0.00777191668748856,0.00870494078844786,0.0208786148577929,0.011430075392127,0.00439114309847355
263,-0.0058390386402607,0.00602185493335128,0.00819366611540318,0.0226989854127169,0.017304927110672,0.00579462666064501
264,0.000910724571440369,0.00799311697483063,0.0078144920989871,0.0242702569812536,0.0221895892173052,0.009894541464746
265,0.00593453086912632,0.0118186986073852,0.00746217230334878,0.0239768754690886,0.0229551959782839,0.0131833469495177
266,0.00808453187346458,0.0138943297788501,0.00706886919215322,0.021440502256155,0.0197309553623199,0.0127895567566156
267,0.00910208374261856,0.0140691511332989,0.00758156320080161,0.0181142464280128,0.0166288372129202,0.00979343894869089
268,0.00992769654840231,0.01360565982759,0.00986052583903074,0.0159354750066996,0.0164086874574423,0.00701353792101145
269,0.00941379182040691,0.0131547730416059,0.0129760121926665,0.0155888609588146,0.0168108679354191,0.0064868563786149
270,0.00809429213404655,0.0136721739545465,0.0156046012416482,0.0177602414041758,0.0165763236582279,0.00950345303863287
271,0.00740199303254485,0.0151867084205151,0.0167590100318193,0.0223502907902002,0.0164152774959803,0.0150700053200126
272,0.0067947143688798,0.0159621182829142,0.0160244647413492,0.0267765484750271,0.0154235549271107,0.0192678142338991
273,0.00529659586027265,0.0149559117853642,0.0139736169949174,0.0290641225874424,0.0123358014971018,0.019497973844409
274,0.00248514977283776,0.0129413735121489,0.0115604726597667,0.030387032777071,0.0069701368920505,0.0179051477462053
275,-0.00111958058550954,0.0107269249856472,0.0101052643731236,0.0321436263620853,0.00164871837478131,0.0173943694680929
276,-0.00339354830794036,0.00820369180291891,0.0109804728999734,0.0338299758732319,0.000516699801664799,0.0171820968389511
277,-0.00366868451237679,0.0044195088557899,0.0129809835925698,0.0335043407976627,0.00342281814664602,0.0138414716348052
278,-0.00374862249009311,-0.000887692382093519,0.0131036667153239,0.0293530840426683,0.00619976315647364,0.00575979892164469
279,-0.00501786125823855,-0.00560218095779419,0.0108852004632354,0.0222207326442003,0.00701256701722741,-0.00383843411691487
280,-0.00675021857023239,-0.00623492524027824,0.0086731007322669,0.0158786196261644,0.00734080327674747,-0.00923780258744955
281,-0.00693293334916234,-0.00135412951931357,0.00865017622709274,0.0132029335945845,0.00894000101834536,-0.00779809849336743
282,-0.00509479595348239,0.00607963930815458,0.0105232428759336,0.0131566459313035,0.0120237413793802,-0.00199777539819479
283,-0.00343696447089314,0.0116776032373309,0.0113535961136222,0.0134123284369707,0.0150078637525439,0.00455990340560675
284,-0.00372098083607852,0.0139302602037787,0.00957898609340191,0.0136439306661487,0.0160789266228676,0.0101786628365517
285,-0.0039416360668838,0.014321762137115,0.00792537443339825,0.0150617193430662,0.0168945286422968,0.0144079439342022
286,-0.0016493903240189,0.0140468301251531,0.00846069678664207,0.0172405987977982,0.0195287875831127,0.0160273779183626
287,0.00138440588489175,0.0122403977438807,0.00921675562858582,0.0173332598060369,0.0216843448579311,0.0130967376753688
288,0.00198095408268273,0.0086275627836585,0.00961252767592669,0.0152477771043777,0.0214243680238724,0.00688084401190281
289,-0.000292270386125892,0.00461782701313496,0.0114813633263111,0.013751333579421,0.0194110665470362,0.00120627996511757
290,-0.00345198623836041,0.00136283983010799,0.0137890838086605,0.0130021469667554,0.0160097498446703,-0.00216316641308367
291,-0.00465955445542932,0.000183099837158807,0.0144944489002228,0.0126078352332115,0.0131982192397118,-0.00278049893677235
292,-0.00208413857035339,0.00255596591159701,0.014217883348465,0.0141328666359186,0.014315165579319,5.80539490329102E-05
293,0.00267690722830594,0.00693255988880992,0.0140706151723862,0.0183239672333002,0.0179071146994829,0.00539852026849985
294,0.00658218935132027,0.00995134003460407,0.0137274395674467,0.0234585516154766,0.0191712491214275,0.00951887015253305
295,0.00874805357307196,0.0114361960440874,0.0123631898313761,0.0253994092345238,0.017603438347578,0.00814519543200731
296,0.00974930822849274,0.0122731272131205,0.0104339960962534,0.0219100601971149,0.0177195183932781,0.00101926294155419
297,0.00964647065848112,0.0118064703419805,0.00893344450742006,0.0162681229412556,0.0212636049836874,-0.00711230654269457
298,0.00791783351451159,0.0106819411739707,0.00735670235008001,0.0122708724811673,0.0233324225991964,-0.011617798358202
299,0.00480556767433882,0.0102767944335938,0.00502737099304795,0.0104459067806602,0.0200978573411703,-0.0117812305688858
300,0.000916652439627796,0.0105379782617092,0.00264642154797912,0.0106926122680306,0.0135564906522632,-0.00890268851071596
301,-0.00353603926487267,0.0103145157918334,0.00121501949615777,0.0126488311216235,0.00786776840686798,-0.00403646286576986
302,-0.00814895145595074,0.00827005412429571,0.000386291852919385,0.013625817373395,0.00438908440992236,0.00102797255385667
303,-0.0109740607440472,0.00530429277569056,-3.45999287674204E-05,0.0124185718595982,0.00239326129667461,0.00471517955884337
304,-0.00981688406318426,0.00390179082751274,0.00152550963684917,0.0121058616787195,0.00264055375009775,0.00771003775298595
305,-0.00564991636201739,0.00315497117117047,0.00471909670159221,0.0138837015256286,0.00510187866166234,0.00943138916045427
306,-0.000466381054138765,0.00130484439432621,0.00770492758601904,0.0159136392176151,0.00856041442602873,0.00767342839390039
307,0.00462193321436644,0.000534420600160956,0.0107240993529558,0.0186254289001226,0.0122088538482785,0.00376525055617094
308,0.00697511900216341,0.00200302852317691,0.0129145029932261,0.0217716470360756,0.0136740310117602,0.000568795832805336
309,0.00489621236920357,0.00386691489256918,0.0127299670130014,0.0224139597266912,0.0114339264109731,-0.000723529723472893
310,0.000627234287094325,0.00605306727811694,0.0112006105482578,0.0202191639691591,0.00742108421400189,0.00163828139193356
311,-0.00241725239902735,0.0096002584323287,0.00965252704918385,0.0175161138176918,0.00450238725170493,0.0088585102930665
312,-0.00290091056376696,0.0132408272475004,0.00826510600745678,0.0155334677547216,0.00389678636565804,0.0179127790033817
313,-0.00188518618233502,0.0144623294472694,0.00709033431485295,0.0141481570899487,0.00435552699491382,0.0232837405055761
314,-2.78045081358869E-05,0.012820104137063,0.00743387080729008,0.0134694781154394,0.00536862621083856,0.0225106719881296
315,0.00202632811851799,0.00943024456501007,0.0096579696983099,0.0130567504093051,0.00666651176288724,0.0170675721019506
316,0.00223806360736489,0.0053512817248702,0.0117260497063398,0.0122758466750383,0.00688465684652328,0.0101307649165392
317,0.000493566796649247,0.00218141986988485,0.0128229130059481,0.0113373594358563,0.00785591918975115,0.00449279975146055
318,-6.38494748272933E-05,0.00111952936276793,0.0139152416959405,0.00992941111326218,0.0129682514816523,0.000244245253270492
319,0.00254297978244722,0.00157672353088856,0.0148915573954582,0.00773474248126149,0.020737761631608,-0.00374388415366411
320,0.00597341312095523,0.00173951708711684,0.014298009686172,0.00573433469980955,0.025986447930336,-0.00698553351685405
321,0.00849987845867872,0.00117560883518308,0.0122344763949513,0.00588530814275146,0.0270657017827034,-0.0081151220947504
322,0.0108904559165239,0.000622938445303589,0.00981692504137754,0.00809194426983595,0.0253911167383194,-0.00842189695686102
323,0.0125096132978797,-0.000706847349647433,0.0070803421549499,0.0090824868530035,0.0213883556425571,-0.0114974156022072
324,0.0125155346468091,-0.00305200414732099,0.00513394130393863,0.00762234907597303,0.0161242093890905,-0.0170939583331347
325,0.0110832350328565,-0.00519417086616158,0.0053274892270565,0.00601000152528286,0.0112823508679867,-0.0217828899621964
326,0.00876557361334562,-0.00670512160286307,0.00679372204467654,0.00608921283856034,0.00794912409037352,-0.0241208802908659
327,0.00697808852419257,-0.00749754812568426,0.00870753917843103,0.00856147240847349,0.00722586270421743,-0.0233512464910746
328,0.00687349028885365,-0.00770663609728217,0.0117616131901741,0.0131999850273132,0.00938352569937706,-0.0183970648795366
329,0.0078501719981432,-0.00834940746426582,0.0162469837814569,0.0188148021697998,0.012524489313364,-0.0091411704197526
330,0.00744822202250361,-0.00932947266846895,0.0196290835738182,0.0228923261165619,0.0133106708526611,0.00188399746548384
331,0.00402094516903162,-0.00857155676931143,0.0182221457362175,0.0212553422898054,0.0107419481500983,0.00911180675029755
332,-0.000366522726835683,-0.00538178905844688,0.0129514047876,0.0135531518608332,0.00757128046825528,0.00915700662881136
333,-0.00342348939739168,-0.00205254112370312,0.00783539190888405,0.00413054414093494,0.00525546725839376,0.0037218623328954
334,-0.00626225490123034,-0.00107133644632995,0.00313042779453099,-0.00415058061480522,0.00213282532058656,-0.00375794689171016
335,-0.00983592960983515,-0.00249939318746328,-0.00277334009297192,-0.0103375241160393,-0.00140503619331867,-0.0105521250516176
336,-0.0122375003993511,-0.0043529043905437,-0.00821707397699356,-0.013083940371871,-0.00235149147920311,-0.0146233001723886
337,-0.0116186877712607,-0.00494867889210582,-0.0106039457023144,-0.0116561111062765,0.000382749160053208,-0.0151390163227916
338,-0.00821817852556705,-0.00457618851214647,-0.00955651979893446,-0.00712001463398337,0.0057945242151618,-0.0133145479485393
339,-0.00289548351429403,-0.00352872023358941,-0.00579901970922947,-0.000721760559827089,0.0126787293702364,-0.0106985550373793
340,0.00230462849140167,-0.00174815452191979,-0.00146904110442847,0.00535993603989482,0.018654391169548,-0.00871556252241135
341,0.00485602021217346,4.89927515445743E-05,0.00136296066921204,0.00848209206014872,0.0213559437543154,-0.00851006899029016
342,0.00489790318533778,0.00147494964767247,0.00364464800804853,0.00883821677416563,0.0213387161493301,-0.00945229735225439
343,0.00369919161312282,0.00166435656137764,0.00588443502783775,0.00705796713009477,0.019666874781251,-0.0105914901942015
344,0.00159581832122058,-0.000367729808203876,0.00632685981690884,0.00282419193536043,0.0154496328905225,-0.0117084877565503
345,-0.00123207201249897,-0.00388402352109551,0.00518636358901858,-0.00171141291502863,0.00870972964912653,-0.0131323495879769
346,-0.0039024418219924,-0.0067634261213243,0.00499080354347825,-0.0026397907640785,0.00290038506500423,-0.014411005191505
347,-0.00548301078379154,-0.00767352012917399,0.00684387423098087,0.000629588030278683,0.00158211309462786,-0.0141287660226226
348,-0.00566931581124663,-0.00708029046654701,0.00973684992641211,0.00488530471920967,0.00451334565877914,-0.0123003600165248
349,-0.0045839617960155,-0.00651363050565124,0.0122478371486068,0.00682156067341566,0.00844557769596577,-0.0109715359285474
350,-0.00318012549541891,-0.00738793145865202,0.013495646417141,0.00545466039329767,0.00978397019207478,-0.012053482234478
351,-0.00226266821846366,-0.00968460272997618,0.0133836204186082,0.00226108310744166,0.00824774522334337,-0.0155166387557983
352,-0.00209870119579136,-0.0119663281366229,0.0126869902014732,-0.000493921630550176,0.00655666785314679,-0.019437937065959
353,-0.00294752535410225,-0.0121228760108352,0.0116600040346384,-0.00168614531867206,0.00579707231372595,-0.0212533306330442
354,-0.00403745099902153,-0.00928301457315683,0.00898337550461292,-0.00242882082238793,0.00490752747282386,-0.0207411516457796
355,-0.00442590052261949,-0.00538101699203253,0.00448076520115137,-0.00385651225224137,0.00390961905941367,-0.0194002464413643
356,-0.00435581896454096,-0.00330354808829725,0.000382351194275543,-0.00497050257399678,0.00444105686619878,-0.0170943047851324
357,-0.00430701300501823,-0.00400120858103037,-0.00177364621777087,-0.00380413886159658,0.0069122826680541,-0.0130587434396148
358,-0.0043146638199687,-0.00596680864691734,-0.00242427154444158,0.000361579557647929,0.00966089684516191,-0.0083534074947238
359,-0.00480995373800397,-0.00781153049319983,-0.00250630150549114,0.00457746256142855,0.0105942329391837,-0.00616883020848036
360,-0.00612838007509708,-0.00954097043722868,-0.00157344620674849,0.00521931983530521,0.00976068899035454,-0.00842573028057814
361,-0.00732410186901689,-0.0104087069630623,0.00149371405132115,0.00261167297139764,0.00962817948311567,-0.0126513130962849
362,-0.00762132648378611,-0.00905146729201078,0.00567890098318458,-0.000567215029150248,0.0114758722484112,-0.0155444238334894
363,-0.00782081112265587,-0.00642026355490088,0.0083558140322566,-0.0025055545847863,0.0139190563932061,-0.0171634573489428
364,-0.00908632669597864,-0.00535316718742251,0.0074947914108634,-0.00365996151231229,0.0142809879034758,-0.0195546112954617
365,-0.0108655225485563,-0.00681841792538762,0.00350648025050759,-0.00474924733862281,0.0114715769886971,-0.0230903755873442
366,-0.0117770163342357,-0.0101778516545892,-0.000944171042647213,-0.0043146749958396,0.00763704581186175,-0.0253309160470963
367,-0.0111353332176805,-0.0148347904905677,-0.00312239001505077,-0.000177549532963894,0.00585634773597121,-0.0234317108988762
368,-0.00936189573258162,-0.0177128855139017,-0.00270619709044695,0.00593222444877028,0.00542293442413211,-0.0177243091166019
369,-0.0085368724539876,-0.0156806614249945,-0.00215720338746905,0.00859271362423897,0.00157817522995174,-0.0122331837192178
370,-0.00899847317487001,-0.0100352289155126,-0.00229228404350579,0.00666927918791771,-0.00581393344327807,-0.00954154413193464
371,-0.00896757654845715,-0.00392923364415765,-0.00234922464005649,0.00336932600475848,-0.0115237757563591,-0.00792954303324223
372,-0.00895310193300247,-0.000288600800558925,-0.00358609459362924,-0.000184102522325702,-0.0139620117843151,-0.00600137142464519
373,-0.0102918799966574,-0.00101240572985262,-0.00669184979051352,-0.00442809797823429,-0.0147884199395776,-0.005201137624681
374,-0.0122524909675121,-0.00484942877665162,-0.00935028493404388,-0.00847686734050512,-0.0139767117798328,-0.00653665978461504
375,-0.0127803245559335,-0.00759171601384878,-0.00857249833643436,-0.00975791551172733,-0.0105781573802233,-0.0082738334313035
376,-0.0112483091652393,-0.00726180709898472,-0.00529853673651814,-0.00811680220067501,-0.00522336224094033,-0.00938060693442822
377,-0.00888634007424116,-0.00551184266805649,-0.00268972641788423,-0.00571916997432709,0.000616258999798447,-0.00987647939473391
378,-0.00676119001582265,-0.00311318878084421,-0.000457510584965348,-0.00192205421626568,0.00585298193618655,-0.00744793331250548
379,-0.00615224195644259,-0.00120987999252975,0.00174569303635508,0.00311895250342786,0.00909133814275265,-0.00251561985351145
380,-0.00679040979593992,-0.00187266455031931,0.00280444067902863,0.00664288504049182,0.0101050278171897,0.000355607277015224
381,-0.00704090297222137,-0.00527350092306733,0.00330649386160076,0.00728674698621035,0.00975753460079432,-0.000765321776270866
382,-0.00725393695756793,-0.00978279765695333,0.00354687916114926,0.005618950817734,0.00836007576435804,-0.00420776708051562
383,-0.00778284762054682,-0.0125598963350058,0.00277371262200177,0.00414928421378136,0.00688470294699073,-0.00682123471051455
384,-0.00823009293526411,-0.0121841141954064,0.000888330978341401,0.00472560012713075,0.00595245836302638,-0.00663142185658216
385,-0.00887627899646759,-0.0100204898044467,-0.000794581777881831,0.00700152525678277,0.00493052555248141,-0.00457935407757759
386,-0.00998883787542582,-0.00768702710047364,-0.00050446466775611,0.0114707304164767,0.00318602938205004,-0.00126410159282386
387,-0.0116761205717921,-0.00592638365924358,0.00172852422110736,0.0175061132758856,0.00064666970865801,0.0035665191244334
388,-0.0125199472531676,-0.00321955536492169,0.00498058646917343,0.0220018960535526,-0.000695971248205751,0.00938444957137108
389,-0.0109934732317925,0.00215027178637683,0.00844998750835657,0.022620964795351,0.000730163941625506,0.0145011693239212
390,-0.0090533597394824,0.00768573023378849,0.0102358981966972,0.0184086970984936,0.00259695365093648,0.0160474106669426
391,-0.00862892251461744,0.0107901683077216,0.00954199768602848,0.0118167502805591,0.00268357177264988,0.0142807960510254
392,-0.00877665262669325,0.011624239385128,0.00765720196068287,0.00711707258597016,0.00143014907371253,0.0124573074281216
393,-0.00952807255089283,0.00931572075933218,0.00439403299242258,0.00387858645990491,-0.00101891974918544,0.010706814005971
394,-0.0111946379765868,0.00387781392782927,-0.000614180113188922,0.000170238563441671,-0.00360774295404553,0.00791009142994881
395,-0.0119196446612477,-0.00142162689007819,-0.00515019800513983,-0.00253746868111193,-0.00384682510048151,0.00515414122492075
396,-0.0109625114127994,-0.00465934490785003,-0.00744451908394694,-0.00340394745580852,-0.00172998185735196,0.00227097631432116
397,-0.00948995631188154,-0.00693871499970555,-0.00789147894829512,-0.00366287678480148,0.00106495234649628,-0.00213377154432237
398,-0.00801146402955055,-0.00864309072494507,-0.00662122340872884,-0.00301805790513754,0.00356514798477292,-0.00686047878116369
399,-0.00679905153810978,-0.0092351483181119,-0.00306158023886383,-7.81569760874845E-05,0.0053705875761807,-0.00975077040493488
400,-0.00650801369920373,-0.00953524094074965,0.00202318490482867,0.00501497508957982,0.00678745005279779,-0.0105890287086368
401,-0.00746634462848306,-0.010357815772295,0.00625238195061684,0.0105558717623353,0.00785641185939312,-0.00990701653063297
402,-0.00998412072658539,-0.0111788082867861,0.00724156759679317,0.0135995792225003,0.0072348453104496,-0.00774313788861036
403,-0.0136779099702835,-0.0108829569071531,0.004560143686831,0.0118034407496452,0.00360093987546861,-0.00473792850971222
404,-0.0165723357349634,-0.00852091796696186,0.000426133890869096,0.00645226612687111,-0.00171747978311032,-0.00215886486694217
405,-0.0166604500263929,-0.00408761668950319,-0.00158022565301508,0.00206123339012265,-0.00523998634889722,0.00012844979937654
406,-0.0141802756115794,0.000343181163771078,1.95958946846986E-07,0.00114255351945758,-0.00569421565160155,0.00196035299450159
407,-0.0108356224372983,0.00251280865631998,0.00340724247507751,0.00247324211522937,-0.00389721593819559,0.00268779648467898
408,-0.00735738966614008,0.0026972081977874,0.00650680623948574,0.00450126919895411,-0.000249616277869791,0.00312117300927639
409,-0.00404718844220042,0.00173817959148437,0.00787774194031954,0.00508796749636531,0.00364611251279712,0.00305743189528584
410,-0.00243505463004112,0.000256340019404888,0.00704921875149012,0.00294164987280965,0.005173628218472,0.00256486283615232
411,-0.00359407090581954,-0.000618598074652255,0.00533254723995924,0.000114216622023378,0.00460017751902342,0.00351161579601467
412,-0.00662338640540838,-0.000945485604461282,0.00433384487405419,-0.0016585000557825,0.00502214068546891,0.00525789754465222
413,-0.00994313415139914,-0.00190675572957844,0.00394906010478735,-0.00300846039317548,0.00703902123495936,0.00486656744033098
414,-0.0109268492087722,-0.00286728702485561,0.00399816874414682,-0.00359859154559672,0.00964046269655228,0.003329694038257
415,-0.00741411838680506,-0.00193046755157411,0.0052104159258306,-0.00136046833358705,0.0139034604653716,0.00547087425366044
416,-0.00123490404803306,0.000540723849553615,0.00766190188005567,0.00445620436221361,0.0197514519095421,0.0125773260369897
417,0.00296125304885209,0.00300384452566504,0.00990691501647234,0.0107434410601854,0.0243101418018341,0.0198353789746761
418,0.00320565816946328,0.00494513474404812,0.0104698650538921,0.0137199489399791,0.0258885230869055,0.0218365322798491
419,0.00215386273339391,0.00546400947496295,0.00955843646079302,0.0137521764263511,0.0248718149960041,0.0172149464488029
420,0.00192486040759832,0.003269262611866,0.00777891464531422,0.0121754016727209,0.0219234880059958,0.00789611786603928
421,0.00205178093165159,-0.00046629534335807,0.0055493637919426,0.00963206123560667,0.0182571038603783,-0.00167410739231855
422,0.00190418178681284,-0.00191467290278524,0.00383269647136331,0.00796266552060843,0.0148736089468002,-0.00616460619494319
423,0.00156703207176179,0.000989077263511717,0.00376478559337556,0.00793701224029064,0.0122390789911151,-0.00395218608900905
424,0.000873065728228539,0.00547946291044354,0.0050353822298348,0.00772563880309463,0.00999094173312187,0.00084268330829218
425,-0.000706096354406327,0.00780385825783014,0.00626182742416859,0.00575191900134087,0.00676640355959535,0.00301773985847831
426,-0.00258238334208727,0.00770166330039501,0.00735177658498287,0.00278027402237058,0.00273504294455051,0.00155134138185531
427,-0.00421552173793316,0.00671284692361951,0.00866274535655975,0.000423466291977093,-0.000662889739032835,-0.00119364552665502
428,-0.00531783327460289,0.00612930534407496,0.0100830355659127,-7.2640154940018E-06,-0.00211006356403232,-0.00176639971323311
429,-0.00465311901643872,0.006862448528409,0.0114078186452389,0.00182080920785666,4.94865998916794E-05,0.00185304996557534
430,-0.00256878440268338,0.00824634172022343,0.012025753967464,0.00527096819132566,0.00514316000044346,0.00800622440874577
431,-0.00173382856883109,0.00851014535874128,0.0121296253055334,0.00998302083462477,0.00854231417179108,0.014343942515552
432,-0.00301888724789023,0.00756902992725372,0.0127142732962966,0.0153849935159087,0.00815429072827101,0.0207466594874859
433,-0.0045747235417366,0.00696798926219344,0.0139876380562782,0.0192718748003244,0.00829747132956982,0.0264156647026539
434,-0.00494435569271445,0.00744126504287124,0.0155526679009199,0.0191753432154655,0.0127240410074592,0.0289054084569216
435,-0.00464267702773213,0.00844878982752562,0.0162836071103811,0.015214960090816,0.0189327280968428,0.0278350170701742
436,-0.00434598606079817,0.00941748172044754,0.0154870199039578,0.0103710433468223,0.0224210098385811,0.0257499646395445
437,-0.00309163494966924,0.00991252157837152,0.0141609702259302,0.00720387371256948,0.0228572897613049,0.0240935608744621
438,-0.00109886866994202,0.00912623014301062,0.0130014466121793,0.00589547120034695,0.0220322515815496,0.0219443719834089
439,0.000234414852457121,0.00765763688832521,0.0121432263404131,0.00569907668977976,0.0204277969896793,0.019487127661705
440,0.00115731859114021,0.00706231407821178,0.0115422885864973,0.00501840841025114,0.0189914181828499,0.0175577905029058
441,0.00178437074646354,0.00735382083803415,0.0110041219741106,0.0029527647420764,0.0183189082890749,0.0167077481746674
442,0.00162728189025074,0.00767382094636559,0.0110822357237339,0.00139717769343406,0.016958137974143,0.017774797976017
443,0.00115318258758634,0.0075521869584918,0.0120428865775466,0.00215442874468863,0.0137512199580669,0.0196057073771954
444,0.000759096059482545,0.00694488314911723,0.0135329933837056,0.00464138155803084,0.00929163675755262,0.0195810962468386
445,0.000773948850110173,0.00630036415532231,0.015894902870059,0.00781186856329441,0.00516618462279439,0.0171505808830261
446,0.00118803407531232,0.00580482883378863,0.0184767413884401,0.0108456164598465,0.00208803871646523,0.0135621810331941
447,5.64770125492942E-05,0.00407331343740225,0.0181390531361103,0.0114481402561069,-0.000528915319591761,0.00906442105770111
448,-0.00293749407865107,0.000650635920464993,0.0143290050327778,0.00932149775326252,-0.00194154097698629,0.00468422565609217
449,-0.00447255885228515,-0.0026929727755487,0.0105319628491998,0.00746646290645003,-0.0011601927690208,0.00241194851696491
450,-0.00188926164992154,-0.00414081569761038,0.00887525267899036,0.00650029303506017,0.00115737167652696,0.0021337519865483
451,0.0036014961078763,-0.00299062137492001,0.00818228162825108,0.00473783351480961,0.00367420841939747,0.00277937646023929
452,0.00817292928695679,-0.000675066083204001,0.00636154087260365,0.00196881918236613,0.00493354164063931,0.00390486186370254
453,0.010226427577436,0.00151706743054092,0.00461607100442052,-5.50350960111246E-05,0.0052694589830935,0.00607139337807894
454,0.0102636804804206,0.00247231544926763,0.00516071915626526,-0.000953499460592866,0.00546335242688656,0.00860196817666292
455,0.00861315429210663,-0.00027420389233157,0.00696643628180027,-0.00156482553575188,0.00627005845308304,0.00958355236798525
456,0.00597777403891087,-0.00544128613546491,0.0077757858671248,-0.00109498074743897,0.00823940429836512,0.00886779371649027
457,0.00274102855473757,-0.00791859161108732,0.00636020908132195,-1.19162614282686E-05,0.00916866865009069,0.00686793541535735
458,8.61112785059959E-05,-0.00581343472003937,0.00426829885691404,9.93584108073264E-05,0.00798841007053852,0.00440089916810393
459,-0.000222008849959821,-0.0013731267536059,0.00451707700267434,-0.000843368528876454,0.00639849435538054,0.00261874939315021
460,0.000830371107440442,0.00232710875570774,0.00719256931915879,-0.00275745312683284,0.00464843260124326,0.00086550455307588
461,0.000926673237700015,0.00351725402288139,0.00966588780283928,-0.00557547016069293,0.00144035287667066,-0.0019429117674008
462,0.000175565524841659,0.00294572813436389,0.011216321028769,-0.00824713055044413,-0.00272773765027523,-0.00482366746291518
463,-0.000694893300533295,0.00159274064935744,0.012733836658299,-0.00963300094008446,-0.00723031722009182,-0.00617312453687191
464,-0.00192031357437372,-0.000678534561302513,0.0139749925583601,-0.00984953437000513,-0.0117110777646303,-0.00554179307073355
465,-0.00373911601491272,-0.00390664907172322,0.0139421997591853,-0.0108830938115716,-0.0139342555776238,-0.00428981287404895
466,-0.00593145005404949,-0.00669501489028335,0.0124019188806415,-0.0130561711266637,-0.0129370987415314,-0.0036409217864275
467,-0.0070035676471889,-0.00720735685899854,0.0103970477357507,-0.0137399649247527,-0.00933208223432302,-0.00329201272688806
468,-0.00605328986421227,-0.00676877284422517,0.00812883675098419,-0.0128059554845095,-0.00410528806969523,-0.00411845557391644
469,-0.00435082800686359,-0.00716482661664486,0.00506234634667635,-0.0117328092455864,0.000442246906459332,-0.00544673250988126
470,-0.00322988093830645,-0.00724866474047303,0.00165312946774065,-0.0100777540355921,0.00285602756775916,-0.00387792708352208
471,-0.00263013155199587,-0.00566029502078891,-0.000751234299968928,-0.0071857487782836,0.00361167034134269,0.00102580478414893
472,-0.00215745298191905,-0.00259291892871261,-0.00097077718237415,-0.00374096818268299,0.00311307981610298,0.00609137071296573
473,-0.00197658408433199,-0.000169957333127968,0.00030084140598774,-0.0014856664929539,0.00120905099902302,0.00797528587281704
474,-0.00197958201169968,-0.000402791134547442,0.00164935202337801,-0.000726958736777306,-0.00134156493004411,0.00679040979593992
475,-0.00120015360880643,-0.0013452727580443,0.00391356274485588,0.000602567277383059,-0.00265580718405545,0.00619598943740129
476,0.000220426562009379,-0.000368281762348488,0.00737986201420426,0.00296365073882043,-0.00284585566259921,0.00712273083627224
477,0.000724537356290966,0.00160566030535847,0.00964542757719755,0.004466044716537,-0.00378392240963876,0.00722283218055964
478,9.77095987764187E-06,0.0029935643542558,0.00977708213031292,0.00418690778315067,-0.00567357009276748,0.00590818142518401
479,-0.00105229578912258,0.0031822114251554,0.00908056367188692,0.00169072253629565,-0.00786519888788462,0.00358630623668432
480,-0.00224362360313535,0.00234858389012516,0.00837012007832527,-0.00315981451421976,-0.0100710829719901,0.000499944027978927
481,-0.00403975928202271,0.00190336396917701,0.00687975389882922,-0.00846342276781797,-0.0123698720708489,-0.00207457831129432
482,-0.00573069043457508,0.00309008779004216,0.00423089554533362,-0.0114303417503834,-0.0143730957061052,-0.00240806001238525
483,-0.00537311006337404,0.00607986701652408,0.00194207043386996,-0.0108950575813651,-0.0145015371963382,0.000651317066513002
484,-0.00238708080723882,0.00987458415329456,0.000587075890507549,-0.00860741641372442,-0.012134256772697,0.00581762054935098
485,0.00193859566934407,0.0126110957935452,-0.00052894139662385,-0.006828005425632,-0.00833512097597122,0.00964648276567459
486,0.00616197334602475,0.0127741377800703,-0.000841750064864755,-0.00548083614557981,-0.00405190978199244,0.0106105888262391
487,0.00970084220170975,0.0095815546810627,0.000505616131704301,-0.00283960276283324,0.000730424537323415,0.0100520206615329
488,0.0125032523646951,0.00423443829640746,0.00319143640808761,0.00265599158592522,0.00558946002274752,0.00969278533011675
489,0.0140468096360564,0.000972231151536107,0.00554300053045154,0.00840648915618658,0.00827012583613396,0.00940681435167789
490,0.0130283888429403,0.00151160405948758,0.0052228095009923,0.00844124611467123,0.00687781535089016,0.00678306864574552
491,0.00996217876672745,0.00295676710084081,0.00314280809834599,0.00205384963192046,0.00410417607054114,0.00056315038818866
492,0.00726312678307295,0.00394328497350216,0.00282789557240903,-0.00581210339441895,0.00358823104761541,-0.00676145451143384
493,0.00630965596064925,0.00535479839891195,0.00520517863333225,-0.0103425206616521,0.00432900665327907,-0.0106893172487617
494,0.00683507369831204,0.00682148477062583,0.00859255623072386,-0.00956200528889894,0.00380176142789423,-0.00878780335187912
495,0.00629036920145154,0.0059317690320313,0.00982650462538004,-0.00723070418462157,-0.000150100837345235,-0.00433851592242718
496,0.00277588795870543,0.00135093799326569,0.00708112958818674,-0.00914614647626877,-0.00788716413080692,-0.00282662198878825
497,-0.00166663597337902,-0.0046698753722012,0.00249478477053344,-0.0155570935457945,-0.0165435131639242,-0.00467137759551406
498,-0.00430958159267902,-0.00920421537011862,-0.0013116238405928,-0.0218074060976505,-0.0231013800948858,-0.00618431949988008
499,-0.00457795616239309,-0.0112025169655681,-0.00382389407604933,-0.0237205047160387,-0.0267510116100311,-0.00545077072456479
500,-0.00408562878146768,-0.0118935285136104,-0.00578341633081436,-0.021525327116251,-0.0282755754888058,-0.00382193876430392
501,-0.00415781373158097,-0.0124947624281049,-0.00711959367617965,-0.0177010651677847,-0.0277075171470642,-0.00229089078493416
502,-0.00384337222203612,-0.0119198970496655,-0.00706483237445354,-0.0135677875950933,-0.0247542578727007,-0.000192871710169129
503,-0.00238536368124187,-0.00983512308448553,-0.00576542085036635,-0.0105417799204588,-0.020144322887063,0.0021684686653316
504,-0.00113486999180168,-0.00846427213400602,-0.00469234120100737,-0.010941868647933,-0.015733091160655,0.00241575762629509
505,-0.00155857601203024,-0.0095106353983283,-0.00550631526857615,-0.0157743692398071,-0.0135937314480543,-0.00139997235964984
506,-0.00281608244404197,-0.0124034667387605,-0.00773918442428112,-0.0222717449069023,-0.0126580651849508,-0.0076187145896256
507,-0.00410950696095824,-0.0163770131766796,-0.0105691347271204,-0.0276906620711088,-0.0107867047190666,-0.0138098876923323
508,-0.00634948397055268,-0.020389499142766,-0.0137173626571894,-0.0319001860916615,-0.00883617158979177,-0.0188516452908516
509,-0.00919869169592857,-0.021948954090476,-0.0153974033892155,-0.0329657085239887,-0.00818072631955147,-0.0211088266223669
510,-0.0102420151233673,-0.0201055686920881,-0.0141067793592811,-0.0283502731472254,-0.00892685726284981,-0.020195359364152
511,-0.00782388541847467,-0.0168411675840616,-0.0111289862543345,-0.0207827128469944,-0.0102573949843645,-0.0182742290198803
512,-0.0042273891158402,-0.0147540383040905,-0.0102067785337567,-0.0169268138706684,-0.0119955549016595,-0.0181047301739454
513,-0.00360289891250432,-0.0151712521910667,-0.0139582464471459,-0.0202133432030678,-0.0156748071312904,-0.0212303474545479
514,-0.00657610921189189,-0.0175437107682228,-0.0206522401422262,-0.027739092707634,-0.0213486887514591,-0.0273099523037672
515,-0.0106437802314758,-0.0205532815307379,-0.0267007332295179,-0.0348166711628437,-0.0266041699796915,-0.03465636074543
516,-0.0134797440841794,-0.0230792723596096,-0.0304819867014885,-0.0396884195506573,-0.0297414604574442,-0.0410806052386761
517,-0.0144965024664998,-0.0246836561709642,-0.0323582328855991,-0.0432208627462387,-0.0321412608027458,-0.0451705269515514
518,-0.0146456332877278,-0.0257007777690887,-0.0329677760601044,-0.0462320744991302,-0.0357542596757412,-0.0465014912188053
519,-0.0146896746009588,-0.0264374446123838,-0.0323525406420231,-0.0477719865739346,-0.0392595864832401,-0.0447172187268734
520,-0.0140644125640392,-0.026185667142272,-0.029571782797575,-0.0443675145506859,-0.0403409712016582,-0.038967352360487
521,-0.011858525685966,-0.0232450943440199,-0.0245247427374125,-0.0350908748805523,-0.0391022488474846,-0.0306178107857704
522,-0.00877151545137167,-0.0178264118731022,-0.0201304573565722,-0.0271862037479877,-0.036480437964201,-0.0252997446805239
523,-0.0057434756308794,-0.0122895231470466,-0.0184508208185434,-0.0261410716921091,-0.0321727953851223,-0.0254416856914759
524,-0.00283587933517993,-0.00753718754276633,-0.0184027235955,-0.0280791036784649,-0.0270415768027306,-0.0261154565960169
525,-0.000765883538406342,-0.0031748809851706,-0.0187822915613651,-0.0278289802372456,-0.0235051866620779,-0.0222919825464487
526,-0.000282086955849081,-0.000447081634774804,-0.0190355014055967,-0.0246768817305565,-0.0215590447187424,-0.0147218853235245
527,-0.00112902408000082,-0.00134542968589813,-0.0194527376443148,-0.0206459201872349,-0.0202574469149113,-0.00791488401591778
528,-0.00290545565076172,-0.00466230418533087,-0.0210553538054228,-0.0173559822142124,-0.020419092848897,-0.0042395438067615
529,-0.00565323466435075,-0.00734980078414083,-0.0243207830935717,-0.0166438072919846,-0.0223772786557674,-0.00353038008324802
530,-0.00880048889666796,-0.00757020059973001,-0.0281870793551207,-0.0191566310822964,-0.0253208205103874,-0.00424847332760692
531,-0.0110008530318737,-0.00437094736844301,-0.0306295640766621,-0.0216615349054337,-0.0283104460686445,-0.00295135425403714
532,-0.0109180239960551,0.00151476042810827,-0.0302330851554871,-0.021353580057621,-0.0295661129057407,0.00135444756597281
533,-0.00810480490326881,0.00735604809597135,-0.0265169814229012,-0.0186428651213646,-0.02680972404778,0.0055499691516161
534,-0.0044659310951829,0.0101474989205599,-0.0207182783633471,-0.0152817331254482,-0.0201679766178131,0.00677212001755834
535,-0.00265194964595139,0.00915236305445433,-0.0158186517655849,-0.0131387142464519,-0.0128338495269418,0.00459749111905694
536,-0.00347615801729262,0.00604135543107986,-0.0145155508071184,-0.0136133618652821,-0.00842066388577223,-0.000523593800608069
537,-0.00593881495296955,0.00253475620411336,-0.0167026855051517,-0.0160819329321384,-0.00840873457491398,-0.00714835384860635
538,-0.00743285706266761,-0.000619138707406819,-0.0191045459359884,-0.0184100959450006,-0.0105460984632373,-0.0126765556633472
539,-0.00600949209183455,-0.0030565292108804,-0.0192602872848511,-0.019191475585103,-0.0106985019519925,-0.0148517265915871
540,-0.00387035310268402,-0.00457822810858488,-0.0175351779907942,-0.0175839252769947,-0.00849173497408628,-0.0124748731032014
541,-0.00412224046885967,-0.00529360491782427,-0.0148473819717765,-0.0137873245403171,-0.00741081172600389,-0.00676356069743633
542,-0.00552636664360762,-0.00523216975852847,-0.0118951825425029,-0.00980833359062672,-0.00937995593994856,-0.000690266257151961
543,-0.00563773885369301,-0.00480436626821756,-0.0094290329143405,-0.00759710930287838,-0.0138622289523482,0.00319560128264129
544,-0.00478827301412821,-0.00442568911239505,-0.00825560465455055,-0.00722405267879367,-0.0185695849359035,0.00395204406231642
545,-0.0041741319000721,-0.00352137279696763,-0.00878963619470596,-0.00748543348163366,-0.0203694645315409,0.00276856846176088
546,-0.00364494998939335,-0.00146050017792732,-0.0095714908093214,-0.00685808435082436,-0.017348688095808,0.00233961455523968
547,-0.00271538994275033,0.000984464539214969,-0.00901883654296398,-0.00492631224915385,-0.0106353424489498,0.00386381149291992
548,-0.0015835736412555,0.00259743677452207,-0.00745832826942205,-0.00263569667004049,-0.00377313233911991,0.00565573992207646
549,8.89131188159809E-05,0.00337728322483599,-0.00493349554017186,-9.42027691053227E-06,0.000756559718865901,0.0067743225954473
550,0.00206264806911349,0.00333795673213899,-0.00201243255287409,0.0027232610154897,0.00125258695334196,0.00747139472514391
551,0.00230744597502053,0.00249684415757656,-0.0010880152694881,0.00406805565580726,-0.00349127524532378,0.00767405284568667
552,0.000323410728015006,0.00235158600844443,-0.00250170403160155,0.00361143564805388,-0.0107103204354644,0.00799099821597338
553,-0.00165071233641356,0.00407973770052195,-0.00411326251924038,0.00211862125433981,-0.0150161506608129,0.00880150590091944
554,-0.00134005350992084,0.00743742845952511,-0.0041527422145009,0.000796108564827591,-0.0137094547972083,0.00978153105825186
555,0.00198963843286037,0.0115782944485545,-0.00202316488139331,0.000694335380103439,-0.00826759729534388,0.0104530807584524
556,0.00647432683035731,0.0139957498759031,0.000140669202664867,0.000246256036916748,-0.00325864600017667,0.0088270902633667
557,0.00977251492440701,0.0129411853849888,-0.000274058198556304,-0.00233981036581099,-0.0021881281863898,0.00417725648730993
558,0.0118131441995502,0.0102955959737301,-0.00226649991236627,-0.00442774267867208,-0.00432600174099207,-0.000302096304949373
559,0.0126333273947239,0.00762363849207759,-0.00382087123580277,-0.00338476453907788,-0.00701538380235434,-0.00294597609899938
560,0.0121937328949571,0.00503274984657764,-0.00395299913361669,-0.000888573937118053,-0.00721897929906845,-0.00552850589156151
561,0.0113093256950378,0.00363259925507009,-0.00238167704083025,0.000329076166963205,-0.00426836311817169,-0.0096320016309619
562,0.0100781535729766,0.0045837601646781,-0.000386954605346546,-0.000499507528729737,-0.00163839978631586,-0.0144722945988178
563,0.00919180363416672,0.00775074912235141,0.00135183148086071,-0.00178849545773119,-0.000991722219623625,-0.0172421000897884
564,0.00991609878838062,0.0115702766925097,0.00295711262151599,-0.00226703681983054,-0.0016412572003901,-0.0164801646023989
565,0.0113307489082217,0.0139034586027265,0.00288391276262701,-0.00337530509568751,-0.00501757534220815,-0.013739095069468
566,0.0122174443677068,0.0136134913191199,5.87100767006632E-05,-0.00690145092085004,-0.0112216025590897,-0.0117836100980639
567,0.0140502620488405,0.0121631789952517,-0.00344810308888555,-0.0115797780454159,-0.0166679993271828,-0.0114884600043297
568,0.0180809311568737,0.0111870793625712,-0.00513135362416506,-0.0156846530735493,-0.0185301750898361,-0.0131497569382191
569,0.0229062736034393,0.00989181082695723,-0.00512145739048719,-0.0201274733990431,-0.0171730034053326,-0.0184330139309168
570,0.0262466743588448,0.00783043075352907,-0.006133031565696,-0.0256078857928514,-0.01645353063941,-0.0268539991229773
571,0.0270729102194309,0.00567525299265981,-0.0103885866701603,-0.0313403978943825,-0.0204071160405874,-0.035743210464716
572,0.0265386775135994,0.00333928549662232,-0.0162964537739754,-0.0366669930517673,-0.0275199264287949,-0.0439431443810463
573,0.0259813703596592,0.000733531545847654,-0.0204270891845226,-0.0406546071171761,-0.0339669808745384,-0.0508242100477219
574,0.0258316174149513,-0.00124188093468547,-0.020423898473382,-0.0418603159487247,-0.0381577536463737,-0.0549035593867302
575,0.0257161557674408,-0.00201403745450079,-0.0172957237809896,-0.0408616065979004,-0.04114805534482,-0.0563000701367855
576,0.0236225090920925,-0.00187560659833252,-0.0161385051906109,-0.040525920689106,-0.0473867803812027,-0.0565935894846916
577,0.0186563394963741,-0.000783197989221662,-0.0203791707754135,-0.0425819046795368,-0.0594955384731293,-0.0566442981362343
578,0.0140057019889355,0.00160467205569148,-0.0280449911952019,-0.0470650866627693,-0.0732908025383949,-0.0578628703951836
579,0.0121106123551726,0.00369531894102693,-0.0369965769350529,-0.0551889576017857,-0.084540069103241,-0.0636012703180313
580,0.0121236927807331,0.0036040807608515,-0.0459091290831566,-0.0667041689157486,-0.0923706069588661,-0.0746094956994057
581,0.0140324300155044,0.00271231727674603,-0.0510564967989922,-0.0765957608819008,-0.0954431146383286,-0.0858446061611176
582,0.0170329660177231,0.00212134327739477,-0.0514960996806622,-0.0822040215134621,-0.0951983705163002,-0.0936854258179665
583,0.0183936432003975,0.000638194149360061,-0.0506738275289536,-0.0867632776498795,-0.0955046862363815,-0.100389420986176
584,0.0177419651299715,-0.00148327078204602,-0.0505059361457825,-0.0925205573439598,-0.0970794036984444,-0.107833184301853
585,0.0167518630623817,-0.0024807695299387,-0.0504417009651661,-0.0970073342323303,-0.0987202450633049,-0.113600507378578
586,0.0168345794081688,-0.000889046292286366,-0.0496725589036942,-0.0968010425567627,-0.0997666493058205,-0.114475101232529
587,0.0185292549431324,0.00288529600948095,-0.0483199581503868,-0.0934517085552216,-0.100266836583614,-0.111578911542892
588,0.0207124967128038,0.00596454460173845,-0.0474731996655464,-0.0916760489344597,-0.101340249180794,-0.109328776597977
589,0.0216141697019339,0.00648658722639084,-0.048029001802206,-0.0932773053646088,-0.104294702410698,-0.109807282686234
590,0.0209399554878473,0.00576149486005306,-0.0499145351350307,-0.0973287746310234,-0.108502306044102,-0.112026587128639
591,0.0197574067860842,0.00485893897712231,-0.0529111959040165,-0.103162579238415,-0.112148597836494,-0.116003103554249
592,0.0196747817099094,0.00282720499671996,-0.0566943623125553,-0.110358856618404,-0.113923028111458,-0.123417928814888
593,0.0221558511257172,-0.000590585405007005,-0.058819156140089,-0.116679154336452,-0.112609967589378,-0.13277068734169
594,0.025865837931633,-0.00480856467038393,-0.05746965482831,-0.119641438126564,-0.109358169138432,-0.139799013733864
595,0.0277048368006945,-0.00747117307037115,-0.0545256584882736,-0.120242811739445,-0.108012311160564,-0.143026441335678
596,0.0275654718279839,-0.00620376085862517,-0.0524029843509197,-0.12205895036459,-0.109982430934906,-0.14487761259079
597,0.0275696162134409,-0.00413191923871636,-0.0514878369867802,-0.126288846135139,-0.112272582948208,-0.148229539394379
598,0.0280240420252085,-0.00560154300183058,-0.0511806085705757,-0.130866825580597,-0.111782804131508,-0.15321259200573
599,0.0278131235390902,-0.0101212421432137,-0.0519437789916992,-0.13437557220459,-0.110245764255524,-0.157881855964661
600,0.027351463213563,-0.0139375450089574,-0.0537868179380894,-0.136492758989334,-0.109892085194588,-0.160357311367989
601,0.0278556011617184,-0.0141637604683638,-0.05554274097085,-0.136682465672493,-0.108653970062733,-0.159577369689941
602,0.0294279493391514,-0.0108975600451231,-0.0568715371191502,-0.134729355573654,-0.104328393936157,-0.154818952083588
603,0.0316797755658627,-0.00592815317213535,-0.057978130877018,-0.131183966994286,-0.0970126092433929,-0.146757453680038
604,0.0339160300791264,-0.00207018386572599,-0.0589225217700005,-0.128266036510468,-0.0876797661185265,-0.140127345919609
605,0.034658320248127,-0.00212027248926461,-0.0598523318767548,-0.128215596079826,-0.0787532031536102,-0.139689534902573
606,0.0329958535730839,-0.00479105301201344,-0.0609723962843418,-0.129073038697243,-0.0740830525755882,-0.142146468162537
607,0.0300317406654358,-0.00654143420979381,-0.0616416819393635,-0.127234607934952,-0.0733479037880898,-0.140812337398529
608,0.0269808918237686,-0.00741941062733531,-0.0606882870197296,-0.122506350278854,-0.0719546675682068,-0.135341078042984
609,0.0237150378525257,-0.00874549522995949,-0.0581289269030094,-0.116859391331673,-0.0687186047434807,-0.129233777523041
610,0.0206384677439928,-0.00962675735354424,-0.0549089536070824,-0.111541591584682,-0.0655148774385452,-0.123754508793354
611,0.0181339606642723,-0.00996720883995295,-0.052486140280962,-0.106732085347176,-0.0638644248247147,-0.118659436702728
612,0.0154430093243718,-0.0114383054897189,-0.0521633215248585,-0.102296218276024,-0.0642874166369438,-0.114466093480587
613,0.0130111612379551,-0.0140497498214245,-0.0529101267457008,-0.0975397750735283,-0.0648108944296837,-0.111029654741287
614,0.0121464719995856,-0.0155847147107124,-0.0524494312703609,-0.0921253338456154,-0.0637791156768799,-0.10653480142355
615,0.0130430785939097,-0.0143401734530926,-0.0495215356349945,-0.0870171040296555,-0.0618705824017525,-0.0988816693425179
616,0.0152311623096466,-0.011095586232841,-0.0437368527054787,-0.0829362198710442,-0.0594639182090759,-0.0879017040133476
617,0.0181463863700628,-0.00800257083028555,-0.0364485010504723,-0.0797151848673821,-0.056103739887476,-0.0759513899683952
618,0.0212306920439005,-0.00662989495322108,-0.0306056514382362,-0.0765961855649948,-0.05147435516119,-0.0665450692176819
619,0.023336311802268,-0.00688230339437723,-0.0281150229275227,-0.0740913897752762,-0.0450907796621323,-0.0630711391568184
620,0.0226027127355337,-0.00715166097506881,-0.0290202423930168,-0.073858954012394,-0.0380747206509113,-0.0647775530815125
621,0.0186705198138952,-0.00671984907239676,-0.0318724252283573,-0.0747972503304482,-0.0335028581321239,-0.0663334727287292
622,0.0133933462202549,-0.00646106712520123,-0.0349783673882484,-0.075030229985714,-0.0323006361722946,-0.0647829696536064
623,0.00846639275550842,-0.00717332167550921,-0.0375910215079784,-0.0745865702629089,-0.0327860563993454,-0.0608096271753311
624,0.00474568968638778,-0.0087151937186718,-0.0395757593214512,-0.0733808279037476,-0.0331563651561737,-0.0551430396735668
625,0.00293908407911658,-0.00919279269874096,-0.039890319108963,-0.0699934288859367,-0.0314844995737076,-0.0472922325134277
626,0.00258317193947732,-0.00728576630353928,-0.0371741354465485,-0.0639720112085342,-0.02665014564991,-0.0378242842853069
627,0.00279051181860268,-0.00472124200314283,-0.0322366431355476,-0.0579465441405773,-0.019934082403779,-0.0301112234592438
628,0.00475112674757838,-0.00266146659851074,-0.0264978185296059,-0.0534020774066448,-0.0124004324898124,-0.025521345436573
629,0.00800440739840269,-0.000590876850765198,-0.0217183101922274,-0.0482734814286232,-0.00631502084434032,-0.0212558805942535
630,0.00877051614224911,0.000721934193279594,-0.020321985706687,-0.0408639311790466,-0.00599811924621463,-0.0150389401242137
631,0.00638727517798543,-1.00172492238926E-05,-0.0216770190745592,-0.0322344116866589,-0.0106285605579615,-0.0079848924651742
632,0.00324271316640079,-0.00172777671832591,-0.0226748120039701,-0.0240408126264811,-0.0161890424787998,-0.00135476537980139
633,0.00051088520558551,-0.00237336196005344,-0.021598668769002,-0.017026187852025,-0.0209007281810045,0.0050775557756424
634,-0.000932880735490471,-0.00170657760463655,-0.0188409052789211,-0.0110425604507327,-0.0224118623882532,0.0109660439193249
635,-0.000202301947865635,-0.000523337977938354,-0.0157476142048836,-0.00498306239023805,-0.0184035412967205,0.0162143092602491
636,0.0021418125834316,0.000494634092319757,-0.0125875193625689,0.000963406171649694,-0.00991662871092558,0.0214134342968464
637,0.00446809781715274,0.00130057893693447,-0.00826240517199039,0.00559408450499177,2.2068550606491E-05,0.0274631083011627
638,0.00489673390984535,0.00232910038903356,-0.0033177612349391,0.00921401754021645,0.0087350457906723,0.0346827283501625
639,0.00299399415962398,0.0032651899382472,0.000396360148442909,0.012447115033865,0.0152676068246365,0.0406591854989529
640,0.000812223355751485,0.00460572587326169,0.00347129418514669,0.0162425339221954,0.0206763055175543,0.044712595641613
641,0.000433255976531655,0.00789873767644167,0.0077156787738204,0.0219525750726461,0.0263393521308899,0.0499359145760536
642,0.00160532584413886,0.012234472669661,0.0120845409110188,0.02839520201087,0.0319518409669399,0.0564725771546364
643,0.0018520902376622,0.0148694878444076,0.0133208716288209,0.0320053398609161,0.0350094363093376,0.0612503662705421
644,-0.000254516897257417,0.0151302805170417,0.0114750955253839,0.0316042006015778,0.034853458404541,0.0639618188142776
645,-0.00291153765283525,0.0139115285128355,0.0107664968818426,0.0303037595003843,0.0345556139945984,0.066438652575016
646,-0.00534167094156146,0.0107593210414052,0.012642502784729,0.0305491238832474,0.0340624898672104,0.0681043341755867
647,-0.00846245139837265,0.00588281312957406,0.014492585323751,0.032326702028513,0.0308236218988895,0.0684825852513313
648,-0.0110944090411067,0.00248265825212002,0.0149933472275734,0.0353055074810982,0.0270748399198055,0.0695065706968308
649,-0.0120350336655974,0.00342000997625291,0.0148042375221848,0.0385582372546196,0.0264328978955746,0.0720480307936668
650,-0.0120956115424633,0.00749705219641328,0.0142723610624671,0.0405483692884445,0.0289735812693834,0.0747360810637474
651,-0.0120477480813861,0.0118833910673857,0.0135771064087749,0.0409221760928631,0.0334001071751118,0.0769233703613281
652,-0.0119911218062043,0.0155957350507379,0.0137415649369359,0.0413959808647633,0.0380914956331253,0.0801590606570244
653,-0.0123054496943951,0.0176940578967333,0.0157696772366762,0.0436244122684002,0.0406711213290691,0.0851866453886032
654,-0.012627144344151,0.0174299608916044,0.0201331693679094,0.0482494682073593,0.0416678823530674,0.091116189956665
655,-0.0117260813713074,0.0163739025592804,0.0267438180744648,0.0564030669629574,0.0433981046080589,0.0978732034564018
656,-0.00993538182228804,0.0156942903995514,0.0342111401259899,0.0685057044029236,0.0457254275679588,0.105065137147903
657,-0.00954769365489483,0.0149410413578153,0.0394893102347851,0.0802745595574379,0.0483141168951988,0.109886720776558
658,-0.012101037427783,0.0145543981343508,0.0398966111242771,0.0857023820281029,0.051193431019783,0.111020945012569
659,-0.0162460207939148,0.0154600897803903,0.0367025807499886,0.0850744545459747,0.0535681359469891,0.111333802342415
660,-0.0193750411272049,0.0167309138923883,0.0329218097031116,0.0819745734333992,0.0546906664967537,0.111747041344643
661,-0.0197830311954021,0.0171699766069651,0.0302253197878599,0.0786847323179245,0.0542399249970913,0.110694296658039
662,-0.018148135393858,0.0177041627466679,0.0295470058917999,0.0777065083384514,0.0519975274801254,0.110318794846535
663,-0.0170037932693958,0.0185590963810682,0.0305250007659197,0.0790546014904976,0.048305869102478,0.113208509981632
664,-0.0166645757853985,0.0187898799777031,0.0325891003012657,0.0806158632040024,0.0452953986823559,0.117841437458992
665,-0.0153856417164207,0.0183557476848364,0.0358283445239067,0.0817248076200485,0.0456026159226894,0.12012629956007
666,-0.0132519658654928,0.017107455059886,0.039136067032814,0.0821823328733444,0.0493121072649956,0.116930961608887
667,-0.0115433959290385,0.0149247609078884,0.0409678556025028,0.0813720375299454,0.0537655763328075,0.109815776348114
668,-0.0102229285985231,0.0129648959264159,0.0416028425097466,0.0794740915298462,0.0569400303065777,0.103562816977501
669,-0.00932635646313429,0.0122006507590413,0.0416605062782764,0.0777444615960121,0.0583465471863747,0.101547174155712
670,-0.00968793127685785,0.0115543585270643,0.0407006815075874,0.0766093283891678,0.0574013479053974,0.102870389819145
671,-0.0096664372831583,0.0105305500328541,0.0403545238077641,0.0769477784633636,0.0552325360476971,0.104554146528244
672,-0.00807555206120014,0.00945260096341372,0.0422680601477623,0.0807341411709785,0.0535251311957836,0.105089671909809
673,-0.007647052872926,0.00746331922709942,0.0438806004822254,0.086827278137207,0.052047498524189,0.104407474398613
674,-0.00900520756840706,0.00593533972278237,0.0436650142073631,0.0919108092784882,0.0525861084461212,0.104630790650845
675,-0.0100028421729803,0.00737126776948571,0.0428199954330921,0.0935354381799698,0.0575215481221676,0.107683047652245
676,-0.0100025050342083,0.0109336916357279,0.0417813919484615,0.0911157950758934,0.0650573745369911,0.112172193825245
677,-0.00928152166306973,0.0141569767147303,0.0419054627418518,0.0869864597916603,0.0720719173550606,0.115317180752754
678,-0.00871986523270607,0.0158635806292295,0.0446906723082066,0.0840699747204781,0.0763005390763283,0.115604639053345
679,-0.00880218949168921,0.0171483401209116,0.0491561703383923,0.0843444466590881,0.077859029173851,0.116188265383244
680,-0.00847523473203182,0.0190937872976065,0.0531514212489128,0.0881701037287712,0.0790013894438744,0.121128790080547
681,-0.00704311765730381,0.0207333210855722,0.0556552223861218,0.0935777798295021,0.0805077627301216,0.128700345754623
682,-0.00556419184431434,0.0201193857938051,0.0569577887654305,0.0982328653335571,0.0823503360152245,0.133869305253029
683,-0.00531460158526897,0.0167710240930319,0.0571516491472721,0.101387530565262,0.0826571509242058,0.134640485048294
684,-0.0058092693798244,0.0126421945169568,0.0567397810518742,0.104184076189995,0.0788942128419876,0.133323580026627
685,-0.00687629822641611,0.00981050170958042,0.0560127645730972,0.105804763734341,0.0724078714847565,0.130743503570557
686,-0.00948504451662302,0.00901694223284721,0.0542056038975716,0.102851949632168,0.0664483159780502,0.125442266464233
687,-0.0125577542930841,0.00979037582874298,0.0518073178827763,0.0958647727966309,0.0635155662894249,0.118930444121361
688,-0.0144354281947017,0.0111747244372964,0.0495127029716969,0.0885388180613518,0.0641002729535103,0.114038050174713
689,-0.0145528744906187,0.0128089049831033,0.047377273440361,0.0831239745020866,0.0673843249678612,0.111163027584553
690,-0.0130200469866395,0.0149986613541842,0.0471687503159046,0.0814811065793037,0.0724363848567009,0.110089547932148
691,-0.0121976723894477,0.0164581313729286,0.0492678582668304,0.0829335600137711,0.0760538801550865,0.109373994171619
692,-0.0131058841943741,0.015121360309422,0.0507012568414211,0.0834145471453667,0.075586810708046,0.106285251677036
693,-0.0136784920468926,0.0112903490662575,0.0495706908404827,0.0810184851288795,0.0723821967840195,0.101222209632397
694,-0.0137753104791045,0.00624543335288763,0.0461390316486359,0.07735326141119,0.0682440921664238,0.096955232322216
695,-0.0141274807974696,0.00134179939050227,0.0421716570854187,0.0751036182045937,0.0644400492310524,0.0952915921807289
696,-0.0133553631603718,-0.00184235081542283,0.040191438049078,0.0760754123330116,0.0630621314048767,0.0961055383086205
697,-0.0109910611063242,-0.00314978556707501,0.0405068024992943,0.0793907940387726,0.0641620829701424,0.0971053540706635
698,-0.00837923586368561,-0.0026588102336973,0.0414904393255711,0.0826233476400375,0.0651436001062393,0.0968463942408562
699,-0.00649034045636654,-0.000253971753409132,0.0418747887015343,0.0841989517211914,0.0645533800125122,0.0968028232455254
700,-0.00638805469498038,0.00173123308923095,0.0408400222659111,0.0835861414670944,0.0617235600948334,0.0986399799585342
701,-0.00933815632015467,0.000678619369864464,0.0377511382102966,0.0810078680515289,0.0550281442701817,0.102756626904011
702,-0.0139945540577173,-0.00202443520538509,0.0337107963860035,0.0778033882379532,0.0460109263658524,0.108027942478657
703,-0.0169048253446817,-0.00365242664702237,0.0313578099012375,0.0752962157130241,0.0407949686050415,0.110619567334652
704,-0.0172713324427605,-0.00348971458151937,0.0314232893288136,0.0744575783610344,0.0421246662735939,0.108170218765736
705,-0.0173790212720633,-0.00194116192869842,0.0327386185526848,0.0757547095417976,0.0459993667900562,0.102830708026886
706,-0.0175805501639843,0.000705615675542504,0.0349622964859009,0.0778332054615021,0.0491496734321117,0.0974246338009834
707,-0.0170324854552746,0.00371043616905808,0.0371030047535896,0.0780836492776871,0.0508893504738808,0.0930878818035126
708,-0.0174670480191708,0.00451332377269864,0.0368984937667847,0.0746995732188225,0.0506962984800339,0.0886825546622276
709,-0.0194125138223171,0.00178072834387422,0.0346714779734612,0.0690950527787209,0.0497749447822571,0.0828234329819679
710,-0.0203966572880745,-0.00285489135421813,0.0335221588611603,0.06488087028265,0.0506545715034008,0.0763870105147362
711,-0.0191035345196724,-0.00655638752505183,0.0355623029172421,0.0653462558984756,0.0541715174913406,0.0721702054142952
712,-0.0162225756794214,-0.00597184523940086,0.0403372682631016,0.0716193541884422,0.05824189260602,0.0735087394714355
713,-0.0127561008557677,-0.00047642650315538,0.0455657690763474,0.0802704244852066,0.0616268403828144,0.0808592289686203
714,-0.00969864707440138,0.00648251781240106,0.0483991317451,0.0859079360961914,0.065044179558754,0.0904867947101593
715,-0.00862330384552479,0.0108456984162331,0.0467958711087704,0.0851123556494713,0.0662813261151314,0.0965087190270424
716,-0.0102266082540154,0.0111718811094761,0.0419454984366894,0.0785390809178352,0.062010370194912,0.0953615009784698
717,-0.0125398170202971,0.00871068891137838,0.0375586301088333,0.0709724575281143,0.0542132370173931,0.0894764959812164
718,-0.013416139408946,0.00464487681165338,0.035189513117075,0.0669950470328331,0.0485559962689877,0.0841793864965439
719,-0.0122411446645856,0.00107121304608881,0.0346481204032898,0.0671363696455956,0.0492091588675976,0.0815191566944122
720,-0.0108926957473159,4.78336951346137E-05,0.0352166742086411,0.0676480978727341,0.0536930412054062,0.078600600361824
721,-0.0125037925317883,-0.000976691138930619,0.0351650267839432,0.0654140636324883,0.0553518794476986,0.0728283300995827
722,-0.015647079795599,-0.00460362620651722,0.0340961776673794,0.0612079314887524,0.0534116886556149,0.0656255707144737
723,-0.0160550866276026,-0.00796683505177498,0.0331516265869141,0.0578113533556461,0.0512192584574223,0.0610797069966793
724,-0.0133259827271104,-0.00747264735400677,0.0333312451839447,0.0575158670544624,0.049486055970192,0.0622726492583752
725,-0.0104122590273619,-0.00418375618755817,0.0343576669692993,0.0597982443869114,0.0473110750317574,0.0675117895007133
726,-0.00882166437804699,-0.00190435058902949,0.0350994393229485,0.0611741580069065,0.0449606068432331,0.0713926404714584
727,-0.00749738793820143,-0.00200090580619872,0.0360439978539944,0.0594629980623722,0.0443934686481953,0.0701729729771614
728,-0.00679465336725116,-0.00276273605413735,0.0383112244307995,0.0567685030400753,0.045072041451931,0.0653103217482567
729,-0.00826314277946949,-0.00324212317354977,0.0406123995780945,0.0549365170300007,0.0435155890882015,0.0600069835782051
730,-0.0096411369740963,-0.00266458769328892,0.0415955781936646,0.0538138784468174,0.0409070514142513,0.0561944060027599
731,-0.00834602862596512,7.78097091824748E-05,0.0415164455771446,0.0531329363584518,0.0414415709674358,0.0544232316315174
732,-0.00651844451203942,0.00335274753160775,0.0398722440004349,0.0515685901045799,0.0443576648831367,0.0528393797576427
733,-0.0065984814427793,0.00508827716112137,0.036326888948679,0.0489227436482906,0.0457354635000229,0.0504065491259098
734,-0.00840004999190569,0.00544979423284531,0.0314958319067955,0.0468209497630596,0.0430593900382519,0.0491142235696316
735,-0.0111567247658968,0.00501229800283909,0.0259497836232185,0.0453286655247211,0.0367604568600655,0.0503835119307041
736,-0.0131572773680091,0.00428548688068986,0.0218786597251892,0.0442634709179401,0.0310842227190733,0.0535345561802387
737,-0.0119186323136091,0.0040663885883987,0.0221196338534355,0.0458003357052803,0.02996083535254,0.0577678307890892
738,-0.00734543008729815,0.00435446528717875,0.0263991560786963,0.0505504980683327,0.0327558256685734,0.0617751963436604
739,-0.00197247019968927,0.00374178821220994,0.0316776521503925,0.0541739240288734,0.0378116481006145,0.0620959289371967
740,0.00140820653177798,0.00139993766788393,0.0349824652075768,0.0524601824581623,0.0433157943189144,0.056460689753294
741,0.00121215404942632,-0.000993147259578109,0.0347300469875336,0.0464256182312965,0.0449018143117428,0.0476824976503849
742,-0.000881390704307705,-0.00100419786758721,0.0326752923429012,0.0408716574311256,0.0428201667964458,0.0410857498645782
743,-0.00141392578370869,0.00164527783636004,0.032873347401619,0.0396018661558628,0.0429730229079723,0.0393350645899773
744,-0.00074869254603982,0.0039329044520855,0.03498325496912,0.0412687323987484,0.0455902591347694,0.039978239685297
745,-0.00147193588782102,0.00314070074819028,0.0355292931199074,0.0429497621953487,0.0454970337450504,0.0402467623353004
746,-0.00275544775649905,0.000483936979435384,0.0346664227545261,0.0451911650598049,0.0417031906545162,0.0424161031842232
747,-0.00219596363604069,-0.00146599649451673,0.0347671285271645,0.0496441684663296,0.0380429066717625,0.0486703887581825
748,-0.000466141966171563,-0.000479848735267296,0.0360198318958282,0.0547864474356174,0.0361483693122864,0.0553294867277145
749,-0.000386555824661627,0.0039767324924469,0.0367298051714897,0.0566710568964481,0.0339511334896088,0.0574150048196316
750,-0.00273177213966846,0.0087467972189188,0.035801749676466,0.0541992783546448,0.0300805121660233,0.0548872984945774
751,-0.0052944696508348,0.0111679323017597,0.0336729846894741,0.0494485795497894,0.0255061946809292,0.0512828454375267
752,-0.00734838005155325,0.011097596026957,0.0311659406870604,0.043586578220129,0.0211498364806175,0.0483239963650703
753,-0.0103861466050148,0.00915394444018602,0.0282764527946711,0.0367123931646347,0.0167842917144299,0.0446650311350822
754,-0.0129975657910109,0.00724187912419438,0.0252679865807295,0.0301039963960648,0.0136337578296661,0.0397993735969067
755,-0.012761140242219,0.00654624309390783,0.0223301462829113,0.0252428892999887,0.0133764408528805,0.0350353941321373
756,-0.0104054333642125,0.00621427968144417,0.019945690408349,0.0229042917490005,0.0151114165782928,0.03144171833992
757,-0.00757138477638364,0.00495583191514015,0.0197081547230482,0.0233011301606894,0.0169612523168325,0.0290931165218353
758,-0.0053266123868525,0.00216619810089469,0.0211151614785194,0.0252497717738152,0.0180068053305149,0.0277844592928886
759,-0.00436106091365218,-0.000821783905848861,0.0224636793136597,0.0280395019799471,0.0181521568447351,0.0284754410386086
760,-0.00409065885469317,-0.00218036794103682,0.0239132903516293,0.0317263640463352,0.0181755349040031,0.0309692639857531
761,-0.00454169698059559,-0.0031195068731904,0.0244056340306997,0.0337505228817463,0.0174651630222797,0.0308315828442574
762,-0.00626377854496241,-0.00509936409071088,0.0221430882811546,0.031461201608181,0.0150867756456137,0.0256442781537771
763,-0.00805919338017702,-0.0063307685777545,0.0183668751269579,0.0267443638294935,0.0132214436307549,0.0198008250445127
764,-0.00860407669097185,-0.00449047470465302,0.0157760623842478,0.0242224931716919,0.0137353604659438,0.0186023712158203
765,-0.00668348046019673,0.00106734153814614,0.0171772483736277,0.0269622318446636,0.0173730906099081,0.0234198234975338
766,-0.00290767522528768,0.00724758487194777,0.0221125353127718,0.0324566289782524,0.0234976951032877,0.0304090864956379
767,-0.00106725550722331,0.00968738086521626,0.025368032976985,0.0352949351072311,0.0264716818928719,0.034380566328764
768,-0.00275884196162224,0.00868463795632124,0.0242022853344679,0.0338728316128254,0.0224315095692873,0.0345023907721043
769,-0.00602919282391667,0.00778610538691282,0.0208600182086229,0.0306755285710096,0.0142637668177485,0.0338525660336018
770,-0.00941450148820877,0.00868604145944119,0.0177357383072376,0.0279334653168917,0.00539364898577333,0.0349394716322422
771,-0.0120715703815222,0.0104941539466381,0.0155520979315043,0.0257986430078745,-0.00147774827200919,0.0370243787765503
772,-0.0132811078801751,0.0116509404033422,0.0141097232699394,0.0237636566162109,-0.00441803783178329,0.0375598147511482
773,-0.0134829506278038,0.0112512893974781,0.0133847165852785,0.0220479536801577,-0.00368460780009627,0.0354469306766987
774,-0.0129156969487667,0.00971575733274221,0.0137470997869968,0.0221165157854557,0.000909667694941163,0.0324341431260109
775,-0.0112575106322765,0.00776644609868526,0.0146625535562634,0.0249114111065865,0.00872289668768644,0.0300121325999498
776,-0.00952551607042551,0.00648692203685641,0.0148068154230714,0.0287067443132401,0.0154964327812195,0.027979576960206
777,-0.00934318732470274,0.00738524366170168,0.0132750449702144,0.0300501342862844,0.0177711844444275,0.0260353367775679
778,-0.0103997075930238,0.0105003956705332,0.0108978739008307,0.0278943795710802,0.0163361076265574,0.0245142932981253
779,-0.010934048332274,0.0135536789894104,0.00961992610245943,0.0243500638753176,0.0132071068510413,0.0238680876791477
780,-0.0101849092170596,0.0142202423885465,0.0101076820865273,0.0211381539702415,0.0103770401328802,0.0243178345263004
781,-0.00879888329654932,0.0127096977084875,0.0115868831053376,0.018636541441083,0.0100670224055648,0.0260497406125069
782,-0.00783417373895645,0.00953613687306643,0.0124431801959872,0.01557956635952,0.0113630415871739,0.0268277730792761
783,-0.00680342689156532,0.00476072076708078,0.0118561591953039,0.0108560565859079,0.011340812779963,0.0234604328870773
784,-0.00446722283959389,0.000520038069225848,0.0118022430688143,0.00687779206782579,0.00967824924737215,0.0176273565739393
785,-0.00191151071339846,-0.000957228359766304,0.0139869609847665,0.00608092127367854,0.00704549346119165,0.0139228226616979
786,-0.00122378917876631,-0.000880462874192744,0.0164522808045149,0.00648872368037701,0.00364012899808586,0.014051528647542
787,-0.00266047962941229,-0.00243757362477481,0.0172214861959219,0.00638963747769594,0.00212984811514616,0.0164778251200914
788,-0.00501124281436205,-0.00503278058022261,0.0174636337906122,0.00753079913556576,0.00589535571634769,0.0186435524374247
789,-0.00737904896959662,-0.00517255533486605,0.0177582688629627,0.00927433650940657,0.013049884699285,0.0183654259890318
790,-0.00859058182686567,-0.00269145867787302,0.0176065545529127,0.00960430502891541,0.0196412093937397,0.0156984701752663
791,-0.0078577995300293,0.000142431148560718,0.0173387303948402,0.00969800818711519,0.0237048640847206,0.0126369502395391
792,-0.00655561964958906,0.00155870756134391,0.0160359740257263,0.0103973904624581,0.0232681911438704,0.0100186709314585
793,-0.00532821053639054,0.00178261077962816,0.0129261258989573,0.0111420964822173,0.0191921424120665,0.00808942411094904
794,-0.00344618991948664,0.00294764968566597,0.00963054038584232,0.0119146760553122,0.0149153973907232,0.00740789994597435
795,-0.00192152720410377,0.00538804987445474,0.00799000263214111,0.0122409779578447,0.0114138144999743,0.00722771324217319
796,-0.00186164898332208,0.00686236983165145,0.00837778672575951,0.0106299798935652,0.0087061170488596,0.00624293694272637
797,-0.00269291386939585,0.00582627765834332,0.00919890403747559,0.00635473057627678,0.00758858071640134,0.00411791075021029
798,-0.00431992160156369,0.00354135339148343,0.00827610399574041,0.00147943652700633,0.00610320689156652,0.00193818181287497
799,-0.00697181187570095,0.00194518733769655,0.00548176048323512,-0.00151844718493521,0.000821122084744275,0.000526210642419755
800,-0.00843254942446947,0.00225431914441288,0.00289437384344637,-0.00210150750353932,-0.00581005122512579,0.000560579006560147
801,-0.00628216890618205,0.00462825363501906,0.00198075780645013,-0.00070113583933562,-0.0087612122297287,0.00335025088861585
802,-0.00168024864979088,0.00610041338950396,0.00242683035321534,0.00165049778297544,-0.0079061221331358,0.00809935852885246
803,0.00303534418344498,0.00436420598998666,0.00399744743481278,0.00436533056199551,-0.00464628450572491,0.0130253890529275
804,0.00710729137063026,0.00200418755412102,0.00671088881790638,0.0073028658516705,2.09249428735347E-05,0.0174855403602123
805,0.00999157503247261,0.00139449548441917,0.00949145667254925,0.00931099709123373,0.00341628072783351,0.0203784573823214
806,0.0105069549754262,0.000421352102421224,0.0101701775565743,0.00849301647394896,0.00335766491480172,0.0197984874248505
807,0.00919890217483044,-0.00281895743682981,0.00874952971935272,0.00542875891551375,0.00164284522179514,0.0158265605568886
808,0.00770887359976768,-0.0069654299877584,0.00751457922160625,0.00320848217234015,0.00123193964827806,0.0109112281352282
809,0.00617960095405579,-0.00954650342464447,0.00709036691114306,0.00305671361275017,0.00157101766671985,0.00690823374316096
810,0.00365710933692753,-0.0100734755396843,0.00598423182964325,0.00249963044188917,0.000108998174255248,0.00230138236656785
811,-0.000288113486021757,-0.0108544956892729,0.00286201760172844,-0.00188636325765401,-0.0043040718883276,-0.00614364631474018
812,-0.00352580985054374,-0.0120118297636509,-0.000386603263905272,-0.00829986296594143,-0.00962482113391161,-0.0157720912247896
813,-0.00326153845526278,-0.0111542269587517,-0.000639877573121339,-0.0114346370100975,-0.0130261369049549,-0.0202268082648516
814,7.47643207432702E-05,-0.00823047291487455,0.00170641206204891,-0.00942438002675772,-0.0140766547992826,-0.0178939290344715
815,0.00423608999699354,-0.0047017983160913,0.00433196173980832,-0.00328962039202452,-0.0133222592994571,-0.0101478006690741
816,0.00724182557314634,-0.0018806429579854,0.00554572883993387,0.00376949715428054,-0.0117203891277313,0.000511924736201763
817,0.00870249420404434,1.99249316210626E-05,0.00573692005127668,0.00816937815397978,-0.00945216044783592,0.0106945615261793
818,0.0101758530363441,0.00199087732471526,0.00637210952118039,0.00915127899497747,-0.00506044970825315,0.017817460000515
819,0.0117542697116733,0.00362062966451049,0.00642475904896855,0.00742730498313904,0.000151549960719422,0.0201726462692022
820,0.0119790015742183,0.00414246693253517,0.00483438977971673,0.00487974239513278,0.00302374409511685,0.0184951610863209
821,0.00962718017399311,0.00285354326479137,0.00270648673176765,0.00302434782497585,0.00280523276887834,0.0147484512999654
822,0.00584788201376796,0.00039863315760158,0.00184786296449602,0.00212739570997655,0.00141061644535512,0.010837247595191
823,0.00345480139367282,-3.44305335602257E-05,0.00225997995585203,0.00124721857719123,0.000121300443424843,0.00764696905389428
824,0.0023195322137326,0.00114450580440462,0.00102138472720981,-0.0021852538920939,-0.00315995304845273,0.0030714578460902
825,0.00213698321022093,0.000974379363469779,-0.00185485056135803,-0.00749320723116398,-0.00824314169585705,-0.00345822493545711
826,0.00404280563816428,-0.000892241136170924,-0.00352995446883142,-0.0117091136053205,-0.0114648919552565,-0.00990058295428753
827,0.00776457879692316,-0.00366901117376983,-0.00329879322089255,-0.0142675945535302,-0.0109861111268401,-0.015151328407228
828,0.0112981200218201,-0.00614378275349736,-0.00244388286955655,-0.015501132234931,-0.00902168732136488,-0.0178528428077698
829,0.0122379818931222,-0.00755884777754545,-0.00301739387214184,-0.0159559343010187,-0.00878944620490074,-0.017384996637702
830,0.0106885228306055,-0.00817454140633345,-0.00478258263319731,-0.0159927327185869,-0.00954389665275812,-0.0154022909700871
831,0.00816602259874344,-0.00877762213349342,-0.00612889649346471,-0.0155364228412509,-0.0103130768984556,-0.0136269042268395
832,0.00548400031402707,-0.0102602113038301,-0.00608432712033391,-0.013771852478385,-0.0113727878779173,-0.011644727550447
833,0.00302559183910489,-0.0122455935925245,-0.00376301212236285,-0.00993581954389811,-0.0123433470726013,-0.00847762450575829
834,0.00111550255678594,-0.0133712403476238,8.98851867532358E-05,-0.00621164403855801,-0.0135427545756102,-0.0062840492464602
835,0.000840849184896797,-0.0123515222221613,0.00344947492703795,-0.00476867612451315,-0.0143412835896015,-0.00724455155432224
836,0.00282763899303973,-0.00939557421952486,0.00458384118974209,-0.0051804562099278,-0.0137657783925533,-0.00965779647231102
837,0.00537296570837498,-0.00691120326519012,0.00217354740016162,-0.00724194711074233,-0.0134667903184891,-0.0115284286439419
838,0.00633935211226344,-0.00697988783940673,-0.00327199301682413,-0.0103235058486462,-0.0146456407383084,-0.0125201512128115
839,0.00517180329188704,-0.00971669238060713,-0.00940444134175777,-0.0130333723500371,-0.0158418826758862,-0.0131207257509232
840,0.00171151699032635,-0.0139903528615832,-0.0152253750711679,-0.0154787842184305,-0.0170734729617834,-0.0143341226503253
841,-0.00314715038985014,-0.0173720549792051,-0.0201988089829683,-0.0176217090338469,-0.0194608643651009,-0.0155765991657972
842,-0.00709310220554471,-0.018004784360528,-0.0226058457046747,-0.0181515030562878,-0.0219788290560246,-0.0159427765756845
843,-0.00808862503618002,-0.01592075265944,-0.0210395287722349,-0.0156876686960459,-0.0222095251083374,-0.0156607571989298
844,-0.00583507074043155,-0.0122635206207633,-0.0157871879637241,-0.011017101816833,-0.0190962795168161,-0.0150398658588529
845,-0.00250396621413529,-0.00904371403157711,-0.0100662047043443,-0.00795133970677853,-0.0151021853089333,-0.0151470573619008
846,-0.00051820109365508,-0.00749262422323227,-0.00794330704957247,-0.0102349109947681,-0.0142497606575489,-0.0172205697745085
847,0.000305561698041856,-0.00665780808776617,-0.00917315576225519,-0.0170897096395493,-0.0167409051209688,-0.0196877606213093
848,0.00156194053124636,-0.0050261877477169,-0.010466686449945,-0.0234834793955088,-0.0189079456031322,-0.0186436530202627
849,0.00268743699416518,-0.00377946300432086,-0.0113379536196589,-0.0263116117566824,-0.0198090616613626,-0.0136049203574657
850,0.00209293514490128,-0.00545556470751762,-0.0122143952175975,-0.0251902341842651,-0.0209693256765604,-0.00749791180714965
851,-0.000145703117595986,-0.00998803693801165,-0.0113571304827929,-0.0199881289154291,-0.0210993587970734,-0.00247015152126551
852,-0.00265758647583425,-0.0152334440499544,-0.00744861271232367,-0.0120568228885531,-0.0167861040681601,0.000172192667378113
853,-0.00419550621882081,-0.0194761101156473,-0.00266443332657218,-0.00511627178639174,-0.00948644522577524,-0.000368275883374736
854,-0.00491378968581557,-0.0230016186833382,-0.00165531481616199,-0.00415731221437454,-0.00607898831367493,-0.00543870637193322
855,-0.00506163481622934,-0.0267247576266527,-0.0058429054915905,-0.0108729777857661,-0.00891056936234236,-0.0155116897076368
856,-0.00389061449095607,-0.0296113137155771,-0.0120674259960651,-0.0210937019437552,-0.0147021245211363,-0.0269660241901875
857,-0.00140062998980284,-0.030449828132987,-0.0172377862036228,-0.0300602149218321,-0.0205521825700998,-0.0363653376698494
858,0.00143034185748547,-0.0294327065348625,-0.0203207433223724,-0.0353419072926044,-0.0245299376547337,-0.0430322550237179
859,0.00419877376407385,-0.0276887062937021,-0.0209091417491436,-0.0342717580497265,-0.0239107646048069,-0.0452608801424503
860,0.00655719358474016,-0.0259291809052229,-0.0190432351082563,-0.0261418242007494,-0.0173161271959543,-0.0423536188900471
861,0.00683528650552034,-0.0233025252819061,-0.0171320140361786,-0.0171512756496668,-0.00925363786518574,-0.0393697023391724
862,0.00434193247929215,-0.0197414457798004,-0.0172695703804493,-0.0138062341138721,-0.00552907213568687,-0.0403268523514271
863,0.00200365111231804,-0.0160401724278927,-0.0179436095058918,-0.014860600233078,-0.00502111623063684,-0.0416180230677128
864,0.00203474122099578,-0.0124649740755558,-0.0185119714587927,-0.0174170732498169,-0.00429590884596109,-0.0403014346957207
865,0.00263536442071199,-0.00999179109930992,-0.0202133283019066,-0.0211485717445612,-0.00430050445720553,-0.0388430655002594
866,0.0021157986484468,-0.00950121600180864,-0.0221129525452852,-0.0247324146330357,-0.00634918594732881,-0.0384239330887794
867,0.00102390826214105,-0.0107354102656245,-0.0227725710719824,-0.0263983253389597,-0.00997653324157,-0.0375129766762257
868,0.00059045321540907,-0.0131730912253261,-0.022721454501152,-0.0263787712901831,-0.0142175620421767,-0.0364538617432117
869,0.0011740974150598,-0.0156951807439327,-0.0229572597891092,-0.0253761727362871,-0.0174568966031075,-0.0360355600714684
870,0.00147451506927609,-0.0167568437755108,-0.0238006375730038,-0.023749828338623,-0.0191318057477474,-0.0354606173932552
871,0.000420021038735285,-0.0157567989081144,-0.024416072294116,-0.0223605372011662,-0.019355021417141,-0.034737266600132
872,-0.00133082829415798,-0.013366399332881,-0.0230939947068691,-0.0209819599986076,-0.0178126562386751,-0.0339711420238018
873,-0.00253991992212832,-0.0111790969967842,-0.0191750172525644,-0.017737852409482,-0.0150534100830555,-0.0324020385742188
874,-0.0028743795119226,-0.0105839744210243,-0.0144434534013271,-0.0124784130603075,-0.0123313507065177,-0.0307809617370367
875,-0.00332122016698122,-0.0115459049120545,-0.0119439708068967,-0.0083813788369298,-0.0108346715569496,-0.0309957768768072
876,-0.00520771276205778,-0.0132626667618752,-0.0131542142480612,-0.00853373762220144,-0.0120486980304122,-0.0338561944663525
877,-0.00784127693623304,-0.0145132560282946,-0.0161920823156834,-0.0123479114845395,-0.0159113351255655,-0.0379391200840473
878,-0.00876184459775686,-0.0143175665289164,-0.0181183703243732,-0.0163042619824409,-0.0197985135018826,-0.0405096486210823
879,-0.00708954548463225,-0.0131892096251249,-0.0180919151753187,-0.01774144731462,-0.0204760748893023,-0.0406549982726574
880,-0.00432602828368545,-0.0124069601297379,-0.0169119741767645,-0.0169081054627895,-0.0165798384696245,-0.0395327359437943
881,-0.00220153457485139,-0.0119141386821866,-0.0150277288630605,-0.014547185972333,-0.0104974331334233,-0.0367303118109703
882,-0.0011930214241147,-0.0103194424882531,-0.0124182580038905,-0.0111864479258657,-0.00598972802981734,-0.0307671763002872
883,-0.00160799419973046,-0.0075230342335999,-0.0102111613377929,-0.00816043559461832,-0.00489272922277451,-0.0226361621171236
884,-0.00339604797773063,-0.00491326954215765,-0.00941410195082426,-0.00523670623078942,-0.00690978020429611,-0.0145515920594335
885,-0.00497727142646909,-0.00396945793181658,-0.00919236987829208,-0.00191931938752532,-0.00894445832818747,-0.00859278440475464
886,-0.00548237469047308,-0.00473643513396382,-0.00858626235276461,0.000186147983185947,-0.00671654846519232,-0.00644219620153308
887,-0.00568873574957252,-0.00473025161772966,-0.00782583374530077,0.000115804308734369,-0.00112700602039695,-0.00726064015179873
888,-0.00535914953798056,-0.00181046221405268,-0.00729921413585544,-0.00117648567538708,0.00326538854278624,-0.00833235401660204
889,-0.00399744464084506,0.00252830260433257,-0.00735308043658733,-0.0033041313290596,0.00458177924156189,-0.00906557217240334
890,-0.00297424080781639,0.00551575655117631,-0.00853040814399719,-0.00654221465811133,0.00284518604166806,-0.0108267813920975
891,-0.00314379297196865,0.00662919133901596,-0.0102658877149224,-0.00984910037368536,-0.00057107355678454,-0.0138584822416306
892,-0.00342922541312873,0.00702390866354108,-0.0109654348343611,-0.0118301967158914,-0.00315391807816923,-0.0172158740460873
893,-0.00285069481469691,0.00773009611293674,-0.0100245783105493,-0.0121531598269939,-0.00398656912147999,-0.019813159480691
894,-0.00200562598183751,0.00808641780167818,-0.00894272979348898,-0.0116212405264378,-0.00428764009848237,-0.0213362686336041
895,-0.00188304728362709,0.00717993639409542,-0.00901326257735491,-0.009812967851758,-0.00558702414855361,-0.0209847837686539
896,-0.00249563436955214,0.00653091911226511,-0.00978178810328245,-0.00674120197072625,-0.00831244792789221,-0.018554862588644
897,-0.00376065168529749,0.00633930880576372,-0.0113941682502627,-0.00690261926501989,-0.0114146620035172,-0.0182716082781553
898,-0.00611583516001701,0.00404573511332273,-0.0146554205566645,-0.0128323137760162,-0.0145839666947722,-0.0240666456520557
899,-0.0090790381655097,0.000311589043121785,-0.0181478504091501,-0.020405225455761,-0.0185758303850889,-0.033429641276598
900,-0.0112315518781543,-0.00219121598638594,-0.0192217603325844,-0.0252696312963963,-0.0224681757390499,-0.0410157330334187
901,-0.0114367417991161,-0.00327468779869378,-0.0173337962478399,-0.0269588194787502,-0.0245958529412746,-0.0442862026393414
902,-0.00854422990232706,-0.00286641297861934,-0.0135935693979263,-0.0259241219609976,-0.0242504943162203,-0.0439328551292419
903,-0.00359023036435246,-0.00145334436092526,-0.0100030461326241,-0.0228658728301525,-0.0226371455937624,-0.0416189543902874
904,0.00020210504590068,-0.00095645769033581,-0.00846826191991568,-0.0194967705756426,-0.0208746790885925,-0.0376243367791176
905,0.00193980266340077,-0.00108425389043987,-0.00843709427863359,-0.0163322351872921,-0.0183075033128262,-0.0315607748925686
906,0.00211087334901094,-0.000924491789191961,-0.00919833220541477,-0.0139256445690989,-0.0156681947410107,-0.0259941648691893
907,0.000936450611334294,-0.000823794631287456,-0.0109157366678119,-0.0130324941128492,-0.0136721041053534,-0.024452731013298
908,-0.000368760345736519,-0.00121066754218191,-0.0126359583809972,-0.0129227545112371,-0.0110819591209292,-0.0272062215954065
909,-0.00134140835143626,-0.00294238142669201,-0.013777089305222,-0.0136180790141225,-0.00795609038323164,-0.0318711623549461
910,-0.00224940152838826,-0.00587432878091931,-0.0145894847810268,-0.0158533342182636,-0.00580802699550986,-0.0350480377674103
911,-0.00239485548809171,-0.0081173237413168,-0.0151869738474488,-0.0191571842879057,-0.00552941672503948,-0.0349505320191383
912,-0.00154832599218935,-0.00773646961897612,-0.0157209020107985,-0.0221755411475897,-0.00718001602217555,-0.0332269258797169
913,-0.00165916746482253,-0.00518807442858815,-0.0168720055371523,-0.024579344317317,-0.0112552857026458,-0.0328877530992031
914,-0.00359446438960731,-0.00242058536969125,-0.0182824097573757,-0.0264301169663668,-0.0170621182769537,-0.0340418852865696
915,-0.00493659125640988,-6.74430066283094E-06,-0.0178110469132662,-0.0267854370176792,-0.0216579362750053,-0.0340290889143944
916,-0.00481520872563124,0.00204264977946877,-0.015511229634285,-0.0261393114924431,-0.0243723541498184,-0.0326267331838608
917,-0.00485151587054133,0.0033426086883992,-0.0137224299833179,-0.0261280331760645,-0.0262622926384211,-0.0318788252770901
918,-0.00477177370339632,0.00385363167151809,-0.012120146304369,-0.026353120803833,-0.0255095288157463,-0.0318979807198048
919,-0.00346894911490381,0.00355113786645234,-0.0093847569078207,-0.0254356656223536,-0.0217650327831507,-0.0315894782543182
920,-0.0017947016749531,0.00250674295239151,-0.0070722890086472,-0.0233402289450169,-0.0200053788721561,-0.0307578332722187
921,-0.000841340923216194,0.00118179665878415,-0.00720837712287903,-0.0210253205150366,-0.0231615100055933,-0.0294715613126755
922,-0.000997428433038294,-0.000834223988931626,-0.0101021090522408,-0.0194499585777521,-0.028514226898551,-0.028703048825264
923,-0.00188273063395172,-0.00376135762780905,-0.0136815765872598,-0.0184826646000147,-0.0317545682191849,-0.0295204445719719
924,-0.00256047514267266,-0.00626346934586763,-0.0155208203941584,-0.0179489720612764,-0.0316606424748898,-0.0308375768363476
925,-0.00224149250425398,-0.00633785873651505,-0.0151882609352469,-0.0182889401912689,-0.030345618724823,-0.0309108626097441
926,-0.00050197122618556,-0.00358542241156101,-0.0128987254574895,-0.0194459781050682,-0.0282535627484322,-0.0297703817486763
927,0.00159748992882669,-0.000641037418972701,-0.010204553604126,-0.0216972287744284,-0.0252345092594624,-0.0289293024688959
928,0.00279178097844124,8.08495606179349E-05,-0.00929085724055767,-0.0236993059515953,-0.0228541046380997,-0.0279880594462156
929,0.00313043617643416,-0.00128633878193796,-0.0101716602221131,-0.0227920338511467,-0.0210698191076517,-0.0257149990648031
930,0.00260969833470881,-0.00278310757130384,-0.0119032049551606,-0.0203981548547745,-0.0189832970499992,-0.0237969439476728
931,0.00107539666350931,-0.00283442041836679,-0.0137828988954425,-0.0199826415628195,-0.0171179957687855,-0.0240016169846058
932,-0.000503519782796502,-0.00156465894542634,-0.0143625363707542,-0.02134620398283,-0.0151261184364557,-0.0256285984069109
933,-0.00129428424406797,0.000475696433568373,-0.0133003629744053,-0.0224744509905577,-0.0132211800664663,-0.0277369488030672
934,-0.00178499054163694,0.00199655187316239,-0.0127235613763332,-0.0228157453238964,-0.0134857064113021,-0.0303947310894728
935,-0.00282077537849545,0.000869748764671385,-0.0143497185781598,-0.0234930738806725,-0.0163685418665409,-0.0339887738227844
936,-0.00465876888483763,-0.0029856595210731,-0.0168479364365339,-0.0254331398755312,-0.0201444625854492,-0.0374208651483059
937,-0.00646419823169708,-0.00630247686058283,-0.0176260601729155,-0.0270010177046061,-0.0232062879949808,-0.037989541888237
938,-0.00798310153186321,-0.00648358650505543,-0.016739409416914,-0.0261487644165754,-0.0261303931474686,-0.0349473692476749
939,-0.00937570445239544,-0.00392408529296517,-0.0151008758693933,-0.0226232279092073,-0.0292140152305365,-0.0299045462161303
940,-0.00923532247543335,-0.000275011057965457,-0.012429328635335,-0.0184565912932158,-0.0303539484739304,-0.0252159647643566
941,-0.00689859315752983,0.00263963569886982,-0.00990795623511076,-0.0170873384922743,-0.0295286439359188,-0.0232802536338568
942,-0.00356616056524217,0.00481837941333652,-0.00902355927973986,-0.019123762845993,-0.0290520768612623,-0.0232782997190952
943,-0.00104357115924358,0.00704501243308187,-0.00969825498759747,-0.0226972457021475,-0.0295730642974377,-0.0227015670388937
944,-0.00055589439580217,0.00834220089018345,-0.0113874580711126,-0.0268200542777777,-0.0295124035328627,-0.0225155167281628
945,-0.000825581722892821,0.00846430286765099,-0.0126106282696128,-0.0298127420246601,-0.0265667736530304,-0.0237802658230066
946,0.000235565137700178,0.00877076014876366,-0.0119703272357583,-0.0289996042847633,-0.0211273934692144,-0.0241728462278843
947,0.00213400460779667,0.00859239790588617,-0.0104488451033831,-0.0251803714782,-0.0158848781138659,-0.0235491544008255
948,0.00227325316518545,0.00638929801061749,-0.00988810416311026,-0.0218797456473112,-0.01247838139534,-0.0240712966769934
949,5.94017583352979E-05,0.00371811143122613,-0.00980664696544409,-0.0200369842350483,-0.0101044392213225,-0.0251537561416626
950,-0.00241948640905321,0.00243755127303302,-0.00916091818362474,-0.0190736968070269,-0.00756667228415608,-0.0258664675056934
951,-0.00309102889150381,0.00298876198939979,-0.00851171463727951,-0.0182019118219614,-0.0064298203215003,-0.0252206344157457
952,-0.000971036904957145,0.00506561994552612,-0.00801389757543802,-0.0163887143135071,-0.00786091666668653,-0.0217750500887632
953,0.00342459953390062,0.0074187139980495,-0.00674792099744082,-0.0136191872879863,-0.00952944438904524,-0.0161160007119179
954,0.00861599761992693,0.00916798133403063,-0.00434792134910822,-0.0109021691605449,-0.00891166552901268,-0.0100552635267377
955,0.0132319228723645,0.010128634981811,-0.0016922524664551,-0.00948330014944077,-0.00617173407226801,-0.00603463919833303
956,0.0159929264336824,0.0102564115077257,0.000309431488858536,-0.00932868849486113,-0.00286408932879567,-0.00605581514537334
957,0.016007611528039,0.00919327326118946,0.00127764523494989,-0.0102079203352332,-0.000300728948786855,-0.00978352688252926
958,0.0140436394140124,0.00684875436127186,0.000857481500133872,-0.012680702842772,0.000916615244932473,-0.0154168363660574
959,0.0116596361622214,0.00410504126921296,-0.00124840019270778,-0.0166292134672403,0.000615235068835318,-0.021634953096509
960,0.00886013451963663,0.00230068154633045,-0.00491472892463207,-0.0204069223254919,-0.00175573432352394,-0.0272309798747301
961,0.00528763607144356,0.00211999868042767,-0.0086665190756321,-0.0219458565115929,-0.00597803294658661,-0.0309058483690023
962,0.00282517890445888,0.0030759978108108,-0.00910255685448647,-0.0202650334686041,-0.00908995512872934,-0.032276775687933
963,0.00247367285192013,0.00345648196525872,-0.00501402467489243,-0.0160745307803154,-0.00945351738482714,-0.0318921320140362
964,0.00307389977388084,0.00275941705331206,0.000615761498920619,-0.011127607896924,-0.00848695449531078,-0.0295964423567057
965,0.00372337130829692,0.00169715820811689,0.00476679997518659,-0.0074289427138865,-0.0070208846591413,-0.0251506827771664
966,0.00310036190785468,-0.000814683618955314,0.00595192005857825,-0.00593473110347986,-0.00649792328476906,-0.020347710698843
967,0.00152156432159245,-0.00311378692276776,0.00492592342197895,-0.00576608395203948,-0.00730527611449361,-0.0165725369006395
968,0.000997235998511314,-0.00113809085451066,0.00355301005765796,-0.00632494874298573,-0.00778076006099582,-0.0133038042113185
969,0.00150754186324775,0.00384007813408971,0.00156681227963418,-0.00773618277162313,-0.00831853225827217,-0.0108914617449045
