,AF3,AF4,Fp1,Fp2,AF7,AF8
0,0.00192119646817446,0.00359624996781349,-0.0156348031014204,0.00153838656842709,0.00380015978589654,-0.00817165616899729
1,-0.0033218536991626,0.00285860896110535,-0.0179453361779451,0.000933389237616211,-0.0014680823078379,-0.00392998615279794
2,-0.0092422254383564,-0.000924411171581596,-0.0211446061730385,-0.00406772084534168,-0.00536312302574515,-0.00748564256355166
3,-0.0132393473759294,-0.00506736896932125,-0.0239993501454592,-0.0106134228408337,-0.00656775198876858,-0.0144168166443706
4,-0.013397041708231,-0.00681068236008286,-0.0242210123687983,-0.014091026969254,-0.00501818349584937,-0.0191779173910618
5,-0.0111513249576092,-0.00707473699003458,-0.0224918909370899,-0.0139732994139194,-0.00278262794017792,-0.0209316462278366
6,-0.00816464051604271,-0.00728996377438307,-0.0196215193718672,-0.0114486664533615,-0.000786829215940088,-0.0212755296379328
7,-0.00595884816721082,-0.00800884608179331,-0.0151140261441469,-0.00732212187722325,0.00143328309059143,-0.0210633482784033
8,-0.0050139743834734,-0.00880164839327335,-0.00970511417835951,-0.00296234269626439,0.003879260038957,-0.020250741392374
9,-0.00545944459736347,-0.00901467353105545,-0.00714931543916464,-0.00111258728429675,0.0037891014944762,-0.0195928737521172
10,-0.00765052065253258,-0.00810801517218351,-0.00972801260650158,-0.00238821492530406,-0.00167845701798797,-0.0188092663884163
11,-0.00989027041941881,-0.00511647900566459,-0.0141769079491496,-0.0037194115575403,-0.0100755952298641,-0.0157794263213873
12,-0.0111757516860962,-0.0014160395367071,-0.0174630805850029,-0.00429585296660662,-0.01675427518785,-0.0112224137410522
13,-0.0118506457656622,0.000242473572143354,-0.0193934440612793,-0.00571469031274319,-0.0189828369766474,-0.00794407911598682
14,-0.0114513477310538,-0.00115630903746933,-0.019843926653266,-0.00823437515646219,-0.0170654971152544,-0.00751220714300871
15,-0.00981981121003628,-0.00431782100349665,-0.0180035214871168,-0.00950268190354109,-0.0126268267631531,-0.00918693467974663
16,-0.0071279969997704,-0.00650969101116061,-0.0126947127282619,-0.00624358281493187,-0.00539550837129354,-0.0109566207975149
17,-0.00486744754016399,-0.0075244284234941,-0.00675963889807463,-0.000524197996128351,0.00219308212399483,-0.0133551536127925
18,-0.0045808982104063,-0.00913103483617306,-0.00487008271738887,0.00255086133256555,0.00621305545791984,-0.0174344182014465
19,-0.00489801028743386,-0.011048449203372,-0.00618145475164056,0.00207240879535675,0.00812937319278717,-0.0217368211597204
20,-0.00525007443502545,-0.0128026893362403,-0.00855364371091127,-0.000948405475355685,0.00926260650157928,-0.0254902597516775
21,-0.0073402002453804,-0.0144326565787196,-0.0126135619357228,-0.00524177215993404,0.00692580174654722,-0.0277647599577904
22,-0.0107300234958529,-0.0141380960121751,-0.0174347553402185,-0.00738281290978193,0.00105331325903535,-0.0255977511405945
23,-0.0134135503321886,-0.0117714498192072,-0.020237086340785,-0.00572281097993255,-0.00427641440182924,-0.0199318546801806
24,-0.0148805817589164,-0.0101150050759315,-0.0201675668358803,-0.0030442476272583,-0.00692143198102713,-0.0163007490336895
25,-0.0154162151739001,-0.00983015913516283,-0.0192791298031807,-0.00233006430789828,-0.00936661381274462,-0.01664481125772
26,-0.0152465123683214,-0.00971613544970751,-0.0194658264517784,-0.00341918063350022,-0.0130427200347185,-0.0181826632469893
27,-0.0156466830521822,-0.00945762451738119,-0.0209801718592644,-0.00432400358840823,-0.0164213385432959,-0.0174782797694206
28,-0.0176680386066437,-0.00897125154733658,-0.0237117912620306,-0.00465544313192368,-0.0189498253166676,-0.0137973120436072
29,-0.0193521603941917,-0.00711942510679364,-0.0256503876298666,-0.00427369074895978,-0.0195918567478657,-0.00836093444377184
30,-0.0184090007096529,-0.00309563777409494,-0.0244725402444601,-0.00123787624761462,-0.0173384547233582,-0.000720042560715228
31,-0.0160138867795467,0.000699035648722202,-0.0223127007484436,0.00315429968759418,-0.0147246234118938,0.00727200182154775
32,-0.0145485308021307,0.0015177761670202,-0.0225568972527981,0.00470512453466654,-0.0148316994309425,0.0112436786293983
33,-0.0149105489253998,-0.000452136999228969,-0.0246757064014673,0.00242463941685855,-0.0169434361159801,0.0105074448511004
34,-0.0168261341750622,-0.00402284553274512,-0.0269843805581331,-0.00211205147206783,-0.0187233071774244,0.00661116791889071
35,-0.0185713469982147,-0.00820835400372744,-0.0292263608425856,-0.00738917570561171,-0.0194746721535921,0.000113829788460862
36,-0.0188057757914066,-0.0122409909963608,-0.0312355030328035,-0.0120850773528218,-0.0199164468795061,-0.0074855494312942
37,-0.0179266184568405,-0.0158151779323816,-0.0321450494229794,-0.0154749900102615,-0.019934831187129,-0.0141440145671368
38,-0.0160602107644081,-0.0183073971420527,-0.0312442108988762,-0.0171387027949095,-0.0182487294077873,-0.0188489332795143
39,-0.0139658497646451,-0.018577940762043,-0.0293342955410481,-0.0165756493806839,-0.0161683354526758,-0.0205380711704493
40,-0.0132800592109561,-0.0159536674618721,-0.0273932870477438,-0.0136213796213269,-0.016949400305748,-0.0185061506927013
41,-0.0139611512422562,-0.0112416939809918,-0.024955727159977,-0.00880274455994368,-0.0198979042470455,-0.0137601858004928
42,-0.0145921893417835,-0.00777243496850133,-0.0220434777438641,-0.00490332953631878,-0.0204163491725922,-0.0111296623945236
43,-0.0139808654785156,-0.00789048802107573,-0.0199608132243156,-0.00487336562946439,-0.0163984503597021,-0.0147341014817357
44,-0.0130845047533512,-0.00962403323501349,-0.0193921513855457,-0.00744189834222198,-0.0112365605309606,-0.0203347336500883
45,-0.0146475192159414,-0.010496474802494,-0.0203290525823832,-0.009399538859725,-0.00970044452697039,-0.0208068452775478
46,-0.0181075222790241,-0.0096513144671917,-0.0222379192709923,-0.00973399821668863,-0.0120348343625665,-0.0154101410880685
47,-0.019800478592515,-0.00741373095661402,-0.0238524973392487,-0.00945886224508286,-0.0147106386721134,-0.00915075838565826
48,-0.01888432726264,-0.00537535874173045,-0.0242360308766365,-0.00918229389935732,-0.0159339383244514,-0.00606561219319701
49,-0.0173535645008087,-0.00426918733865023,-0.0236226562410593,-0.00810959283262491,-0.016187833622098,-0.00533389672636986
50,-0.0163816418498755,-0.00372946681454778,-0.0232946053147316,-0.00626462791115046,-0.016201900318265,-0.00460576405748725
51,-0.0161111690104008,-0.00421644514426589,-0.024327740073204,-0.0055468725040555,-0.0170991439372301,-0.0044646910391748
52,-0.0166676621884108,-0.00663029542192817,-0.0265785232186317,-0.00759595306590199,-0.019338907673955,-0.00712648453190923
53,-0.017171872779727,-0.0103627359494567,-0.0281262136995792,-0.011583867482841,-0.0206997022032738,-0.0119974501430988
54,-0.0163560137152672,-0.0137410778552294,-0.0266463756561279,-0.0150832906365395,-0.018645916134119,-0.0173618812114
55,-0.0139187360182405,-0.0158513989299536,-0.0225071851164103,-0.0168928541243076,-0.0142345568165183,-0.023756992071867
56,-0.0108380317687988,-0.0169785097241402,-0.0187522917985916,-0.0176912266761065,-0.0100687826052308,-0.0301511157304049
57,-0.009855424053967,-0.0179937519133091,-0.0186693761497736,-0.0187999699264765,-0.00823904760181904,-0.0326516069471836
58,-0.0110071562230587,-0.0172341633588076,-0.0217814967036247,-0.0190144926309586,-0.00930785574018955,-0.027010302990675
59,-0.0114523032680154,-0.0133588081225753,-0.0246778447180986,-0.0166593417525291,-0.0111302630975842,-0.0141007117927074
60,-0.0110162300989032,-0.00919887982308865,-0.0262220688164234,-0.0135418968275189,-0.0120829418301582,-0.00173441041260958
61,-0.0113209765404463,-0.00695828394964337,-0.0269797891378403,-0.0112640522420406,-0.0129911098629236,0.00423751771450043
62,-0.0128448102623224,-0.00665572797879577,-0.0275409854948521,-0.00991275440901518,-0.015464729629457,0.0037581764627248
63,-0.0136559223756194,-0.00760805560275912,-0.0278941914439201,-0.00995355937629938,-0.0186892170459032,-0.000628239300567657
64,-0.0119955604895949,-0.00904402509331703,-0.0272296611219645,-0.0117718195542693,-0.0190761499106884,-0.00610991474241018
65,-0.00967133510857821,-0.0108860107138753,-0.0260146353393793,-0.0150494398549199,-0.0160549990832806,-0.0106558352708817
66,-0.00863115862011909,-0.0126393772661686,-0.0253082308918238,-0.0186333619058132,-0.0133872581645846,-0.0136208133772016
67,-0.00829906575381756,-0.0129390554502606,-0.0242550242692232,-0.0204846225678921,-0.0131492037326097,-0.0152035467326641
68,-0.00729678617790341,-0.0111036151647568,-0.0203591380268335,-0.0186615735292435,-0.0122936349362135,-0.0152495615184307
69,-0.00492522306740284,-0.00820783991366625,-0.0131365349516273,-0.013558398000896,-0.00814770068973303,-0.0142564941197634
70,-0.00235035503283143,-0.00617902167141438,-0.00648438232019544,-0.00833529140800238,-0.00417731469497085,-0.0139339789748192
71,-0.00169391662348062,-0.00620524492114782,-0.00484598381444812,-0.00627656979486346,-0.00501961726695299,-0.015013069845736
72,-0.00345860188826919,-0.00816129799932241,-0.00861071981489658,-0.00825721677392721,-0.0100710606202483,-0.0168914031237364
73,-0.00590023351833224,-0.0108266631141305,-0.0140308188274503,-0.0117312278598547,-0.0147967971861362,-0.0184475984424353
74,-0.00713889300823212,-0.0118357418105006,-0.0172259267419577,-0.0122484648600221,-0.0168917458504438,-0.0167644266039133
75,-0.00692340219393373,-0.00978436321020126,-0.0176115315407515,-0.00845653191208839,-0.0175362788140774,-0.0105920294299722
76,-0.00544269708916545,-0.00569964200258255,-0.0156457610428333,-0.00253698951564729,-0.0165168810635805,-0.00282169529236853
77,-0.00270991050638258,-0.00114835193380713,-0.0112394746392965,0.00339531432837248,-0.01259870454669,0.00359533075243235
78,-0.000840262044221163,0.00113449920900166,-0.00717937853187323,0.00615167897194624,-0.00841507967561483,0.0060285315848887
79,-0.00246040732599795,-0.00149460998363793,-0.00733615038916469,0.00304602296091616,-0.0076666921377182,0.00242486922070384
80,-0.00714915106073022,-0.00744838640093803,-0.0110020684078336,-0.00336740724742413,-0.00962325744330883,-0.00542108621448278
81,-0.0121871419250965,-0.0131137659773231,-0.0147914970293641,-0.00886649824678898,-0.0115117384120822,-0.0136539395898581
82,-0.0150533420965075,-0.0165204387158155,-0.0172097384929657,-0.0126548185944557,-0.0120167108252645,-0.0197749361395836
83,-0.0142268417403102,-0.0159388687461615,-0.017065241932869,-0.0140212904661894,-0.00976421497762203,-0.0209137517958879
84,-0.0109560051932931,-0.0118124783039093,-0.0150558715686202,-0.0128396227955818,-0.00613002153113484,-0.0163784567266703
85,-0.00844813231378794,-0.00792281143367291,-0.0147036965936422,-0.0119491070508957,-0.00581854255869985,-0.0104282107204199
86,-0.00650484347715974,-0.00575138907879591,-0.0155078619718552,-0.0118097420781851,-0.00760119501501322,-0.00635250145569444
87,-0.0033767803106457,-0.00388226308859885,-0.0145590845495462,-0.0102245416492224,-0.00693426560610533,-0.00386623805388808
88,-0.000771851104218513,-0.00246031605638564,-0.0126462588086724,-0.00758299231529236,-0.00512767862528563,-0.00242673931643367
89,-0.001477692858316,-0.00391374388709664,-0.0127027630805969,-0.00723418034613132,-0.00523644499480724,-0.00349884876050055
90,-0.00522800674661994,-0.00836897734552622,-0.0155966524034739,-0.00979883037507534,-0.00714747095480561,-0.006373246666044
91,-0.00961833633482456,-0.0119534526020288,-0.0190662406384945,-0.0115440497174859,-0.00982951279729605,-0.00674867164343596
92,-0.0124771259725094,-0.0120318485423923,-0.0206378716975451,-0.0107502844184637,-0.0124955922365189,-0.00424585398286581
93,-0.0127838747575879,-0.0100523103028536,-0.0202524792402983,-0.00983797758817673,-0.0146660031750798,-0.00350111490115523
94,-0.0102787632495165,-0.0076467995531857,-0.0177252870053053,-0.00948481354862452,-0.0148391248658299,-0.00521480105817318
95,-0.00645452365279198,-0.00480835605412722,-0.0129620786756277,-0.00775494147092104,-0.0121764382347465,-0.00492279464378953
96,-0.00439588446170092,-0.00161128456238657,-0.00826251227408648,-0.00462237512692809,-0.0096745053306222,-0.000730742118321359
97,-0.00534024136140943,0.00132977811153978,-0.00590738374739885,-0.00239149853587151,-0.0105878533795476,0.00468260841444135
98,-0.007087969686836,0.00294357561506331,-0.00602780794724822,-0.00289185321889818,-0.0133513417094946,0.00729315914213657
99,-0.00688677467405796,0.00224902224726975,-0.00727027282118797,-0.00608953600749373,-0.0144206406548619,0.00462857913225889
100,-0.00472232978790998,-0.000186838471563533,-0.00789547152817249,-0.0102725513279438,-0.0132282767444849,-0.00153540959581733
101,-0.00145725114271045,-0.00157600524835289,-0.00609134929254651,-0.0122277429327369,-0.0105418227612972,-0.00522825494408607
102,0.00204271357506514,-0.000397207186324522,-0.00260881963185966,-0.0108153391629457,-0.00794570799916983,-0.0024058495182544
103,0.00438200961798429,0.00168851541820914,-0.000307103939121589,-0.00804063957184553,-0.00732981506735086,0.00515535147860646
104,0.00483421375975013,0.00291998381726444,-0.000591172720305622,-0.00584496930241585,-0.00920332688838243,0.0129214683547616
105,0.00404593860730529,0.00311477016657591,-0.00240184739232063,-0.00472541386261582,-0.011823421344161,0.0178713742643595
106,0.00341851590201259,0.00336846522986889,-0.00335213053040206,-0.00319937872700393,-0.0124163292348385,0.0206428244709969
107,0.00324343936517835,0.00420929491519928,-0.0025352465454489,-0.000156858004629612,-0.0105915796011686,0.02237887121737
108,0.00257828366011381,0.00400683842599392,-0.00115584803279489,0.00246935058385134,-0.0082427179440856,0.0212803352624178
109,0.00174171128310263,0.00238302745856345,0.000255455728620291,0.00312776793725789,-0.00631817197427154,0.0167234856635332
110,0.00211187056265771,0.000807226810138673,0.00197186903096735,0.00222056242637336,-0.00403109798207879,0.010233148932457
111,0.00363814341835678,-5.03113660670351E-05,0.00311213126406074,0.000485362921608612,-0.00159532902762294,0.00305883842520416
112,0.00554718775674701,-0.000118140320410021,0.00292014516890049,-0.00120901793707162,0.000323222833685577,-0.0031836845446378
113,0.00705048721283674,2.02076316782041E-05,0.0014946861192584,-0.00282489857636392,0.00102251674979925,-0.00764722283929586
114,0.00688921986147761,0.000326366454828531,-0.000796729407738894,-0.00400398997589946,-0.00173780100885779,-0.00962581112980843
115,0.00488718040287495,0.00198330753482878,-0.0025415534619242,-0.00334786833263934,-0.00724526215344667,-0.00769198918715119
116,0.00200672168284655,0.00460746185854077,-0.00280831241980195,-0.00142092769965529,-0.0116303721442819,-0.00227370392531157
117,-0.00114376086276025,0.00618662824854255,-0.0031039894092828,-0.000870063959155232,-0.0151349734514952,0.00434895837679505
118,-0.00336309894919395,0.00698464782908559,-0.00335143157280982,-0.00114892120473087,-0.0187978651374578,0.011345636099577
119,-0.00321987643837929,0.00804975163191557,-0.00172671640757471,-0.000311102368868887,-0.019323805347085,0.0170888099819422
120,-0.00170939357485622,0.00721848756074905,0.000129040374304168,-0.000748931895941496,-0.0149206221103668,0.0174540113657713
121,-0.00133051816374063,0.00335389887914062,-3.12016127281822E-05,-0.00388469803147018,-0.00827439315617085,0.0126576256006956
122,-0.0018425794551149,-0.000161922231200151,-0.000779114081524313,-0.00658386200666428,-0.00170400401111692,0.00752878841012716
123,-0.000807067495770752,-0.00101218477357179,-4.90505044581369E-05,-0.00711339246481657,0.00519334990531206,0.00405962485820055
124,0.00168026192113757,-0.000985919148661196,0.000625816348474473,-0.0075769224204123,0.0111050484701991,0.000305686495266855
125,0.00300637632608414,-0.00169969443231821,-0.00145068427082151,-0.00957814883440733,0.0122998273000121,-0.00526253506541252
126,0.0024066714104265,-0.0024737745989114,-0.00495883915573359,-0.011212226934731,0.00908118393272161,-0.0114098750054836
127,0.00146348297130317,-0.00257023004814982,-0.00673457887023687,-0.0103099290281534,0.00552376406267285,-0.0154981920495629
128,0.00106876075733453,-0.00133686151821166,-0.00582790281623602,-0.00690363394096494,0.0036252299323678,-0.0149633157998323
129,0.000642087194137275,0.00232710363343358,-0.00316696707159281,-0.00178176839835942,0.00296928733587265,-0.00834308099001646
130,-0.000733575259801,0.00790468417108059,-0.000865189649630338,0.00339362304657698,0.00246998155489564,0.00244486075825989
131,-0.00222654175013304,0.0136751104146242,-0.000363733764970675,0.00650056498125196,0.00186914834193885,0.0119322342798114
132,-0.00302184140309691,0.017575815320015,-0.00142924371175468,0.00647501554340124,0.00160274654626846,0.0150322541594505
133,-0.00433878507465124,0.0176598764955997,-0.00367508828639984,0.00373935257084668,0.00168513820972294,0.0112989619374275
134,-0.00606796983629465,0.014790240675211,-0.006322565022856,0.000127196428366005,0.00229653087444603,0.00455148238688707
135,-0.00741533515974879,0.011087411083281,-0.00863874051719904,-0.00278506940230727,0.00274497247301042,-0.00182672403752804
136,-0.00798151362687349,0.00824111048132181,-0.0093556297942996,-0.00335249281488359,0.00300782010890543,-0.00576404388993979
137,-0.00707581359893084,0.00742972921580076,-0.00733206141740084,-0.00106661079917103,0.00380484922789037,-0.00593055365607142
138,-0.00539004383608699,0.00805123616009951,-0.00419782008975744,0.00160492502618581,0.00399030232802033,-0.00287643005140126
139,-0.00342285074293613,0.0100367218255997,-0.00131592259276658,0.00380801479332149,0.00338115636259317,0.00332414451986551
140,-0.000815687351860106,0.0130072040483356,0.00109199457801878,0.00598930381238461,0.00318909320048988,0.0106811132282019
141,0.00127718772273511,0.0140049932524562,0.00146473187487572,0.00613970588892698,0.0027800127863884,0.0125296739861369
142,0.000533076410647482,0.0111235063523054,-0.00167670066002756,0.00244009401649237,9.40908576012589E-05,0.00577391823753715
143,-0.00300444266758859,0.00653063878417015,-0.00643911911174655,-0.00258155073970556,-0.00433337595313787,-0.00289795896969736
144,-0.00588632980361581,0.00435912609100342,-0.00839352142065763,-0.00372277921997011,-0.0062940358184278,-0.00422230549156666
145,-0.00609143311157823,0.00495138438418508,-0.00700839702039957,-0.000864087021909654,-0.00343349087052047,0.00150412344373763
146,-0.00589452451094985,0.00481559475883842,-0.00606750044971704,0.000913285883143544,0.00160584319382906,0.00636391155421734
147,-0.00738929631188512,0.00292550260201097,-0.00671536149457097,-0.000352508679497987,0.0060576731339097,0.00694221118465066
148,-0.00940606091171503,0.00114579941146076,-0.00728470645844936,-0.00258325412869453,0.00946708489209414,0.00546224741265178
149,-0.0103113073855639,0.000409523898269981,-0.00784062780439854,-0.00473780510947108,0.0108173675835133,0.00319293793290854
150,-0.0101488213986158,-8.07659671409056E-05,-0.00953176431357861,-0.00732387043535709,0.00965531729161739,-0.00100349343847483
151,-0.00994858704507351,-0.000879533356055617,-0.0124577507376671,-0.00964517705142498,0.00755812041461468,-0.00673626596108079
152,-0.00872716773301363,-0.000192198946024291,-0.0142622943967581,-0.00899821519851685,0.00763059966266155,-0.00976055953651667
153,-0.00570235727354884,0.00252235494554043,-0.0132773322984576,-0.00489351665601134,0.0109703922644258,-0.00758447870612144
154,-0.00349317491054535,0.00436619203537703,-0.0119437864050269,-0.000929964589886367,0.013914150185883,-0.00340530066750944
155,-0.00212157564237714,0.0051423404365778,-0.0105365328490734,0.00187735224608332,0.0151332756504416,0.000134681307827123
156,0.00126307131722569,0.00754923047497869,-0.00585610279813409,0.00621421122923493,0.0171701051294804,0.00428551156073809
157,0.00581320142373443,0.011173845268786,0.00177016691304743,0.0119159882888198,0.020748483017087,0.00960488431155682
158,0.00812133587896824,0.0133867347612977,0.00827175006270409,0.0157307498157024,0.0250026229768991,0.0139352707192302
159,0.00658596307039261,0.0131514677777886,0.0101235257461667,0.0154961310327053,0.0273501593619585,0.0152426501736045
160,0.00116113747935742,0.010809313505888,0.00532786315307021,0.0112693328410387,0.0228742454200983,0.0139553779736161
161,-0.00576145155355334,0.0073774503543973,-0.00396124459803104,0.00536855356767774,0.0123978024348617,0.0121318940073252
162,-0.0104062221944332,0.00368706719018519,-0.0126289697363973,2.01209186343476E-05,0.00303703639656305,0.0103140603750944
163,-0.0114368600770831,0.000699236115906388,-0.0183343794196844,-0.00421399110928178,-0.00168931542430073,0.00815781485289335
164,-0.00889775156974792,0.00029958359664306,-0.0199663527309895,-0.00619672052562237,-0.00125370942987502,0.0069013056345284
165,-0.00389038026332855,0.00278020882979035,-0.0170172341167927,-0.00512458477169275,0.00404907623305917,0.00763366278260946
166,0.00135022134054452,0.00607728585600853,-0.0111972512677312,-0.00224430114030838,0.0125131802633405,0.00961021706461906
167,0.00545217096805573,0.0090893916785717,-0.00468237185850739,0.000931442191358656,0.0216171853244305,0.0124601637944579
168,0.0083523029461503,0.0119939018040895,0.00145188707392663,0.00364341237582266,0.0295494124293327,0.0160093437880278
169,0.00950551591813564,0.0139799769967794,0.00573154771700501,0.00509429210796952,0.035070177167654,0.0190268233418465
170,0.00816709827631712,0.0143377594649792,0.00569953862577677,0.00465993490070105,0.0354414731264114,0.0211993269622326
171,0.00608936324715614,0.0136479567736387,0.00249589048326015,0.00313741923309863,0.0317525565624237,0.022392513230443
172,0.00483958562836051,0.0121386293321848,-0.00107068731449544,0.000981317367404699,0.0273237843066454,0.0208587367087603
173,0.00283819064497948,0.00880666635930538,-0.00550219230353832,-0.00314486213028431,0.0210205111652613,0.0151059664785862
174,-0.000849531323183328,0.00426572095602751,-0.0100874537602067,-0.00813241396099329,0.0123421801254153,0.00848879758268595
175,-0.00468234065920115,0.00119602808263153,-0.0115936724469066,-0.0106858974322677,0.00440866453573108,0.00649404246360064
176,-0.00708360876888037,0.000753500848077238,-0.00927708204835653,-0.0104269525036216,-0.000172526910318993,0.00915015395730734
177,-0.00785521790385246,0.00100355932954699,-0.00631141988560557,-0.0105794072151184,-0.00186207785736769,0.0112815434113145
178,-0.00705541530624032,6.24260792392306E-05,-0.00551342451944947,-0.0133457500487566,-0.00149372278247029,0.0091745350509882
179,-0.00513152172788978,-0.00120018201414496,-0.00620885100215673,-0.0165463592857122,0.0013185361167416,0.00437367288395762
180,-0.00361381424590945,-0.00158151367213577,-0.00720692286267877,-0.0176064763218164,0.00579978572204709,-6.44566098344512E-05
181,-0.0028463052585721,-0.00119288975838572,-0.0086844963952899,-0.0168388448655605,0.0106186401098967,-0.00264222314581275
182,-0.0016049116384238,-5.92281030549202E-05,-0.0103575065732002,-0.0146739073097706,0.0149882230907679,-0.00203215284273028
183,6.36186014162377E-05,0.000897671678103507,-0.0118544530123472,-0.012141352519393,0.0177422445267439,0.000594804412685335
184,0.000804521492682397,-0.000140011761686765,-0.0132746789604425,-0.0117401015013456,0.0184526797384024,0.000980146345682442
185,0.00134564854670316,-0.0026320181787014,-0.0128820296376944,-0.0133536728098989,0.0197531692683697,-0.00235841376706958
186,0.00220035505481064,-0.00557734817266464,-0.0106701282784343,-0.016033137217164,0.0221630167216063,-0.00788311567157507
187,0.000501372967846692,-0.0085084643214941,-0.0104970885440707,-0.0195942148566246,0.0206560902297497,-0.0126046305522323
188,-0.00471607688814402,-0.0095875458791852,-0.0136854909360409,-0.0225035604089499,0.0134469410404563,-0.0136256413534284
189,-0.00908423122018576,-0.00733424862846732,-0.0167381651699543,-0.0228241998702288,0.0064401370473206,-0.0106727229431272
190,-0.00960058253258467,-0.00256265723146498,-0.0165353529155254,-0.0194411017000675,0.00479969754815102,-0.0040398552082479
191,-0.00815794616937637,0.00227030506357551,-0.0140106892213225,-0.0135574676096439,0.00726599199697375,0.0049383258447051
192,-0.00658521708101034,0.00598748913034797,-0.0113936020061374,-0.00768310157582164,0.010294265113771,0.0133508928120136
193,-0.00601432798430324,0.0076294057071209,-0.010171870701015,-0.00437802821397781,0.0117326397448778,0.0176216643303633
194,-0.00805178470909595,0.00512886699289083,-0.0117509886622429,-0.00597151229158044,0.0106601491570473,0.0145276160910726
195,-0.0128174675628543,-0.00135364267043769,-0.0155529696494341,-0.0118102785199881,0.00767619116231799,0.00530347647145391
196,-0.0182690024375916,-0.00873692519962788,-0.0185333155095577,-0.0180495698004961,0.00473767379298806,-0.00448351679369807
197,-0.0204401537775993,-0.013441564515233,-0.0183407906442881,-0.0211149230599403,0.00441864505410194,-0.0104860821738839
198,-0.0167367532849312,-0.013852421194315,-0.0142135443165898,-0.0197036322206259,0.00890710577368736,-0.0122012030333281
199,-0.00961966626346111,-0.0114792911335826,-0.00631700875237584,-0.0146177336573601,0.0183471515774727,-0.0108733447268605
200,-0.00380090833641589,-0.00914450082927942,0.00288689183071256,-0.00868882145732641,0.0298226270824671,-0.00824890192598104
201,-0.00195198669098318,-0.00822796858847141,0.00885926932096481,-0.00515199638903141,0.0374552793800831,-0.00565212359651923
202,-0.00370098184794188,-0.00840120762586594,0.00775942951440811,-0.0058985585346818,0.0357441753149033,-0.00337643967941403
203,-0.00669245468452573,-0.00863724015653133,-6.27959307166748E-05,-0.0106228590011597,0.0248417016118765,-0.00172450044192374
204,-0.00914888642728329,-0.0082420352846384,-0.0102876052260399,-0.0170381665229797,0.0105052711442113,-0.000609581300523132
205,-0.0117306159809232,-0.00754040945321321,-0.0199017208069563,-0.0231613479554653,-0.00305858207866549,0.0010273412335664
206,-0.0152993043884635,-0.00594135746359825,-0.0270276069641113,-0.0263045690953732,-0.0147260259836912,0.00558128068223596
207,-0.0187823977321386,-0.00314344372600317,-0.0293612219393253,-0.0250113978981972,-0.0219699013978243,0.0130580998957157
208,-0.02068224363029,-0.000352159258909523,-0.0281301289796829,-0.0224944837391377,-0.0234548952430487,0.0196469984948635
209,-0.0202134549617767,0.00190995959565043,-0.0276615787297487,-0.023128978908062,-0.0215280875563622,0.0221431367099285
210,-0.0174416899681091,0.00362332817167044,-0.029271250590682,-0.0272324085235596,-0.0187703054398298,0.0207367781549692
211,-0.0135029200464487,0.00509465672075748,-0.0296832378953695,-0.0302295126020908,-0.01534803211689,0.019464461132884
212,-0.00993037782609463,0.00646665040403605,-0.0270069669932127,-0.029134102165699,-0.0104379616677761,0.0213328059762716
213,-0.00699104787781835,0.00853955000638962,-0.0225192364305258,-0.0247096624225378,-0.00517943128943443,0.0267800074070692
214,-0.00521437637507916,0.0105193397030234,-0.0186482518911362,-0.020342780277133,-0.00226386520080268,0.0326170399785042
215,-0.00646027689799666,0.00915484502911568,-0.0185921918600798,-0.0207008887082338,-0.00414153141900897,0.0329200811684132
216,-0.0099865822121501,0.00521211698651314,-0.0226937141269445,-0.0256585404276848,-0.0101542621850967,0.0279354099184275
217,-0.0128880385309458,0.00267046922817826,-0.0280015114694834,-0.0309982467442751,-0.0166486389935017,0.0229032393544912
218,-0.01414002943784,0.00310059543699026,-0.0313396975398064,-0.033520832657814,-0.020791869610548,0.0207053925842047
219,-0.0145757030695677,0.00517593137919903,-0.0311294347047806,-0.0326929315924644,-0.022391302511096,0.0202072486281395
220,-0.014798017218709,0.00716546224430203,-0.0283251758664846,-0.0301422849297524,-0.0227168034762144,0.018944526091218
221,-0.0144671462476254,0.00864731054753065,-0.0243025124073029,-0.0273732002824545,-0.0216232910752296,0.0169662609696388
222,-0.013607008382678,0.00976264383643866,-0.019869627431035,-0.0247722119092941,-0.0191863384097815,0.0162818618118763
223,-0.0135112712159753,0.00954403821378946,-0.0171363968402147,-0.0235396511852741,-0.0174098610877991,0.016450421884656
224,-0.0142583316192031,0.00779314525425434,-0.0173442699015141,-0.0244504753500223,-0.0166537202894688,0.0152729209512472
225,-0.0139316208660603,0.00712832389399409,-0.0184684954583645,-0.0254075992852449,-0.014939971268177,0.0130253965035081
226,-0.0130754541605711,0.00815602857619524,-0.0195050984621048,-0.0253770481795073,-0.0123486313968897,0.0101830121129751
227,-0.0126448543742299,0.00901183020323515,-0.0207109060138464,-0.0251616314053535,-0.0103759542107582,0.00688743079081178
228,-0.0109616834670305,0.0096253864467144,-0.0210589785128832,-0.0247642453759909,-0.00878982245922089,0.00476485816761851
229,-0.00833844859153032,0.0100610237568617,-0.0203673597425222,-0.0244224201887846,-0.00718755135312676,0.00407365430146456
230,-0.00662239408120513,0.00989334657788277,-0.0190965849906206,-0.0240465626120567,-0.0057045123539865,0.0043725436553359
231,-0.00650382740423083,0.00979591812938452,-0.0178448222577572,-0.0227620992809534,-0.00615319097414613,0.00718925846740603
232,-0.00731098279356956,0.011096702888608,-0.0167883150279522,-0.0198522675782442,-0.00963183771818876,0.0138523662462831
233,-0.00718303304165602,0.0133928982540965,-0.0157575625926256,-0.0165069531649351,-0.0130577776581049,0.0212240424007177
234,-0.00580516923218966,0.0144292013719678,-0.0166055951267481,-0.015223290771246,-0.0142363933846354,0.0246520135551691
235,-0.00493569113314152,0.013094930909574,-0.0216461345553398,-0.0160905085504055,-0.0141056701540947,0.0243661534041166
236,-0.00511212088167667,0.0101759424433112,-0.0303052701056004,-0.0172118432819843,-0.012217135168612,0.0225922930985689
237,-0.00457612983882427,0.00832247734069824,-0.0373749807476997,-0.0157085154205561,-0.00705405650660396,0.0206973738968372
238,-0.00240196753293276,0.00891106016933918,-0.0361866652965546,-0.0107963159680367,-0.000450076506240293,0.019260885193944
239,0.000663904473185539,0.0100827952846885,-0.0255693886429071,-0.00605112453922629,0.00445415684953332,0.0170809663832188
240,0.00302457599900663,0.00954615697264671,-0.0122232493013144,-0.00538889365270734,0.00609561428427696,0.0126769589260221
241,0.00236160052008927,0.00592730520293117,-0.00426189601421356,-0.00997578352689743,0.00349265430122614,0.00579354632645845
242,-0.00128018390387297,0.00050826882943511,-0.00257138698361814,-0.0165829341858625,-0.0018418338149786,-0.0010877288877964
243,-0.00581168243661523,-0.00447562197223306,-0.00343554699793458,-0.0214992947876453,-0.00730553548783064,-0.00517487479373813
244,-0.00995608046650887,-0.00817455444484949,-0.00514405034482479,-0.024701002985239,-0.0120744854211807,-0.00643827021121979
245,-0.0130140231922269,-0.00993168354034424,-0.00686260359361768,-0.0267790351063013,-0.0148566737771034,-0.00547574507072568
246,-0.0143432337790728,-0.00949331559240818,-0.0068335123360157,-0.0267558041960001,-0.0135792698711157,-0.00244545470923185
247,-0.0140321562066674,-0.00728998659178615,-0.00494593288749456,-0.0242726318538189,-0.00864812545478344,0.00162537966389209
248,-0.0130845019593835,-0.00421662116423249,-0.00263556954450905,-0.020883971825242,-0.0024332485627383,0.00489462912082672
249,-0.0117333410307765,-0.000426994607551023,0.000196437147678807,-0.0171410627663136,0.00334979337640107,0.00769184064120054
250,-0.0091355238109827,0.00458228262141347,0.00403406796976924,-0.0119433384388685,0.00779886823147535,0.0131177641451359
251,-0.00428161351010203,0.00990768987685442,0.00820676796138287,-0.00570831727236509,0.0119650838896632,0.0214670188724995
252,0.00115985446609557,0.0130457794293761,0.0106272222474217,-0.00130274822004139,0.015973249450326,0.028217364102602
253,0.00358085543848574,0.0126504078507423,0.00985103007405996,-0.000339687598170713,0.0183914601802826,0.0305308904498816
254,0.00286944955587387,0.00991723034530878,0.00700721889734268,-0.00178821675945073,0.0197882652282715,0.0289466511458158
255,0.00221971468999982,0.00735350092872977,0.0038823566865176,-0.00409537367522717,0.0213838182389736,0.0246453955769539
256,0.00354183651506901,0.00666231475770473,0.00156778038945049,-0.00597320450469851,0.0235416032373905,0.0195997208356857
257,0.00452670780941844,0.00610763998702168,-0.000667198037263006,-0.00817953143268824,0.0242978129535913,0.0143907843157649
258,0.00297015020623803,0.00433284230530262,-0.00329798273742199,-0.0111048389226198,0.0217805001884699,0.00935031194239855
259,0.000596958387177438,0.00374917197041214,-0.00426397286355495,-0.0117945969104767,0.0177450440824032,0.00752015085890889
260,-0.000481948198284954,0.00560682127252221,-0.00242427201010287,-0.00899057276546955,0.014354501850903,0.0104168159887195
261,0.000224896823056042,0.00872303731739521,0.000899713777471334,-0.00529424054548144,0.0121851228177547,0.0155266467481852
262,0.00169987650588155,0.0117654278874397,0.00374895450659096,-0.00353983580134809,0.0109147317707539,0.0196101386100054
263,0.00207089330069721,0.0132720852270722,0.00437732832506299,-0.00462602311745286,0.00946320407092571,0.0213976763188839
264,0.00061525241471827,0.013058127835393,0.00241738557815552,-0.00680423248559237,0.00713947787880898,0.0222137756645679
265,-0.00162484799511731,0.0128273740410805,-0.000362034072168171,-0.00708147371187806,0.00453774584457278,0.024190615862608
266,-0.0034179468639195,0.0129719683900476,-0.0029141609556973,-0.00579953705891967,0.00194360048044473,0.0259811133146286
267,-0.00439500156790018,0.0121454540640116,-0.00546899158507586,-0.00586280599236488,-0.00102691596839577,0.0243636202067137
268,-0.00384910986758769,0.0106525085866451,-0.00623488798737526,-0.0067454818636179,-0.00266585848294199,0.0201002601534128
269,-0.000925977423321456,0.0100083276629448,-0.00348981306888163,-0.00590182421728969,-0.000596955942455679,0.0160488840192556
270,0.0017497637309134,0.0095491660758853,-0.000459400413092226,-0.00416748272255063,0.00210502767004073,0.0127736423164606
271,0.000631284317933023,0.00732678547501564,-0.00157242745626718,-0.00421652616932988,0.000828116899356246,0.00926183443516493
272,-0.00203019939363003,0.00465836841613054,-0.00473905866965652,-0.00491246115416288,-0.00111600861418992,0.00672238832339644
273,-0.00256595900282264,0.00382465473376215,-0.00648726942017674,-0.00451590865850449,0.000642965547740459,0.00632105860859156
274,-0.00170894199982286,0.0035872720181942,-0.0080620339140296,-0.00491867493838072,0.0038188686594367,0.00588704878464341
275,-0.000742280564736575,0.00311630754731596,-0.00910982768982649,-0.0058682132512331,0.00635969964787364,0.00540664466097951
276,0.00183163699693978,0.00394027447327971,-0.00582648394629359,-0.00475804042071104,0.0105094779282808,0.006816899869591
277,0.00671458058059216,0.00594187527894974,0.00147081410977989,-0.00262837670743465,0.0159146599471569,0.00865885335952044
278,0.0109294624999166,0.00790270790457726,0.00785602629184723,-0.00121244101319462,0.017683694139123,0.00920410826802254
279,0.0113961193710566,0.00910643860697746,0.010191666893661,-3.42281673511025E-05,0.0145247215405107,0.00815682858228683
280,0.00934179499745369,0.00928902067244053,0.00919986888766289,0.000970932655036449,0.0106115993112326,0.00548679754137993
281,0.00760255474597216,0.00930169876664877,0.00718752155080438,0.00151515135075897,0.00863049365580082,0.00326307653449476
282,0.00647971266880631,0.00996612850576639,0.00517432391643524,0.0015375359216705,0.00768053904175758,0.00385235156863928
283,0.00538819842040539,0.0109140537679195,0.00291343335993588,0.000801337591838092,0.00686253001913428,0.00663315504789352
284,0.00356679572723806,0.0111196609213948,0.000395926035707816,-0.000637755263596773,0.00591651815921068,0.00969541817903519
285,0.00123578519560397,0.0112835662439466,0.000112578003609087,-0.000995535985566676,0.007182443048805,0.0133344773203135
286,3.5841265344061E-05,0.0118982037529349,0.00319644762203097,-0.000245248054852709,0.0120764086022973,0.0164851415902376
287,0.000958379823714495,0.0121244238689542,0.00606068084016442,-0.000597859674599022,0.0163586959242821,0.0167940314859152
288,0.00378111586906016,0.0125507693737745,0.006077800411731,-0.00181032251566648,0.0165197905153036,0.0155167384073138
289,0.00626419484615326,0.01260438375175,0.00281184213235974,-0.00403339229524136,0.0120957214385271,0.0131948450580239
290,0.00674817292019725,0.0112085370346904,-0.00218233955092728,-0.00747127644717693,0.00458648288622499,0.00931300222873688
291,0.00567534100264311,0.00892231520265341,-0.00620939955115318,-0.0105703370645642,-0.00282433931715786,0.0049586626701057
292,0.00426112720742822,0.00682806083932519,-0.0081432294100523,-0.0124900219962001,-0.00718844821676612,0.00212579150684178
293,0.00430346559733152,0.00660896627232432,-0.00723657524213195,-0.0126269767060876,-0.0070279031060636,0.00314849196001887
294,0.00589929334819317,0.00799527950584888,-0.00331594655290246,-0.0112595623359084,-0.00380050484091043,0.00652546994388103
295,0.00700788758695126,0.00878992024809122,0.00243044248782098,-0.00947370193898678,0.000170115803484805,0.00846725702285767
296,0.00629019597545266,0.00821976363658905,0.00796901155263186,-0.00747385248541832,0.00408226484432817,0.00814504828304052
297,0.00535180233418942,0.00760544184595346,0.0117982588708401,-0.00474066147580743,0.00852372776716948,0.00731173856183887
298,0.00628768699243665,0.00808192789554596,0.013930719345808,-0.0016016272129491,0.0142813390120864,0.00716407131403685
299,0.00816397927701473,0.0091094458475709,0.0152727533131838,0.000954598479438573,0.0207826923578978,0.00758633390069008
300,0.00952814519405365,0.00987358763813972,0.0157897025346756,0.0022825300693512,0.0258644074201584,0.00812641251832247
301,0.0103131467476487,0.0103227449581027,0.0143976714462042,0.00219687190838158,0.0270056687295437,0.00818958599120378
302,0.0101087484508753,0.0104398708790541,0.0115160224959254,0.00142734788823873,0.0238531772047281,0.00738047901540995
303,0.00851930025964975,0.0094485292211175,0.00877415109425783,0.000404199934564531,0.0192454699426889,0.00518903415650129
304,0.00586656294763088,0.00664154021069407,0.00666312593966722,-0.00149362988304347,0.015951257199049,0.00164448039140552
305,0.0026051658205688,0.00259828683920205,0.00424031866714358,-0.0045938529074192,0.0138555727899075,-0.00183196156285703
306,-0.000919592624995857,-0.000989495893009007,0.000380602927180007,-0.00809838436543942,0.0108773047104478,-0.00322402385063469
307,-0.00369557039812207,-0.00301818759180605,-0.00429137703031302,-0.0108724478632212,0.00649596145376563,-0.00222725048661232
308,-0.0032978889066726,-0.00327366450801492,-0.00652960734441876,-0.0119919246062636,0.00424429355189204,-0.000922854465898126
309,0.00054143404122442,-0.00220659328624606,-0.0047192289493978,-0.0111933620646596,0.0061146691441536,-0.00069291505496949
310,0.00452362606301904,-0.000443978875409812,-0.000890294148121029,-0.00834845937788486,0.00925459060817957,0.000409773114370182
311,0.00607523741200566,0.00155562558211386,0.00294030527584255,-0.00407917285338044,0.0114048644900322,0.0037707902956754
312,0.00504617160186172,0.00318718492053449,0.00594816543161869,-0.000525110575836152,0.0133344735950232,0.00726211164146662
313,0.00266095157712698,0.00483696581795812,0.0082128532230854,0.00187858007848263,0.0163137558847666,0.00982374418526888
314,0.00110731611493975,0.00681405141949654,0.0101073691621423,0.00412303302437067,0.0199915170669556,0.0120469173416495
315,0.00140302395448089,0.00786061305552721,0.0105182575061917,0.00562440324574709,0.0220137052237988,0.0134225003421307
316,0.00145693181548268,0.00635158456861973,0.00764199439436197,0.00492097809910774,0.0200757905840874,0.0122123276814818
317,0.000424720026785508,0.00299344980157912,0.00259196269325912,0.0028007032815367,0.015766678377986,0.00834339763969183
318,0.000802219263277948,0.00136690610088408,-0.000464164419099689,0.0025216699577868,0.0135481776669621,0.00576751073822379
319,0.00266278139315546,0.00383604527451098,0.000979935401119292,0.00551579985767603,0.0149971107020974,0.00818291399627924
320,0.00394993415102363,0.00847120769321918,0.00547421211376786,0.00946425925940275,0.0187304448336363,0.0139314616099
321,0.00465260725468397,0.0115601802244782,0.00955806020647287,0.0110779609531164,0.0229470264166594,0.018218757584691
322,0.00525985145941377,0.0119975153356791,0.0112163936719298,0.00969326868653297,0.0258843041956425,0.0191551316529512
323,0.00633811019361019,0.0111735630780458,0.010940732434392,0.00707902060821652,0.026846868917346,0.0176030099391937
324,0.00754602532833815,0.0102198589593172,0.00864221155643463,0.00450510624796152,0.0245136879384518,0.0140260886400938
325,0.00656081316992641,0.00988890137523413,0.00406091334298253,0.00238361139781773,0.0180079210549593,0.00953746773302555
326,0.00369915436021984,0.0105940829962492,0.000508169294334948,0.00127684115432203,0.0121299903839827,0.0052732927724719
327,0.00165986421052367,0.0113282296806574,0.0010827062651515,0.00102260627318174,0.0116871064528823,0.000826161180157214
328,0.000813004036899656,0.0114856595173478,0.003900341456756,0.00114203291013837,0.0134261781349778,-0.00291671440936625
329,0.000409485917771235,0.0123235853388906,0.00640985369682312,0.00262313918210566,0.0128264771774411,-0.00301856338046491
330,2.34734852710972E-05,0.0135614573955536,0.00822292175143957,0.00530246458947659,0.010713848285377,0.00080464209895581
331,-0.000909989408683032,0.0128776924684644,0.00892339926213026,0.00640277611091733,0.00994911976158619,0.00525356223806739
332,-0.00175366376060992,0.0109234061092138,0.00841876491904259,0.00541515834629536,0.0114028882235289,0.00874827709048986
333,-0.00130550481844693,0.0103061413392425,0.00749127892777324,0.00475929910317063,0.0138423079624772,0.0120270568877459
334,-0.000191212238860317,0.0109024178236723,0.00595675548538566,0.00521396892145276,0.0150137832388282,0.0149638028815389
335,0.000686581188347191,0.0113130817189813,0.00403203256428242,0.00644620740786195,0.0144557077437639,0.017047518864274
336,0.00144543126225472,0.0108655355870724,0.00322323245927691,0.00845635961741209,0.01474654302001,0.017823364585638
337,0.00252402178011835,0.00983441900461912,0.0048272330313921,0.0105944825336337,0.0183316934853792,0.0170239806175232
338,0.00310765858739614,0.00884574186056852,0.00924048386514187,0.0120312282815576,0.0241874419152737,0.0152960075065494
339,0.000517347943969071,0.00646605482324958,0.0134456781670451,0.0106837367638946,0.0273821409791708,0.0116598811000586
340,-0.00479912618175149,0.00200832402333617,0.0136710405349731,0.00560733955353498,0.0248509701341391,0.00571854133158922
341,-0.00880345329642296,-0.00147706619463861,0.0108887320384383,0.000644901185296476,0.019379947334528,0.00188608444295824
342,-0.00881705898791552,-0.00104020419530571,0.0090928403660655,-1.02577650977764E-05,0.015903839841485,0.0036525062751025
343,-0.00597986904904246,0.00258714496158063,0.00959080085158348,0.00251696654595435,0.0157027840614319,0.00808622222393751
344,-0.00465893046930432,0.00548484874889255,0.00909367296844721,0.00296701374463737,0.0153497746214271,0.00952847115695477
345,-0.00716960849240422,0.00456468015909195,0.00472778361290693,-0.00154404807835817,0.0121311107650399,0.00584646500647068
346,-0.00984989292919636,0.00189678138121963,-0.000336597411660478,-0.00699760345742106,0.00887653417885304,0.000956988194957376
347,-0.0085970526561141,0.00180161895696074,-0.00113165832590312,-0.00760992057621479,0.0092970747500658,-0.000445221376139671
348,-0.00489427521824837,0.00413186568766832,0.000788912933785468,-0.00472369510680437,0.0113040134310722,0.000110040535219014
349,-0.0016397659201175,0.00663979211822152,0.00172694446519017,-0.00278342585079372,0.0123507818207145,-0.000280594947980717
350,1.42430299092666E-05,0.00825226772576571,0.00122670235577971,-0.00273338914848864,0.013123856857419,-0.00166894309222698
351,-0.000101478253782261,0.0082788122817874,0.000140408490551636,-0.00363369728438556,0.0145061463117599,-0.00384794548153877
352,-0.000909696100279689,0.00716486200690269,0.000222576098167337,-0.00380447064526379,0.0170250367373228,-0.00530953612178564
353,-0.00217246380634606,0.00488966098055243,0.00207609240897,-0.00314203510060906,0.019694434478879,-0.0052417959086597
354,-0.00352634373120964,0.00127561495173723,0.00455768080428243,-0.003160864347592,0.0210395269095898,-0.00567564461380243
355,-0.00342502957209945,-0.00211625406518579,0.00712186982855201,-0.00362383225001395,0.0210800133645535,-0.00710865156725049
356,-0.0020849087741226,-0.00416846247389913,0.00920755695551634,-0.00411076750606298,0.020627785474062,-0.00824031233787537
357,-0.00222945935092866,-0.00653010979294777,0.00884328316897154,-0.00641037989407778,0.0193774495273829,-0.0103203887119889
358,-0.00511320307850838,-0.00984483677893877,0.0062566283158958,-0.00979515071958303,0.0168834570795298,-0.012818705290556
359,-0.008145896717906,-0.0110457744449377,0.00503094121813774,-0.00988487899303436,0.0141072580590844,-0.0113241858780384
360,-0.00921824108809233,-0.00885025039315224,0.00638280343264341,-0.00620418973267078,0.0115596251562238,-0.00632161041721702
361,-0.00904484279453754,-0.00582715449854732,0.00783167127519846,-0.00289309816434979,0.00897175539284945,-0.00328417727723718
362,-0.00876587349921465,-0.00388325983658433,0.00738732190802693,-0.00216104462742805,0.00625220127403736,-0.00430061155930161
363,-0.00778712145984173,-0.00170474802143872,0.00627551088109612,-0.00136723334435374,0.00459735793992877,-0.00548831094056368
364,-0.00628223409876227,0.00105759827420115,0.00539829907938838,0.00113055983092636,0.00415240786969662,-0.00421284697949886
365,-0.00552688399329782,0.00303988438099623,0.00419418280944228,0.00375038548372686,0.0035300871822983,-0.00193038408178836
366,-0.00512930192053318,0.00469777500256896,0.0033750468865037,0.00611205212771893,0.00300809135660529,0.000976516341324896
367,-0.0050141797401011,0.00600198563188314,0.00315248663537204,0.00767909875139594,0.00364303728565574,0.00387289840728045
368,-0.00481311324983835,0.00687907915562391,0.00351775716990232,0.00821163598448038,0.00685037998482585,0.00610140943899751
369,-0.00416381517425179,0.00744020333513618,0.0041363793425262,0.00762635981664062,0.0120188370347023,0.00751043576747179
370,-0.00350706418976188,0.00679993303492665,0.00491642160341144,0.00524883484467864,0.0173688381910324,0.00697370572015643
371,-0.0017540625995025,0.00659013725817204,0.00797502044588327,0.00345167377963662,0.0233092959970236,0.00594006665050983
372,0.000248340220423415,0.00849030446261168,0.0123719917610288,0.00388948665931821,0.0266480650752783,0.00639220559969544
373,-0.000639591831713915,0.0104178851470351,0.0139606492593884,0.00422895513474941,0.0229617021977901,0.00748088303953409
374,-0.00344724697060883,0.0107697704806924,0.0130051020532846,0.00341188884340227,0.016827741637826,0.00861828215420246
375,-0.00537933735176921,0.0101757263764739,0.0122772557660937,0.00279664364643395,0.0145471543073654,0.00985181611031294
376,-0.00668285600841045,0.00922883022576571,0.0116448821499944,0.00321306940168142,0.0146414414048195,0.0104988208040595
377,-0.00687216175720096,0.00877762772142887,0.0107045071199536,0.00462149642407894,0.0150752756744623,0.0101404460147023
378,-0.00499421963468194,0.00959127210080624,0.0104506257921457,0.00683591235429049,0.0167475584894419,0.00958023685961962
379,-0.00317094521597028,0.0106170605868101,0.0108510702848434,0.009192137978971,0.0186642594635487,0.00953639671206474
380,-0.00323361530900002,0.0100894868373871,0.0110397841781378,0.0102966874837875,0.0189917329698801,0.00901593919843435
381,-0.00516123650595546,0.00804566964507103,0.0106353461742401,0.00944586843252182,0.0171790607273579,0.00681562209501863
382,-0.00880306027829647,0.00520065007731318,0.00911130849272013,0.00619953917339444,0.0133796148002148,0.00216733617708087
383,-0.0133702326565981,0.00215825950726867,0.00658651534467936,0.000887453905306757,0.00865063816308975,-0.00381188071332872
384,-0.016698632389307,0.000829581287689507,0.00505770463496447,-0.00337587669491768,0.00481277005746961,-0.00761019205674529
385,-0.0171418953686953,0.00150146777741611,0.0048476317897439,-0.00507091730833054,0.00304740504361689,-0.00872359331697226
386,-0.0160699933767319,0.00228090467862785,0.00305781862698495,-0.00599253037944436,0.00219304556958377,-0.00895466282963753
387,-0.0159261338412762,0.00243450701236725,-0.00128698674961925,-0.00669207517057657,-9.53765047597699E-05,-0.0087746512144804
388,-0.0166161935776472,0.00217020628042519,-0.00541257672011852,-0.00614956999197602,-0.00363317993469536,-0.00844190176576376
389,-0.0165127739310265,0.0013480621855706,-0.00790317729115486,-0.00539245223626494,-0.00625796662643552,-0.00854513607919216
390,-0.0153958238661289,2.35936727221997E-06,-0.010032931342721,-0.00638041645288467,-0.00752129731699824,-0.00924578960984945
391,-0.0151681434363127,-0.00139571714680642,-0.0125903533771634,-0.00833229161798954,-0.00953853689134121,-0.00953461695462465
392,-0.0172761138528585,-0.00387577037326992,-0.0156771130859852,-0.0110647790133953,-0.0135880801826715,-0.0107510248199105
393,-0.0193747207522392,-0.00728958658874035,-0.0171718914061785,-0.0141365556046367,-0.0165194440633059,-0.0142545877024531
394,-0.0185346622020006,-0.00851592142134905,-0.014260490424931,-0.0140954283997417,-0.0147378146648407,-0.0162573419511318
395,-0.0158466976135969,-0.0071152332238853,-0.00885888282209635,-0.0106672523543239,-0.00938857719302177,-0.0145663730800152
396,-0.013813286088407,-0.00535161979496479,-0.004710812587291,-0.00699940230697393,-0.0043133357539773,-0.0120383687317371
397,-0.0126199098303914,-0.0043956539593637,-0.00238567823544145,-0.00463742204010487,-0.00124113948550075,-0.0115330396220088
398,-0.0109270513057709,-0.00446941424161196,-0.000527608150150627,-0.00345936557278037,0.00144806411117315,-0.0132738025858998
399,-0.00799144431948662,-0.00471200747415423,0.00115500949323177,-0.00304508535191417,0.00491930264979601,-0.0154392570257187
400,-0.00525763863697648,-0.00380076887086034,0.000839305226691067,-0.0032385322265327,0.00640547182410955,-0.0157206319272518
401,-0.00482662487775087,-0.00190495292190462,-0.00269479490816593,-0.00422378908842802,0.00311624398455024,-0.0134380608797073
402,-0.00554950581863523,0.00120476039592177,-0.0066278507001698,-0.00426520593464375,-0.00214792205952108,-0.00864567141979933
403,-0.00498205935582519,0.00644946377724409,-0.00696477200835943,-0.000441106472862884,-0.00514127500355244,-0.00106843048706651
404,-0.00307098659686744,0.011600811034441,-0.00340790348127484,0.00637604761868715,-0.00531492242589593,0.00660337833687663
405,-0.00109193008393049,0.0136289950460196,0.00156512937974185,0.0129709504544735,-0.00425353366881609,0.0109451981261373
406,-0.000545887916814536,0.0121052758768201,0.00526572624221444,0.0167204979807138,-0.0035590510815382,0.0108112040907145
407,-0.00205656560137868,0.00699829775840044,0.004963175393641,0.0141590815037489,-0.00404536444693804,0.00429566856473684
408,-0.00450232205912471,-0.000766533485148102,-0.000685283448547125,0.0038982501719147,-0.00628529954701662,-0.00893256906419992
409,-0.00667059002444148,-0.00810286588966846,-0.00930018443614244,-0.0101509625092149,-0.0097146974876523,-0.0245021805167198
410,-0.007245983928442,-0.0123383020982146,-0.0166702978312969,-0.0221101548522711,-0.01261748932302,-0.0368874557316303
411,-0.00609531020745635,-0.0131166847422719,-0.0203834511339664,-0.0277246907353401,-0.0150410365313292,-0.042239535599947
412,-0.0053345113992691,-0.0118679739534855,-0.0202002543956041,-0.026147386059165,-0.0168968047946692,-0.0400875955820084
413,-0.00493537494912744,-0.0097147561609745,-0.017610602080822,-0.0203488245606422,-0.0162160452455282,-0.033858135342598
414,-0.00326575734652579,-0.0076466747559607,-0.015206485055387,-0.0146807031705976,-0.011903609149158,-0.0282435771077871
415,-0.00130132283084095,-0.00799849256873131,-0.0140233784914017,-0.0122204525396228,-0.00459886062890291,-0.0274009760469198
416,-0.00107989576645195,-0.0119735337793827,-0.0129909990355372,-0.012908142991364,0.00329147768206894,-0.0319701917469502
417,-0.00197986466810107,-0.0176269263029099,-0.0111994566395879,-0.0145046524703503,0.00907407328486443,-0.0380899310112
418,-0.00242531974799931,-0.0222322139889002,-0.0105455853044987,-0.0165981613099575,0.00931271631270647,-0.0425477139651775
419,-0.0030261492356658,-0.0241387747228146,-0.0133403344079852,-0.0195632316172123,0.00130545534193516,-0.0446813777089119
420,-0.00419066427275538,-0.0231394469738007,-0.0175192039459944,-0.0216997228562832,-0.0110650323331356,-0.0445847846567631
421,-0.00514287641271949,-0.0200053043663502,-0.0193153657019138,-0.0208366513252258,-0.0207519475370646,-0.0416891053318977
422,-0.00629101507365704,-0.0161363482475281,-0.0189349632710218,-0.0176217295229435,-0.0258193109184504,-0.0359369143843651
423,-0.00776735926046968,-0.0129330586642027,-0.0192461796104908,-0.0149264987558126,-0.0286245960742235,-0.0297554545104504
424,-0.00818958878517151,-0.0107054663822055,-0.0192850101739168,-0.0129648447036743,-0.0290079433470964,-0.0253057684749365
425,-0.00745024951174855,-0.00954265892505646,-0.0158485881984234,-0.00998804811388254,-0.0251663569360971,-0.022581472992897
426,-0.00624155439436436,-0.00946840457618237,-0.0098207164555788,-0.00628772983327508,-0.0187003221362829,-0.0208191201090813
427,-0.00465082656592131,-0.010405482724309,-0.00495718093588948,-0.00401623453944921,-0.0129547463729978,-0.0198975689709187
428,-0.00328426063060761,-0.0124536920338869,-0.00350882392376661,-0.00489313853904605,-0.00931722670793533,-0.0208855699747801
429,-0.00242540542967618,-0.014697796665132,-0.00530436774715781,-0.00881480984389782,-0.00779140833765268,-0.0248113125562668
430,-0.00232842098921537,-0.0151753379032016,-0.00882820133119822,-0.0134134367108345,-0.00903989840298891,-0.0297734346240759
431,-0.00388763006776571,-0.0143097480759025,-0.0120747406035662,-0.0167732033878565,-0.011495903134346,-0.0338437259197235
432,-0.00682704569771886,-0.0143573153764009,-0.01388069242239,-0.018818212673068,-0.0125049063935876,-0.0372681654989719
433,-0.00966484192758799,-0.0133677804842591,-0.0134786302223802,-0.0171285849064589,-0.0132810827344656,-0.0364137105643749
434,-0.0112814269959927,-0.00886936113238335,-0.0107730254530907,-0.0106830587610602,-0.0150380106642842,-0.0288499109447002
435,-0.0119465412572026,-0.00348166492767632,-0.00807524099946022,-0.0040935454890132,-0.0168550573289394,-0.0196007750928402
436,-0.0121946996077895,0.000173937194631435,-0.00688460003584623,-0.000682131096255034,-0.0179137121886015,-0.0128494910895824
437,-0.0122465221211314,0.00155931164044887,-0.00659101875498891,-0.000381057383492589,-0.017974391579628,-0.00971771311014891
438,-0.0121633671224117,-0.00026914052432403,-0.00727559113875031,-0.00368307670578361,-0.0170703325420618,-0.0126749342307448
439,-0.0107751023024321,-0.00486789830029011,-0.00940907467156649,-0.0103257521986961,-0.015160821378231,-0.0215053092688322
440,-0.00940348673611879,-0.00980660226196051,-0.0131751969456673,-0.0173598099499941,-0.0144565626978874,-0.0298046171665192
441,-0.0109308008104563,-0.0125824362039566,-0.0168970916420221,-0.0204916726797819,-0.0161071643233299,-0.0310215260833502
442,-0.0136432638391852,-0.0119094653055072,-0.0174669679254293,-0.0173675585538149,-0.016836654394865,-0.024880725890398
443,-0.0146743003278971,-0.0100443046540022,-0.0147093236446381,-0.0115816527977586,-0.0137527920305729,-0.0179821699857712
444,-0.013438786379993,-0.00917675904929638,-0.0114038987085223,-0.008510772138834,-0.00811685249209404,-0.0151300644502044
445,-0.010359319858253,-0.0084525104612112,-0.00984833482652903,-0.00929137039929628,-0.00331106572411954,-0.0143634816631675
446,-0.00635901326313615,-0.00806336849927902,-0.00939737912267447,-0.0118289329111576,0.000931872753426433,-0.0136932209134102
447,-0.00345508963800967,-0.00894079450517893,-0.00931490957736969,-0.0136690968647599,0.00422726757824421,-0.0132990311831236
448,-0.00308752851560712,-0.0100627699866891,-0.0109575875103474,-0.0136655289679766,0.00240614614449441,-0.0129299648106098
449,-0.00293170264922082,-0.00948299188166857,-0.0122932186350226,-0.0107031324878335,-0.00158225488848984,-0.0116499476134777
450,-0.0014565804740414,-0.00741342687979341,-0.00958030298352242,-0.00465783756226301,-0.000796592037659138,-0.00968694128096104
451,-0.00055742368567735,-0.00584234204143286,-0.00534171378239989,0.00114103744272143,0.00203801994211972,-0.00824055634438992
452,-0.000598934770096093,-0.00616137403994799,-0.00412709219381213,0.00311345560476184,0.00198463536798954,-0.00797749031335115
453,0.00028944862424396,-0.00790915638208389,-0.00496008479967713,0.00194261653814465,0.00190003565512598,-0.00864477176219225
454,0.00243350816890597,-0.00824829563498497,-0.00507138436660171,0.0010346396593377,0.00365659175440669,-0.00841846596449614
455,0.00438065873458982,-0.00619636476039886,-0.00425329897552729,0.00124962604604661,0.00494705513119698,-0.00688058184459805
456,0.00556305749341846,-0.00375064974650741,-0.00384126859717071,0.00105015572626144,0.00401845667511225,-0.00592663325369358
457,0.00547634670510888,-0.00214708549901843,-0.00596967153251171,-0.000504831317812204,-0.00159766885917634,-0.00646719615906477
458,0.0036349066067487,-0.00165494915563613,-0.010776205919683,-0.00361968786455691,-0.011299823410809,-0.00882964860647917
459,0.000795484695117921,-0.00276512745767832,-0.0155236488208175,-0.00802788976579905,-0.0191094223409891,-0.0138119729235768
460,-0.00284280953928828,-0.0058036046102643,-0.0196518655866385,-0.0135945146903396,-0.0234597772359848,-0.0215002112090588
461,-0.00771119445562363,-0.00959198735654354,-0.0241154339164495,-0.0189251434057951,-0.0282227117568254,-0.0295874178409576
462,-0.012331516481936,-0.0127896275371313,-0.0272364523261786,-0.0223982948809862,-0.0327312536537647,-0.0357922203838825
463,-0.0135869821533561,-0.0140109974890947,-0.0269111301749945,-0.0239858273416758,-0.0333681926131248,-0.0387311317026615
464,-0.0108628096058965,-0.0116808470338583,-0.0238887965679169,-0.0235683526843786,-0.0318947173655033,-0.0366693958640099
465,-0.00729180732741952,-0.00730802165344357,-0.0208052676171064,-0.0223734751343727,-0.0323245041072369,-0.0318390056490898
466,-0.00581101141870022,-0.00433303508907557,-0.0191547945141792,-0.0226414557546377,-0.0346102118492126,-0.0293046608567238
467,-0.00609752302989364,-0.00392397353425622,-0.018840029835701,-0.0246700160205364,-0.0372187122702599,-0.0306887440383434
468,-0.00589038571342826,-0.00400438765063882,-0.0187995582818985,-0.0264101158827543,-0.0390723086893559,-0.0333028621971607
469,-0.0045162714086473,-0.00305835972540081,-0.0194420181214809,-0.0273940246552229,-0.0407283492386341,-0.0359716527163982
470,-0.00311798811890185,-0.00202560913749039,-0.0229398794472218,-0.0300668347626925,-0.0450230054557323,-0.0406340658664703
471,-0.0031783883459866,-0.00173301307950169,-0.0287548433989286,-0.0344139859080315,-0.0522419773042202,-0.046002309769392
472,-0.00587496859952807,-0.00215996336191893,-0.0353936813771725,-0.038484301418066,-0.0615502446889877,-0.0492259599268436
473,-0.0103846890851855,-0.00324389501474798,-0.0428528785705566,-0.0424469076097012,-0.0736102908849716,-0.0513777174055576
474,-0.0137067465111613,-0.00428199488669634,-0.0487845353782177,-0.045762088149786,-0.0857420042157173,-0.0535123497247696
475,-0.0130352489650249,-0.00316128507256508,-0.049103457480669,-0.0451689176261425,-0.0933760553598404,-0.053482111543417
476,-0.00913348700851202,-0.000716187118086964,-0.0451264902949333,-0.0418945103883743,-0.0967889875173569,-0.0527737885713577
477,-0.00598855875432491,-0.00112578494008631,-0.0435159616172314,-0.0427999347448349,-0.100528821349144,-0.0569009147584438
478,-0.00547365052625537,-0.00455881981179118,-0.0472594238817692,-0.0500701293349266,-0.107832677662373,-0.066231943666935
479,-0.00499351462349296,-0.00724495761096478,-0.0536723136901855,-0.0599967688322067,-0.117854252457619,-0.0766672864556313
480,-0.00212334468960762,-0.00725278165191412,-0.058943185955286,-0.0690563023090363,-0.126605063676834,-0.0857148692011833
481,0.000717497197911143,-0.00611769035458565,-0.061548113822937,-0.0758082792162895,-0.132050856947899,-0.0932991355657578
482,0.000375580246327445,-0.00469746347516775,-0.0633927583694458,-0.0801191851496696,-0.137763485312462,-0.098751612007618
483,-0.00143721245694906,-0.00234161433763802,-0.0654815882444382,-0.0825682431459427,-0.144584253430367,-0.101639732718468
484,-0.00259096408262849,-0.000345346314134076,-0.0670234113931656,-0.0844738185405731,-0.149910688400269,-0.103941328823566
485,-0.0034745114389807,-0.000487844081362709,-0.0684160217642784,-0.0876983553171158,-0.154323190450668,-0.107900887727737
486,-0.0042205504141748,-0.00362841808237135,-0.0710024759173393,-0.0946679264307022,-0.158755704760551,-0.115429498255253
487,-0.00438559940084815,-0.00893611181527376,-0.0745673477649689,-0.104792200028896,-0.161525264382362,-0.125501275062561
488,-0.00395323941484094,-0.014175926335156,-0.0768957808613777,-0.113885506987572,-0.160578072071075,-0.134519621729851
489,-0.00401482684537768,-0.0177502296864986,-0.0779520943760872,-0.119810953736305,-0.158631294965744,-0.140898555517197
490,-0.00433597108349204,-0.0182856656610966,-0.0794606655836105,-0.123737066984177,-0.159221544861794,-0.145215854048729
491,-0.00297425757162273,-0.0150693990290165,-0.081673800945282,-0.127189576625824,-0.161512851715088,-0.14826437830925
492,0.000332538038492203,-0.00963193830102682,-0.0834095925092697,-0.130327463150024,-0.162754267454147,-0.150296121835709
493,0.00404407130554318,-0.00503875268623233,-0.0838404521346092,-0.133180618286133,-0.161138951778412,-0.152346387505531
494,0.00731223076581955,-0.00293826893903315,-0.0826239809393883,-0.135965526103973,-0.157032504677773,-0.155398234724998
495,0.00980174541473389,-0.00231515592895448,-0.0801006853580475,-0.138145864009857,-0.153693675994873,-0.158496633172035
496,0.00993714295327663,-0.00253901421092451,-0.0789914056658745,-0.139829859137535,-0.155517920851707,-0.161345213651657
497,0.00710167409852147,-0.00368731678463519,-0.0802283585071564,-0.140298366546631,-0.162006944417953,-0.163711160421371
498,0.00385725498199463,-0.00447168480604887,-0.0809371396899223,-0.138055354356766,-0.167457729578018,-0.163860872387886
499,0.00211370992474258,-0.00559549918398261,-0.0816850513219833,-0.136857181787491,-0.169648349285126,-0.164019167423248
500,0.00118600006680936,-0.00857300311326981,-0.0855145379900932,-0.14109343290329,-0.171521663665771,-0.167742982506752
501,-0.000366925960406661,-0.0125448051840067,-0.0918602645397186,-0.14839930832386,-0.174589440226555,-0.173965871334076
502,-0.00262463116087019,-0.0164042636752129,-0.0972794219851494,-0.153939470648766,-0.175706431269646,-0.180141314864159
503,-0.00314223417080939,-0.0188226383179426,-0.0982971265912056,-0.155340820550919,-0.171081557869911,-0.184623926877975
504,-0.000659707642626017,-0.019418204203248,-0.095572754740715,-0.154220849275589,-0.162594988942146,-0.18774901330471
505,0.00350769492797554,-0.0192413944751024,-0.0915388986468315,-0.152341604232788,-0.15355072915554,-0.190394774079323
506,0.00810458417981863,-0.0176326930522919,-0.086034283041954,-0.147722005844116,-0.144189298152924,-0.189639866352081
507,0.0122634349390864,-0.0128403743728995,-0.0786992609500885,-0.138008460402489,-0.134978637099266,-0.180652365088463
508,0.013579080812633,-0.00766188930720091,-0.072395458817482,-0.126530915498734,-0.128686159849167,-0.165889292955399
509,0.0111343776807189,-0.00574704306200147,-0.0690956488251686,-0.117534384131432,-0.126089006662369,-0.151284724473953
510,0.00780714815482497,-0.00597923435270786,-0.066261813044548,-0.109883606433868,-0.122879147529602,-0.137904778122902
511,0.00608639558777213,-0.00629121670499444,-0.0622783564031124,-0.10207911580801,-0.115976803004742,-0.125466495752335
512,0.00557017931714654,-0.00466803461313248,-0.0586315207183361,-0.0937387645244598,-0.108478493988514,-0.112017229199409
513,0.00487161008641124,-0.00107769679743797,-0.0567170493304729,-0.0858601927757263,-0.103904634714127,-0.0982592701911926
514,0.00452548218891025,0.00141771859489381,-0.0556733272969723,-0.0805822536349297,-0.0998380333185196,-0.0895848721265793
515,0.00481710443273187,0.001109080738388,-0.0537139102816582,-0.0770780369639397,-0.0931926369667053,-0.0863790735602379
516,0.00552239781245589,-0.000514794257469475,-0.0498195327818394,-0.0730036795139313,-0.0845173224806786,-0.0843473300337791
517,0.00769958645105362,-0.00114597741048783,-0.0440318770706654,-0.068118654191494,-0.0753150433301926,-0.0812333971261978
518,0.0100915022194386,-0.00110089941881597,-0.0382817015051842,-0.0638858526945114,-0.0674404948949814,-0.0776026099920273
519,0.00938397459685802,-0.00254540983587503,-0.0352417193353176,-0.0616209730505943,-0.0624044127762318,-0.0746957361698151
520,0.00588366948068142,-0.00531441951170564,-0.0355934798717499,-0.0607577040791512,-0.0602089576423168,-0.0716606229543686
521,0.00293733505532146,-0.00766355637460947,-0.0374630838632584,-0.0592049919068813,-0.059007178992033,-0.0662852004170418
522,0.0018668215489015,-0.00826193671673536,-0.0374634861946106,-0.0544862300157547,-0.056110143661499,-0.056962713599205
523,0.00166334002278745,-0.00662137614563107,-0.0339556857943535,-0.0458055548369884,-0.0506710633635521,-0.0435099564492702
524,0.000993054709397256,-0.00410300260409713,-0.0296694505959749,-0.0361977107822895,-0.0446465164422989,-0.0285942461341619
525,-0.000520788948051631,-0.00271210004575551,-0.0278091784566641,-0.0293120425194502,-0.0398418456315994,-0.0162893384695053
526,-0.00256850151345134,-0.00323141389526427,-0.0285904444754124,-0.0260633863508701,-0.0361218564212322,-0.00818436313420534
527,-0.00435802154242992,-0.00414541363716125,-0.0296252574771643,-0.0248198304325342,-0.0317371524870396,-0.00227487226948142
528,-0.00460282946005464,-0.00356135726906359,-0.0277685057371855,-0.0224878825247288,-0.0240131337195635,0.0037674920167774
529,-0.00259487167932093,-0.00109424558468163,-0.0218585580587387,-0.0171180423349142,-0.0121558215469122,0.0103303845971823
530,0.00120140996295959,0.00254842499271035,-0.0133128510788083,-0.0101236226037145,0.00184974609874189,0.0159539245069027
531,0.00429806346073747,0.00513958046212792,-0.00499353604391217,-0.00417177472263575,0.0143414260819554,0.0185657106339931
532,0.00562658300623298,0.00550002697855234,0.00119937409181148,0.000358086865162477,0.0232611373066902,0.0190614424645901
533,0.00652358634397388,0.00462001143023372,0.00516361696645617,0.00461612269282341,0.0293963514268398,0.0206899289041758
534,0.00746317207813263,0.00383112020790577,0.00788975972682238,0.00956795364618301,0.0338843017816544,0.0247075371444225
535,0.00847946759313345,0.00501990411430597,0.0102740256115794,0.015989150851965,0.0367682687938213,0.0314309746026993
536,0.00838202517479658,0.0080066155642271,0.0114300940185785,0.0229753013700247,0.0368831939995289,0.0404828973114491
537,0.00607939856126904,0.0102085806429386,0.0109633011743426,0.0285795629024506,0.0351577810943127,0.049565102905035
538,0.00322234584018588,0.0103748356923461,0.010759811848402,0.0322111882269382,0.0354822687804699,0.0564416982233524
539,0.00200985046103597,0.00910814292728901,0.0119712091982365,0.0337343029677868,0.039825614541769,0.0596428550779819
540,0.00286448840051889,0.00831776671111584,0.0147132650017738,0.0347434803843498,0.0467521362006664,0.060826238244772
541,0.0044239591807127,0.0088077848777175,0.0184700042009354,0.0378284268081188,0.0533171966671944,0.0634681582450867
542,0.00571694923564792,0.00931360013782978,0.0216929540038109,0.0426247268915176,0.0575223527848721,0.0677130818367004
543,0.00588066503405571,0.00944725051522255,0.023780345916748,0.0481043979525566,0.058651689440012,0.072965070605278
544,0.00323722255416214,0.0095043471083045,0.0242010522633791,0.0536201894283295,0.0560353063046932,0.0795358344912529
545,-0.000879809784237295,0.0102963401004672,0.0231763143092394,0.058313962072134,0.0521789789199829,0.0875226929783821
546,-0.00387806561775506,0.0118436254560947,0.0217296276241541,0.0605807527899742,0.0500681474804878,0.0965248346328735
547,-0.00543539645150304,0.0128185153007507,0.0208138823509216,0.0597870908677578,0.0501009598374367,0.105180963873863
548,-0.0056713642552495,0.0129724992439151,0.0222285334020853,0.0584519878029823,0.0537053123116493,0.110409840941429
549,-0.00414049997925758,0.0128806531429291,0.0268223639577627,0.0587684772908688,0.061676949262619,0.108104944229126
550,-0.000955894240178168,0.0130855441093445,0.0330741889774799,0.0606111139059067,0.0713945105671883,0.0977492555975914
551,0.000929469999391586,0.0122305518016219,0.0364801734685898,0.0611583963036537,0.0775555744767189,0.082726925611496
552,-0.000510050100274384,0.00950426980853081,0.0355922877788544,0.0594981797039509,0.0786418095231056,0.0689311176538467
553,-0.00227177306078374,0.00769672822207212,0.0351164601743221,0.0593429319560528,0.0798473134636879,0.0625967904925346
554,-0.00187940592877567,0.00886001158505678,0.0370446145534515,0.0626026913523674,0.0835213139653206,0.0653382018208504
555,-0.000732355983927846,0.011309570632875,0.0385494716465473,0.0664644539356232,0.0865597426891327,0.0719998106360435
556,-5.51629236724693E-05,0.0126413963735104,0.0382134988903999,0.068335197865963,0.0874943509697914,0.0761772394180298
557,0.0005140260909684,0.0130703309550881,0.0376529879868031,0.0695721805095673,0.087560661137104,0.0781341344118118
558,0.00167574582155794,0.0139123387634754,0.0392901673913002,0.0727735459804535,0.0888257026672363,0.0820950269699097
559,0.00322097004391253,0.0149100171402097,0.0438748151063919,0.0783518627285957,0.0921373590826988,0.0890590995550156
560,0.00389430834911764,0.0156149491667748,0.0491350069642067,0.0840778574347496,0.095327727496624,0.09622922539711
561,0.0031155226752162,0.016272971406579,0.051986251026392,0.0874822065234184,0.0961725786328316,0.100850827991962
562,0.00154317391570657,0.0165613573044539,0.0519798472523689,0.0883387848734856,0.0950320586562157,0.102211453020573
563,0.000892233336344361,0.0169076174497604,0.0515586584806442,0.0885581374168396,0.093767486512661,0.101628035306931
564,0.00168719503562897,0.0179544128477573,0.0526110790669918,0.08992850035429,0.093518003821373,0.10106472671032
565,0.00214736768975854,0.0185085870325565,0.0546222142875195,0.092504546046257,0.0949281826615334,0.101888701319695
566,0.00133569270838052,0.0175756625831127,0.0562674589455128,0.0953756421804428,0.098393939435482,0.105628669261932
567,0.00133136007934809,0.0156697258353233,0.058646846562624,0.097902774810791,0.105383671820164,0.11169008910656
568,0.00340256514027715,0.0136019438505173,0.0633349195122719,0.0995442420244217,0.115732669830322,0.116290144622326
569,0.00556933041661978,0.0123782102018595,0.0675024539232254,0.0996915474534035,0.122999176383018,0.116383872926235
570,0.00555218523368239,0.0125113949179649,0.0684265866875649,0.099763035774231,0.122722461819649,0.112578183412552
571,0.00357838068157434,0.0139578860253096,0.0665835440158844,0.101598374545574,0.116880178451538,0.108251757919788
572,0.00231971312314272,0.0160536728799343,0.0624217577278614,0.103240057826042,0.110101759433746,0.104998618364334
573,0.00225922674871981,0.0183047223836184,0.0563681200146675,0.102860249578953,0.105470903217793,0.104368351399899
574,0.000923086248803884,0.0219902582466602,0.0500048212707043,0.102441787719727,0.101288035511971,0.110353596508503
575,-0.00245263474062085,0.02675393037498,0.0467162095010281,0.103600017726421,0.0967833548784256,0.122031055390835
576,-0.00561730656772852,0.0282305367290974,0.0501143038272858,0.104582443833351,0.0965960398316383,0.13087497651577
577,-0.00568653643131256,0.0240738112479448,0.0599813349545002,0.103155374526978,0.104212425649166,0.130954995751381
578,-0.00198527169413865,0.0186435505747795,0.0722231045365334,0.10052977502346,0.115846633911133,0.126436457037926
579,0.00248784455470741,0.0150993121787906,0.0818133428692818,0.0986763313412666,0.125975325703621,0.122069232165813
580,0.00400623492896557,0.0115655977278948,0.085340291261673,0.0976928249001503,0.132266625761986,0.117051042616367
581,0.00231948401778936,0.00773143209517002,0.0834629982709885,0.0976570025086403,0.134124934673309,0.11110956966877
582,-0.000668366847094148,0.005519297439605,0.079170785844326,0.098593957722187,0.131594523787498,0.105619966983795
583,-0.00328534003347158,0.00589865865185857,0.0747665241360664,0.0997180864214897,0.12615892291069,0.10186068713665
584,-0.00387900625355542,0.00878814235329628,0.0716311931610107,0.100440248847008,0.121506206691265,0.101149283349514
585,-0.00273530441336334,0.0129011273384094,0.0686118230223656,0.10015907138586,0.118452601134777,0.104096792638302
586,-0.00291063636541367,0.0156188169494271,0.0626364424824715,0.0978579893708229,0.113029293715954,0.109892375767231
587,-0.00574337644502521,0.0160809047520161,0.0549516007304192,0.0952232256531715,0.105454228818417,0.117320396006107
588,-0.0091131366789341,0.0161212049424648,0.0514019466936588,0.0959067344665527,0.102709963917732,0.124989069998264
589,-0.0107548944652081,0.0167250353842974,0.0538483373820782,0.0993927195668221,0.107630603015423,0.129720345139503
590,-0.0102348020300269,0.0168571267277002,0.0578948855400085,0.101441331207752,0.114410258829594,0.128686547279358
591,-0.00849332939833403,0.0150578264147043,0.0593928061425686,0.0997349619865417,0.116993948817253,0.122236154973507
592,-0.00702463323250413,0.0114441681653261,0.0577075481414795,0.0953705012798309,0.113988876342773,0.113068833947182
593,-0.00655108643695712,0.00814190786331892,0.0547571703791618,0.0911825746297836,0.108590796589851,0.105079270899296
594,-0.00597424665465951,0.00653824070468545,0.052917804569006,0.0888515785336494,0.106411278247833,0.100639820098877
595,-0.00448547722771764,0.00604899926111102,0.0525592975318432,0.0873739421367645,0.109067149460316,0.0989207103848457
596,-0.00344665138982236,0.0053571742027998,0.052730530500412,0.0849563851952553,0.113500840961933,0.097566120326519
597,-0.00372756086289883,0.00387407350353897,0.05285270139575,0.0809462741017342,0.11641825735569,0.094670481979847
598,-0.0040189097635448,0.00210021203383803,0.0521593913435936,0.0755061358213425,0.115427784621716,0.0893555879592896
599,-0.00404207361862063,0.000302308704704046,0.050176203250885,0.0696145072579384,0.110035076737404,0.0821914598345757
600,-0.00497435498982668,-0.000452184380264953,0.0486678890883923,0.066595271229744,0.102633327245712,0.0771929696202278
601,-0.00628478871658444,0.0018531676614657,0.0498082898557186,0.0690717995166779,0.0963878035545349,0.0787432566285133
602,-0.00669595971703529,0.00688674114644527,0.0525015071034431,0.0745008811354637,0.0925265923142433,0.0853250846266747
603,-0.00663284538313746,0.0116190668195486,0.0536132715642452,0.0780329331755638,0.0900666937232018,0.0908812880516052
604,-0.00707560451701283,0.0143699357286096,0.0525620616972446,0.0787293016910553,0.0879325717687607,0.0924711376428604
605,-0.00758228776976466,0.0158971585333347,0.0512299574911594,0.0786351710557938,0.0863024592399597,0.0915682092308998
606,-0.0078777652233839,0.0150851309299469,0.0495828315615654,0.0766942352056503,0.0854407101869583,0.0877803713083267
607,-0.00834317784756422,0.0109932143241167,0.0466989018023014,0.071159191429615,0.0848037451505661,0.0803485214710236
608,-0.00854101777076721,0.00719643151387572,0.0440970547497272,0.0651242807507515,0.0836837515234947,0.0734241083264351
609,-0.00879729073494673,0.0067975390702486,0.0432063229382038,0.0626427382230759,0.081856943666935,0.0718250647187233
610,-0.0092200143262744,0.00893348827958107,0.0434247441589832,0.063653752207756,0.080373615026474,0.0749984830617905
611,-0.00888917874544859,0.0116853304207325,0.0434349924325943,0.0655801221728325,0.0787248909473419,0.0784546509385109
612,-0.007845145650208,0.0136851388961077,0.042742982506752,0.0662622302770615,0.0751590952277184,0.0781948268413544
613,-0.00568192359060049,0.0152662442997098,0.0427347868680954,0.0659690871834755,0.0722653865814209,0.0749437883496284
614,-0.00241918442770839,0.0172777064144611,0.0441134981811047,0.0663160309195518,0.072868213057518,0.0724195688962936
615,-0.000472699524834752,0.0182465873658657,0.045744314789772,0.0668206885457039,0.0750734284520149,0.0712434127926826
616,-0.00131998863071203,0.0173723325133324,0.0479382984340191,0.0667481124401093,0.0775063335895538,0.0712550431489944
617,-0.00434432039037347,0.0162286628037691,0.0509573817253113,0.0666800290346146,0.0802275836467743,0.0734013393521309
618,-0.00808644853532314,0.0157027393579483,0.0525986552238464,0.0666236653923988,0.0816592797636986,0.0769614800810814
619,-0.00973153952509165,0.0158721376210451,0.0517542958259583,0.0664889141917229,0.0810276567935944,0.0807891935110092
620,-0.00741371791809797,0.0168438497930765,0.0491647534072399,0.0661546885967255,0.0786417424678802,0.0840412005782127
621,-0.0041653080843389,0.0167892202734947,0.0439727939665318,0.0637161135673523,0.0730408057570457,0.0839446038007736
622,-0.00331395585089922,0.0154147827997804,0.0375062003731728,0.0597570650279522,0.0649981796741486,0.0802111476659775
623,-0.00301902135834098,0.0161055903881788,0.0348405577242374,0.0586134009063244,0.0592781975865364,0.07754897326231
624,-0.00151587266009301,0.0184518713504076,0.0364129692316055,0.0596580244600773,0.0575372837483883,0.0758787840604782
625,-0.000173568405443802,0.0182918719947338,0.0387499146163464,0.0588417798280716,0.0581160224974155,0.0701526999473572
626,-0.00063036207575351,0.0149925099685788,0.0405230298638344,0.0565801709890366,0.0593160353600979,0.0604053363204002
627,-0.00263450504280627,0.0117837740108371,0.0423641577363014,0.0560408309102058,0.0603587925434113,0.0518863350152969
628,-0.00509273121133447,0.0118101965636015,0.0451663620769978,0.0593778379261494,0.0609948337078094,0.0505699068307877
629,-0.00825582630932331,0.0150881381705403,0.0480004176497459,0.0658933222293854,0.0590480305254459,0.0584904588758945
630,-0.0122202979400754,0.0176822859793901,0.0483937822282314,0.0710499137639999,0.0538209080696106,0.0695232599973679
631,-0.0160448718816042,0.0157234650105238,0.0455440655350685,0.070199690759182,0.0484048649668694,0.0748360604047775
632,-0.0175385884940624,0.0104032987728715,0.04187386110425,0.0636200308799744,0.046904694288969,0.0720294490456581
633,-0.0149259604513645,0.00616319756954908,0.0399794653058052,0.0556687638163567,0.0508377104997635,0.0654959380626678
634,-0.00958543829619884,0.00475092325359583,0.0391787849366665,0.0490670800209045,0.0570074841380119,0.058653187006712
635,-0.00540140364319086,0.00385312549769878,0.0365521796047688,0.0427003242075443,0.0589868165552616,0.0509343110024929
636,-0.00566177722066641,0.00151910400018096,0.0314902998507023,0.0362926535308361,0.0528813898563385,0.0430325269699097
637,-0.00874768197536469,-0.00083043472841382,0.0279202628880739,0.0327452607452869,0.0434548817574978,0.0377745404839516
638,-0.0108211729675531,-0.00172673212364316,0.0285954512655735,0.0334257148206234,0.0376083217561245,0.0358380414545536
639,-0.0109471743926406,-0.00138497457373887,0.0320736244320869,0.0366171002388,0.0356733463704586,0.0364091098308563
640,-0.010529913008213,-0.000647739681880921,0.0350233390927315,0.0395408160984516,0.0337550863623619,0.0385787338018417
641,-0.0100307622924447,7.86573364166543E-05,0.0353058017790318,0.0407896190881729,0.0310498513281345,0.0414930209517479
642,-0.00907550659030676,0.00105039228219539,0.0339435823261738,0.0415329113602638,0.0303900483995676,0.0446130409836769
643,-0.00889695715159178,0.0016855166759342,0.0316791944205761,0.0419983714818954,0.0315766520798206,0.0461125150322914
644,-0.00952378660440445,0.00191456312313676,0.0290886405855417,0.0412731245160103,0.0334368571639061,0.0443934909999371
645,-0.009656747803092,0.00241077039390802,0.0282009821385145,0.0395490489900112,0.0364086329936981,0.0398321263492107
646,-0.009924934245646,0.00289951567538083,0.0292182825505733,0.0373220779001713,0.0390872396528721,0.0346717201173306
647,-0.0117803448811173,0.00249017798341811,0.0299360640347004,0.0348600745201111,0.0399223268032074,0.0312698557972908
648,-0.0148177416995168,0.00163087982218713,0.0291370265185833,0.0332735478878021,0.0392140746116638,0.0306184384971857
649,-0.015904339030385,0.003194494638592,0.0287485457956791,0.0349313393235207,0.0383115150034428,0.0344729758799076
650,-0.0128303496167064,0.00844311062246561,0.0308381821960211,0.0401615910232067,0.0384230837225914,0.042742658406496
651,-0.00830772891640663,0.0127857811748981,0.0330942794680595,0.0440458133816719,0.0384631231427193,0.0489947497844696
652,-0.00587116694077849,0.0120971035212278,0.0324703454971313,0.0425147004425526,0.0367123559117317,0.048033069819212
653,-0.00544258253648877,0.00879692286252975,0.0304318498820066,0.0385580882430077,0.0338506996631622,0.0429787635803223
654,-0.00623272731900215,0.00540382135659456,0.028758529573679,0.035463884472847,0.0309051480144262,0.0378345996141434
655,-0.00773729896172881,0.00178597203921527,0.0272164735943079,0.0328103452920914,0.0284016355872154,0.0338064879179001
656,-0.00877466518431902,-0.000865417008753866,0.0263488125056028,0.0305711049586535,0.0279128011316061,0.0321776643395424
657,-0.00856649968773127,-0.000798587047029287,0.0267239604145288,0.02959712035954,0.0299092195928097,0.0329932048916817
658,-0.00699024787172675,0.00220630061812699,0.0290692392736673,0.0310273189097643,0.0337581560015678,0.0357253886759281
659,-0.00457558408379555,0.00669320859014988,0.0330676287412643,0.0347208790481091,0.038131345063448,0.0398889631032944
660,-0.00195899605751038,0.0105664348229766,0.0350946485996246,0.0375902354717255,0.0393662005662918,0.0429411120712757
661,0.00046298440429382,0.0123990885913372,0.0330546721816063,0.0372237637639046,0.0362265296280384,0.041654322296381
662,0.0020019409712404,0.011867044493556,0.0297847110778093,0.0351087227463722,0.0320483855903149,0.0356641784310341
663,0.00287318462505937,0.00995107647031546,0.029441561549902,0.0340099111199379,0.0307137425988913,0.0279865562915802
664,0.00422369735315442,0.00854271184653044,0.0323676466941834,0.0341150276362896,0.032945804297924,0.0222817361354828
665,0.00505162496119738,0.00848688278347254,0.0339180864393711,0.0329333543777466,0.0340933948755264,0.0200475007295609
666,0.00352901965379715,0.00933972746133804,0.0317215099930763,0.0298784878104925,0.0304836537688971,0.0217683184891939
667,5.01844406244345E-05,0.0102073382586241,0.0285322405397892,0.0270141251385212,0.0238989219069481,0.0267308745533228
668,-0.00390271958895028,0.0107834180817008,0.0265329033136368,0.0258995592594147,0.0175459757447243,0.0325468555092812
669,-0.00681974552571774,0.0111165186390281,0.0254450812935829,0.026383064687252,0.0136017575860024,0.0365047939121723
670,-0.0072492784820497,0.0106927221640944,0.0242835953831673,0.0267750807106495,0.0120053822174668,0.0360575094819069
671,-0.00431978423148394,0.0106274699792266,0.0238736476749182,0.0270331632345915,0.0122923636808991,0.0328974425792694
672,-0.00019101744692307,0.0115333134308457,0.0248059742152691,0.0275025684386492,0.0139438956975937,0.0311893932521343
673,0.00172483979258686,0.0113372299820185,0.0253412984311581,0.0265493616461754,0.0157897341996431,0.0312533527612686
674,0.00187282136175781,0.00950604397803545,0.0249281115829945,0.0240613669157028,0.0182082131505013,0.0312713384628296
675,0.00106138689443469,0.00677841948345304,0.0226895082741976,0.020666217431426,0.0188045855611563,0.0295851211994886
676,-0.00175531848799437,0.00384824839420617,0.017507953569293,0.0169722624123096,0.0141687095165253,0.0267297383397818
677,-0.00506010046228766,0.00242131692357361,0.0128156710416079,0.0153671409934759,0.00841299816966057,0.0256917737424374
678,-0.00720631936565042,0.00229650852270424,0.0114322463050485,0.0157324429601431,0.0058003650046885,0.0261260215193033
679,-0.00832793489098549,0.0024441082496196,0.0125056365504861,0.016424996778369,0.00587437301874161,0.0266952775418758
680,-0.00823328271508217,0.00276019447483122,0.0146772246807814,0.0171163827180862,0.00781462155282497,0.0274242777377367
681,-0.00756353372707963,0.00109531008638442,0.0159546285867691,0.0152419805526733,0.0103273866698146,0.0246470607817173
682,-0.00629777694121003,-0.00389067851938307,0.0161891505122185,0.00951207801699638,0.0133566027507186,0.016180045902729
683,-0.00324072502553463,-0.0088140619918704,0.0170551929622889,0.00364472065120935,0.0168843828141689,0.00668109767138958
684,0.00165538222063333,-0.0100360698997974,0.0190728865563869,0.00115831079892814,0.0205901078879833,0.000655123847536743
685,0.00631715357303619,-0.00787971448153257,0.0213271174579859,0.00183589197695255,0.0239170975983143,-0.00164008303545415
686,0.00713690277189016,-0.0050283083692193,0.0224080961197615,0.00344655406661332,0.0243168007582426,-0.00167850917205215
687,0.00367129920050502,-0.00357457739301026,0.0217471923679113,0.00502308178693056,0.0208388417959213,-0.000528014381416142
688,0.000276582490187138,-0.00378390355035663,0.0195257887244225,0.00722638703882694,0.0153844580054283,0.00165436370298266
689,-0.000346924149198458,-0.00413629878312349,0.0166703555732965,0.0101646389812231,0.00918878708034754,0.00549193238839507
690,-0.000372728623915464,-0.00398614024743438,0.0136931510642171,0.0116788037121296,0.00188535510096699,0.00941263511776924
691,-0.00165432051289827,-0.00515973474830389,0.0100905736908317,0.00885353423655033,-0.00482962001115084,0.0089203305542469
692,-0.00276160705834627,-0.00763910543173552,0.00707697030156851,0.00300789321772754,-0.00657720724120736,0.00407255114987493
693,-0.00191475136671215,-0.00852972455322742,0.00696875620633364,-0.00101459526922554,-0.00155842490494251,0.000393149530282244
694,0.000277946935966611,-0.00642789574339986,0.00973143335431814,-0.000839883810840547,0.00666876882314682,0.00104445486795157
695,0.00151077762711793,-0.00253210822120309,0.0121982153505087,0.00150013901293278,0.0114111723378301,0.00423205690458417
696,0.00100353674497455,0.000674323062412441,0.0116518614813685,0.0024220950435847,0.0099227661266923,0.00530947325751185
697,-0.00057837413623929,0.000469309597974643,0.0087942685931921,8.41751752886921E-05,0.00679894490167499,0.000950874004047364
698,-0.00148596288636327,-0.00231884233653545,0.0069569144397974,-0.00302057829685509,0.00798664521425962,-0.00520529504865408
699,0.000701904355082661,-0.00401351088657975,0.00886388029903173,-0.00329927983693779,0.0147243700921535,-0.00698964297771454
700,0.00488524045795202,-0.00357201881706715,0.0129020232707262,-0.00146653095725924,0.0217978302389383,-0.00427291076630354
701,0.00716117024421692,-0.00326505000703037,0.0145464297384024,-0.000779518217314035,0.0225146040320396,-0.00160590722225606
702,0.00571773666888475,-0.00508457748219371,0.011905568651855,-0.00272816186770797,0.016186885535717,-0.00175092031713575
703,0.00264017889276147,-0.00734723545610905,0.00817497819662094,-0.0048826732672751,0.00821683090180159,-0.00241916649974883
704,0.000568111834581941,-0.00732005899772048,0.0068641952238977,-0.00391187937930226,0.00294023053720593,-0.000209626785363071
705,-0.000555739679839462,-0.00497210770845413,0.00743434112519026,-0.000168491096701473,-0.000165488934726454,0.00500803859904408
706,-0.000865892798174173,-0.00181930093094707,0.007987673394382,0.00326391262933612,-0.00172726146411151,0.0102381389588118
707,0.000341302569722757,0.00071514054434374,0.00818177685141563,0.00427370052784681,-0.000414781301515177,0.0120140118524432
708,0.00210519856773317,0.0013648314634338,0.00761749316006899,0.0023799913469702,0.00193626806139946,0.00890087243169546
709,0.00251905131153762,-0.000705908634699881,0.00505850184708834,-0.00233096862211823,0.00147513183765113,0.00174486706964672
710,0.00237983837723732,-0.00457599107176065,0.00112911988981068,-0.00892726145684719,-0.000135025853523985,-0.00788333639502525
711,0.00367878493852913,-0.00907220225781202,-0.00261285458691418,-0.0165502615272999,0.00109056232031435,-0.0194008257240057
712,0.00440027145668864,-0.0138222714886069,-0.00595942698419094,-0.0238988678902388,0.00370252481661737,-0.0297361686825752
713,0.00145935895852745,-0.0170071814209223,-0.00873665511608124,-0.027626371011138,0.00318573880940676,-0.0333402939140797
714,-0.00379572459496558,-0.0165363904088736,-0.0102811614051461,-0.0251172911375761,-0.00178098271135241,-0.0290939044207335
715,-0.00767646031454206,-0.0125453295186162,-0.0100595969706774,-0.0175846312195063,-0.00781568977981806,-0.0204654559493065
716,-0.00853824894875288,-0.00692213932052255,-0.00840271357446909,-0.00878291390836239,-0.0113725159317255,-0.0116945831105113
717,-0.00715467752888799,-0.00177446112502366,-0.00709156645461917,-0.00228320620954037,-0.0125068798661232,-0.0058808671310544
718,-0.00539461988955736,0.000787465600296855,-0.00837536435574293,-0.000529398850630969,-0.0132993049919605,-0.00481688976287842
719,-0.00470914738252759,-8.73630269779824E-05,-0.0127844950184226,-0.00356620224192739,-0.0154168726876378,-0.00790403969585896
720,-0.00446821376681328,-0.00239373696967959,-0.0181401688605547,-0.00856217369437218,-0.0180904231965542,-0.0114646162837744
721,-0.00337889604270458,-0.00489116180688143,-0.0217616204172373,-0.0136057306081057,-0.0177956838160753,-0.0141597399488091
722,-0.00123560498468578,-0.0075306030921638,-0.0224158335477114,-0.0183566305786371,-0.0131606440991163,-0.0174284130334854
723,0.00138573930598795,-0.0085944039747119,-0.0203344710171223,-0.021234342828393,-0.00775979924947023,-0.0204946584999561
724,0.00335237989202142,-0.00703564193099737,-0.0170925408601761,-0.0207175631076097,-0.00558476941660047,-0.0207917951047421
725,0.00391298905014992,-0.004834218416363,-0.015085325576365,-0.0182910468429327,-0.00729892542585731,-0.0181195065379143
726,0.00351761793717742,-0.00494280364364386,-0.0160573776811361,-0.0175314210355282,-0.0108020743355155,-0.0158612746745348
727,0.00212344923056662,-0.00742219481617212,-0.0196555014699697,-0.0195143166929483,-0.0144785158336163,-0.0152817089110613
728,-0.00113885919563472,-0.010256658308208,-0.0236298702657223,-0.0219496097415686,-0.0178710594773293,-0.0138963628560305
729,-0.00446329545229673,-0.0114111630246043,-0.0247868616133928,-0.0219596046954393,-0.0188186876475811,-0.0100239338353276
730,-0.00439638737589121,-0.0103295110166073,-0.0214961599558592,-0.0193513315171003,-0.0144593818113208,-0.00594157353043556
731,-0.00224184594117105,-0.00969756301492453,-0.0171408466994762,-0.0180456265807152,-0.00762562779709697,-0.00695302803069353
732,-0.00189784099347889,-0.0111724138259888,-0.0166042130440474,-0.0207236800342798,-0.00516732968389988,-0.0148755172267556
733,-0.00240537105128169,-0.0133555317297578,-0.0187364183366299,-0.0251568723469973,-0.00583533244207501,-0.0268750451505184
734,-0.00215261103585362,-0.015253497287631,-0.020208228379488,-0.028363274410367,-0.0049174539744854,-0.0392749607563019
735,-0.00248551438562572,-0.0154176410287619,-0.0212206970900297,-0.0285820029675961,-0.00444386107847095,-0.0466213449835777
736,-0.00423725927248597,-0.0131735587492585,-0.0235667042434216,-0.0263219065964222,-0.00785482674837112,-0.0456401295959949
737,-0.00641829473897815,-0.0105533367022872,-0.0273803509771824,-0.024234838783741,-0.0137108042836189,-0.0394015982747078
738,-0.00703067937865853,-0.00906894728541374,-0.0305314529687166,-0.0239269640296698,-0.0176256541162729,-0.0329998917877674
739,-0.00617351662367582,-0.00875158701092005,-0.0315546579658985,-0.0249498579651117,-0.0178082715719938,-0.0287317726761103
740,-0.00516762072220445,-0.00894665159285069,-0.0305670835077763,-0.025503858923912,-0.0155069502070546,-0.0257810764014721
741,-0.00422437069937587,-0.0086178369820118,-0.0286622196435928,-0.0248753540217876,-0.012846271507442,-0.0233588553965092
742,-0.00313575007021427,-0.00688556674867868,-0.0262793656438589,-0.0229809004813433,-0.0105565981939435,-0.0208285134285688
743,-0.00206135027110577,-0.00495569314807653,-0.0239046011120081,-0.0203645676374435,-0.00875408574938774,-0.0185741391032934
744,-0.000771987251937389,-0.00395512953400612,-0.0227829664945602,-0.017850348725915,-0.00876473635435104,-0.0165368411689997
745,0.00103758682962507,-0.00253251567482948,-0.0231172554194927,-0.0148653872311115,-0.0114446906372905,-0.0129418093711138
746,0.00245652021840215,-0.000302148167975247,-0.0233587436378002,-0.0114782499149442,-0.0150805385783315,-0.00856795161962509
747,0.00250406796112657,0.00162733823526651,-0.0216202642768621,-0.00931021571159363,-0.0176891516894102,-0.00625589909031987
748,0.000632902316283435,0.00153807457536459,-0.0192447397857904,-0.0109259048476815,-0.0208488032221794,-0.00918660871684551
749,-0.00325039518065751,-0.00181229412555695,-0.0190553497523069,-0.0167862996459007,-0.0257334150373936,-0.0179615151137114
750,-0.00850643310695887,-0.00715419184416533,-0.0217860825359821,-0.0242011789232492,-0.0301678981631994,-0.0281388480216265
751,-0.0136949950829148,-0.0127152102068067,-0.0267837978899479,-0.0318864658474922,-0.0316105224192142,-0.0367874093353748
752,-0.0164178181439638,-0.016750643029809,-0.0314369685947895,-0.0387409292161465,-0.0285551268607378,-0.0431567505002022
753,-0.0152801871299744,-0.0169117264449596,-0.0326661542057991,-0.0417276620864868,-0.0218267329037189,-0.0448144301772118
754,-0.0116680720821023,-0.0127387242391706,-0.0307549405843019,-0.0397019200026989,-0.0154257668182254,-0.041483610868454
755,-0.00842967815697193,-0.0073357610963285,-0.0288078524172306,-0.0354708321392536,-0.0137208551168442,-0.0374272987246513
756,-0.00739693036302924,-0.00563434418290854,-0.0299401991069317,-0.0340824536979198,-0.0178297311067581,-0.0382653623819351
757,-0.00757286418229342,-0.00804723054170609,-0.0335638970136642,-0.0363225378096104,-0.0241365786641836,-0.0430618785321712
758,-0.00758419139310718,-0.0113500989973545,-0.0369769781827927,-0.0392109118402004,-0.0288414470851421,-0.0471505671739578
759,-0.00717202015221119,-0.0144983939826488,-0.039304681122303,-0.0422435961663723,-0.030831303447485,-0.0510429292917252
760,-0.00624624593183398,-0.0170329660177231,-0.040584322065115,-0.0457078218460083,-0.0303975157439709,-0.0560388527810574
761,-0.00601082993671298,-0.0183084458112717,-0.0416890420019627,-0.0492751747369766,-0.030617743730545,-0.0610600188374519
762,-0.00737844686955214,-0.018702108412981,-0.0435793325304985,-0.0529512763023376,-0.0342805199325085,-0.0651364102959633
763,-0.00902884174138308,-0.018000477924943,-0.0459653623402119,-0.0566577352583408,-0.0404450930655003,-0.0677262842655182
764,-0.00869281031191349,-0.015347839333117,-0.0480528585612774,-0.0599623881280422,-0.0465351678431034,-0.0688261911273003
765,-0.00630235997959971,-0.0115962633863091,-0.0496623069047928,-0.0623718872666359,-0.0518133603036404,-0.0688479170203209
766,-0.00478237122297287,-0.00937408488243818,-0.0520555786788464,-0.0652602687478065,-0.058780986815691,-0.0702311620116234
767,-0.0061361170373857,-0.0104631455615163,-0.0561941117048264,-0.0703966841101646,-0.0690245628356934,-0.0764911845326424
768,-0.00776210986077785,-0.0128614921122789,-0.0596779584884644,-0.0756595879793167,-0.078292079269886,-0.0864728316664696
769,-0.00703078601509333,-0.0134278992190957,-0.0606635883450508,-0.0787409916520119,-0.0834268108010292,-0.0959979072213173
770,-0.00656514056026936,-0.0118439132347703,-0.0609805770218372,-0.0804722532629967,-0.087942361831665,-0.101839780807495
771,-0.00875817984342575,-0.00890429876744747,-0.0622542761266232,-0.0820882767438889,-0.0946110561490059,-0.101930782198906
772,-0.0128704700618982,-0.00560049945488572,-0.0660772100090981,-0.0852584168314934,-0.104868151247501,-0.0981575027108192
773,-0.0174499545246363,-0.00326756527647376,-0.0736326053738594,-0.0911842063069344,-0.11918730288744,-0.095560759305954
774,-0.0201913975179195,-0.00226323702372611,-0.0824631378054619,-0.0983693301677704,-0.132531315088272,-0.0970128923654556
775,-0.0192785300314426,-0.000944547180552036,-0.0886433199048042,-0.103447884321213,-0.140136241912842,-0.100584931671619
776,-0.016123266890645,0.00116563297342509,-0.0918173789978027,-0.105988182127476,-0.1439039260149,-0.104446016252041
777,-0.013834691606462,0.00147724035196006,-0.0946330949664116,-0.109860919415951,-0.147572413086891,-0.11117248237133
778,-0.0125496843829751,-0.0013264378067106,-0.0975564122200012,-0.117366053164005,-0.1501854211092,-0.123466990888119
779,-0.0107749262824655,-0.00644524209201336,-0.0993765965104103,-0.127134129405022,-0.149445191025734,-0.140663772821426
780,-0.00969234388321638,-0.0123665193095803,-0.101167872548103,-0.136887356638908,-0.148743644356728,-0.158836781978607
781,-0.0113136470317841,-0.0167674217373133,-0.105135209858418,-0.145245313644409,-0.153113543987274,-0.172504156827927
782,-0.0147709017619491,-0.0181909613311291,-0.111053198575974,-0.151606187224388,-0.161301642656326,-0.178020745515823
783,-0.0168454870581627,-0.0161635521799326,-0.115047514438629,-0.154533684253693,-0.167070806026459,-0.174676612019539
784,-0.0159559417515993,-0.0110334064811468,-0.113431937992573,-0.152725011110306,-0.167349472641945,-0.16462554037571
785,-0.0135362995788455,-0.00615800311788917,-0.108069345355034,-0.149274066090584,-0.165498495101929,-0.155623093247414
786,-0.0104604493826628,-0.00551070738583803,-0.104160457849503,-0.149946495890617,-0.165212512016296,-0.156984210014343
787,-0.00684773316606879,-0.0088710431009531,-0.105152070522308,-0.157105639576912,-0.168084710836411,-0.169754326343536
788,-0.00427428493276238,-0.0128206601366401,-0.110783241689205,-0.167771473526955,-0.174686387181282,-0.186132624745369
789,-0.00355338654480875,-0.0144137162715197,-0.117295898497105,-0.17607119679451,-0.182230949401855,-0.197358667850494
790,-0.00359946093522012,-0.0125478534027934,-0.120792873203754,-0.177896842360497,-0.186507135629654,-0.200066715478897
791,-0.00330067658796906,-0.00870235916227102,-0.119947522878647,-0.173752442002296,-0.185176312923431,-0.197603195905685
792,-0.00243577407673001,-0.00613406859338284,-0.116737559437752,-0.168095141649246,-0.179402157664299,-0.196576610207558
793,-0.0013560086954385,-0.0059843729250133,-0.11487627774477,-0.164847582578659,-0.174317166209221,-0.199518769979477
794,-0.00103313173167408,-0.00707580940797925,-0.116163335740566,-0.164388045668602,-0.173581898212433,-0.203466400504112
795,-0.00212115235626698,-0.00832650624215603,-0.11912278085947,-0.16495469212532,-0.175191566348076,-0.204717203974724
796,-0.00313374330289662,-0.00890519004315138,-0.120843626558781,-0.164984673261642,-0.174870997667313,-0.202279791235924
797,-0.00299396016635001,-0.00880383607000113,-0.120202668011189,-0.164517283439636,-0.171891435980797,-0.198428004980087
798,-0.00335689703933895,-0.00932909455150366,-0.118858948349953,-0.163946315646172,-0.169328063726425,-0.195429444313049
799,-0.00518301874399185,-0.0116407899186015,-0.118180766701698,-0.162854135036469,-0.168512493371964,-0.193312078714371
800,-0.0061906985938549,-0.0144873633980751,-0.117134317755699,-0.16053569316864,-0.16658878326416,-0.190741211175919
801,-0.00479006860405207,-0.0159351490437984,-0.115332379937172,-0.157197281718254,-0.161529153585434,-0.187199309468269
802,-0.00271113170310855,-0.0163163673132658,-0.113990142941475,-0.154240742325783,-0.155317053198814,-0.183538839221001
803,-0.00248766713775694,-0.0173329394310713,-0.113854594528675,-0.15326552093029,-0.151309758424759,-0.180983334779739
804,-0.00510995648801327,-0.0194128472357988,-0.114411674439907,-0.153814747929573,-0.150866270065308,-0.179537996649742
805,-0.00859139859676361,-0.01993921212852,-0.11280295997858,-0.151822596788406,-0.151007860898972,-0.175565794110298
806,-0.0106800245121121,-0.0172345396131277,-0.106882937252522,-0.144484788179398,-0.147663339972496,-0.165989130735397
807,-0.0118743814527988,-0.0139573002234101,-0.0988307371735573,-0.134388729929924,-0.140058234333992,-0.15316504240036
808,-0.0132094835862517,-0.0131972273811698,-0.0929396599531174,-0.126436442136765,-0.130799829959869,-0.141933232545853
809,-0.013787230476737,-0.0138026205822825,-0.0908438339829445,-0.121737778186798,-0.123366571962833,-0.133728072047234
810,-0.013443049043417,-0.0128506403416395,-0.0911732390522957,-0.117610685527325,-0.119483284652233,-0.126212999224663
811,-0.013616225682199,-0.0109051465988159,-0.0920290127396584,-0.113314889371395,-0.11694310605526,-0.119712993502617
812,-0.0141404177993536,-0.0100635606795549,-0.0921113714575768,-0.109853722155094,-0.112347669899464,-0.11707953363657
813,-0.0137747395783663,-0.0107073998078704,-0.0914426371455193,-0.107101641595364,-0.105742864310741,-0.118275657296181
814,-0.0117058260366321,-0.0120863458141685,-0.0896294713020325,-0.104272365570068,-0.0975955054163933,-0.120636604726315
815,-0.00923478044569492,-0.0133972922340035,-0.08660888671875,-0.101105935871601,-0.088957816362381,-0.121438913047314
816,-0.00876310840249062,-0.0142323588952422,-0.084254153072834,-0.0976794883608818,-0.083084799349308,-0.11862438172102
817,-0.00990225840359926,-0.0138398166745901,-0.0825779438018799,-0.0926493033766747,-0.0799268037080765,-0.110118247568607
818,-0.011831471696496,-0.0127546973526478,-0.0797559693455696,-0.0852091088891029,-0.0767321586608887,-0.0970970690250397
819,-0.0147689450532198,-0.0129963159561157,-0.0756078511476517,-0.0772108361124992,-0.07241240888834,-0.0854944586753845
820,-0.0170695260167122,-0.0144802452996373,-0.0703998208045959,-0.0701692774891853,-0.0658322051167488,-0.0790969431400299
821,-0.0174716841429472,-0.015391674824059,-0.0645822212100029,-0.0643542408943176,-0.0564347505569458,-0.0751256495714188
822,-0.0171348117291927,-0.014684347435832,-0.0598817653954029,-0.0597003698348999,-0.0465909130871296,-0.0683198645710945
823,-0.0172175224870443,-0.0129620833322406,-0.0573156513273716,-0.0557702630758286,-0.0389178283512592,-0.0574698075652123
824,-0.0179435722529888,-0.0107238832861185,-0.056000005453825,-0.0513558723032475,-0.0350051708519459,-0.0438813008368015
825,-0.0180330649018288,-0.00756060797721148,-0.0541532970964909,-0.0454222783446312,-0.0337159968912601,-0.0293572451919317
826,-0.0151414573192596,-0.00278062047436833,-0.0498633123934269,-0.0374107249081135,-0.0300720222294331,-0.0150396842509508
827,-0.0099788773804903,0.00319138611666858,-0.0433527417480946,-0.0278552211821079,-0.0221187751740217,-0.000533112266566604
828,-0.00581665802747011,0.00720480037853122,-0.0369853265583515,-0.0197479166090488,-0.011778281070292,0.01095584128052
829,-0.00317307421937585,0.0075021255761385,-0.0313400067389011,-0.0144375851377845,0.000667601940222085,0.015316846780479
830,-0.00120587937999517,0.00524586066603661,-0.0262028221040964,-0.0106922555714846,0.0143292481079698,0.0129304677248001
831,-0.000784375355578959,0.00216946285218,-0.0233682654798031,-0.00794513523578644,0.0250058900564909,0.00808936264365911
832,-0.00257857446558774,-6.4967134676408E-05,-0.0237164422869682,-0.00595623860135674,0.0301532875746489,0.0055978000164032
833,-0.0057807695120573,-0.00031760914134793,-0.024712335318327,-0.00316813075914979,0.0322414897382259,0.00790766347199678
834,-0.00935917906463146,0.00144933722913265,-0.0239273235201836,0.0021852261852473,0.03385279327631,0.0156691502779722
835,-0.0126454867422581,0.00380990840494633,-0.0219284705817699,0.00905442982912064,0.0336104407906532,0.0274271052330732
836,-0.014026447199285,0.00664526037871838,-0.0191353093832731,0.0157278832048178,0.0306648965924978,0.0409180819988251
837,-0.0126181598752737,0.0103460485115647,-0.014877175912261,0.0218410417437553,0.028623528778553,0.0535533912479877
838,-0.00995588768273592,0.0132351703941822,-0.00949332676827908,0.0271941386163235,0.0315853767096996,0.0628108307719231
839,-0.00723549397662282,0.0143206082284451,-0.00398414162918925,0.0314866341650486,0.0400098487734795,0.0674910023808479
840,-0.00500473007559776,0.0137405190616846,-0.000319568789564073,0.033268716186285,0.0496459640562534,0.0657377392053604
841,-0.00394643284380436,0.0115404548123479,3.89220767829102E-05,0.0319778956472874,0.055799201130867,0.0586161017417908
842,-0.00380309554748237,0.00777703244239092,-0.00190382194705307,0.0289642736315727,0.0594730749726295,0.0515528246760368
843,-0.00551930861547589,0.00259093684144318,-0.00506903743371367,0.0254699643701315,0.0625059232115746,0.0481622889637947
844,-0.00964072160422802,-0.00196767225861549,-0.00771575979888439,0.0242028329521418,0.0642513036727905,0.0499988310039043
845,-0.0127884140238166,-0.00289224367588758,-0.0062618819065392,0.0285979062318802,0.0663652196526527,0.0579491071403027
846,-0.0130309741944075,-0.00101569469552487,-0.00105023034848273,0.0369449481368065,0.0694660618901253,0.0686000287532806
847,-0.0123278228566051,0.000598676037043333,0.00339610269293189,0.0443158522248268,0.0708196833729744,0.0769357979297638
848,-0.0119126485660672,0.00128056644462049,0.00619646161794662,0.0502617955207825,0.0712377578020096,0.0835921093821526
849,-0.0124617973342538,0.000887743488419801,0.00834051985293627,0.055813480168581,0.0730182603001595,0.0907822400331497
850,-0.0148010896518826,-0.000706861668732017,0.0086782593280077,0.059635691344738,0.0748125240206718,0.0966927111148834
851,-0.017382824793458,-0.00158975645899773,0.00845914240926504,0.0623147115111351,0.076226994395256,0.0998822674155235
852,-0.017492912709713,-0.000420232012402266,0.0103732654824853,0.0650488063693047,0.0792332962155342,0.10118679702282
853,-0.0157509539276361,0.00124186940956861,0.012761008925736,0.065531462430954,0.0826043114066124,0.100189879536629
854,-0.0158212166279554,0.000762061798013747,0.0123103065416217,0.0613801330327988,0.0828235074877739,0.0947651341557503
855,-0.0176567006856203,-0.0023571124766022,0.0106523735448718,0.0546471998095512,0.0823609307408333,0.0848431065678597
856,-0.0176516138017178,-0.00497461343184114,0.0114227943122387,0.0500951372087002,0.0855433940887451,0.0749996900558472
857,-0.0155358351767063,-0.00464336108416319,0.0146880047395825,0.0496240183711052,0.0910763218998909,0.0687108933925629
858,-0.0144720133394003,-0.00262501835823059,0.0187442302703857,0.0518537536263466,0.0960608422756195,0.0651750415563583
859,-0.0168190058320761,-0.000911526556592435,0.0221443567425013,0.0556858517229557,0.0986775755882263,0.0647414326667786
860,-0.0215913578867912,-0.000290854222839698,0.023443553596735,0.0598522238433361,0.0978599563241005,0.0687270164489746
861,-0.0259788203984499,-5.41148692718707E-05,0.022186391055584,0.0633142367005348,0.0935728773474693,0.0766338780522347
862,-0.0280056968331337,0.00147434452082962,0.0207805149257183,0.0676165968179703,0.0887597501277924,0.0876331254839897
863,-0.0272665973752737,0.00465309899300337,0.0222444646060467,0.0739578530192375,0.0879738479852676,0.0997149050235748
864,-0.0244206674396992,0.00848855916410685,0.0267513711005449,0.0809059515595436,0.0924763455986977,0.109861627221107
865,-0.0214850138872862,0.0102514652535319,0.0305415280163288,0.0848078280687332,0.0982907712459564,0.114843033254147
866,-0.02064442448318,0.00764430779963732,0.0298140533268452,0.0831383839249611,0.100576505064964,0.113214656710625
867,-0.0207260437309742,0.00317778438329697,0.0267591364681721,0.0786737650632858,0.100210838019848,0.108015634119511
868,-0.0201252289116383,-0.000286207359749824,0.0250098444521427,0.0749853700399399,0.0997263416647911,0.102280676364899
869,-0.0186776891350746,-0.00171252072323114,0.0250503364950418,0.0737678855657578,0.099458247423172,0.0976928845047951
870,-0.0159663427621126,-0.000445779442088678,0.0265057738870382,0.0758916810154915,0.100376404821873,0.0957796424627304
871,-0.0131558673456311,0.00251579191535711,0.0285665150731802,0.0805043280124664,0.10220855474472,0.097102202475071
872,-0.0117226550355554,0.00500526465475559,0.0300652757287025,0.0847927555441856,0.103475131094456,0.099569745361805
873,-0.0112765720114112,0.00587627338245511,0.0308077298104763,0.0868626832962036,0.104460962116718,0.100259050726891
874,-0.0118086272850633,0.0059162606485188,0.0317135378718376,0.0881006941199303,0.10606624931097,0.10003636777401
875,-0.0139487218111753,0.00582415191456676,0.0329440347850323,0.0893756151199341,0.107848286628723,0.100761100649834
876,-0.0170450825244188,0.00570443458855152,0.0334417261183262,0.0895328894257545,0.107569627463818,0.102301076054573
877,-0.0193593092262745,0.00505291717126966,0.0332989692687988,0.0876374542713165,0.105420649051666,0.102806985378265
878,-0.0185200646519661,0.00460468279197812,0.034896194934845,0.085853174328804,0.106036879122257,0.10283612459898
879,-0.01448018476367,0.00539074605330825,0.0385309122502804,0.0861179903149605,0.110626429319382,0.10384888201952
880,-0.0103618418797851,0.00553873693570495,0.0414081700146198,0.0861313715577126,0.115270420908928,0.103066794574261
881,-0.00859763566404581,0.00324547849595547,0.0417815074324608,0.0837506353855133,0.116704173386097,0.0985322445631027
882,-0.009700583294034,-0.000199513480765745,0.0398253798484802,0.0800119265913963,0.113543123006821,0.0938082411885262
883,-0.0121693275868893,-0.00182636338286102,0.037262637168169,0.0777643397450447,0.106984198093414,0.0936978161334991
884,-0.0136378612369299,-0.00145954720210284,0.0348148830235004,0.077383741736412,0.099782906472683,0.0963537096977234
885,-0.0134010398760438,-0.000963497499469668,0.0321080274879932,0.0775974541902542,0.0946425721049309,0.096977025270462
886,-0.0130345104262233,-0.00125924730673432,0.0294510833919048,0.0781403779983521,0.0932543873786926,0.0947824120521545
887,-0.0131158456206322,-0.00194605230353773,0.0274488981813192,0.0788827314972878,0.0951324701309204,0.0920145139098167
888,-0.012572112493217,-0.00195297144819051,0.0262526925653219,0.0795200541615486,0.0982031300663948,0.0910414010286331
889,-0.0122943660244346,-0.00188804743811488,0.0246939174830914,0.0790896788239479,0.0997179821133614,0.090863049030304
890,-0.0130730327218771,-0.00283274031244218,0.0227135140448809,0.07736886292696,0.0995871350169182,0.0882761403918266
891,-0.0133811002597213,-0.00463133584707975,0.0223102960735559,0.0752044320106506,0.100287891924381,0.0817006230354309
892,-0.0121961934491992,-0.00568314595147967,0.0246166530996561,0.0744653269648552,0.102052114903927,0.0745304897427559
893,-0.0109211886301637,-0.0045583164319396,0.0277449432760477,0.0762841999530792,0.102528087794781,0.0726574510335922
894,-0.0109654255211353,-0.00259936205111444,0.0290561690926552,0.0786818116903305,0.100961349904537,0.0763296261429787
895,-0.0118060717359185,-0.00204834225587547,0.0286380536854267,0.0798820480704308,0.0990130379796028,0.0817198157310486
896,-0.0122095076367259,-0.00281474809162319,0.0282870102673769,0.0800453573465347,0.0984746739268303,0.087130069732666
897,-0.0109796468168497,-0.00315533997491002,0.0287305098026991,0.0789880380034447,0.0997438207268715,0.0911722555756569
898,-0.00856716372072697,-0.00303712603636086,0.028725253418088,0.0756635740399361,0.100429348647594,0.0908866003155708
899,-0.00609575258567929,-0.00328040728345513,0.0281406994909048,0.0711631178855896,0.0989967361092567,0.0863202437758446
900,-0.00384549866430461,-0.00335764326155186,0.0288407541811466,0.06844662129879,0.0976418480277061,0.0814458504319191
901,-0.00328641012310982,-0.00242766947485507,0.0305171422660351,0.0683576613664627,0.0965346693992615,0.0796733424067497
902,-0.00587249267846346,-0.000370191992260516,0.0307544264942408,0.0697712600231171,0.0925192460417748,0.0815770849585533
903,-0.00938618090003729,0.0018936269916594,0.0298332367092371,0.071761779487133,0.087693102657795,0.0847811028361321
904,-0.0104710347950459,0.0022544008679688,0.0295741520822048,0.0726153030991554,0.0880666449666023,0.0847999230027199
905,-0.0100575461983681,-0.00058638141490519,0.0287148728966713,0.0700977593660355,0.0917898863554001,0.0794850960373878
906,-0.0107734696939588,-0.00448607886210084,0.0261449087411165,0.0653991252183914,0.0923657938838005,0.0724114403128624
907,-0.011515854857862,-0.00620128773152828,0.0240729004144669,0.0619533248245716,0.0894555747509003,0.0678679719567299
908,-0.0103308446705341,-0.00482332427054644,0.0242955889552832,0.0612257719039917,0.0861630067229271,0.0665886178612709
909,-0.00812262110412121,-0.00224578799679875,0.0258703995496035,0.0618972331285477,0.083262212574482,0.0666473880410194
910,-0.00632062694057822,-0.000861814129166305,0.0271628368645906,0.0623377934098244,0.0800569131970406,0.0671691223978996
911,-0.0062944139353931,-0.000878439575899392,0.026974244043231,0.0626769661903381,0.0752261132001877,0.0702343061566353
912,-0.00838414020836353,-0.00136981415562332,0.0250877905637026,0.0628979653120041,0.0695643275976181,0.0753247365355492
913,-0.0101870987564325,-0.00131036317907274,0.0236865356564522,0.0635605454444885,0.0670043006539345,0.0794093534350395
914,-0.0100606707856059,-0.000495092070195824,0.0241336356848478,0.0650870725512505,0.0684752389788628,0.0809881389141083
915,-0.00898609310388565,-0.000628453155513853,0.0252139642834663,0.0651907846331596,0.0719650685787201,0.0786342993378639
916,-0.00719593651592731,-0.00185473414603621,0.0280205570161343,0.0636034831404686,0.0783487260341644,0.0728625580668449
917,-0.00515560526400805,-0.00298290350474417,0.0335259698331356,0.0620109848678112,0.0867518708109856,0.0661418586969376
918,-0.00475294422358274,-0.00424082111567259,0.0380192548036575,0.060241274535656,0.091236338019371,0.0605135075747967
919,-0.00592957716435194,-0.00564935989677906,0.0381021462380886,0.0580393895506859,0.0885398909449577,0.057717464864254
920,-0.00750963529571891,-0.00662298081442714,0.0344835482537746,0.0565739162266254,0.0807392224669456,0.0586310401558876
921,-0.00835286173969507,-0.00659282691776752,0.0305806696414948,0.0573357827961445,0.0724569335579872,0.0629075691103935
922,-0.00896255951374769,-0.00582030788064003,0.0273930244147778,0.0592287182807922,0.0650122761726379,0.0685512199997902
923,-0.0106651689857244,-0.00525991106405854,0.0234766267240047,0.0596710406243801,0.0581898652017117,0.0727999582886696
924,-0.0122475177049637,-0.00485960021615028,0.0194713640958071,0.0583285875618458,0.0548058860003948,0.0743328258395195
925,-0.0118003077805042,-0.00360286748036742,0.0170913152396679,0.0567265450954437,0.0556611381471157,0.0739403814077377
926,-0.0086883744224906,-0.00169911654666066,0.0176301747560501,0.0554576441645622,0.0601785071194172,0.0719094797968864
927,-0.00467955181375146,-0.000861978507600725,0.0201393701136112,0.0532734021544456,0.0668993890285492,0.0668988302350044
928,-0.00278729409910738,-0.002108906628564,0.0214538238942623,0.0489255748689175,0.072181336581707,0.0580377764999866
929,-0.00415999442338943,-0.00592381041496992,0.0193728227168322,0.0419842600822449,0.0730548948049545,0.0456085950136185
930,-0.00719815259799361,-0.0115617383271456,0.0154387047514319,0.0340483672916889,0.0705001205205917,0.0327087119221687
931,-0.00908663403242826,-0.0152835454791784,0.0137219233438373,0.0294867735356092,0.0680260807275772,0.0263271164149046
932,-0.00860476773232222,-0.0147369001060724,0.0146214030683041,0.0295837875455618,0.0655981749296188,0.0305267199873924
933,-0.00715739652514458,-0.011801490560174,0.0153780886903405,0.0313786119222641,0.0614196732640266,0.0424588359892368
934,-0.00629623932763934,-0.00905955862253904,0.0157895721495152,0.0328894704580307,0.0578549280762672,0.0551410317420959
935,-0.0061643966473639,-0.00825091451406479,0.0168907474726439,0.0330280512571335,0.0583317056298256,0.0612379126250744
936,-0.00627174088731408,-0.00962065905332565,0.0185254141688347,0.0315605141222477,0.0618460811674595,0.0590716078877449
937,-0.00533608719706535,-0.0105583127588034,0.0208796914666891,0.0305331218987703,0.065155528485775,0.0531362555921078
938,-0.00312262563966215,-0.00943008065223694,0.0234600249677897,0.0312987826764584,0.0662451013922691,0.0478121265769005
939,-0.00123433268163353,-0.00805580150336027,0.0241936258971691,0.0325204730033875,0.06452876329422,0.0438719540834427
940,-0.000177927810000256,-0.0074478518217802,0.0227887239307165,0.0331964157521725,0.0613675527274609,0.0409155488014221
941,0.000622301828116179,-0.00677657872438431,0.0206883233040571,0.0332439914345741,0.0586085952818394,0.0389075726270676
942,0.00037217655335553,-0.00630511902272701,0.0175014026463032,0.031799428164959,0.0555123910307884,0.0368888825178146
943,-0.00122310384176672,-0.00717150326818228,0.0132286287844181,0.0287884864956141,0.0523292943835258,0.0336991958320141
944,-0.00209503318183124,-0.0090996790677309,0.0106329992413521,0.0258552972227335,0.0522702224552631,0.0300875026732683
945,-0.00142106821294874,-0.0111396983265877,0.0111067015677691,0.023834191262722,0.0551293045282364,0.0276406109333038
946,-0.000796501757577062,-0.0134192109107971,0.0130956163629889,0.0221350323408842,0.0574644953012466,0.0266712829470634
947,-0.0011306187370792,-0.0159105304628611,0.0148774292320013,0.0206290297210217,0.0575968995690346,0.0269389562308788
948,-0.00159041071310639,-0.0166688561439514,0.0161111149936914,0.0207415428012609,0.0552280209958553,0.029617028310895
949,-0.00124258117284626,-0.0142433196306229,0.0173729807138443,0.0234554186463356,0.051302582025528,0.0355395637452602
950,-0.000669080705847591,-0.00973041355609894,0.0186054278165102,0.0276591442525387,0.0470382981002331,0.043212715536356
951,-0.00165907188784331,-0.00549759343266487,0.0184915121644735,0.0309849511831999,0.0421880707144737,0.0494746491312981
952,-0.00419731624424458,-0.00315370364114642,0.0168973840773106,0.0314604490995407,0.0378980040550232,0.0502442270517349
953,-0.00509375287219882,-0.00153970997780561,0.0167466141283512,0.0305627100169659,0.0374023541808128,0.0454670675098896
954,-0.00236612511798739,0.000241380563238636,0.0192702673375607,0.0300743002444506,0.04094373062253,0.0387277007102966
955,0.00188168825116009,0.00103592651430517,0.0218303240835667,0.0290715973824263,0.0446019917726517,0.0322144888341427
956,0.0049397093243897,0.00077072368003428,0.0225394386798143,0.0273963939398527,0.0456595160067081,0.0285785086452961
957,0.00610658386722207,0.000482619070680812,0.0216782037168741,0.0263424590229988,0.0456140637397766,0.0306961871683598
958,0.00530987093225122,0.000681171310134232,0.0196615606546402,0.0265140477567911,0.0461458675563335,0.0369023755192757
959,0.00194137112703174,0.000898352649528533,0.0165024418383837,0.0269416831433773,0.045184813439846,0.0422061756253242
960,-0.00373379187658429,5.33659367647488E-05,0.0131969572976232,0.0266416929662228,0.0411320254206657,0.0437367893755436
961,-0.00853794999420643,-0.00220541306771338,0.0117038078606129,0.0258854422718287,0.0371769107878208,0.0415818765759468
962,-0.00876821298152208,-0.0041775219142437,0.0132697122171521,0.0259236693382263,0.0371032021939754,0.0380075201392174
963,-0.00472202664241195,-0.00352295604534447,0.0168299302458763,0.0274681858718395,0.0397610366344452,0.0360584519803524
964,0.000625888060312718,4.71167259092908E-05,0.019868990406394,0.0300157330930233,0.0415479429066181,0.0371000394225121
965,0.00459808623418212,0.00381194637157023,0.0206657480448484,0.0319801867008209,0.0412048771977425,0.0390273183584213
966,0.00600133882835507,0.00485081085935235,0.0195638090372086,0.0319582931697369,0.0399848073720932,0.0382009223103523
967,0.00591277331113815,0.00378106837160885,0.0184975862503052,0.0309460181742907,0.0397709645330906,0.034945260733366
968,0.00524688698351383,0.00227567297406495,0.0177117064595222,0.0298961643129587,0.0401909463107586,0.031509030610323
969,0.00451092515140772,0.00116831273771822,0.0165029764175415,0.0286278612911701,0.0393984243273735,0.0280546844005585
970,0.00485271587967873,0.00149164628237486,0.0157534945756197,0.0276388190686703,0.0379870645701885,0.0248633902519941
971,0.00541589688509703,0.0024991047102958,0.015342521481216,0.0264113768935204,0.037237074226141,0.0226430892944336
972,0.00471963314339519,0.00261216540820897,0.0139042949303985,0.0240388531237841,0.0364503227174282,0.0215766038745642
973,0.00507379649206996,0.0020198121201247,0.0127602396532893,0.0213478542864323,0.0373753756284714,0.021741796284914
974,0.00963046867400408,0.00222308910451829,0.0146702202036977,0.0197418071329594,0.0431388728320599,0.0232790056616068
