,AF3,AF4,Fp1,Fp2,AF7,AF8
0,7.73864085203968E-05,0.0142777534201741,-0.000229493933147751,-0.000489944650325924,-0.00642553716897964,0.0244436264038086
1,-0.00126910884864628,0.0102503309026361,-0.00387819251045585,-0.00521746557205915,-0.00563274789601564,0.0210376214236021
2,-0.00514830974861979,0.00563002843409777,-0.00867295265197754,-0.0099222157150507,-0.00755417626351118,0.0190527122467756
3,-0.00901705399155617,0.00247509428299963,-0.012773915193975,-0.0114291040226817,-0.0121548930183053,0.018915044143796
4,-0.0108617320656776,0.000904389948118478,-0.014551529660821,-0.00988316349685192,-0.0179463420063257,0.0189887341111898
5,-0.0109043773263693,-0.000650940637569875,-0.0148968733847141,-0.00855520647019148,-0.0233539324253798,0.0170146580785513
6,-0.00988562777638435,-0.00167764408979565,-0.0141613641753793,-0.00771233113482594,-0.0267026703804731,0.0154507458209991
7,-0.00667278561741114,0.000347048597177491,-0.0110647296532989,-0.00507697742432356,-0.0257710032165051,0.0177781358361244
8,-0.00156976270955056,0.00515551865100861,-0.00664401007816195,-0.00212218728847802,-0.0209246966987848,0.0212753880769014
9,0.00339886080473661,0.00970012787729502,-0.00258244294673204,-0.00133170117624104,-0.0138567583635449,0.0215963833034039
10,0.00649753119796515,0.0109116863459349,-0.000443058175733313,-0.0033408768940717,-0.00690459599718452,0.0175819955766201
11,0.00648104585707188,0.0082370126619935,-0.00247784121893346,-0.00797708611935377,-0.00397498812526464,0.0109344813972712
12,0.00372379319742322,0.00504112988710403,-0.00771834561601281,-0.0123875280842185,-0.00690122088417411,0.00647958274930716
13,0.00015871187497396,0.00407105218619108,-0.0126420240849257,-0.0143871763721108,-0.0130959833040833,0.00628005433827639
14,-0.00178199203219265,0.00480516301468015,-0.0147463716566563,-0.0150549970567226,-0.0168758444488049,0.0071561811491847
15,-0.00112482625991106,0.00599926291033626,-0.0139679927378893,-0.0151517931371927,-0.0150309875607491,0.00704569183290005
16,-0.000140586300403811,0.00594048015773296,-0.0132875852286816,-0.0157716777175665,-0.0113737033680081,0.00564280012622476
17,-0.0012586252996698,0.00395571207627654,-0.0148088149726391,-0.0174797642976046,-0.010710152797401,0.00352941104210913
18,-0.0034090771805495,0.00207699602469802,-0.0168956592679024,-0.0178251452744007,-0.0126591054722667,0.00327470549382269
19,-0.00358488014899194,0.00232354295440018,-0.0166651047766209,-0.0147626455873251,-0.0140249039977789,0.00651153270155191
20,-0.000943210616242141,0.00427598971873522,-0.013317028991878,-0.00972759909927845,-0.0128644956275821,0.0112200397998095
21,0.00161252461839467,0.00607518572360277,-0.00955362245440483,-0.00557538447901607,-0.0114170191809535,0.01437724288553
22,0.00109573639929295,0.00613275542855263,-0.00888288114219904,-0.00401885341852903,-0.0135919945314527,0.0148871084675193
23,-0.00123520044144243,0.00427438272163272,-0.0118955681100488,-0.00544084189459682,-0.018758175894618,0.0132048288360238
24,-0.00197585765272379,0.00224667694419622,-0.0158502236008644,-0.00845002196729183,-0.0219912622123957,0.0110673559829593
25,-0.00081867229891941,0.000942341750487685,-0.018346831202507,-0.0113898515701294,-0.0211343970149755,0.00933096930384636
26,0.000297300139209256,-0.000334831274813041,-0.0192150864750147,-0.0135055268183351,-0.0188698414713144,0.00820418819785118
27,0.000714554393198341,-0.00141992245335132,-0.0186156257987022,-0.0142722548916936,-0.0173347909003496,0.00904926750808954
28,0.000918990292120725,-0.00223567942157388,-0.0168862603604794,-0.0148034039884806,-0.0155169786885381,0.0105797369033098
29,0.00226418487727642,-0.00237890030257404,-0.0134242791682482,-0.0151930646970868,-0.0114908572286367,0.010993329808116
30,0.0045771854929626,-0.00144061143510044,-0.00863462034612894,-0.014292161911726,-0.00707155046984553,0.0109161930158734
31,0.00457555707544088,-0.00191359897144139,-0.0070623429492116,-0.0145317036658525,-0.00701839942485094,0.00928752776235342
32,0.00160302699077874,-0.0051912646740675,-0.0109157096594572,-0.0181035175919533,-0.0114093394950032,0.00518169114366174
33,-0.0012095826677978,-0.00908962078392506,-0.0169802643358707,-0.0233721490949392,-0.0156929977238178,1.43551596920588E-05
34,-0.00244249100796878,-0.0120490491390228,-0.0220284182578325,-0.0278532765805721,-0.0173594579100609,-0.00461089424788952
35,-0.00236706505529583,-0.0134223643690348,-0.0244088564068079,-0.0290977582335472,-0.0168796274811029,-0.00702537875622511
36,-0.00121029128786176,-0.0129177207127213,-0.0243540368974209,-0.0267503205686808,-0.015723679214716,-0.00712451059371233
37,-0.000364968174835667,-0.0125735392794013,-0.0245393253862858,-0.0245907455682755,-0.015956936404109,-0.00842726696282625
38,-0.000868833856657147,-0.0137852821499109,-0.0265728309750557,-0.0249783359467983,-0.018472308292985,-0.0130273643881083
39,-0.00261448044329882,-0.0156461223959923,-0.0302275214344263,-0.0268219541758299,-0.0231709871441126,-0.0191424787044525
40,-0.00534079177305102,-0.0178460385650396,-0.0343625470995903,-0.0294169522821903,-0.0293795596808195,-0.0250874496996403
41,-0.00730410125106573,-0.0194722563028336,-0.0359128341078758,-0.0312571711838245,-0.03409169241786,-0.0285498630255461
42,-0.00700527103617787,-0.0191257335245609,-0.0336842425167561,-0.0306574944406748,-0.0351879633963108,-0.0272393394261599
43,-0.00524708908051252,-0.0174898877739906,-0.0305661335587502,-0.0286819692701101,-0.0337430909276009,-0.022303381934762
44,-0.00375903234817088,-0.0163082331418991,-0.0295517593622208,-0.0276146400719881,-0.0316598862409592,-0.0171853881329298
45,-0.00390129582956433,-0.0164245814085007,-0.0311319231987,-0.0283860135823488,-0.0302495528012514,-0.0144592765718699
46,-0.00514989253133535,-0.0175108630210161,-0.0334445834159851,-0.0302735399454832,-0.0291150379925966,-0.0147392842918634
47,-0.00593986129388213,-0.0186473727226257,-0.0343310572206974,-0.0320185944437981,-0.0278576817363501,-0.0169796273112297
48,-0.00635420670732856,-0.0192803591489792,-0.0338405594229698,-0.0331461317837238,-0.0280407462269068,-0.0194252170622349
49,-0.00754243647679687,-0.0200608316808939,-0.0337691642343998,-0.0344766266644001,-0.0306559074670076,-0.0218500029295683
50,-0.00935252755880356,-0.0215861015021801,-0.034960675984621,-0.0364124663174152,-0.0344527289271355,-0.0248352997004986
51,-0.0110583063215017,-0.023945702239871,-0.0370637476444244,-0.0389562323689461,-0.0380196236073971,-0.0285782031714916
52,-0.0131110176444054,-0.0272113513201475,-0.0401918590068817,-0.0425088368356228,-0.0418026112020016,-0.0329858437180519
53,-0.0159627255052328,-0.0311558246612549,-0.0448500104248524,-0.0472292527556419,-0.0468642935156822,-0.0378493517637253
54,-0.0185003187507391,-0.0351143330335617,-0.0502873174846172,-0.0524217151105404,-0.0524501651525497,-0.0428602881729603
55,-0.0193694606423378,-0.0376610420644283,-0.0545550286769867,-0.0563611425459385,-0.0563874989748001,-0.0463505871593952
56,-0.0195033885538578,-0.0383197814226151,-0.0568320192396641,-0.0584687441587448,-0.0579631328582764,-0.0475775077939034
57,-0.0205208491533995,-0.0373531319200993,-0.056786060333252,-0.0588749907910824,-0.0580308549106121,-0.0468666851520538
58,-0.0218801144510508,-0.0339911282062531,-0.0532170869410038,-0.0565598346292973,-0.0562313310801983,-0.0432077199220657
59,-0.0218837112188339,-0.0286478772759438,-0.046357374638319,-0.0517027005553246,-0.0512957647442818,-0.0373779125511646
60,-0.0204872153699398,-0.0237128175795078,-0.0394899472594261,-0.0463884845376015,-0.0445544943213463,-0.0318887308239937
61,-0.0191587749868631,-0.0202786661684513,-0.0350332073867321,-0.0410910323262215,-0.0386324003338814,-0.0266311801970005
62,-0.0177815519273281,-0.0175543557852507,-0.0317620523273945,-0.0351090095937252,-0.0332376286387444,-0.0213005915284157
63,-0.0149085437878966,-0.0156752616167068,-0.0286391358822584,-0.0301510896533728,-0.0273602716624737,-0.0187526475638151
64,-0.0101715922355652,-0.0142883639782667,-0.0252971276640892,-0.0268857888877392,-0.0209958162158728,-0.0190888810902834
65,-0.00478948093950748,-0.0108525808900595,-0.0206166114658117,-0.0219497922807932,-0.0144889317452908,-0.0167797766625881
66,7.57571324356832E-05,-0.00368366460315883,-0.0142899174243212,-0.0124012557789683,-0.00872412230819464,-0.00770412944257259
67,0.00329435220919549,0.00480897957459092,-0.0077637224458158,-0.000454381020972505,-0.00424306886270642,0.0052489242516458
68,0.00292256125248969,0.00940840691328049,-0.00404019560664892,0.0076418025419116,-0.00194077554624528,0.0147623438388109
69,0.000335047283442691,0.00926641188561916,-0.00285669905133545,0.0101026482880116,-0.00081861432408914,0.0180588699877262
70,-0.00134337740018964,0.00796067621558905,-0.00134593620896339,0.0105273080989718,0.00082426966400817,0.0181470327079296
71,-0.00277167302556336,0.00650186417624354,-0.00112733850255609,0.00992433726787567,0.000478577974718064,0.0170205030590296
72,-0.00357806985266507,0.00470384629443288,-0.00333344098180532,0.00801642518490553,-0.00181736017111689,0.015370886772871
73,-0.0013481704518199,0.00404790602624416,-0.00392374955117702,0.00762157794088125,-0.00112028268631548,0.0152104226872325
74,0.00214712973684072,0.00418753875419497,-0.00135687214788049,0.010588058270514,0.00275326939299703,0.0169989038258791
75,0.00307881948538125,0.00299118529073894,0.00103649741504341,0.0146842785179615,0.00515181478112936,0.0181484874337912
76,0.000409039377700537,0.000346185435773805,0.000623677507974207,0.0168591383844614,0.0038699449505657,0.0167146995663643
77,-0.00421191100031137,-0.00187612394802272,-0.00205780705437064,0.0162913631647825,0.000594303768593818,0.0131271313875914
78,-0.00864719320088625,-0.00259384396485984,-0.00551474606618285,0.0137143833562732,-0.00268333731219172,0.00900632236152887
79,-0.0111853340640664,-0.00177561584860086,-0.00831061787903309,0.0105383358895779,-0.00531388865783811,0.0064172325655818
80,-0.0108430664986372,0.000805873307399452,-0.00795704405754805,0.00886668544262648,-0.00662786467000842,0.00660110963508487
81,-0.00925822742283344,0.00361295649781823,-0.00414515426382422,0.00892616342753172,-0.00784923508763313,0.00779511360451579
82,-0.00865812972187996,0.00513840792700648,0.000687529682181776,0.00990744214504957,-0.00995651073753834,0.008510104380548
83,-0.00911390781402588,0.00652453955262899,0.00495423097163439,0.0120624201372266,-0.0105495965108275,0.00986882857978344
84,-0.00992620270699263,0.00807463098317385,0.00758876139298081,0.0143423369154334,-0.00852544326335192,0.0117126535624266
85,-0.0106016360223293,0.00891996547579765,0.00808811094611883,0.0154718570411205,-0.00536001240834594,0.0133991567417979
86,-0.0110756801441312,0.00920378789305687,0.00770620768889785,0.0163572654128075,-0.00246459757909179,0.0159478858113289
87,-0.0107716741040349,0.00931133329868317,0.00843193102627993,0.0180693287402391,0.000410679407650605,0.0190026517957449
88,-0.00924618914723396,0.00919927936047316,0.0109370136633515,0.0204300694167614,0.00467142602428794,0.0210644844919443
89,-0.00770843401551247,0.00882407743483782,0.0141632240265608,0.0227501057088375,0.0101011209189892,0.0228039547801018
90,-0.00636810436844826,0.00865641236305237,0.0172794125974178,0.024378502741456,0.0155252115800977,0.0253830589354038
91,-0.00356289045885205,0.00920250359922647,0.01982675306499,0.0250740628689528,0.0203954428434372,0.0279637482017279
92,0.000455068395240232,0.0099211698397994,0.020697720348835,0.024721572175622,0.0227407440543175,0.0290281549096107
93,0.00369247375056148,0.0103143118321896,0.0204797852784395,0.0241365786641836,0.0212563555687666,0.0288029480725527
94,0.00572012504562736,0.0112575516104698,0.0209907870739698,0.0250086858868599,0.0184703208506107,0.0291681122034788
95,0.00669799838215113,0.0129250278696418,0.0215408336371183,0.026957293972373,0.0171080362051725,0.0305015593767166
96,0.00625100079923868,0.0135346185415983,0.0203417018055916,0.0279470328241587,0.0176297947764397,0.0309262592345476
97,0.00408019684255123,0.0114948274567723,0.0172761883586645,0.0272870883345604,0.018814479932189,0.0289356168359518
98,0.000267035444267094,0.00685817189514637,0.0133610870689154,0.0249912608414888,0.0185237098485231,0.0241077728569508
99,-0.00367106008343399,0.00196212809532881,0.0102354297414422,0.02146140858531,0.0160972196608782,0.0180008709430695
100,-0.00617722142487764,-0.000549624091945589,0.00888110976666212,0.0180499795824289,0.012765352614224,0.0134592363610864
101,-0.00666673807427287,-0.000355234835296869,0.00886234268546104,0.0158377513289452,0.0104654571041465,0.0115125039592385
102,-0.00396251166239381,0.00252256076782942,0.0109050767496228,0.0163514260202646,0.012126469053328,0.0127418702468276
103,0.00171424343716353,0.00721555389463902,0.015450481325388,0.0198815669864416,0.0186901334673166,0.0166528560221195
104,0.00687267165631056,0.00978560838848352,0.0193062499165535,0.0224968530237675,0.0262405537068844,0.0190739836543798
105,0.00906417053192854,0.00837764330208302,0.0206059888005257,0.0222127810120583,0.0321951396763325,0.0181559585034847
106,0.00964600872248411,0.00568127725273371,0.0214568264782429,0.0218307692557573,0.0381645858287811,0.0169489644467831
107,0.00999370403587818,0.00362520385533571,0.0222058724611998,0.0217836610972881,0.0426345765590668,0.016812426969409
108,0.00952234957367182,0.00242423848249018,0.0212612766772509,0.0203254111111164,0.0415522567927837,0.0174757689237595
109,0.00821265298873186,0.00267788278870285,0.0192354582250118,0.0181849747896194,0.0357679091393948,0.0200435593724251
110,0.00678270403295755,0.00381988845765591,0.0173481535166502,0.0168838277459145,0.0290769226849079,0.0239376965910196
111,0.00485859951004386,0.00414469419047236,0.0154093569144607,0.016660176217556,0.0227702874690294,0.0270168986171484
112,0.00241300160996616,0.00327441981062293,0.0131540400907397,0.0167380198836327,0.0177413299679756,0.0283728614449501
113,0.000298475526506081,0.00163558241911232,0.0100034829229116,0.0161121319979429,0.016126150265336,0.0276200603693724
114,-0.00166252767667174,0.000138605551910587,0.0061430144123733,0.0155227817595005,0.017959313467145,0.0256652850657701
115,-0.00300950207747519,0.00027493029483594,0.00428306683897972,0.0164419766515493,0.0222943760454655,0.0240936763584614
116,-0.00231297546997666,0.00136759493034333,0.00545407366007566,0.0175193380564451,0.027895575389266,0.0215980112552643
117,0.000584418652579188,0.00147853477392346,0.00819278229027987,0.0167220365256071,0.0320579186081886,0.0165854506194592
118,0.00432233326137066,0.000114970069262199,0.0109502281993628,0.0143826706334949,0.032876580953598,0.010506022721529
119,0.00674871727824211,-0.00199137255549431,0.0115495203062892,0.0118761956691742,0.0299559812992811,0.00585535680875182
120,0.0067937457934022,-0.00361501146107912,0.0092204874381423,0.00988048408180475,0.0240550879389048,0.00393530307337642
121,0.00458638090640306,-0.00469040591269732,0.0045171701349318,0.00750556495040655,0.0160315856337547,0.00331000378355384
122,0.00112233066465706,-0.00629083020612597,-0.00152347853872925,0.00406810780987144,0.00776457786560059,0.0010429946705699
123,-0.00137979199644178,-0.00823289528489113,-0.00623081531375647,0.00136323738843203,0.00298977713100612,-0.00325230229645967
124,-0.00215796753764153,-0.00943324528634548,-0.00821131560951471,0.000767916557379067,0.00269177998416126,-0.00762253999710083
125,-0.00282980618067086,-0.0102670527994633,-0.00909644644707441,0.000265797891188413,0.00436755968257785,-0.0113727441057563
126,-0.00351383467204869,-0.0105256577953696,-0.00936013739556074,-0.00092563102953136,0.00713888090103865,-0.0134904598817229
127,-0.00252368953078985,-0.00863383617252111,-0.00736158667132258,-0.000457262241980061,0.0117734493687749,-0.0121184177696705
128,-0.000572663324419409,-0.00528419716283679,-0.00361846899613738,0.00220119347795844,0.016775980591774,-0.00814885552972555
129,0.000157621630933136,-0.00287308543920517,-0.000773684936575592,0.0048466557636857,0.0193801242858171,-0.00433993758633733
130,-8.76413323567249E-05,-0.00206664693541825,0.000593932927586138,0.00648854346945882,0.0194360613822937,-0.00135710986796767
131,0.000417035771533847,-0.00148078566417098,0.00168462027795613,0.00799443759024143,0.0191627908498049,0.00200200453400612
132,0.00173967308364809,-0.000226717791520059,0.00243752636015415,0.00923992041498423,0.0196104664355516,0.00539543386548758
133,0.00221737939864397,0.000711643020622432,0.00223195203579962,0.00968821626156569,0.0193866118788719,0.00747280847281218
134,0.000944758183322847,9.72285197349265E-05,0.00122798176016659,0.0104853613302112,0.0173274669796228,0.00812836922705173
135,-0.00178892398253083,-0.00242050760425627,-0.000376774929463863,0.0123994909226894,0.0137110920622945,0.00715375039726496
136,-0.00559901725500822,-0.00628066202625632,-0.00226259487681091,0.0143760740756989,0.00922011956572533,0.00420517148450017
137,-0.00959746632725,-0.0095336614176631,-0.00352621986530721,0.0157405380159616,0.0055950814858079,0.00118317932356149
138,-0.011850118637085,-0.00949346274137497,-0.00301488139666617,0.0168588925153017,0.00522783910855651,0.000901582243386656
139,-0.0111719714477658,-0.00541985593736172,-0.00044610133045353,0.0178653188049793,0.00802397914230824,0.00386005640029907
140,-0.0084485886618495,-9.99219810182694E-06,0.00279216701164842,0.0179363023489714,0.0112969381734729,0.00736593129113317
141,-0.00607880856841803,0.00288026384077966,0.00500445393845439,0.016150901094079,0.0127747962251306,0.00825285911560059
142,-0.00614137994125485,0.00262713734991848,0.00627510389313102,0.0137047404423356,0.0119725679978728,0.0069414246827364
143,-0.00752018066123128,0.00192199170123786,0.00803910195827484,0.0127841699868441,0.0113015584647655,0.00585868395864964
144,-0.00756783690303564,0.00221062870696187,0.0103234434500337,0.0130729945376515,0.0131521420553327,0.00537989940494299
145,-0.00505940010771155,0.00352530390955508,0.0124186370521784,0.0141229582950473,0.0162276532500982,0.00554015254601836
146,-0.000757937203161418,0.00535839656367898,0.0140594309195876,0.0164968520402908,0.0182956401258707,0.00636691180989146
147,0.00260600564070046,0.00583109445869923,0.0136755248531699,0.0184410493820906,0.0182158276438713,0.00583474058657885
148,0.00297379842959344,0.00386164127849042,0.0100526409223676,0.0177637059241533,0.0155656635761261,0.00247225747443736
149,0.00177076831459999,0.00137994741089642,0.00579182291403413,0.0161811076104641,0.0121132507920265,-0.00119163526687771
150,0.00111646659206599,0.000590568990446627,0.00396939041092992,0.0167203154414892,0.00999056082218885,-0.00136983627453446
151,0.000538891355972737,0.000755682587623596,0.00421287771314383,0.0188178382813931,0.00883251149207354,0.00180072500370443
152,-0.000223566326894797,0.000880687613971531,0.00559647101908922,0.0206733215600252,0.00817740336060524,0.00589191075414419
153,-0.00140769884455949,2.73535242740763E-05,0.00668894127011299,0.0205316636711359,0.00749874021857977,0.00791686959564686
154,-0.00413726735860109,-0.00302609032951295,0.00527674145996571,0.0172711070626974,0.00588101334869862,0.00593290291726589
155,-0.00737481191754341,-0.00661510787904263,0.00201115594245493,0.0133359860628843,0.0035196493845433,0.00182147906161845
156,-0.00898771919310093,-0.00866041984409094,-0.000817899534013122,0.0110826753079891,0.000924239051528275,-0.00257563940249383
157,-0.00788007583469152,-0.0097341313958168,-0.00247763120569289,0.00963570550084114,-0.000475015316624194,-0.00771330390125513
158,-0.0049337069503963,-0.0114001156762242,-0.00392749300226569,0.00719166547060013,-6.59936704323627E-05,-0.0140037760138512
159,-0.0011486696312204,-0.01307955943048,-0.00441039865836501,0.00483408942818642,0.00248565175570548,-0.0193680319935083
160,0.00320976600050926,-0.0132457204163074,-0.00196548644453287,0.00545978778973222,0.00801616348326206,-0.0212390646338463
161,0.00604470446705818,-0.0128945466130972,0.00183161837048829,0.00804822333157063,0.0143648628145456,-0.0209372378885746
162,0.0067424550652504,-0.0126145528629422,0.00459085963666439,0.0099381897598505,0.0194529928267002,-0.0203487519174814
163,0.00697233015671372,-0.0117045231163502,0.00527291372418404,0.0108130527660251,0.0221677590161562,-0.0193233117461205
164,0.00719604874029756,-0.0103857722133398,0.00334100378677249,0.0113228857517242,0.0215217899531126,-0.0175634603947401
165,0.00670927297323942,-0.0096647534519434,-0.000647135195322335,0.0111662149429321,0.0191423408687115,-0.0157351158559322
166,0.00471201725304127,-0.0102742332965136,-0.00532959820702672,0.00942449551075697,0.0166212394833565,-0.0152090499177575
167,0.00215931981801987,-0.0102244205772877,-0.00769588351249695,0.00786754675209522,0.0142483487725258,-0.0150701804086566
168,0.00124871882144362,-0.00696883117780089,-0.0056174024939537,0.00912339799106121,0.0127104120329022,-0.0130398403853178
169,0.00274624209851027,-0.00169942283537239,-0.00144097523298115,0.0121192559599876,0.0119674801826477,-0.00940466113388538
170,0.00560066243633628,0.00281145190820098,0.001407491392456,0.0146482847630978,0.0112935146316886,-0.00556202000007033
171,0.0090731605887413,0.00629349797964096,0.00359580549411476,0.0178641080856323,0.0117175625637174,-0.000943578837905079
172,0.0124069871380925,0.00873430632054806,0.00668351305648685,0.022924305871129,0.0143022108823061,0.00428536580875516
173,0.0131411449983716,0.00770856952294707,0.00846477784216404,0.0267183780670166,0.01691616140306,0.00690845027565956
174,0.01100561209023,0.00352797959931195,0.00774846971035004,0.0272227767854929,0.0174132436513901,0.0059807738289237
175,0.0085361497476697,0.000449183804448694,0.00587739236652851,0.0260505899786949,0.0154742021113634,0.00418154103681445
176,0.00660506822168827,0.000189102764124982,0.00272688502445817,0.0235752202570438,0.0113171897828579,0.00219461251981556
177,0.00610397383570671,0.00220769597217441,-8.03021903266199E-05,0.0207580104470253,0.00839862134307623,0.000176251181983389
178,0.00747740967199206,0.00547399697825313,-0.000293253979180008,0.0197665486484766,0.00960089731961489,-0.000707279483322054
179,0.00779434433206916,0.00717641273513436,-0.00028611408197321,0.0195177495479584,0.0113996788859367,-0.00153076625429094
180,0.00619811518117785,0.00718770595267415,-0.000784772098995745,0.0195461455732584,0.0118144266307354,-0.00244000437669456
181,0.00573939271271229,0.0083671435713768,0.00152362417429686,0.0220785513520241,0.0142544200643897,-0.00140202604234219
182,0.00731470063328743,0.0109413573518395,0.00648285215720534,0.026837132871151,0.0190555099397898,0.00164846354164183
183,0.00874944403767586,0.012796375900507,0.0102075794711709,0.0302353985607624,0.0225523207336664,0.00437516160309315
184,0.0091973003000021,0.0134085491299629,0.0108073810115457,0.0299152135848999,0.02341228723526,0.00527137145400047
185,0.00984795670956373,0.0141701530665159,0.0101529853418469,0.0280325822532177,0.0235930159687996,0.00582407554611564
186,0.0114053636789322,0.0160444434732199,0.0112510612234473,0.0290096048265696,0.0251811798661947,0.00818479154258966
187,0.0135864224284887,0.018334424123168,0.015047931112349,0.0341496355831623,0.0286960881203413,0.0117606967687607
188,0.0148030398413539,0.0188304781913757,0.0192521400749683,0.0394219644367695,0.031499121338129,0.0136324847117066
189,0.0129815740510821,0.0164512358605862,0.0206098519265652,0.040306068956852,0.030054735019803,0.0126289455220103
190,0.00917482189834118,0.0137401251122355,0.019090773537755,0.0375131294131279,0.0267749726772308,0.0115386135876179
191,0.00643779011443257,0.0134427612647414,0.0169881395995617,0.0343014560639858,0.0265570525079966,0.0129795558750629
192,0.00624034833163023,0.0147860888391733,0.0151694407686591,0.0317572690546513,0.0297951735556126,0.0156830567866564
193,0.0078678959980607,0.0151216322556138,0.0136030847206712,0.029505955055356,0.034388467669487,0.0164525303989649
194,0.00949741713702679,0.0134412627667189,0.0128925330936909,0.0277294386178255,0.038049828261137,0.0146877132356167
195,0.0108270095661283,0.011624027043581,0.0140398694202304,0.0267816875129938,0.0404264330863953,0.0125693259760737
196,0.0120578277856112,0.0112121375277638,0.0174034796655178,0.0263739041984081,0.0427417457103729,0.0114598013460636
197,0.0126950023695827,0.0122407842427492,0.0217569079250097,0.0268855933099985,0.0432482175529003,0.0125603443011642
198,0.0133241936564446,0.0144926067441702,0.0251493044197559,0.0287511255592108,0.0398722067475319,0.0164033360779285
199,0.0148277152329683,0.0171280633658171,0.0265264492481947,0.030776584520936,0.0350257642567158,0.020746698603034
200,0.0170163549482822,0.0190223418176174,0.0255951564759016,0.0310595259070396,0.0318022333085537,0.0225928332656622
201,0.0191867351531982,0.0192416403442621,0.0233832113444805,0.0291872005909681,0.0312313679605722,0.0207265242934227
202,0.0206907410174608,0.0174442008137703,0.0218485929071903,0.0270179901272058,0.0332802683115005,0.0171020105481148
203,0.021940665319562,0.0152688017114997,0.0221399199217558,0.0272660199552774,0.0375827588140965,0.0154986819252372
204,0.0238271094858646,0.0154328104108572,0.0236439481377602,0.0304915271699429,0.0427827537059784,0.0171315018087626
205,0.0248239934444427,0.0174126476049423,0.0234607011079788,0.0329601317644119,0.0448679029941559,0.0190360359847546
206,0.0223307181149721,0.0174865946173668,0.019660072401166,0.0307954214513302,0.0411040633916855,0.0180407091975212
207,0.0169993303716183,0.0145486919209361,0.0138631761074066,0.0253419782966375,0.0333456061780453,0.0150711294263601
208,0.0121907340362668,0.0108559420332313,0.00851808488368988,0.0200574714690447,0.0258082468062639,0.0123036298900843
209,0.00950355175882578,0.0076230657286942,0.00471525266766548,0.0157045498490334,0.0217568706721067,0.00925376825034618
210,0.00852454733103514,0.00513600930571556,0.00343073974363506,0.0125894900411367,0.0214725397527218,0.00587733695283532
211,0.00880363211035728,0.00365531258285046,0.00491301482543349,0.0117975119501352,0.0234013590961695,0.00342495925724506
212,0.0106405839323998,0.00344622763805091,0.00840523187071085,0.0140074323862791,0.0269040931016207,0.00280027487315238
213,0.0137082701548934,0.00453396840021014,0.0128715950995684,0.0183807425200939,0.0307062864303589,0.00423448532819748
214,0.0153406951576471,0.00502395490184426,0.015530152246356,0.021165868267417,0.0310498960316181,0.00585428206250072
215,0.0153191993013024,0.00478740874677897,0.015923148021102,0.0209008138626814,0.028519332408905,0.00674517219886184
216,0.0156952887773514,0.00521887699142098,0.0158251747488976,0.0191554483026266,0.0273052118718624,0.00666597532108426
217,0.0153413880616426,0.00474100420251489,0.0139563390985131,0.0150659177452326,0.0265862792730331,0.00287242629565299
218,0.0132614346221089,0.00226434762589633,0.00967038236558437,0.00777158886194229,0.02453688159585,-0.00494738854467869
219,0.011415128596127,-0.00113803090061992,0.00468546105548739,-0.0012420411221683,0.0228777416050434,-0.0135197788476944
220,0.0115486672148108,-0.00385742378421128,0.000989122781902552,-0.0087029542773962,0.0229573119431734,-0.0192516203969717
221,0.0127019174396992,-0.00478747161105275,-0.00044497472117655,-0.0114073809236288,0.0234797839075327,-0.0202603582292795
222,0.0127715170383453,-0.00465118372812867,-0.000410218344768509,-0.00899894814938307,0.022952601313591,-0.0173435155302286
223,0.0122640524059534,-0.00430830055847764,0.000528834410943091,-0.00360978953540325,0.0223083831369877,-0.0121462494134903
224,0.0127879688516259,-0.00379411922767758,0.00198110146448016,0.0012067862553522,0.0229923781007528,-0.00663878303021193
225,0.0127722295001149,-0.00338328746147454,0.00222463696263731,0.002894829493016,0.0234692860394716,-0.00280794641003013
226,0.00992231070995331,-0.00311802630312741,-0.000130132917547598,0.00158583233132958,0.0210807006806135,-0.00159736629575491
227,0.00604577083140612,-0.00249522970989347,-0.00369579368270934,-0.00113847549073398,0.0165672432631254,-0.00265086651779711
228,0.00441579520702362,-0.00160172185860574,-0.00592502346262336,-0.00367928552441299,0.0128258410841227,-0.00448102690279484
229,0.00485012214630842,-0.00139106321148574,-0.0061667812988162,-0.00557165872305632,0.0111640319228172,-0.00580372801050544
230,0.00563407689332962,-0.00260947062633932,-0.0057559460401535,-0.00762092741206288,0.0108639448881149,-0.00755946943536401
231,0.00698634795844555,-0.00472569186240435,-0.00509604718536139,-0.00967241823673248,0.0120648769661784,-0.0113310758024454
232,0.00894325133413076,-0.00709738535806537,-0.00335406046360731,-0.0105173503980041,0.0150641985237598,-0.0167836062610149
233,0.0104166371747851,-0.00994862988591194,-0.000786397664342076,-0.00994378607720137,0.0181789342314005,-0.0223813988268375
234,0.011372335255146,-0.0122710354626179,0.00200659385882318,-0.00788613315671682,0.0203493293374777,-0.0252061448991299
235,0.012151618488133,-0.0122276917099953,0.0046601751819253,-0.00445146858692169,0.0216825865209103,-0.0233143195509911
236,0.0120905954390764,-0.0107575450092554,0.00586752174422145,-0.00213167699985206,0.0214612577110529,-0.0202779471874237
237,0.011776914820075,-0.0097155561670661,0.00548339961096644,-0.00293683470226824,0.0196621119976044,-0.0200262069702148
238,0.0131049007177353,-0.00901063159108162,0.00528259621933103,-0.00493044266477227,0.0184955801814795,-0.0211714617908001
239,0.0146492468193173,-0.00892718136310577,0.00478623807430267,-0.00609354581683874,0.0182743649929762,-0.0217303857207298
240,0.0135411145165563,-0.00993086956441402,0.00243570702150464,-0.00680952798575163,0.0169910956174135,-0.0221086721867323
241,0.0108369216322899,-0.0109636811539531,-0.000232822741963901,-0.0075690308585763,0.0152937192469835,-0.0231089890003204
242,0.00963833183050156,-0.010669182986021,-0.00032306052162312,-0.00737201934680343,0.0152541473507881,-0.0242293495684862
243,0.0104625187814236,-0.00963358394801617,0.00204695574939251,-0.00597837101668119,0.0160157140344381,-0.0247287731617689
244,0.0105903679504991,-0.0096078785136342,0.0036836878862232,-0.00553556578233838,0.0147678218781948,-0.0245994906872511
245,0.00790865439921618,-0.0100401164963841,0.00338655011728406,-0.00652655772864819,0.011157987639308,-0.0230675004422665
246,0.00394886313006282,-0.00940512865781784,0.00300513743422925,-0.00744813727214932,0.00779158435761929,-0.0201144181191921
247,0.00164630927611142,-0.00798536371439695,0.00289557501673698,-0.0084121935069561,0.0055518769659102,-0.0170572828501463
248,0.00187983852811158,-0.00682519422844052,0.00162123620975763,-0.0103217083960772,0.00280359317548573,-0.0147290611639619
249,0.00374334771186113,-0.00615877099335194,0.000289835239527747,-0.0122903101146221,-0.000188638703548349,-0.013437801040709
250,0.00566947180777788,-0.00596137344837189,0.000654777744784951,-0.0130008393898606,-0.00200629746541381,-0.0135386195033789
251,0.00577705353498459,-0.00730674201622605,0.000778506800998002,-0.0133044980466366,-0.00341154495254159,-0.0161282252520323
252,0.0041026477701962,-0.0109207965433598,-0.00116479233838618,-0.0143854059278965,-0.00463378615677357,-0.0215694904327393
253,0.00239657354541123,-0.0158027168363333,-0.00437486916780472,-0.0165864620357752,-0.00479509215801954,-0.0281440429389477
254,0.000622385938186198,-0.0206988379359245,-0.00877261906862259,-0.0205871239304543,-0.00668696267530322,-0.0343766883015633
255,-0.00209458987228572,-0.0249488223344088,-0.0147746102884412,-0.0265131499618292,-0.0137652810662985,-0.0402863323688507
256,-0.00466238893568516,-0.0282317828387022,-0.0204853639006615,-0.0327232703566551,-0.0229381080716848,-0.0455082096159458
257,-0.00544571690261364,-0.0300728026777506,-0.02340292558074,-0.036216177046299,-0.0285367053002119,-0.0481231212615967
258,-0.00532685872167349,-0.0311407037079334,-0.024502282962203,-0.0365557260811329,-0.0308038089424372,-0.0483705103397369
259,-0.00699189677834511,-0.0339202582836151,-0.026844585314393,-0.0377289988100529,-0.0334869772195816,-0.0503671951591969
260,-0.0105928489938378,-0.0386726595461369,-0.0300623532384634,-0.0413812771439552,-0.0364032499492168,-0.0555457472801209
261,-0.0143645470961928,-0.0428001880645752,-0.0314668715000153,-0.0445329584181309,-0.0376786664128304,-0.0602414980530739
262,-0.0180752016603947,-0.044336348772049,-0.0313458777964115,-0.0460103526711464,-0.039010189473629,-0.061289805918932
263,-0.0215628128498793,-0.0433142818510532,-0.0318655297160149,-0.0483747087419033,-0.042336069047451,-0.0602509416639805
264,-0.0233916882425547,-0.0407667309045792,-0.0334929190576077,-0.0532469749450684,-0.0457856915891171,-0.060947772115469
265,-0.0238802470266819,-0.0384707935154438,-0.0367744937539101,-0.0596918351948261,-0.0480936206877232,-0.0652962252497673
266,-0.0252666007727385,-0.0385977700352669,-0.0425682626664639,-0.0664209946990013,-0.0515861213207245,-0.0722411498427391
267,-0.0281476769596338,-0.0413565188646317,-0.0488392449915409,-0.0721176937222481,-0.0570523701608181,-0.078571505844593
268,-0.0301975831389427,-0.044147215783596,-0.0519893020391464,-0.0744532942771912,-0.0611727312207222,-0.0810707658529282
269,-0.0290219020098448,-0.0442701689898968,-0.0507666952908039,-0.0720221176743507,-0.0618461295962334,-0.0793226361274719
270,-0.0255011729896069,-0.042376946657896,-0.0472078882157803,-0.0677802935242653,-0.0606545507907867,-0.0761656239628792
271,-0.0211301408708096,-0.0398530997335911,-0.0434869639575481,-0.0648105517029762,-0.0583617314696312,-0.0725874304771423
272,-0.0169146526604891,-0.0365424267947674,-0.0408117510378361,-0.0626220181584358,-0.0558831728994846,-0.0673399865627289
273,-0.0145306857302785,-0.0335450395941734,-0.0396160446107388,-0.0604388192296028,-0.0549507774412632,-0.0621573589742184
274,-0.0136273764073849,-0.0326449796557426,-0.0389121547341347,-0.058595459908247,-0.0541029162704945,-0.0600385330617428
275,-0.0121587058529258,-0.0329095907509327,-0.0370603539049625,-0.0564638637006283,-0.050809558480978,-0.0598390400409698
276,-0.00999582093209028,-0.0324649550020695,-0.0341461375355721,-0.0529709495604038,-0.0457090698182583,-0.0588955916464329
277,-0.00842470768839121,-0.0316340066492558,-0.0324913524091244,-0.0493154712021351,-0.0407461300492287,-0.0575975701212883
278,-0.00739090470597148,-0.0307028163224459,-0.0322812236845493,-0.0466714575886726,-0.0355376601219177,-0.0563230700790882
279,-0.00620287982746959,-0.0294114984571934,-0.0315213613212109,-0.044905349612236,-0.0294824559241533,-0.0551505498588085
280,-0.00470448844134808,-0.0281214565038681,-0.0294011030346155,-0.0438451506197453,-0.0243239142000675,-0.0550918467342854
281,-0.00333382422104478,-0.0270429849624634,-0.0265660881996155,-0.0427820384502411,-0.022256150841713,-0.0553857907652855
282,-0.00283481320366263,-0.0262509621679783,-0.0243778321892023,-0.0411095581948757,-0.0232130754739046,-0.0539838187396526
283,-0.00335224671289325,-0.0253132227808237,-0.0233045611530542,-0.0381475016474724,-0.02510991320014,-0.049759928137064
284,-0.0049694599583745,-0.02392035163939,-0.0230141021311283,-0.0341489464044571,-0.0268475115299225,-0.0444738008081913
285,-0.00752784917131066,-0.0228710565716028,-0.0233592968434095,-0.0310991313308477,-0.0284725110977888,-0.0418023392558098
286,-0.0090378662571311,-0.0223077423870564,-0.0232222341001034,-0.0295123010873795,-0.02879991941154,-0.0427695512771606
287,-0.00796096678823233,-0.0215756557881832,-0.0213245619088411,-0.028665404766798,-0.0265851840376854,-0.0458083897829056
288,-0.00536260707303882,-0.020683640614152,-0.017743581905961,-0.0285187605768442,-0.022571912035346,-0.0492026545107365
289,-0.00325093977153301,-0.0203971490263939,-0.0137248476967216,-0.0291840210556984,-0.0193302221596241,-0.0517743267118931
290,-0.00272075086832047,-0.020888390019536,-0.010298983193934,-0.0298633277416229,-0.0187485627830029,-0.0521592758595943
291,-0.00325627019628882,-0.02100576646626,-0.00731569202616811,-0.0291348993778229,-0.0193601120263338,-0.0487541146576405
292,-0.00442046578973532,-0.0210298113524914,-0.00583826517686248,-0.0279611237347126,-0.0198669340461493,-0.0434191226959229
293,-0.00575696770101786,-0.0221090316772461,-0.00738797383382916,-0.0284300092607737,-0.0216374043375254,-0.0400989204645157
294,-0.00671560224145651,-0.0244128033518791,-0.0117155695334077,-0.0310129001736641,-0.0260837953537703,-0.0408250540494919
295,-0.00798276718705893,-0.0281577408313751,-0.0174602586776018,-0.035228930413723,-0.0324340686202049,-0.0455833598971367
296,-0.00929658766835928,-0.0317760184407234,-0.0217752177268267,-0.0386058054864407,-0.037177387624979,-0.0510155968368053
297,-0.00895669776946306,-0.0320465825498104,-0.0217672493308783,-0.037800420075655,-0.0369719080626965,-0.0522795468568802
298,-0.00618296209722757,-0.0276984181255102,-0.0172673054039478,-0.0325003266334534,-0.0318145714700222,-0.0479174107313156
299,-0.00243413634598255,-0.0211403500288725,-0.0112040899693966,-0.0259633921086788,-0.0251597706228495,-0.0410458520054817
300,-0.000186126344488002,-0.0165562015026808,-0.0071165282279253,-0.0220338646322489,-0.020469207316637,-0.0367370471358299
301,0.000628100067842752,-0.015024084597826,-0.0051522059366107,-0.0208760518580675,-0.0173103418201208,-0.0370789282023907
302,0.00171266857068986,-0.0149201611056924,-0.00346657587215304,-0.0201647076755762,-0.0142922969534993,-0.0401093848049641
303,0.00246169813908637,-0.0163270030170679,-0.00266845687292516,-0.0199676770716906,-0.013315150514245,-0.0440699234604836
304,0.000912138144485652,-0.0200493782758713,-0.00479817390441895,-0.0220370106399059,-0.0165832582861185,-0.0494935512542725
305,-0.00270250253379345,-0.0246399156749249,-0.00970148481428623,-0.0264060311019421,-0.0224007703363895,-0.0568079762160778
306,-0.00597734283655882,-0.0274023450911045,-0.0145730720832944,-0.0309844315052032,-0.0265445355325937,-0.0637133941054344
307,-0.00746701005846262,-0.0278266314417124,-0.0172462593764067,-0.0340832248330116,-0.026812894269824,-0.0676596909761429
308,-0.00739920465275645,-0.0275042727589607,-0.0177398268133402,-0.035737220197916,-0.0243980828672647,-0.0683912187814713
309,-0.00645523425191641,-0.0271573159843683,-0.0171383339911699,-0.0364848896861076,-0.0220149196684361,-0.0663052052259445
310,-0.0053678615950048,-0.0261517446488142,-0.0165057312697172,-0.0360222943127155,-0.0211097709834576,-0.0613190196454525
311,-0.00470031006261706,-0.0243656262755394,-0.0154234897345304,-0.0339907556772232,-0.0205265488475561,-0.0541377291083336
312,-0.00473859626799822,-0.0231104250997305,-0.0133986091241241,-0.0318741798400879,-0.0191109534353018,-0.0477230101823807
313,-0.00548711745068431,-0.0232064891606569,-0.0117733646184206,-0.0310230739414692,-0.0176367778331041,-0.0439562313258648
314,-0.00656933803111315,-0.02363520860672,-0.0115642491728067,-0.0303176324814558,-0.0169336441904306,-0.0409451499581337
315,-0.00749099999666214,-0.0235449057072401,-0.0127850007265806,-0.0289391186088324,-0.0164999030530453,-0.0371545180678368
316,-0.00834018085151911,-0.023473309352994,-0.015833580866456,-0.0280559863895178,-0.0165362097322941,-0.0339493937790394
317,-0.00887464918196201,-0.0236283428966999,-0.0191849116235971,-0.0274727195501328,-0.0166602227836847,-0.0323462821543217
318,-0.00909688230603933,-0.0236605647951365,-0.0200117863714695,-0.0257273726165295,-0.0154283419251442,-0.0315095782279968
319,-0.0106272296980023,-0.0236023887991905,-0.0184074360877275,-0.023171279579401,-0.013467650860548,-0.0308186076581478
320,-0.0128457471728325,-0.0233901236206293,-0.0156197315081954,-0.0211108587682247,-0.0101854614913464,-0.0306365806609392
321,-0.0121690118685365,-0.0226322803646326,-0.0117538506165147,-0.0198834966868162,-0.00347276008687913,-0.0307906921952963
322,-0.00770753063261509,-0.021287277340889,-0.00736636575311422,-0.0190048236399889,0.00528100691735744,-0.0301527474075556
323,-0.00250453059561551,-0.0200711749494076,-0.00385879422537982,-0.0186730772256851,0.0124413147568703,-0.0288612544536591
324,0.00133792066480964,-0.0189166255295277,-0.00169043231289834,-0.0190599821507931,0.0163115635514259,-0.0275816638022661
325,0.00360264489427209,-0.0175655391067266,-0.000841996748931706,-0.0201597157865763,0.0163796525448561,-0.0267705302685499
326,0.00375242810696363,-0.0164415240287781,-0.00145206938032061,-0.0219682846218348,0.0122011238709092,-0.027140099555254
327,0.00289188232272863,-0.0141474790871143,-0.00159237848129123,-0.0220705177634954,0.00645283097401261,-0.0267528761178255
328,0.00239032972604036,-0.0104735353961587,-7.78233079472557E-05,-0.0192950870841742,0.00315843382850289,-0.0239552929997444
329,0.000664159830193967,-0.0088968500494957,0.000522863119840622,-0.0172371566295624,0.00265699112787843,-0.0216674618422985
330,-0.00339409476146102,-0.0106633026152849,-0.00116552761755884,-0.0177681762725115,0.00204604817554355,-0.0221443008631468
331,-0.00746023096144199,-0.0126294465735555,-0.00283204601146281,-0.0175768360495567,-0.000449347426183522,-0.0230008792132139
332,-0.0094511192291975,-0.012723402120173,-0.00305704004131258,-0.0142484763637185,-0.0033487135078758,-0.0219810344278812
333,-0.00961500592529774,-0.0114355338737369,-0.00229536974802613,-0.00896656606346369,-0.00431616883724928,-0.0196798108518124
334,-0.00787643902003765,-0.00894882250577211,-0.000573818280827254,-0.00384131842292845,-0.0028330993372947,-0.0169262494891882
335,-0.00442012958228588,-0.00603115651756525,0.000913236872293055,-0.00130242481827736,-0.000516819884069264,-0.014959336258471
336,-0.000802913040388376,-0.00426571117714047,0.000355421827407554,-0.00219397619366646,0.00114152184687555,-0.0150223094969988
337,0.00101285241544247,-0.00482261460274458,-0.00298828305676579,-0.00543558457866311,0.000790611142292619,-0.0173661261796951
338,-5.33214333700016E-05,-0.00774658005684614,-0.00850849132984877,-0.00982540380209684,-0.00257239490747452,-0.0214397180825472
339,-0.00307163037359715,-0.0112750036641955,-0.0135904727503657,-0.0137326065450907,-0.00739713991060853,-0.0250001288950443
340,-0.00690957298502326,-0.0140630975365639,-0.0161736737936735,-0.0159970074892044,-0.0122803524136543,-0.0259838979691267
341,-0.0103320945054293,-0.0158373937010765,-0.0155684277415276,-0.0149732762947679,-0.0165727827697992,-0.0237755943089724
342,-0.0115190371870995,-0.0159450173377991,-0.0115179885178804,-0.00937798991799355,-0.0179926995187998,-0.0187039878219366
343,-0.0109386825934052,-0.0142860412597656,-0.00508899334818125,-0.00252136122435331,-0.0150499772280455,-0.0130831757560372
344,-0.0106021864339709,-0.0123725878074765,0.00206350884400308,0.00125061371363699,-0.00971552822738886,-0.0100538255646825
345,-0.0108689898625016,-0.0121646421030164,0.00749939167872071,0.0013720776187256,-0.00581234926357865,-0.0106460461392999
346,-0.0104155614972115,-0.0126741733402014,0.00959599576890469,-6.62496022414416E-05,-0.00570894544944167,-0.0128165017813444
347,-0.00822283048182726,-0.011073294095695,0.0101414006203413,-0.00126875203568488,-0.00835596490651369,-0.0139951352030039
348,-0.00458837626501918,-0.00667610438540578,0.010998148471117,-0.00159863044973463,-0.0102451192215085,-0.0128494938835502
349,-0.000778202898800373,-0.00110151467379183,0.0114477314054966,-0.000583538494538516,-0.00903408974409103,-0.00931753218173981
350,0.00134735554456711,0.00248237419873476,0.0101118013262749,0.000413223606301472,-0.00600524432957172,-0.00580654293298721
351,0.000878324790392071,0.00285637425258756,0.00706994347274303,-0.000347456167219207,-0.00465742871165276,-0.00353175750933588
352,-0.00129844003822654,0.00178308796603233,0.00345205585472286,-0.00224954169243574,-0.00591911096125841,-0.000763950811233372
353,-0.0034709800966084,0.00058364198775962,0.000670930894557387,-0.00377216911874712,-0.00675072288140655,0.00275512086227536
354,-0.00408328743651509,0.000194436928723007,0.00076346832793206,-0.00365582853555679,-0.00556966941803694,0.00555568234995008
355,-0.00236138026230037,0.00160278216935694,0.00495786126703024,-0.0012170746922493,-0.00299527286551893,0.00668617757037282
356,0.00118892430327833,0.00441157538443804,0.0115838460624218,0.00279623665846884,0.00138623546808958,0.00631705624982715
357,0.00459856633096933,0.00647732894867659,0.0169680640101433,0.00555090047419071,0.00717133563011885,0.00444374373182654
358,0.00477851368486881,0.00518000684678555,0.0174400694668293,0.00359650957398117,0.010668802075088,-0.00018852626089938
359,0.00091821700334549,0.00108688825275749,0.0127028552815318,-0.00247182697057724,0.00877632014453411,-0.00656827352941036
360,-0.00402241852134466,-0.00265865726396441,0.00673279073089361,-0.00824533868581057,0.00341189163736999,-0.0113123906776309
361,-0.00705590145662427,-0.00439979089424014,0.00277641694992781,-0.0109596252441406,-0.0016449453542009,-0.0132225966081023
362,-0.00743160070851445,-0.00454976269975305,0.00101013644598424,-0.0108022652566433,-0.0047539989463985,-0.0139202615246177
363,-0.00689460523426533,-0.00558297149837017,-0.000340730824973434,-0.0104947024956346,-0.00669849431142211,-0.0171243268996477
364,-0.00614104373380542,-0.00807837210595608,-0.00156715128105134,-0.0110138654708862,-0.00719229318201542,-0.0232332833111286
365,-0.00417871726676822,-0.00930021982640028,-0.000530021614395082,-0.00984929315745831,-0.00428581330925226,-0.0272672194987535
366,-0.00283555733039975,-0.00882522203028202,0.00218223966658115,-0.00735477264970541,-2.38487737078685E-05,-0.0272173900157213
367,-0.0034114015288651,-0.00816950388252735,0.00381325953640044,-0.00581295508891344,0.00220153527334332,-0.025304788723588
368,-0.00372165441513062,-0.00781865697354078,0.00379992136731744,-0.00524794822558761,0.00311635993421078,-0.0234239343553782
369,-0.00228982395492494,-0.00768996449187398,0.00366954854689538,-0.00481934612616897,0.00434662587940693,-0.0220906939357519
370,-0.000209265272133052,-0.00720784068107605,0.00450197141617537,-0.0038803443312645,0.00528301810845733,-0.0203039292246103
371,0.000716386362910271,-0.00569190736860037,0.00498524075374007,-0.0025808725040406,0.00437678815796971,-0.0173609331250191
372,2.43980630330043E-05,-0.00336248916573823,0.00367797375656664,-0.00185379118192941,0.00124064763076603,-0.0144408196210861
373,-0.00168882741127163,-0.00199292181059718,0.00136214890517294,-0.00240894430316985,-0.00263957190327346,-0.0133065758273005
374,-0.00364021677523851,-0.00302551663480699,-0.000809055636636913,-0.00440650386735797,-0.00547373434528708,-0.0146563518792391
375,-0.00437545543536544,-0.00503141433000565,-0.00235768035054207,-0.00678749196231365,-0.00685243587940931,-0.017428083345294
376,-0.00301597034558654,-0.00561458943411708,-0.00277370400726795,-0.00801888853311539,-0.00652483152225614,-0.0199804659932852
377,-0.0009371965425089,-0.00450967205688357,-0.00204119365662336,-0.00800119061022997,-0.00411429116502404,-0.0216702111065388
378,0.000878478807862848,-0.00320779252797365,-0.000982654746621847,-0.00795611552894115,-0.000491936458274722,-0.0230830349028111
379,0.00252045225352049,-0.00272743171080947,-0.00105897721368819,-0.00880574155598879,0.00132387573830783,-0.024779811501503
380,0.00296846171841025,-0.00299664866179228,-0.00298479711636901,-0.00998575706034899,-0.00092064734781161,-0.0262919794768095
381,0.00230773305520415,-0.00322789535857737,-0.00466664507985115,-0.00966889224946499,-0.00430048862472177,-0.0266825649887323
382,0.00156553636770695,-0.00320888496935368,-0.00426380289718509,-0.00803724117577076,-0.00540728401392698,-0.0266192462295294
383,0.000510706973727793,-0.00346261379308999,-0.00284724892117083,-0.00711267115548253,-0.0055908621288836,-0.0273418147116899
384,-6.44067695247941E-05,-0.00298654730431736,-0.000897406891454011,-0.00568063743412495,-0.00651215109974146,-0.0265044160187244
385,0.000328016118146479,-0.00182329420931637,0.00109397107735276,-0.00284910202026367,-0.00829099863767624,-0.0222458485513926
386,-0.000382772326702252,-0.0020428029820323,0.00105169869493693,-0.00138765014708042,-0.01216343883425,-0.0168260131031275
387,-0.00385233969427645,-0.00386755215004086,-0.00119188975077122,-0.00301102316007018,-0.0177098233252764,-0.0125712472945452
388,-0.00853901356458664,-0.00614045094698668,-0.00355887785553932,-0.00721919490024447,-0.0200417134910822,-0.0108003588393331
389,-0.0112842274829745,-0.00812515430152416,-0.00489089312031865,-0.0117664337158203,-0.0162745583802462,-0.0111974691972137
390,-0.0109175955876708,-0.00931667163968086,-0.00555437756702304,-0.0138056511059403,-0.0102659501135349,-0.0114547507837415
391,-0.00914767198264599,-0.0099780922755599,-0.00636930810287595,-0.0138485599309206,-0.00725598866119981,-0.0114815561100841
392,-0.00801247637718916,-0.0105848778039217,-0.00763400690630078,-0.0145466066896915,-0.00779403885826468,-0.0127408290281892
393,-0.00711395451799035,-0.0105766924098134,-0.00853743683546782,-0.0159227978438139,-0.0086165489628911,-0.0140568949282169
394,-0.00600314931944013,-0.0101015437394381,-0.00904732011258602,-0.0163901746273041,-0.00909982062876225,-0.0138567155227065
395,-0.00553852505981922,-0.00986118521541357,-0.00991717725992203,-0.015295447781682,-0.0105590475723147,-0.0124738477170467
396,-0.00569573463872075,-0.00981094874441624,-0.0102657694369555,-0.012345977127552,-0.0117714563384652,-0.0107393525540829
397,-0.00645116902887821,-0.011203951202333,-0.00872032716870308,-0.00860017351806164,-0.0116723664104939,-0.010278363712132
398,-0.00787548720836639,-0.0150622697547078,-0.00589332403615117,-0.00669967057183385,-0.0109172891825438,-0.0128738610073924
399,-0.00834560487419367,-0.0183722153306007,-0.00307905999943614,-0.00705137709155679,-0.00896097533404827,-0.0174849703907967
400,-0.00669748615473509,-0.0178835429251194,-0.000759956368710846,-0.00765032600611448,-0.0057767229154706,-0.0210350025445223
401,-0.00432001799345016,-0.0147683629766107,0.00076943589374423,-0.00758216204121709,-0.00363551708869636,-0.0215969551354647
402,-0.00316424923948944,-0.0124537758529186,0.000463703938294202,-0.00810574926435947,-0.0045964140444994,-0.020689470693469
403,-0.0042587649077177,-0.0130579499527812,-0.00271521345712245,-0.00993136595934629,-0.00976002216339111,-0.0210847016423941
404,-0.00716493371874094,-0.0151413772255182,-0.00720381736755371,-0.0106250587850809,-0.0173200573772192,-0.0205513145774603
405,-0.0105670345947146,-0.0160908885300159,-0.0108073763549328,-0.00935247633606195,-0.0231483932584524,-0.0158227477222681
406,-0.0130250044167042,-0.0155476331710815,-0.012004136107862,-0.00801968481391668,-0.02356450073421,-0.00940339546650648
407,-0.0127001032233238,-0.013458700850606,-0.00854148343205452,-0.00578247616067529,-0.016686774790287,-0.00447907112538815
408,-0.00926600955426693,-0.0101246796548367,-0.00168085529003292,-0.00214700750075281,-0.00609317375347018,-0.00198205909691751
409,-0.00558587908744812,-0.00749091384932399,0.00344009511172771,-0.000171644875081256,0.00122614752035588,-0.00248501193709672
410,-0.00475159985944629,-0.00610106391832232,0.00457213819026947,-0.00113807246088982,0.00265949545428157,-0.00435136631131172
411,-0.006724095903337,-0.00503410771489143,0.00269092805683613,-0.00371039216406643,0.00049298006342724,-0.00520050711929798
412,-0.00994508340954781,-0.00491939997300506,-0.00167625944595784,-0.00767306610941887,-0.00285769114270806,-0.00585333444178104
413,-0.012912979349494,-0.00656065018847585,-0.00712744472548366,-0.0125145353376865,-0.00506037659943104,-0.0082649439573288
414,-0.0136231314390898,-0.00788140669465065,-0.0102393934503198,-0.0150201516225934,-0.00386307062581182,-0.0107709169387817
415,-0.0117638744413853,-0.00712790759280324,-0.00948116555809975,-0.0132054938003421,-0.000312663556542248,-0.0108956107869744
416,-0.0092723723500967,-0.00622387323528528,-0.00716703664511442,-0.00909462850540876,0.00264065293595195,-0.0101438099518418
417,-0.00820204708725214,-0.00692712469026446,-0.00585720641538501,-0.00453762896358967,0.00266675860621035,-0.0100209917873144
418,-0.00935909990221262,-0.00832182168960571,-0.0051000202074647,0.000802650640252978,-0.00101148686371744,-0.00938454922288656
419,-0.0115503398701549,-0.00915426015853882,-0.00327689200639725,0.00603750674054027,-0.00497336685657501,-0.00820665340870619
420,-0.0130995409563184,-0.00894801691174507,-0.000392919493606314,0.00914358533918858,-0.00448707072064281,-0.0069330814294517
421,-0.0128708202391863,-0.00667728111147881,0.00337884342297912,0.0112201711162925,0.00118644651956856,-0.00332074845209718
422,-0.0109129911288619,-0.00237919576466084,0.00755694136023521,0.0141852563247085,0.00864893943071365,0.00361902522854507
423,-0.00850788876414299,0.00250998139381409,0.010540708899498,0.0171868689358234,0.0134153477847576,0.0114631112664938
424,-0.00630308454856277,0.0073913442902267,0.0127915693446994,0.0195812284946442,0.0146040348336101,0.0179509464651346
425,-0.00436489610001445,0.0113344760611653,0.0156825799494982,0.021463755518198,0.0134872663766146,0.0215769838541746
426,-0.00331239216029644,0.0129377515986562,0.0175307337194681,0.0211677327752113,0.00924212299287319,0.0212831702083349
427,-0.00327603286132216,0.0127264270558953,0.017537597566843,0.018237080425024,0.00341229676268995,0.0183963980525732
428,-0.00372113357298076,0.0123800300061703,0.0173045676201582,0.0153852803632617,-0.000551325851120055,0.0159076042473316
429,-0.00498234620317817,0.0115039451047778,0.0158339533954859,0.0137999719008803,-0.00255495239980519,0.0139051387086511
430,-0.00767672993242741,0.00922367628663778,0.0122906398028135,0.0133488159626722,-0.00301069929264486,0.0115190530195832
431,-0.0104726376011968,0.00773164490237832,0.0104971965774894,0.0161949880421162,-0.000775301712565124,0.0119707304984331
432,-0.0104242712259293,0.00905449502170086,0.0136672919616103,0.0228881128132343,0.00423319172114134,0.0169438049197197
433,-0.00714652007445693,0.011396836489439,0.019571702927351,0.029965290799737,0.00825286190956831,0.0220224875956774
434,-0.00311560463160276,0.0132455276325345,0.0249449405819178,0.0350907891988754,0.00778994616121054,0.0234105009585619
435,0.000239119603065774,0.0156559366732836,0.0292094200849533,0.0391979962587357,0.00569032737985253,0.0227134861052036
436,0.00201393128372729,0.0175708755850792,0.0319652892649174,0.0425286889076233,0.00634179683402181,0.0221135765314102
437,0.00213175546377897,0.0165880937129259,0.0328661911189556,0.0434313639998436,0.0101369544863701,0.0208967067301273
438,0.00280817365273833,0.0133989714086056,0.0328147374093533,0.0415146201848984,0.0145088089630008,0.0185572784394026
439,0.00435865111649036,0.00981211476027966,0.0316434390842915,0.0377405658364296,0.0160503201186657,0.0155225368216634
440,0.00435955310240388,0.0060162958689034,0.0279724933207035,0.0319906175136566,0.0130425943061709,0.0107298092916608
441,0.00227670907042921,0.00143845856655389,0.0222889445722103,0.0239975862205029,0.00747079821303487,0.00306283356621861
442,0.000442727206973359,-0.00224770815111697,0.0179651975631714,0.0170610584318638,0.00328540429472923,-0.0034172055311501
443,0.00104754616040736,-0.00215048692189157,0.0176501218229532,0.0152644421905279,0.00208020349964499,-0.00277056358754635
444,0.00328991073183715,0.000570253352634609,0.0192981157451868,0.0168327353894711,0.00221913796849549,0.0033219545148313
445,0.00503033492714167,0.00232942635193467,0.0199047662317753,0.0181011762470007,0.00223500397987664,0.00868050660938025
446,0.00605719676241279,0.00223724590614438,0.0202983319759369,0.0191987566649914,0.00234884559176862,0.011015435680747
447,0.00651466101408005,0.00105718011036515,0.0211201589554548,0.0198156740516424,0.00253546540625393,0.0101276729255915
448,0.0061346348375082,0.000462340714875609,0.0215260051190853,0.0193328410387039,0.00263797026127577,0.00742382416501641
449,0.00404916470870376,0.00135536771267653,0.0204214360564947,0.0190815962851048,0.00116385275032371,0.00684500159695745
450,-0.000332177907694131,0.00137576111592352,0.0166787393391132,0.0189983285963535,-0.00315846432931721,0.00983286462724209
451,-0.00349571765400469,0.000361437938408926,0.0133406426757574,0.0187902990728617,-0.00598990591242909,0.0147328209131956
452,-0.0029563382267952,0.000985640333965421,0.0135608604177833,0.0185440629720688,-0.00450555980205536,0.0189046487212181
453,-0.00169642281252891,0.00359136122278869,0.0152521310374141,0.0176350325345993,-0.0026513165794313,0.0202915128320456
454,-0.00260789226740599,0.00616556685417891,0.0155668947845697,0.0156994499266148,-0.00383578985929489,0.0183112770318985
455,-0.00501442328095436,0.00664719473570585,0.0144029781222343,0.012879703193903,-0.0075028445571661,0.012856125831604
456,-0.00613035773858428,0.00503509119153023,0.0130336498841643,0.0103106992319226,-0.0100183030590415,0.00541204959154129
457,-0.00487277563661337,0.00240987865254283,0.0115740429610014,0.00855390820652246,-0.00831269100308418,-0.00150463171303272
458,-0.00228127278387547,0.000278065854217857,0.00981564074754715,0.00763092748820782,-0.00357177667319775,-0.00555179268121719
459,0.000606149202212691,0.000706256891135126,0.00819788686931133,0.00834178272634745,0.000184286269359291,-0.00456697167828679
460,0.00367479026317596,0.00380738405510783,0.00730997044593096,0.0103836180642247,0.00106118142139167,0.000315545650664717
461,0.00656421761959791,0.00696942722424865,0.00671144248917699,0.0113595295697451,5.73835604882333E-05,0.00427823653444648
462,0.00687141437083483,0.00765533838421106,0.00467619672417641,0.00967822410166264,-0.00241199578158557,0.00460133561864495
463,0.00348255294375122,0.00618764292448759,0.00106996623799205,0.00649741245433688,-0.00628322176635265,0.00272816116921604
464,-0.00124295917339623,0.00463177356868982,-0.00222131120972335,0.00404983852058649,-0.0104808053001761,0.000875888508744538
465,-0.00484965788200498,0.00398658262565732,-0.00327520002610981,0.00396307837218046,-0.0134949656203389,7.85860720498022E-06
466,-0.00760700367391109,0.00321272038854659,-0.00232485518790782,0.00542768556624651,-0.0149949230253696,-0.000848647672683001
467,-0.0105137741193175,0.000831708544865251,-0.00130051386076957,0.00566229270771146,-0.0156550984829664,-0.0040173502638936
468,-0.012939240783453,-0.0029839517083019,-0.00113545928616077,0.00313636916689575,-0.01626156270504,-0.0108321793377399
469,-0.0142621044069529,-0.00702507141977549,-0.00169739208649844,-0.00140563223976642,-0.0174067243933678,-0.0199742298573256
470,-0.0144352102652192,-0.0099295461550355,-0.00243173819035292,-0.00609198911115527,-0.0187810081988573,-0.0279010999947786
471,-0.0130777694284916,-0.0096545647829771,-0.00220968900248408,-0.00853431690484285,-0.0199320428073406,-0.030211066827178
472,-0.0113017521798611,-0.00627555884420872,-0.00146087328903377,-0.00862439814954996,-0.0221804361790419,-0.026556184515357
473,-0.0113491052761674,-0.00329853966832161,-0.00227188528515399,-0.00941879115998745,-0.0267886631190777,-0.0228888243436813
474,-0.0131838694214821,-0.00233696820214391,-0.00456403894349933,-0.0117571530863643,-0.0323988012969494,-0.023418128490448
475,-0.0146985789760947,-0.00296941306442022,-0.00735017377883196,-0.0153801115229726,-0.0369940027594566,-0.0284643527120352
476,-0.0143721429631114,-0.00560159096494317,-0.0112165324389935,-0.0217755511403084,-0.0406626611948013,-0.0383694134652615
477,-0.0120876776054502,-0.00883510522544384,-0.0159678068011999,-0.0298029538244009,-0.0451548770070076,-0.0507277362048626
478,-0.00873747002333403,-0.0107708796858788,-0.0206428803503513,-0.0372738391160965,-0.0508627630770206,-0.0620234794914722
479,-0.00563248060643673,-0.01101428642869,-0.0245479736477137,-0.0430078245699406,-0.0571440011262894,-0.0705682039260864
480,-0.00408613355830312,-0.00922584533691406,-0.0262871868908405,-0.0450027920305729,-0.0639655962586403,-0.0748821794986725
481,-0.00523520773276687,-0.00669782655313611,-0.0256095565855503,-0.0440048053860664,-0.0712134093046188,-0.076343797147274
482,-0.00814786273986101,-0.00485575664788485,-0.0244962740689516,-0.043163750320673,-0.0790965706110001,-0.0780362114310265
483,-0.0099484296515584,-0.00318419793620706,-0.024556927382946,-0.0439473800361156,-0.0877381786704063,-0.0807461813092232
484,-0.00956821162253618,-0.00230841850861907,-0.0268121771514416,-0.0482524372637272,-0.0962585881352425,-0.0855135768651962
485,-0.00864546187222004,-0.0033430284820497,-0.0325582027435303,-0.0582955256104469,-0.104475431144238,-0.0937928706407547
486,-0.00852460600435734,-0.004762870259583,-0.0411159470677376,-0.0719944983720779,-0.11303349584341,-0.103872448205948
487,-0.00916467327624559,-0.00449181022122502,-0.0497203208506107,-0.0839555189013481,-0.122083902359009,-0.112095281481743
488,-0.00993212405592203,-0.00249848002567887,-0.0556406080722809,-0.0901772230863571,-0.130489930510521,-0.116809725761414
489,-0.00988193042576313,8.24479502625763E-05,-0.0571816228330135,-0.0911481231451035,-0.135916337370873,-0.119282297790051
490,-0.00901938509196043,0.00192059145774692,-0.0546788685023785,-0.0913476943969727,-0.137949243187904,-0.121671073138714
491,-0.00859636906534433,0.00111921224743128,-0.0509666539728642,-0.0957262739539146,-0.138989448547363,-0.126643255352974
492,-0.0094396723434329,-0.00329130841419101,-0.0501832738518715,-0.105950012803078,-0.141887694597244,-0.135817259550095
493,-0.0102807329967618,-0.0083797974511981,-0.0540810078382492,-0.118197716772556,-0.147719994187355,-0.146308973431587
494,-0.00872987974435091,-0.0100948354229331,-0.0600997060537338,-0.12668976187706,-0.153965309262276,-0.153885707259178
495,-0.00475719338282943,-0.00869949068874121,-0.0657251700758934,-0.129748418927193,-0.158355161547661,-0.15803188085556
496,-8.19312699604779E-05,-0.00651851715520024,-0.070404164493084,-0.129607155919075,-0.162209734320641,-0.159878477454185
497,0.004358253441751,-0.00384067138656974,-0.0735108256340027,-0.12911120057106,-0.166491106152534,-0.159800142049789
498,0.00661703944206238,-0.000867430062498897,-0.0760963410139084,-0.130719721317291,-0.171172767877579,-0.158936753869057
499,0.00501484470441937,0.00110923557076603,-0.0797576829791069,-0.134747594594955,-0.17657707631588,-0.158548161387444
500,0.00207374757155776,0.00216500693932176,-0.0831552743911743,-0.138041839003563,-0.181409597396851,-0.157887727022171
501,0.000358892255462706,0.00333649828098714,-0.0848388448357582,-0.13747376203537,-0.184554144740105,-0.155258879065514
502,-0.000861907727085054,0.00489134341478348,-0.0852229669690132,-0.133611351251602,-0.186421066522598,-0.149947449564934
503,-0.00305161532014608,0.00646022567525506,-0.084914930164814,-0.128993481397629,-0.187150925397873,-0.142356351017952
504,-0.00646603386849165,0.00712712248787284,-0.0841626226902008,-0.125474631786346,-0.186369553208351,-0.134371384978294
505,-0.00821777153760195,0.00742498179897666,-0.0821373239159584,-0.123477555811405,-0.1832315325737,-0.12792757153511
506,-0.00566357094794512,0.00861432962119579,-0.0789688155055046,-0.122758321464062,-0.178206846117973,-0.123708814382553
507,-0.000827505777124316,0.00973443780094385,-0.0773599594831467,-0.122653968632221,-0.173826783895493,-0.121314279735088
508,0.00315120443701744,0.0100875673815608,-0.0778671950101852,-0.121043302118778,-0.170480266213417,-0.117862164974213
509,0.00581346964463592,0.0112749179825187,-0.0763738602399826,-0.116184994578362,-0.16399484872818,-0.110711023211479
510,0.00683658057823777,0.0143093606457114,-0.0708936005830765,-0.109501220285892,-0.152995243668556,-0.101477690041065
511,0.0048711271956563,0.0178924407809973,-0.0651005282998085,-0.10339929163456,-0.142654463648796,-0.0926048159599304
512,0.00110466626938432,0.0198963433504105,-0.0616560652852058,-0.0983857735991478,-0.135464534163475,-0.0845800936222076
513,-0.00212610606104136,0.0186102725565434,-0.0603067129850388,-0.0951622501015663,-0.129983991384506,-0.0790715664625168
514,-0.0039177555590868,0.0149437710642815,-0.0597906336188316,-0.093459390103817,-0.125514313578606,-0.0764182507991791
515,-0.00345610524527729,0.012757389806211,-0.0579443648457527,-0.0904504507780075,-0.12099876254797,-0.0729228928685188
516,-0.00118299818132073,0.0140256993472576,-0.0536261312663555,-0.0844887048006058,-0.115844048559666,-0.0667038038372993
517,0.00158745551016182,0.0169987324625254,-0.046710379421711,-0.0752624720335007,-0.109009012579918,-0.0589682310819626
518,0.00432628905400634,0.0192397758364677,-0.0382300354540348,-0.0627360865473747,-0.0999407097697258,-0.049921553581953
519,0.00649696122854948,0.0199708305299282,-0.0297704003751278,-0.0487106181681156,-0.0908837169408798,-0.0398570708930492
520,0.00790255982428789,0.0197202283889055,-0.0227287206798792,-0.0374910831451416,-0.0831144824624062,-0.0323720835149288
521,0.00915591698139906,0.019997451454401,-0.0188893564045429,-0.0325404331088066,-0.0759521052241325,-0.0299473498016596
522,0.0105340918526053,0.0221250653266907,-0.0186986215412617,-0.032834704965353,-0.0692068338394165,-0.0297338515520096
523,0.0106909340247512,0.0240925922989845,-0.0221346784383059,-0.0360606238245964,-0.0642944648861885,-0.0293877776712179
524,0.00871168449521065,0.0233835484832525,-0.0282518696039915,-0.0404759868979454,-0.0613822154700756,-0.0290968287736177
525,0.00668214680626988,0.0215353649109602,-0.0327481031417847,-0.0428124144673347,-0.0561362244188786,-0.0269909761846066
526,0.00693335849791765,0.0209839604794979,-0.032161757349968,-0.0408650524914265,-0.0447802841663361,-0.0213553868234158
527,0.00910541042685509,0.0225295070558786,-0.0275434236973524,-0.0346375815570354,-0.0298610161989927,-0.0118199270218611
528,0.0117795653641224,0.0255192015320063,-0.0221201088279486,-0.0254799518734217,-0.0167448502033949,0.0012459111167118
529,0.0138497520238161,0.0279822126030922,-0.0175340231508017,-0.0162111669778824,-0.00739228026941419,0.0145545611158013
530,0.0139424903318286,0.0287864562124014,-0.0139399887993932,-0.00895731430500746,-0.00115089945029467,0.0249656531959772
531,0.0118876686319709,0.0273920949548483,-0.0121421162039042,-0.00519395805895329,0.00299515295773745,0.0305965803563595
532,0.00867727212607861,0.023933682590723,-0.0124105755239725,-0.00493541778996587,0.00564819201827049,0.031446035951376
533,0.00480594160035253,0.020616389811039,-0.013400137424469,-0.00516036106273532,0.00717807654291391,0.0312151722609997
534,0.00148202618584037,0.0191172752529383,-0.0132689140737057,-0.0030806208960712,0.0104112718254328,0.0324966534972191
535,-7.33184015189181E-06,0.0187482964247465,-0.011341848410666,0.0017598302802071,0.0174274649471045,0.0344364568591118
536,0.00111415900755674,0.0188422352075577,-0.00855771172791719,0.00828096736222506,0.0268024709075689,0.0361185632646084
537,0.00468006730079651,0.0192277431488037,-0.00598432123661041,0.0147357145324349,0.0365372523665428,0.0377558171749115
538,0.00804012734442949,0.0193641576915979,-0.00350420619361103,0.0206054225564003,0.0448360070586205,0.040544256567955
539,0.00938358344137669,0.0194301176816225,-0.000408399704610929,0.026376424357295,0.0508236214518547,0.0456681028008461
540,0.00924025941640139,0.0189950056374073,0.00268204766325653,0.0307715199887753,0.0546685345470905,0.0508869811892509
541,0.00795350689440966,0.0169139225035906,0.00452747661620378,0.0321407914161682,0.0569980107247829,0.0526667833328247
542,0.00645695859566331,0.0146652078256011,0.00622895266860724,0.0325279757380486,0.0595242939889431,0.0525361634790897
543,0.00587859749794006,0.0143027426674962,0.00934806559234858,0.0350752621889114,0.0625265911221504,0.0543176606297493
544,0.00542255863547325,0.0144866956397891,0.0129480911418796,0.0396735779941082,0.0646698847413063,0.0582685358822346
545,0.00499531533569098,0.0138019239529967,0.016870528459549,0.0462373085319996,0.0677062645554543,0.0638891309499741
546,0.0052075982093811,0.0126476157456636,0.0212121140211821,0.0544705018401146,0.0730697214603424,0.07064238935709
547,0.00428986037150025,0.0105350697413087,0.0232681930065155,0.0596658512949944,0.0774984359741211,0.0746698603034019
548,0.00178430555388331,0.00832089781761169,0.0231134574860334,0.0589262954890728,0.0791781172156334,0.0736628547310829
549,-0.000487455545226112,0.00832393113523722,0.023736821487546,0.0556118413805962,0.0783104449510574,0.0708064064383507
550,-0.00201804796233773,0.00993137340992689,0.0249523036181927,0.0532509200274944,0.075212374329567,0.0695304125547409
551,-0.00295269466005266,0.0109123615548015,0.0249607395380735,0.0526094846427441,0.0728094354271889,0.0700695812702179
552,-0.00295043713413179,0.0109641393646598,0.0237523205578327,0.0535247437655926,0.073396660387516,0.0718953311443329
553,-0.00249074585735798,0.0100648812949657,0.0220406092703342,0.0550131648778915,0.0756344124674797,0.0738822668790817
554,-0.0024418830871582,0.00811915565282106,0.0207444932311773,0.0562658756971359,0.0778826102614403,0.0751911848783493
555,-0.00229487894102931,0.00671825185418129,0.0211344547569752,0.057494830340147,0.080907516181469,0.0770821198821068
556,-0.00173560867551714,0.00638196710497141,0.0225473027676344,0.0580984726548195,0.084579236805439,0.0791875645518303
557,-0.00123335036914796,0.0065750521607697,0.0239730887115002,0.0579376369714737,0.0878860875964165,0.0802965015172958
558,-0.00182582077104598,0.00791564676910639,0.0258792731910944,0.0589253194630146,0.0908677726984024,0.0819383263587952
559,-0.00446171453222632,0.00992787163704634,0.0279005281627178,0.0610785745084286,0.0927647277712822,0.0839108303189278
560,-0.00640239985659719,0.011072738096118,0.030363529920578,0.0622576400637627,0.0942785441875458,0.0833311900496483
561,-0.00394034013152123,0.0113824503496289,0.0347520112991333,0.0628048703074455,0.0970464944839478,0.0806276276707649
562,0.0019510465208441,0.0115603944286704,0.0399751253426075,0.0641882419586182,0.0997413843870163,0.0784437954425812
563,0.00773027818650007,0.0108350282534957,0.0431555435061455,0.0652971789240837,0.100929491221905,0.0765425264835358
564,0.0109705096110702,0.00829583499580622,0.0429927594959736,0.0650202482938766,0.10141322016716,0.0744376480579376
565,0.0110520021989942,0.00494180805981159,0.0405490174889565,0.0651601254940033,0.101804494857788,0.0745347663760185
566,0.0093570277094841,0.00280218897387385,0.0380160845816135,0.0678171664476395,0.1017140224576,0.0785430818796158
567,0.00678068213164806,0.00200537708587945,0.0358059629797935,0.0713145732879639,0.0998193174600601,0.0837273597717285
568,0.00321491132490337,0.000685237406287342,0.032916646450758,0.0716688260436058,0.0962382107973099,0.085029661655426
569,0.000527818105183542,-0.00115767691750079,0.0311517845839262,0.0690909326076508,0.0956039354205132,0.0816973149776459
570,0.000501185772009194,-0.00170218362472951,0.033314011991024,0.0678773000836372,0.100862197577953,0.07791518419981
571,0.00153702171519399,-0.00139006704557687,0.0377678349614143,0.0691822096705437,0.107033029198647,0.0757917016744614
572,0.00134509068448097,-0.00255306228064001,0.0405617654323578,0.0702053084969521,0.108646087348461,0.0734323710203171
573,0.0007843206403777,-0.00475873332470655,0.0416123382747173,0.0707756280899048,0.107792101800442,0.0710654854774475
574,0.000600366445723921,-0.00663252687081695,0.0424471274018288,0.0727338567376137,0.107068754732609,0.0708242952823639
575,-0.000466670782770962,-0.00827886629849672,0.0427165478467941,0.0762009248137474,0.104739397764206,0.0727576985955238
576,-0.00164049747399986,-0.00875779148191214,0.0435493290424347,0.0804579257965088,0.101881377398968,0.0762163028120995
577,-0.00187503919005394,-0.00801726803183556,0.0462653934955597,0.0829903110861778,0.1012943983078,0.0795276761054993
578,-0.00238805171102285,-0.00681885704398155,0.0492615774273872,0.0816996619105339,0.101507008075714,0.0811484456062317
579,-0.00336724985390902,-0.00391511432826519,0.051434226334095,0.0787919759750366,0.100381143391132,0.0820190608501434
580,-0.00314227561466396,0.00137201836332679,0.0542130284011364,0.0778578445315361,0.0995056852698326,0.0838842988014221
581,-0.00139727909117937,0.00666347192600369,0.0573276355862617,0.0789845809340477,0.100762732326984,0.0865040197968483
582,0.000462261930806562,0.00937562249600887,0.0583567917346954,0.0803315341472626,0.103649288415909,0.0881861001253128
583,0.00152694317512214,0.00904024392366409,0.0569751225411892,0.0809720009565353,0.10759137570858,0.0878649726510048
584,0.00102145760320127,0.00578135717660189,0.0536835193634033,0.0792119652032852,0.111240677535534,0.0840436145663261
585,-0.00103962409775704,0.00166192988399416,0.0495586805045605,0.0755624249577522,0.112858541309834,0.0776950195431709
586,-0.00225781695917249,-0.000162729367730208,0.0473716706037521,0.0732748955488205,0.113015256822109,0.0723148733377457
587,-0.000786512100603431,-4.9616013711784E-05,0.0482508912682533,0.0729279890656471,0.112320199608803,0.0686620473861694
588,0.00156944850459695,-3.23972963087726E-05,0.0506582446396351,0.0738861560821533,0.109897747635841,0.0669190436601639
589,0.00295173213817179,-0.000496585329528898,0.0524638257920742,0.0761551111936569,0.105967544019222,0.0673806667327881
590,0.00404539098963141,-0.00110953638795763,0.0520751103758812,0.0787911638617516,0.101565510034561,0.0688687339425087
591,0.00482840463519096,-0.00170595105737448,0.048884142190218,0.0803288444876671,0.0968110784888268,0.0705479010939598
592,0.00459839915856719,-0.00224636006169021,0.0444836281239986,0.0795525684952736,0.0924703702330589,0.0709502249956131
593,0.00358026032336056,-0.0028568038251251,0.0415294207632542,0.0763645395636559,0.090150885283947,0.0687546357512474
594,0.00230831583030522,-0.00310507672838867,0.0412546060979366,0.0725180357694626,0.0907032862305641,0.0658159703016281
595,0.000621395942289382,-0.00291981105692685,0.0427296422421932,0.069706454873085,0.0933433026075363,0.0640769675374031
596,-0.00203556870110333,-0.00379149662330747,0.0442456752061844,0.0687601938843727,0.0965045467019081,0.0626964569091797
597,-0.00462973862886429,-0.00600562198087573,0.0455430783331394,0.0701053068041801,0.0991768166422844,0.0611636899411678
598,-0.00530167482793331,-0.00699850544333458,0.0472347475588322,0.0727991312742233,0.100065164268017,0.0617303773760796
599,-0.00455584051087499,-0.00588572304695845,0.0487107113003731,0.0742742121219635,0.0977916270494461,0.0654253512620926
600,-0.00422682566568255,-0.00493604876101017,0.0486132204532623,0.0725017562508583,0.0935400351881981,0.0689384341239929
601,-0.00492936605587602,-0.00515514984726906,0.0467137806117535,0.0687266439199448,0.0900395438075066,0.0696385279297829
602,-0.00663913693279028,-0.0059863249771297,0.0433936193585396,0.0651620700955391,0.0875227749347687,0.0678539052605629
603,-0.00893927458673716,-0.00658359797671437,0.0395566336810589,0.0628987327218056,0.0839749276638031,0.065628819167614
604,-0.0110738091170788,-0.0062363613396883,0.0368701703846455,0.0620548501610756,0.0788059458136559,0.0649326294660568
605,-0.011976046487689,-0.00486053666099906,0.0368170663714409,0.0620332062244415,0.0751762911677361,0.0656491219997406
606,-0.0113974846899509,-0.00358718330971897,0.0385607481002808,0.0618238337337971,0.0749214962124825,0.0656989589333534
607,-0.00982462335377932,-0.00391233107075095,0.0402482189238071,0.0610144212841988,0.0766064375638962,0.0636025592684746
608,-0.00711756013333797,-0.00471408432349563,0.0425169095396996,0.061292614787817,0.0802473500370979,0.0617086477577686
609,-0.00480917003005743,-0.00484722293913364,0.0450822971761227,0.0630596280097961,0.0842351689934731,0.0620740316808224
610,-0.00444049201905727,-0.00505226943641901,0.0467679277062416,0.0654433220624924,0.0858050212264061,0.0637832880020142
611,-0.00433564465492964,-0.00477239629253745,0.0485681444406509,0.0686232671141624,0.0856392756104469,0.0656592175364494
612,-0.00402215588837862,-0.00409910408779979,0.0492323450744152,0.0700226947665215,0.0830620676279068,0.0651816055178642
613,-0.00505617121234536,-0.00507754599675536,0.0461938567459583,0.0661864504218102,0.0766769424080849,0.06010876968503
614,-0.00641709053888917,-0.00679623568430543,0.0419666916131973,0.0597674436867237,0.0697015151381493,0.0531454421579838
615,-0.00667865853756666,-0.00713151460513473,0.0406148880720139,0.0556442476809025,0.06468765437603,0.0478022024035454
616,-0.00641841720789671,-0.0065643172711134,0.0421654209494591,0.054540291428566,0.0615238919854164,0.0447136238217354
617,-0.00549270678311586,-0.00530357426032424,0.0441606938838959,0.0550997108221054,0.0610824264585972,0.0449519604444504
618,-0.00341904233209789,-0.00320849916897714,0.0451535582542419,0.0563500821590424,0.0635075941681862,0.04891636967659
619,-0.00113145459908992,-0.000861281529068947,0.0466743595898151,0.0584266595542431,0.0678708776831627,0.0551007762551308
620,0.000392597226891667,0.000936866039410234,0.0497311912477016,0.0606369599699974,0.0728341341018677,0.0608209222555161
621,0.00136926351115108,0.00112745503429323,0.0515184439718723,0.0602634809911251,0.0761659443378448,0.0629452168941498
622,0.0018513803370297,-0.000251416931860149,0.0494317002594471,0.0565936490893364,0.0765761733055115,0.0614130049943924
623,0.000872696924488992,-0.0024017677642405,0.0439497418701649,0.0514798238873482,0.0741686820983887,0.0587155111134052
624,-0.000874527147971094,-0.00423688814043999,0.0377976633608341,0.047259159386158,0.0704611167311668,0.0566216595470905
625,-0.00102045456878841,-0.00492703169584274,0.0341489352285862,0.0457099415361881,0.0682245045900345,0.0545521713793278
626,0.000770856102462858,-0.00533217377960682,0.0337423197925091,0.0464722327888012,0.0687717422842979,0.050879031419754
627,0.0028139918576926,-0.00606957916170359,0.0351612493395805,0.0483207143843174,0.0710208490490913,0.0468170195817947
628,0.0033530353102833,-0.00661414861679077,0.036530390381813,0.0501090027391911,0.0726670399308205,0.0449625663459301
629,0.00271141342818737,-0.00660515995696187,0.0364967994391918,0.0504408665001392,0.0722534358501434,0.045350469648838
630,0.00287578464485705,-0.00610418384894729,0.0355792380869389,0.0491970032453537,0.0707426145672798,0.0457498580217361
631,0.00359947141259909,-0.0060705398209393,0.0348915457725525,0.0477368831634521,0.0689052119851112,0.0442634299397469
632,0.00443980423733592,-0.0063089644536376,0.035158284008503,0.0478948727250099,0.0665950998663902,0.0419184491038322
633,0.0069608623161912,-0.00487845530733466,0.0368558205664158,0.0497693605720997,0.0657088607549667,0.0410606749355793
634,0.0100881280377507,-0.00225322623737156,0.0390105918049812,0.0506553277373314,0.0677650049328804,0.0412197075784206
635,0.0102127501741052,-0.00112996937241405,0.039984293282032,0.0483809225261211,0.069977656006813,0.0399068705737591
636,0.00724610546603799,-0.0020216042175889,0.0395562388002872,0.0440014116466045,0.0687345266342163,0.0369078405201435
637,0.00494481902569532,-0.0032079650554806,0.0388708673417568,0.0403972379863262,0.0645820200443268,0.0344528406858444
638,0.0053822142072022,-0.00402640039101243,0.0385264530777931,0.0392306260764599,0.0605088323354721,0.0333299562335014
639,0.00734110316261649,-0.00460535800084472,0.0385155454277992,0.0403539389371872,0.0586224943399429,0.0326415374875069
640,0.00881688762456179,-0.00472240010276437,0.038248423486948,0.0420149564743042,0.0586921609938145,0.0318469405174255
641,0.00814346224069595,-0.00522553315386176,0.0357875823974609,0.041255135089159,0.0575850270688534,0.0304533578455448
642,0.00580328097566962,-0.00704590929672122,0.0307977944612503,0.0367529839277267,0.0536192581057549,0.0279881451278925
643,0.00495304958894849,-0.008349834010005,0.0268470011651516,0.031388383358717,0.0498883537948132,0.0258588884025812
644,0.0063760643824935,-0.00744022941216826,0.0263365693390369,0.0286220703274012,0.0486213639378548,0.0257646683603525
645,0.00679482566192746,-0.0069263712503016,0.0260948836803436,0.0267658717930317,0.0478180237114429,0.0253880769014359
646,0.00433860346674919,-0.00927970837801695,0.0226827021688223,0.0231001060456038,0.0456001833081245,0.0224809516221285
647,0.00150499446317554,-0.0125363627448678,0.0181205049157143,0.0199152529239655,0.0432131849229336,0.0197413489222527
648,0.000528272474184632,-0.0146243963390589,0.0159730538725853,0.0197397489100695,0.0421114414930344,0.0194088444113731
649,0.000424140802351758,-0.0155262127518654,0.0165937375277281,0.0211025923490524,0.0412353090941906,0.0210509821772575
650,0.00109130016062409,-0.0146650830283761,0.0190232265740633,0.0219763182103634,0.0406130291521549,0.0242238566279411
651,0.00372484396211803,-0.0117444545030594,0.0219835676252842,0.0212769638746977,0.0412393324077129,0.0269066132605076
652,0.00657608034089208,-0.00817643012851477,0.0235568694770336,0.0187645796686411,0.0413139052689075,0.0270329099148512
653,0.00668772123754025,-0.005831154063344,0.0235332623124123,0.0155328083783388,0.0397702157497406,0.0253061912953854
654,0.00497811986133456,-0.00442437222227454,0.0240649543702602,0.0134551590308547,0.0383745580911636,0.023877726867795
655,0.00391626497730613,-0.00237294868566096,0.0254358015954494,0.013497794046998,0.0371595621109009,0.024404788389802
656,0.00351642654277384,-0.000173958847881295,0.0253619384020567,0.0145747903734446,0.034781314432621,0.026691097766161
657,0.00318451458588243,0.000985421123914421,0.0232129525393248,0.0154926478862762,0.031976655125618,0.0294857323169708
658,0.00367293204180896,0.00147858320269734,0.0204476565122604,0.0162813533097506,0.0310186930000782,0.031541433185339
659,0.00564457289874554,0.002134706126526,0.0188428219407797,0.0173006393015385,0.0332671068608761,0.03168885409832
660,0.00846595503389835,0.00282306713052094,0.0191445834934711,0.0185048691928387,0.0382807999849319,0.0294531900435686
661,0.0106866238638759,0.002638642443344,0.0205261018127203,0.0194052569568157,0.0442735925316811,0.0252035595476627
662,0.011112947948277,0.00142877281177789,0.0220214370638132,0.0199512224644423,0.0483721420168877,0.021018972620368
663,0.0101388841867447,0.000239668370340951,0.0240826737135649,0.0213865358382463,0.0495521426200867,0.0204309988766909
664,0.00865519605576992,-0.000667604734189808,0.0261552482843399,0.0232100989669561,0.0486922413110733,0.0232308376580477
665,0.00725084962323308,-0.00132647610735148,0.0261211059987545,0.0229061003774405,0.0459977313876152,0.0259398501366377
666,0.00618162332102656,-0.00114765588659793,0.0240544565021992,0.0203972198069096,0.0411847978830338,0.0271527003496885
667,0.00477190408855677,-0.000838462961837649,0.0215866174548864,0.017507703974843,0.0344967618584633,0.0265441928058863
668,0.00416111433878541,-0.000889714865479618,0.0208931304514408,0.0164499264210463,0.029434572905302,0.0242370963096619
669,0.00649218494072557,-3.77779251721222E-05,0.0231330543756485,0.0185278225690126,0.0287294443696737,0.022057494148612
670,0.00993151031434536,0.00122781377285719,0.0253349635750055,0.0217418018728495,0.0288680009543896,0.0213630553334951
671,0.0112720113247633,0.00109295570291579,0.0243253912776709,0.0230119321495295,0.0266427043825388,0.0216818898916245
672,0.0102601405233145,0.000494818959850818,0.020495668053627,0.0209315307438374,0.0241894721984863,0.0221483185887337
673,0.00760120945051312,0.000684922561049461,0.0152767207473516,0.0153951849788427,0.0242492835968733,0.0214812755584717
674,0.00373294274322689,0.00105365389026701,0.0101038999855518,0.00854538753628731,0.0257385801523924,0.0197683703154325
675,-0.000517232983838767,0.00114178273361176,0.00618017744272947,0.00374743482097983,0.0255648847669363,0.0192359331995249
676,-0.00361968227662146,0.00108692527282983,0.00397967174649239,0.00215512793511152,0.0237480122596025,0.0204862616956234
677,-0.00353810517117381,0.00152607157360762,0.00408977875486016,0.00292194588109851,0.0232994798570871,0.0219547227025032
678,0.000259279098827392,0.00303957401774824,0.00669377529993653,0.00529832066968083,0.0254183746874332,0.0226810518652201
679,0.0058005079627037,0.00496624270454049,0.010691586881876,0.00837320927530527,0.0284161511808634,0.022987212985754
680,0.00990425981581211,0.00579409627243876,0.0136157954111695,0.0101518193259835,0.0294550713151693,0.023036602884531
681,0.0115097360685468,0.00529665779322386,0.0146203925833106,0.0106822894886136,0.028703173622489,0.0231552850455046
682,0.0116125494241714,0.00346201960928738,0.0151159102097154,0.0114611107856035,0.0284535512328148,0.0228166151791811
683,0.0106498720124364,0.000479354028357193,0.0162686724215746,0.0126220844686031,0.0279252547770739,0.0214087031781673
684,0.00869403593242168,-0.00178060354664922,0.0179041959345341,0.0135774752125144,0.02530462667346,0.0199048612266779
685,0.00588882667943835,-0.00253144651651382,0.0176987368613482,0.0128198694437742,0.0204203128814697,0.0180834829807281
686,0.00395247107371688,-0.00178808497730643,0.0150076290592551,0.0105689158663154,0.0151163302361965,0.0157529357820749
687,0.00512514496222138,0.000213651568628848,0.0121917398646474,0.00837699137628078,0.0123266382142901,0.0135151669383049
688,0.00977627001702785,0.00281453900970519,0.0117822317406535,0.00715177226811647,0.014569946564734,0.0118942419067025
689,0.0159013662487268,0.00550898397341371,0.0142580568790436,0.00744415074586868,0.0215152315795422,0.0116449417546391
690,0.0198344849050045,0.00745037011802197,0.0171042121946812,0.00859688222408295,0.0282532051205635,0.0129576176404953
691,0.0204813648015261,0.00881632603704929,0.0183730404824018,0.00985529739409685,0.0301773305982351,0.0160610917955637
692,0.0202470123767853,0.0100701386108994,0.018359487876296,0.0105007151141763,0.0270097125321627,0.019894078373909
693,0.0194903519004583,0.0098746046423912,0.0169239491224289,0.00952517334371805,0.0204959269613028,0.0216572005301714
694,0.0156581103801727,0.00655221333727241,0.0129275936633348,0.00631601642817259,0.0121764102950692,0.019600871950388
695,0.00930858589708805,0.00137867673765868,0.00767197646200657,0.00192719348706305,0.00478742877021432,0.0147936018183827
696,0.00365503970533609,-0.00281502492725849,0.00360181555151939,-0.00183493469376117,0.000280005944659933,0.00947506818920374
697,9.07617941265926E-05,-0.00526625756174326,0.00143479090183973,-0.00404813652858138,-0.00164410111028701,0.00537601253017783
698,-0.000451086700195447,-0.00558662042021751,0.00196931418031454,-0.00346192042343318,-1.18819286853977E-06,0.00429365178570151
699,0.00175906682852656,-0.00338344764895737,0.00359933055005968,-0.00128282408695668,0.00403304817155004,0.00534419948235154
700,0.00370192970149219,-0.000518634740728885,0.00277071399614215,-0.00131394888740033,0.00677906395867467,0.00463007437065244
701,0.00416214065626264,0.00142272282391787,0.000405386614147574,-0.00339087820611894,0.00886422302573919,0.00166269426699728
702,0.0050000436604023,0.00356127577833831,0.000648356915917248,-0.00385975209064782,0.0117731261998415,0.000384194921934977
703,0.00615895166993141,0.00641893362626433,0.00390049815177917,-0.00190519646275789,0.0124801844358444,0.00244551803916693
704,0.00457102246582508,0.00714289862662554,0.00517542799934745,-0.00102419790346175,0.00707493256777525,0.00408090464770794
705,4.47031561634503E-05,0.00394856231287122,0.00169073499273509,-0.00341577245853841,-0.002584099303931,0.00197742250747979
706,-0.00299041601829231,-0.00027419620892033,-0.00257580680772662,-0.00609107920899987,-0.0086962366476655,-0.00198808987624943
707,-0.00201281160116196,-0.00261402106843889,-0.00391167821362615,-0.00643530068919063,-0.00662955455482006,-0.00506324274465442
708,0.000529042794369161,-0.00428580027073622,-0.00408489862456918,-0.00679802754893899,-0.000108169035229366,-0.00793682690709829
709,0.00236922805197537,-0.00660335598513484,-0.00544359348714352,-0.00872676819562912,0.00507091684266925,-0.0109175266698003
710,0.00363011029548943,-0.00813216157257557,-0.0069041270762682,-0.0091195423156023,0.00688299862667918,-0.0113805634900928
711,0.00331458309665322,-0.00848778057843447,-0.00739089865237474,-0.00592608051374555,0.00520788412541151,-0.00852291472256184
712,0.000797370739746839,-0.00845078472048044,-0.00704385014250875,-0.000777500972617418,0.00151449861004949,-0.00384019501507282
713,-0.00127352890558541,-0.0080355005338788,-0.00532242190092802,0.00428375974297524,-0.000558728526812047,0.0013715501409024
714,-0.001376201515086,-0.00776855694130063,-0.00241455202922225,0.00770007632672787,0.000183538373676129,0.00494507886469364
715,-0.00154238287359476,-0.00819687265902758,4.76467503176536E-05,0.0077856257557869,0.00127401889767498,0.00486205192282796
716,-0.00290373549796641,-0.00885871052742004,0.000516179716214538,0.00406492222100496,0.000596249650698155,0.00120171706657857
717,-0.00501891598105431,-0.0101654352620244,-0.00248587410897017,-0.0026851873844862,-0.00290557136759162,-0.00511515978723764
718,-0.00720291770994663,-0.0126375239342451,-0.00897184945642948,-0.0108113633468747,-0.00895431637763977,-0.0121619179844856
719,-0.00840102694928646,-0.0150300757959485,-0.0159378703683615,-0.0176022928208113,-0.014892952516675,-0.0167654678225517
720,-0.00844081584364176,-0.0163030400872231,-0.0200983546674252,-0.0211791880428791,-0.0177894271910191,-0.0176288429647684
721,-0.00694885710254312,-0.0156530495733023,-0.0197851061820984,-0.0207877848297358,-0.0159627627581358,-0.0151558956131339
722,-0.00383752421475947,-0.0131242731586099,-0.0160346552729607,-0.0173240900039673,-0.0107407923787832,-0.011190670542419
723,-0.000796503736637533,-0.0107024721801281,-0.0120619125664234,-0.0134971719235182,-0.00635919952765107,-0.00880593527108431
724,0.000575930927880108,-0.0097412895411253,-0.00957089010626078,-0.0109034106135368,-0.0059121516533196,-0.00834072381258011
725,0.000546024821233004,-0.00975578371435404,-0.00792884081602097,-0.00880523025989532,-0.00805679801851511,-0.00741955311968923
726,9.64938953984529E-05,-0.0102296369150281,-0.00660151336342096,-0.00622953753918409,-0.00921908766031265,-0.00482732616364956
727,-0.00144010968506336,-0.01197609025985,-0.00688907271251082,-0.00478745298460126,-0.00939490646123886,-0.00299434992484748
728,-0.00369561254046857,-0.014085216447711,-0.00880414620041847,-0.00577131286263466,-0.00990732666105032,-0.00422269431874156
729,-0.00420998781919479,-0.0133999092504382,-0.0097389928996563,-0.00688704987987876,-0.00953621510416269,-0.00632304139435291
730,-0.00317226629704237,-0.0101192574948072,-0.00932862143963575,-0.00674298126250505,-0.00782880000770092,-0.00719025311991572
731,-0.00283141620457172,-0.00774165336042643,-0.00917975045740604,-0.00680361548438668,-0.00590403703972697,-0.00838796515017748
732,-0.00326158222742379,-0.00749413948506117,-0.00892267283052206,-0.00759504968300462,-0.00429315911605954,-0.0110408272594213
733,-0.00382127938792109,-0.00827264692634344,-0.00824075285345316,-0.00873320922255516,-0.00398512370884418,-0.0146803492680192
734,-0.00505178375169635,-0.00946500804275274,-0.0084918262436986,-0.0103563806042075,-0.00586623977869749,-0.0191004350781441
735,-0.00639961520209908,-0.0100575117394328,-0.00946358218789101,-0.0111236833035946,-0.0082687996327877,-0.0219557005912066
736,-0.00666129402816296,-0.00881059654057026,-0.0101390862837434,-0.00973743386566639,-0.0100352922454476,-0.0206284783780575
737,-0.00577346887439489,-0.0064380532130599,-0.0109773399308324,-0.00821195356547832,-0.0116410152986646,-0.0174859222024679
738,-0.00469577684998512,-0.0046608941629529,-0.0115130357444286,-0.00873289257287979,-0.012263922020793,-0.0162170361727476
739,-0.00451998133212328,-0.00352470087818801,-0.00976885482668877,-0.00965076591819525,-0.0108188316226006,-0.0160642713308334
740,-0.00441919732838869,-0.00178114720620215,-0.00525508355349302,-0.00835157930850983,-0.00756625551730394,-0.014618206769228
741,-0.00344581645913422,-0.000645250314846635,-0.00111148681025952,-0.00657843146473169,-0.00501329777762294,-0.0132296243682504
742,-0.00291220680810511,-0.00232739327475429,-0.000796698383055627,-0.00750427599996328,-0.00574299274012446,-0.0142334429547191
743,-0.00360980862751603,-0.00569969741627574,-0.00305934157222509,-0.0101392613723874,-0.00744876079261303,-0.0168053042143583
744,-0.00461281044408679,-0.00894235912710428,-0.00545357540249825,-0.0121127534657717,-0.00738714495673776,-0.0197198372334242
745,-0.00458410987630486,-0.0112471133470535,-0.00809233263134956,-0.0123735275119543,-0.0075906990095973,-0.0215016640722752
746,-0.00281338207423687,-0.0109729254618287,-0.010379689745605,-0.010286632925272,-0.00859778001904488,-0.0196682438254356
747,-0.000729291292373091,-0.00761181302368641,-0.0113284792751074,-0.00739316223189235,-0.00875434651970863,-0.0148112028837204
748,-0.000117948235129006,-0.00321702612563968,-0.0114153185859323,-0.00657255714759231,-0.00810673460364342,-0.0108954953029752
749,-0.000396642368286848,0.000116653704026248,-0.010616946965456,-0.0079394867643714,-0.00655159819871187,-0.0107157500460744
750,-0.000172048006788827,0.00235165562480688,-0.00825738254934549,-0.00870191585272551,-0.00431163515895605,-0.01311912573874
751,0.000691741239279509,0.0040527512319386,-0.00500978296622634,-0.00715406378731132,-0.0020146956667304,-0.0159715507179499
752,0.000202635390451178,0.00320708169601858,-0.00366858975030482,-0.00643931748345494,-0.00127472961321473,-0.0206756163388491
753,-0.00314529519528151,-0.00125713611487299,-0.0054592196829617,-0.00871747825294733,-0.00434921588748693,-0.0270967595279217
754,-0.00678172241896391,-0.00576924299821258,-0.00765473954379559,-0.0103573342785239,-0.00907738506793976,-0.030298562720418
755,-0.00793237145990133,-0.00771779147908092,-0.00887616164982319,-0.0100593371316791,-0.0117313275113702,-0.0290345642715693
756,-0.00692744459956884,-0.00731647294014692,-0.00985834933817387,-0.00958528462797403,-0.0122202448546886,-0.026417700573802
757,-0.00429789302870631,-0.00476224534213543,-0.009315250441432,-0.00797039549797773,-0.0109850130975246,-0.0232433192431927
758,-0.000509376812260598,-0.0014281707117334,-0.00641824537888169,-0.00482043856754899,-0.00823611486703157,-0.0192582756280899
759,0.00223187264055014,0.000172104701050557,-0.003524488536641,-0.00254923989996314,-0.00659203017130494,-0.015663031488657
760,0.00273941201157868,-0.000503110291901976,-0.00301123247481883,-0.00249546533450484,-0.00769001943990588,-0.0133691225200891
761,0.00234259339049459,-0.00174188939854503,-0.0050677745603025,-0.00405952706933022,-0.0102780060842633,-0.0126883732154965
762,0.00126084068324417,-0.00253524049185216,-0.00935963355004787,-0.0071610314771533,-0.0140452003106475,-0.0141302682459354
763,-0.000602522224653512,-0.00315928691998124,-0.0146038569509983,-0.0117100495845079,-0.0184142291545868,-0.0176572352647781
764,-0.00104237638879567,-0.00306556187570095,-0.0174609031528234,-0.0145335346460342,-0.0206598453223705,-0.0207858886569738
765,0.000725299352779984,-0.00194860354531556,-0.0166908409446478,-0.0125862238928676,-0.0199311729520559,-0.0204008501023054
766,0.00207791081629694,-0.00124342774506658,-0.0148601457476616,-0.00822504423558712,-0.0189907178282738,-0.0168180391192436
767,0.00126924098003656,-0.00135558296460658,-0.0133443716913462,-0.00542287155985832,-0.0193989630788565,-0.0125182252377272
768,-0.000716340611688793,-0.00119096855632961,-0.0115689504891634,-0.00555886514484882,-0.0194180142134428,-0.00995108485221863
769,-0.00244100554846227,-0.000881285930518061,-0.00992736406624317,-0.00855413917452097,-0.0183739103376865,-0.0111698657274246
770,-0.00290943472646177,-0.00158242392353714,-0.00943972170352936,-0.014215231873095,-0.0171070713549852,-0.0166357029229403
771,-0.00253517623059452,-0.00332319992594421,-0.0107460403814912,-0.0210084728896618,-0.015979552641511,-0.0238164383918047
772,-0.00263705407269299,-0.0045725298114121,-0.0133254183456302,-0.0253898240625858,-0.0153137026354671,-0.0287862680852413
773,-0.00257274648174644,-0.00431313924491405,-0.0153360543772578,-0.0257464628666639,-0.0147490706294775,-0.0308852437883615
774,-0.000428750383434817,-0.00320753687992692,-0.0148830702528358,-0.023024907335639,-0.0130984168499708,-0.0315454415977001
775,0.00360374036245048,-0.00243811565451324,-0.0124626262113452,-0.0182568747550249,-0.0112461065873504,-0.0306718870997429
776,0.00699325045570731,-0.00297506852075458,-0.0112744839861989,-0.0140003617852926,-0.0121562890708447,-0.0288768634200096
777,0.00791201740503311,-0.00523544987663627,-0.012907181866467,-0.0130207184702158,-0.0163093321025372,-0.0274498537182808
778,0.00605509150773287,-0.0088421143591404,-0.0162958595901728,-0.0155477980151773,-0.0217116121202707,-0.0265297926962376
779,0.00191707455087453,-0.0122616458684206,-0.0199838969856501,-0.0202533304691315,-0.0264621954411268,-0.0264514181762934
780,-0.00364464870654047,-0.0140189668163657,-0.0234839227050543,-0.0263260863721371,-0.0302902553230524,-0.0284551456570625
781,-0.00850851647555828,-0.0136756412684917,-0.0266190450638533,-0.0329538099467754,-0.0322248078882694,-0.0328118279576302
782,-0.00977901928126812,-0.0114824194461107,-0.027682526037097,-0.0377248972654343,-0.0290430653840303,-0.0374591462314129
783,-0.00861206743866205,-0.00878274068236351,-0.0258491281419992,-0.0386332534253597,-0.02295489795506,-0.0392826572060585
784,-0.00803252682089806,-0.00632642209529877,-0.0223497953265905,-0.0356679931282997,-0.0196248162537813,-0.0363824181258678
785,-0.00759237259626389,-0.0033224259968847,-0.0185364689677954,-0.0301048308610916,-0.0189578626304865,-0.0297302082180977
786,-0.00631002523005009,0.000345489999745041,-0.0158389825373888,-0.0241658575832844,-0.0185698922723532,-0.0220725573599339
787,-0.0055004907771945,0.00244864588603377,-0.0162270180881023,-0.0210099704563618,-0.0196519941091537,-0.0173604916781187
788,-0.00609963433817029,0.00158760393969715,-0.0197375845164061,-0.0213146843016148,-0.0234372112900019,-0.0176449101418257
789,-0.00717672007158399,-0.000419402553234249,-0.0232531018555164,-0.022331066429615,-0.0279465522617102,-0.0203300584107637
790,-0.00780868623405695,-0.00209412607364357,-0.0241926219314337,-0.022194666787982,-0.0302965249866247,-0.0222695656120777
791,-0.00909038819372654,-0.0041771624237299,-0.0236801318824291,-0.0217211693525314,-0.0299783200025558,-0.0228858310729265
792,-0.0124629577621818,-0.00745596224442124,-0.0245849341154099,-0.0229537002742291,-0.0295199640095234,-0.0237682685256004
793,-0.0153820980340242,-0.0104793589562178,-0.0260519124567509,-0.0252241231501102,-0.0289342254400253,-0.0255566760897636
794,-0.0136406775563955,-0.0106851495802403,-0.0247179120779037,-0.0253029242157936,-0.0253606680780649,-0.0267349574714899
795,-0.00815152563154697,-0.00813795160502195,-0.0213052034378052,-0.0227515175938606,-0.0199326258152723,-0.0266741123050451
796,-0.00367863546125591,-0.00541252596303821,-0.0191434305161238,-0.0199645143002272,-0.0165062118321657,-0.0260558500885963
797,-0.00305020250380039,-0.00457313098013401,-0.0193597953766584,-0.0188902132213116,-0.016663109883666,-0.0258443653583527
798,-0.0056325918994844,-0.00514784874394536,-0.0207426697015762,-0.019491283223033,-0.0190440826117992,-0.0258497800678015
799,-0.00902388710528612,-0.00506788119673729,-0.0214492436498404,-0.019624438136816,-0.0211940184235573,-0.0242225378751755
800,-0.0113814258947968,-0.00472927931696177,-0.0212057568132877,-0.017854779958725,-0.0232350789010525,-0.0209885537624359
801,-0.0118682831525803,-0.00545441173017025,-0.0203265473246574,-0.0143975066021085,-0.0256714429706335,-0.0171489324420691
802,-0.0111200213432312,-0.00637297425419092,-0.0190511662513018,-0.0108164865523577,-0.0272389333695173,-0.0125105362385511
803,-0.0104260137304664,-0.00629402138292789,-0.0182056240737438,-0.00895561091601849,-0.0285523906350136,-0.0072769271209836
804,-0.0107751796022058,-0.00591065175831318,-0.0185229312628508,-0.00963945034891367,-0.031617883592844,-0.00321490853093565
805,-0.0120924459770322,-0.00613925233483315,-0.0195808466523886,-0.0127912666648626,-0.0352646969258785,-0.00205606664530933
806,-0.0122178653255105,-0.00558199686929584,-0.019204581156373,-0.0165160447359085,-0.0356508009135723,-0.00319031020626426
807,-0.0104131679981947,-0.00355792790651321,-0.0167400594800711,-0.0189628805965185,-0.0326972156763077,-0.00572123378515244
808,-0.00781327858567238,-0.000940145691856742,-0.0135435601696372,-0.0196342468261719,-0.0299017112702131,-0.00856256112456322
809,-0.00545025384053588,0.00124033237807453,-0.0111098075285554,-0.0196469333022833,-0.0296260677278042,-0.0108249932527542
810,-0.00467896601185203,0.00139211537316442,-0.0105258552357554,-0.0208010151982307,-0.0315113142132759,-0.0135451685637236
811,-0.00511872116476297,3.16521727654617E-05,-0.0101009244099259,-0.021872328594327,-0.0325357988476753,-0.0162649042904377
812,-0.00611076876521111,-0.0013811057433486,-0.00876264460384846,-0.0215485505759716,-0.0319348275661469,-0.0176744349300861
813,-0.00840687192976475,-0.00329236965626478,-0.00857725273817778,-0.0209844615310431,-0.031265664845705,-0.018241498619318
814,-0.011023074388504,-0.0054947454482317,-0.00955716334283352,-0.020277688279748,-0.0288058631122112,-0.0180899035185575
815,-0.0121382297948003,-0.00616419035941362,-0.00983818341046572,-0.0184427853673697,-0.0234507787972689,-0.0161891523748636
816,-0.011310582049191,-0.00442721787840128,-0.00965638551861048,-0.0156753640621901,-0.0193645674735308,-0.0124852750450373
817,-0.00860443245619535,-0.00166054512374103,-0.00977238919585943,-0.0136616416275501,-0.0198355261236429,-0.00942154787480831
818,-0.00518270628526807,0.000189673752174713,-0.00968124810606241,-0.0142223527655005,-0.0241811573505402,-0.00951096415519714
819,-0.00305333361029625,0.000402133562602103,-0.00945756584405899,-0.0174208525568247,-0.0310889910906553,-0.0123834731057286
820,-0.00193509471137077,-7.99822955741547E-05,-0.00923556834459305,-0.0205859132111073,-0.03730758279562,-0.0153110167011619
821,-0.000896942161489278,-0.000294562865747139,-0.00839467067271471,-0.0207955855876207,-0.0397309847176075,-0.0163663662970066
822,-0.000663828337565064,-0.000930931302718818,-0.00695381639525294,-0.017901249229908,-0.038679514080286,-0.0161972530186176
823,-0.00171091523952782,-0.00307925487868488,-0.00595711730420589,-0.0144001459702849,-0.0356578044593334,-0.0168136209249496
824,-0.00372100411914289,-0.00568382907658815,-0.00612309155985713,-0.0125285936519504,-0.0328979082405567,-0.0183653980493546
825,-0.00591460010036826,-0.00656231446191669,-0.00714463973417878,-0.0125559093430638,-0.0318158604204655,-0.0189247112721205
826,-0.00760271120816469,-0.00663568684831262,-0.00897118449211121,-0.0140140317380428,-0.0313610509037972,-0.0186247359961271
827,-0.00857584644109011,-0.00758850295096636,-0.011344701051712,-0.0153995659202337,-0.0301975328475237,-0.0185300428420305
828,-0.00886788219213486,-0.00774111039936543,-0.0128067554906011,-0.0155914351344109,-0.0281280297785997,-0.0183200836181641
829,-0.00847756676375866,-0.00525021785870194,-0.0116907637566328,-0.0154530955478549,-0.0252830982208252,-0.0179226938635111
830,-0.00665441062301397,-0.00118239223957062,-0.00759932026267052,-0.0156362038105726,-0.0213604848831892,-0.0175044573843479
831,-0.00368685880675912,0.00220911437645555,-0.00240978063084185,-0.0162178426980972,-0.0169471204280853,-0.0169655662029982
832,-0.0017939752433449,0.00366113218478858,0.00106345699168742,-0.017809359356761,-0.014340347610414,-0.0169687382876873
833,-0.00245214090682566,0.00307314982637763,0.00162878003902733,-0.0205646604299545,-0.0150173390284181,-0.0183642357587814
834,-0.00451739318668842,0.00229959911666811,0.000764009193517268,-0.0224861018359661,-0.0172575209289789,-0.0194690339267254
835,-0.0063214898109436,0.00322595075704157,0.000155406407429837,-0.0221092347055674,-0.0182335302233696,-0.0186739228665829
836,-0.00780370319262147,0.0045453398488462,-2.86980884993682E-05,-0.0208239313215017,-0.0162982270121574,-0.0173986330628395
837,-0.00921328738331795,0.00383705156855285,-0.00047366414219141,-0.0205474887043238,-0.0123754981905222,-0.0175815913826227
838,-0.0109751727432013,0.000233114013099112,-0.00255476566962898,-0.0223269537091255,-0.00994298327714205,-0.0205443389713764
839,-0.0127551713958383,-0.00470395013689995,-0.00580385699868202,-0.0253178924322128,-0.00987834576517344,-0.025695638731122
840,-0.0136218247935176,-0.00847219582647085,-0.00852296780794859,-0.0281646903604269,-0.0113615272566676,-0.0307936295866966
841,-0.0141943767666817,-0.00989340804517269,-0.0107909655198455,-0.0304570514708757,-0.0151231419295073,-0.0337725952267647
842,-0.015356482937932,-0.0093355430290103,-0.0133616616949439,-0.031730692833662,-0.0205973573029041,-0.0336016565561295
843,-0.0163268651813269,-0.00743403378874063,-0.0155166629701853,-0.0311710853129625,-0.0255696587264538,-0.0309364218264818
844,-0.0150994164869189,-0.00392466085031629,-0.014572661370039,-0.0277201514691114,-0.0264933649450541,-0.0270915105938911
845,-0.0120587516576052,-3.42876010108739E-05,-0.0098138814792037,-0.0226210616528988,-0.0217693299055099,-0.0241078622639179
846,-0.0101572386920452,0.00168194842990488,-0.00471332482993603,-0.0187888368964195,-0.0158994980156422,-0.0233454275876284
847,-0.0105691272765398,0.000634924741461873,-0.00290953950025141,-0.0169907379895449,-0.0148388920351863,-0.0238351467996836
848,-0.0117213344201446,-0.00184923724737018,-0.00431672390550375,-0.0159816257655621,-0.0186836943030357,-0.0239285603165627
849,-0.0112629691138864,-0.00363866565749049,-0.00572994630783796,-0.0146710649132729,-0.0226613860577345,-0.0227476600557566
850,-0.00896573159843683,-0.00372538156807423,-0.005727325566113,-0.0142690045759082,-0.0240281112492085,-0.021601865068078
851,-0.00732780992984772,-0.00302499113604426,-0.00596526730805635,-0.0166750177741051,-0.0235958993434906,-0.0224162694066763
852,-0.00792836397886276,-0.00174725218676031,-0.00689327763393521,-0.0207393169403076,-0.023049371317029,-0.0242111217230558
853,-0.00913092587143183,0.000951725116465241,-0.00683201430365443,-0.0230858568102121,-0.0230659320950508,-0.0251656323671341
854,-0.0098903002217412,0.00344658200629056,-0.00628786068409681,-0.0221279487013817,-0.0239111110568047,-0.025744853541255
855,-0.0106489304453135,0.00302231009118259,-0.00724423350766301,-0.0185769479721785,-0.0253959465771914,-0.0264119207859039
856,-0.0101574966683984,0.000807242351584136,-0.00881321728229523,-0.0133546935394406,-0.0259771570563316,-0.0259663909673691
857,-0.00875415932387114,-0.000160945710376836,-0.0103824660181999,-0.00869859475642443,-0.0263273995369673,-0.0237607527524233
858,-0.00931031815707684,0.000361148180672899,-0.0136247538030148,-0.00841161888092756,-0.0289676543325186,-0.0212242268025875
859,-0.0113009931519628,0.00157108076382428,-0.0172764267772436,-0.0127204591408372,-0.0318497121334076,-0.0195237714797258
860,-0.0117074027657509,0.00419403379783034,-0.0182762462645769,-0.0174034480005503,-0.0314261615276337,-0.0179791059345007
861,-0.010461587458849,0.00799017306417227,-0.017121834680438,-0.0199082121253014,-0.0292378198355436,-0.0163236483931541
862,-0.00885516125708818,0.011716041713953,-0.0153518868610263,-0.0207118839025497,-0.0275335274636745,-0.014685439877212
863,-0.00733791897073388,0.0147035205736756,-0.0130665330216289,-0.0211461745202541,-0.0264867041260004,-0.0131169576197863
864,-0.00676937727257609,0.0163360573351383,-0.0106551591306925,-0.0220710411667824,-0.0262221563607454,-0.0124250752851367
865,-0.00726016890257597,0.0166977066546679,-0.00776071473956108,-0.0218886770308018,-0.0251032076776028,-0.0124256173148751
866,-0.00795071944594383,0.0158050768077374,-0.0038793976418674,-0.0190217662602663,-0.0221836008131504,-0.0121953077614307
867,-0.00839054025709629,0.0133268311619759,-0.000537869404070079,-0.0152574805542827,-0.0194515101611614,-0.0117578376084566
868,-0.00876422412693501,0.0105923675000668,0.000935001997277141,-0.0127735706046224,-0.0177103187888861,-0.0107258390635252
869,-0.00920818094164133,0.00910204648971558,0.000978336669504642,-0.0116920042783022,-0.0160594172775745,-0.0084450813010335
870,-0.00777916144579649,0.00980850867927074,0.00156474439427257,-0.0101375700905919,-0.0134762246161699,-0.00437719328328967
871,-0.00292416242882609,0.0137565489858389,0.00401570089161396,-0.00635681115090847,-0.0108524458482862,0.00168752635363489
872,0.00159802392590791,0.0180065557360649,0.00501459883525968,-0.00357811339199543,-0.0127443131059408,0.00555257732048631
873,0.00128259975463152,0.0180184859782457,0.00132377934642136,-0.00576644297689199,-0.0210504978895187,0.00183422164991498
874,-0.00256793526932597,0.014654184691608,-0.00368923856876791,-0.0103411478921771,-0.0302842501550913,-0.00759619055315852
875,-0.00601320201531053,0.0111729521304369,-0.00558071117848158,-0.013050084002316,-0.0345690436661243,-0.0166017338633537
876,-0.00741855753585696,0.00834231171756983,-0.00452463841065764,-0.0135864475741982,-0.0334547236561775,-0.022392313927412
877,-0.0067409141920507,0.00685060070827603,-0.00178808113560081,-0.0123421112075448,-0.028736537322402,-0.0241651106625795
878,-0.00544342026114464,0.00755378603935242,0.00172799581196159,-0.00926783680915833,-0.0237125214189291,-0.0211459472775459
879,-0.00658381544053555,0.00795472227036953,0.00379146100021899,-0.00728916935622692,-0.0235385950654745,-0.0167688485234976
880,-0.00935023836791515,0.00616960925981402,0.00426108529791236,-0.00830094330012798,-0.0279190968722105,-0.015220383182168
881,-0.01043058373034,0.00331160635687411,0.00451894057914615,-0.0102506019175053,-0.0315589047968388,-0.0167021583765745
882,-0.0103277387097478,-0.000224570510908961,0.00325935822911561,-0.0118811391294003,-0.0333471670746803,-0.0205586869269609
883,-0.0106301354244351,-0.00391889177262783,0.000140773714520037,-0.0127529921010137,-0.0345031023025513,-0.0248632486909628
884,-0.0107896700501442,-0.00653461320325732,-0.00206229230388999,-0.0123403528705239,-0.0334706641733646,-0.0268246717751026
885,-0.0105459475889802,-0.00837685819715261,-0.00293399416841567,-0.0123029332607985,-0.0296876486390829,-0.0267167128622532
886,-0.0107188234105706,-0.00959924608469009,-0.00464685680344701,-0.014070175588131,-0.0254133567214012,-0.0259883925318718
887,-0.0113728903234005,-0.00880396459251642,-0.00680240988731384,-0.0164351277053356,-0.0221564006060362,-0.0251772757619619
888,-0.0114555470645428,-0.00543348956853151,-0.00676257302984595,-0.0173762496560812,-0.0192528236657381,-0.0240188930183649
889,-0.0109045030549169,-0.00126808683853596,-0.00472089042887092,-0.0166461933404207,-0.0169764887541533,-0.021908663213253
890,-0.0110756177455187,0.000724401557818055,-0.00382499909028411,-0.016549551859498,-0.0169859416782856,-0.0203470662236214
891,-0.0120682660490274,-0.000153145971125923,-0.0046683163382113,-0.0180371608585119,-0.0179982576519251,-0.0206400193274021
892,-0.0135872662067413,-0.00261571258306503,-0.00649452907964587,-0.0200863480567932,-0.0187002718448639,-0.0224884916096926
893,-0.0155002828687429,-0.00560930045321584,-0.00981850549578667,-0.0220006126910448,-0.0213514249771833,-0.0257140751928091
894,-0.0156915877014399,-0.00705068744719028,-0.0122957974672318,-0.0210797470062971,-0.0252967569977045,-0.0276392437517643
895,-0.0123223774135113,-0.00529487105086446,-0.00987124163657427,-0.0148917501792312,-0.0252426415681839,-0.0245389901101589
896,-0.00677552679553628,-0.00177442631684244,-0.00353888445533812,-0.00711375148966908,-0.019513139501214,-0.0178875960409641
897,-0.00303230155259371,0.000470723578473553,0.00109918368980289,-0.00465028453618288,-0.0132842473685741,-0.0142564484849572
898,-0.00311401160433888,0.00105358369182795,0.00157008250243962,-0.00912625342607498,-0.0112611884251237,-0.0172378495335579
899,-0.00485368492081761,0.00265067140571773,0.000499356247019023,-0.0151733532547951,-0.0124834673479199,-0.0225690416991711
900,-0.00656144600361586,0.00577863585203886,-0.000125067963381298,-0.0180420428514481,-0.0139457480981946,-0.0250260401517153
901,-0.00889399088919163,0.00822904147207737,-0.000999631593003869,-0.018100755289197,-0.0143209137022495,-0.0250553041696548
902,-0.0118687096983194,0.00855484046041965,-0.0030626761727035,-0.017824312672019,-0.0142758302390575,-0.0257554482668638
903,-0.0138870179653168,0.00658111972734332,-0.00635956786572933,-0.0185955762863159,-0.0150853339582682,-0.028068084269762
904,-0.0144476089626551,0.0024888904299587,-0.0106279477477074,-0.0206410307437181,-0.017221761867404,-0.0310816112905741
905,-0.0140749551355839,-0.00199211086146533,-0.0140357427299023,-0.0226435400545597,-0.0196534655988216,-0.0328491441905499
906,-0.0126725751906633,-0.00463465508073568,-0.0143226701766253,-0.0227903015911579,-0.0210191234946251,-0.0317424647510052
907,-0.010762051679194,-0.0056151058524847,-0.0122117875143886,-0.0215547680854797,-0.0215871464461088,-0.0288551393896341
908,-0.008866336196661,-0.0051939426921308,-0.00962429959326983,-0.0197579637169838,-0.022264851257205,-0.0252642314881086
909,-0.00758237205445766,-0.00396681251004338,-0.00817116443067789,-0.0178599637001753,-0.0230056066066027,-0.0218733586370945
910,-0.00808036513626575,-0.00521600805222988,-0.00916207488626242,-0.0176481455564499,-0.0231680572032928,-0.0216157287359238
911,-0.00955941155552864,-0.00969332177191973,-0.0116199227049947,-0.0190304424613714,-0.0216455087065697,-0.0238016694784164
912,-0.0100081553682685,-0.013519873842597,-0.0132758654654026,-0.0199341550469399,-0.0176529847085476,-0.023749403655529
913,-0.00932730082422495,-0.0138396145775914,-0.0133904786780477,-0.0201660543680191,-0.0126325059682131,-0.0208705626428127
914,-0.00874882657080889,-0.0114921815693378,-0.0122788455337286,-0.0202429685741663,-0.00920507870614529,-0.0183382108807564
915,-0.00901965517550707,-0.00922228395938873,-0.0107449358329177,-0.0201786439865828,-0.00914670433849096,-0.0181709676980972
916,-0.0101095624268055,-0.00891246274113655,-0.0104719763621688,-0.0210788287222385,-0.0124366888776422,-0.0212151240557432
917,-0.0112967239692807,-0.0105891097337008,-0.0125329103320837,-0.0244717337191105,-0.0166653543710709,-0.0278383381664753
918,-0.0115761365741491,-0.0122637087479234,-0.0149029074236751,-0.028262086212635,-0.0182459987699986,-0.0348637625575066
919,-0.0116343786939979,-0.0121169034391642,-0.014265931211412,-0.02805863507092,-0.0157894901931286,-0.0378177836537361
920,-0.0131679577752948,-0.0114050693809986,-0.0120385112240911,-0.0247555319219828,-0.0134277464821935,-0.0380002409219742
921,-0.015969168394804,-0.0118348598480225,-0.0124300234019756,-0.0233053714036942,-0.0168002974241972,-0.0390249378979206
922,-0.0183557961136103,-0.0125552304089069,-0.014535853639245,-0.024836216121912,-0.0249844565987587,-0.0402685739099979
923,-0.0183993969112635,-0.0113113895058632,-0.0141254002228379,-0.0264406111091375,-0.0318146087229252,-0.0394776202738285
924,-0.0155533021315932,-0.00804551504552364,-0.0106178000569344,-0.0259510707110167,-0.0338705144822598,-0.03659862652421
925,-0.01167993247509,-0.00545986602082849,-0.00691813509911299,-0.0228612963110209,-0.0322394520044327,-0.0326720327138901
926,-0.00933271739631891,-0.00530265644192696,-0.00575447268784046,-0.017815850675106,-0.0294283963739872,-0.0281528159976006
927,-0.00920392479747534,-0.00737125473096967,-0.0075647383928299,-0.0137029206380248,-0.0271381679922342,-0.0244153589010239
928,-0.0103336703032255,-0.0106509886682034,-0.0104134706780314,-0.013245596550405,-0.0257384199649096,-0.022976465523243
929,-0.012954412959516,-0.0134216751903296,-0.0127334659919143,-0.0159555058926344,-0.0266278870403767,-0.0232007298618555
930,-0.0176600757986307,-0.0146387675777078,-0.0149674322456121,-0.0200245790183544,-0.0311754215508699,-0.0252627041190863
931,-0.0228817388415337,-0.0141639448702335,-0.0174781363457441,-0.0231974478811026,-0.0367906130850315,-0.0285425689071417
932,-0.025998892262578,-0.0113142989575863,-0.0190288964658976,-0.0232514142990112,-0.0391108654439449,-0.0293295569717884
933,-0.026036536321044,-0.00627225590869784,-0.0182772427797318,-0.0208812076598406,-0.0363209657371044,-0.0266739930957556
934,-0.0240039024502039,-0.00120231916662306,-0.0150821981951594,-0.0180175788700581,-0.0291857309639454,-0.0229852963238955
935,-0.0215788315981627,0.0023494828492403,-0.0105801708996296,-0.0146935656666756,-0.0207038633525372,-0.0196688957512379
936,-0.019676873460412,0.00493573118001223,-0.00624012621119618,-0.0106789013370872,-0.0145435500890017,-0.0169800724834204
937,-0.017927274107933,0.00671661319211125,-0.00299249589443207,-0.00759829441085458,-0.0116168092936277,-0.0157018005847931
938,-0.0167699512094259,0.00616588070988655,-0.00222718436270952,-0.00818535778671503,-0.0116252386942506,-0.0171720180660486
939,-0.0177947171032429,0.00222916668280959,-0.0050195544026792,-0.0133309038355947,-0.0147543260827661,-0.02173394523561
940,-0.0202851910144091,-0.00326477759517729,-0.00914971623569727,-0.0199562776833773,-0.0187690109014511,-0.0272008944302797
941,-0.0224702041596174,-0.00770759861916304,-0.0117052067071199,-0.0246545951813459,-0.0215985551476479,-0.030832601711154
942,-0.0244463086128235,-0.0101429652422667,-0.0120624294504523,-0.0265289470553398,-0.0240703467279673,-0.0316076949238777
943,-0.0261585749685764,-0.0103519186377525,-0.0105067696422338,-0.0259105805307627,-0.0263078473508358,-0.0304293949157
944,-0.0266725029796362,-0.00965296849608421,-0.00818873289972544,-0.0246670171618462,-0.0276247784495354,-0.0300924647599459
945,-0.0259804837405682,-0.009794682264328,-0.00630646059289575,-0.0244221463799477,-0.0284260176122189,-0.0319115109741688
946,-0.0251633804291487,-0.0106172151863575,-0.00546831032261252,-0.0243229456245899,-0.0292705446481705,-0.0340389050543308
947,-0.024222519248724,-0.0112576792016625,-0.00561127858236432,-0.022157110273838,-0.0298032127320766,-0.0345279648900032
948,-0.0228362344205379,-0.0113143371418118,-0.00594915961846709,-0.017192080616951,-0.0297265741974115,-0.0326643623411655
949,-0.0222603566944599,-0.0110850129276514,-0.00663039460778236,-0.0123110665008426,-0.0294640846550465,-0.029465651139617
950,-0.0230515897274017,-0.0119694685563445,-0.00918177794665098,-0.012078451924026,-0.0296216960996389,-0.0289147309958935
951,-0.0239083059132099,-0.0147280842065811,-0.0137650417163968,-0.0175739657133818,-0.0296641867607832,-0.0336773358285427
952,-0.0234245490282774,-0.0174437575042248,-0.0174535680562258,-0.0244383681565523,-0.02794817276299,-0.0404559224843979
953,-0.0221630502492189,-0.0189609006047249,-0.0185843147337437,-0.0288336239755154,-0.0245896838605404,-0.0456679910421371
954,-0.0218681693077087,-0.0208696648478508,-0.0183650255203247,-0.0304940603673458,-0.0208062659949064,-0.0488387420773506
955,-0.0214158073067665,-0.0225053615868092,-0.0169747937470675,-0.0286724399775267,-0.0164261125028133,-0.0485212542116642
956,-0.0182696171104908,-0.0210467670112848,-0.0138511788100004,-0.0232027042657137,-0.0114810857921839,-0.0443728230893612
957,-0.0130143379792571,-0.0159955378621817,-0.00890221539884806,-0.0168600063771009,-0.00711218174546957,-0.0383510626852512
958,-0.00961073860526085,-0.0102515555918217,-0.00417507952079177,-0.013335095718503,-0.00611524796113372,-0.0325631089508533
959,-0.0108958072960377,-0.00658112810924649,-0.00281006959266961,-0.0132586639374495,-0.010254580527544,-0.0284390710294247
960,-0.0147217838093638,-0.0047115758061409,-0.00449680304154754,-0.0140173006802797,-0.0161711275577545,-0.0256811492145061
961,-0.0181122627109289,-0.00447347620502114,-0.00827307719737291,-0.015202896669507,-0.0212042219936848,-0.0244569070637226
962,-0.0201539844274521,-0.0057945903390646,-0.0140062933787704,-0.0180855710059404,-0.0262666586786509,-0.0248796679079533
963,-0.0201565735042095,-0.00725636491551995,-0.0190289448946714,-0.021837655454874,-0.0297894962131977,-0.025163484737277
964,-0.0183481462299824,-0.00801668874919415,-0.0198744032531977,-0.0240175481885672,-0.0283686723560095,-0.0235671401023865
965,-0.0162434373050928,-0.00787153374403715,-0.0160341672599316,-0.0223191380500793,-0.0220724754035473,-0.019205005839467
966,-0.0143980560824275,-0.00701723573729396,-0.0102561255916953,-0.0167960599064827,-0.0144201293587685,-0.0129807954654098
967,-0.0121276061981916,-0.00593082560226321,-0.00642357254400849,-0.0100749023258686,-0.0100735630840063,-0.0075522162951529
968,-0.00952413864433765,-0.00466054072603583,-0.00633370224386454,-0.0053591993637383,-0.0108402455225587,-0.00502016535028815
969,-0.00784184783697128,-0.00359979132190347,-0.00891475193202496,-0.00510702701285481,-0.014742000028491,-0.00684538204222918
