,AF3,AF4,Fp1,Fp2,AF7,AF8
0,-0.00814429391175509,0.00359766115434468,0.0129360407590866,0.0137488823384047,0.0148306526243687,0.0120646422728896
1,-0.0106198340654373,0.000448297971161082,0.00920531060546637,0.00903265364468098,0.0118016470223665,0.0101497462019324
2,-0.0121685396879911,-0.00181867694482207,0.00625766767188907,0.00478469533845782,0.0101351793855429,0.00858446303755045
3,-0.0122762303799391,-0.0026095665525645,0.0053374981507659,0.00207418063655496,0.0105950953438878,0.0079589718952775
4,-0.0118180373683572,-0.0024298254866153,0.00574269751086831,0.000779822585172951,0.0111778127029538,0.00812960509210825
5,-0.0118783507496119,-0.00225757830776274,0.00555937364697456,-0.000119219512271229,0.00957714021205902,0.00799784436821938
6,-0.0125270625576377,-0.00253210053779185,0.00434219045564532,-0.00125686614774168,0.00644365744665265,0.00660045305266976
7,-0.0135453594848514,-0.00295427092351019,0.00289483997039497,-0.00222689635120332,0.00355773931369185,0.00417571235448122
8,-0.0147748654708266,-0.00288848555646837,0.00190732849296182,-0.00229820795357227,0.00113297055941075,0.00227589905261993
9,-0.0151649788022041,-0.00158160761930048,0.00244743516668677,-0.00116094597615302,-0.000527505413629115,0.00299369054846466
10,-0.0143377594649792,0.000176209767232649,0.00406974693760276,-0.000296513928333297,-0.000425374455517158,0.00625824369490147
11,-0.0132329044863582,0.00117357668932527,0.00483461562544107,-0.00106891139876097,0.0016824739286676,0.0102935386821628
12,-0.0122830020263791,0.00209907907992601,0.00435714051127434,-0.00224876822903752,0.00452185096219182,0.0138264056295156
13,-0.0115531552582979,0.0034053020644933,0.00307700526900589,-0.00300693046301603,0.00569835631176829,0.0148610007017851
14,-0.011530271731317,0.0041717835702002,0.00107125751674175,-0.00395678589120507,0.00410787761211395,0.0120422970503569
15,-0.0123786870390177,0.00420957384631038,-0.000834848673548549,-0.0046815937384963,0.00153301854152232,0.00756529765203595
16,-0.0144073972478509,0.00356415077112615,-0.00235534599050879,-0.00514987390488386,-0.000852656841743737,0.00362746603786945
17,-0.0180378742516041,0.00196623639203608,-0.00378525559790432,-0.00602504564449191,-0.00420574378222227,9.75618240772747E-05
18,-0.0220512542873621,0.000223754323087633,-0.00466251047328115,-0.00688700564205647,-0.00834676064550877,-0.00301314587704837
19,-0.024782620370388,-0.000590815499890596,-0.0054893777705729,-0.0076561369933188,-0.0112663032487035,-0.00535987503826618
20,-0.0257334038615227,2.99320217891363E-05,-0.00679715536534786,-0.00821558851748705,-0.0118189826607704,-0.00589358666911721
21,-0.025155745446682,0.00143943121656775,-0.0073980987071991,-0.0076795844361186,-0.0101940575987101,-0.00351586937904358
22,-0.023538988083601,0.00165497011039406,-0.00651049241423607,-0.00617970153689384,-0.00713827135041356,0.000372238195268437
23,-0.0215688943862915,0.000172610321897082,-0.00498251942917705,-0.00473165838047862,-0.00423213234171271,0.00346510275267065
24,-0.0201448407024145,-0.000991886015981436,-0.00411536591127515,-0.00400515319779515,-0.00305662746541202,0.00494519993662834
25,-0.0196332931518555,-0.000515410036314279,-0.00440761120989919,-0.00411157682538033,-0.00347188487648964,0.00480341492220759
26,-0.0198333263397217,-3.38542995450553E-05,-0.00590162398293614,-0.00549541739746928,-0.00455585680902004,0.00240027508698404
27,-0.0203617047518492,-0.00123328645713627,-0.00855941325426102,-0.00834060460329056,-0.0062845516949892,-0.00219512707553804
28,-0.0211325995624065,-0.00306739564985037,-0.0115401344373822,-0.0112326350063086,-0.0090037165209651,-0.0064240749925375
29,-0.0224221218377352,-0.00431893626227975,-0.0137340929359198,-0.0129385543987155,-0.0123880915343761,-0.00826285313814878
30,-0.0238969326019287,-0.0054926797747612,-0.0144828809425235,-0.0138687556609511,-0.0152112264186144,-0.00853333994746208
31,-0.0250266660004854,-0.00699439737945795,-0.0131919402629137,-0.0146908015012741,-0.0152430078014731,-0.00844027660787106
32,-0.0257194638252258,-0.00834127329289913,-0.0104212164878845,-0.0153149515390396,-0.0120234172791243,-0.00810416601598263
33,-0.0257061533629894,-0.00887957867234945,-0.00864113587886095,-0.0156515929847956,-0.00912106968462467,-0.00748109165579081
34,-0.0240715648978949,-0.00787135399878025,-0.00841338001191616,-0.0156703032553196,-0.0089747766032815,-0.00621486455202103
35,-0.0208155084401369,-0.00561138428747654,-0.00783836469054222,-0.0156010398641229,-0.0101036988198757,-0.00436461297795177
36,-0.0181336756795645,-0.00361896515823901,-0.00698027713224292,-0.016073752194643,-0.0114947585389018,-0.00320805399678648
37,-0.0176601707935333,-0.00269405986182392,-0.00682921521365643,-0.0161692351102829,-0.0132366074249148,-0.00342108146287501
38,-0.0187397133558989,-0.00265600928105414,-0.00739332567900419,-0.0145383272320032,-0.0146370530128479,-0.00431257905438542
39,-0.0201370194554329,-0.00305432919412851,-0.00875146593898535,-0.0125266425311565,-0.015228702686727,-0.00494908634573221
40,-0.0207824520766735,-0.00314217736013234,-0.0107408445328474,-0.0126928873360157,-0.0147098368033767,-0.00544136855751276
41,-0.0201225932687521,-0.00227749068289995,-0.0129306353628635,-0.0154648255556822,-0.0127552049234509,-0.00633018696680665
42,-0.017861146479845,-0.000166708385222591,-0.0140359234064817,-0.0184614863246679,-0.00937251467257738,-0.00596844777464867
43,-0.0139802116900682,0.00274492683820426,-0.0127204116433859,-0.0191897060722113,-0.00486689619719982,-0.00198974693194032
44,-0.0100242383778095,0.00516653433442116,-0.0100158238783479,-0.0177472680807114,-0.000514167884830385,0.00490315584465861
45,-0.00769674172624946,0.00673589808866382,-0.00789244659245014,-0.015849906951189,0.00211475160904229,0.011663481593132
46,-0.00698712514713407,0.00806386303156614,-0.00689786858856678,-0.0147093683481216,0.00291454908438027,0.0155598167330027
47,-0.00717427907511592,0.00888224132359028,-0.00699073495343328,-0.0146900117397308,0.00319749186746776,0.0154506089165807
48,-0.00838311016559601,0.00829096045345068,-0.00850060302764177,-0.0158541928976774,0.00321559747681022,0.0119208516553044
49,-0.0102450530976057,0.00652834214270115,-0.0100175384432077,-0.0174185764044523,0.00254603172652423,0.00716694071888924
50,-0.0110140712931752,0.00500359758734703,-0.00910971965640783,-0.017973106354475,0.00176811567507684,0.00361550296656787
51,-0.00991340074688196,0.00442182878032327,-0.0065516154281795,-0.0173261407762766,0.00132780417334288,0.00148858490865678
52,-0.0080191558226943,0.00425613718107343,-0.00522419344633818,-0.0164596941322088,0.00110946502536535,-0.000408841035095975
53,-0.00676030851900578,0.00381897226907313,-0.00630355719476938,-0.0162551514804363,0.00058788078604266,-0.00226196926087141
54,-0.00620453525334597,0.00311656901612878,-0.00862570479512215,-0.0167669747024775,-5.21023466717452E-05,-0.00314196385443211
55,-0.0053296466358006,0.00253878952935338,-0.0106568010523915,-0.0176098383963108,-1.13870191853493E-05,-0.00290823052637279
56,-0.00398283312097192,0.00184925273060799,-0.0124164437875152,-0.0190967544913292,-0.000275179394520819,-0.00331560405902565
57,-0.00325752841308713,0.000439708499470726,-0.014674642123282,-0.021569985896349,-0.00265825842507184,-0.00590660329908133
58,-0.00445121573284268,-0.00190540822222829,-0.0173019729554653,-0.0240477677434683,-0.00759085640311241,-0.0100982366129756
59,-0.00775863416492939,-0.00488040596246719,-0.0193165745586157,-0.0255999639630318,-0.013371697627008,-0.0146403526887298
60,-0.0110446233302355,-0.00731489062309265,-0.0199045203626156,-0.0268395897001028,-0.0166659709066153,-0.0185609478503466
61,-0.0123307360336185,-0.00837799627333879,-0.0194585490971804,-0.0282958317548037,-0.0172793846577406,-0.0208088271319866
62,-0.0123765720054507,-0.00815192610025406,-0.0184223875403404,-0.0285879205912352,-0.0189084056764841,-0.0201610084623098
63,-0.0123898033052683,-0.00672947056591511,-0.0160902049392462,-0.0261772256344557,-0.0224399175494909,-0.0157834179699421
64,-0.012722167186439,-0.00509007787331939,-0.0131041062995791,-0.0225930269807577,-0.0258352532982826,-0.00914883241057396
65,-0.0127937821671367,-0.00439203949645162,-0.0114343799650669,-0.0208511985838413,-0.0278402771800756,-0.00356062036007643
66,-0.0121647631749511,-0.00463997200131416,-0.0113715128973126,-0.021511172875762,-0.0276944059878588,-0.00114058353938162
67,-0.0120694758370519,-0.00572508061304688,-0.0119006857275963,-0.0230736024677753,-0.0257322993129492,-0.00179332320112735
68,-0.0130574870854616,-0.0082347160205245,-0.0127540845423937,-0.0249545723199844,-0.0236173328012228,-0.00495748501271009
69,-0.0143998498097062,-0.0122776366770267,-0.0148274293169379,-0.0277773886919022,-0.023053789511323,-0.0100146029144526
70,-0.0154958050698042,-0.0158505719155073,-0.0182144325226545,-0.0313403606414795,-0.0241998732089996,-0.0151581997051835
71,-0.0160380862653255,-0.0175307840108871,-0.021792383864522,-0.0352513566613197,-0.0257604699581862,-0.0193692371249199
72,-0.015914598479867,-0.0184664167463779,-0.0245674010366201,-0.0389341153204441,-0.0269476436078548,-0.0227631833404303
73,-0.0150933405384421,-0.0193147324025631,-0.0258598327636719,-0.0400930792093277,-0.0284351538866758,-0.0245830118656158
74,-0.0143916206434369,-0.0196764674037695,-0.02621204033494,-0.0382912456989288,-0.0316451415419579,-0.024861266836524
75,-0.0138531755656004,-0.0191869977861643,-0.0261546447873116,-0.0365068428218365,-0.0351870842278004,-0.0247628204524517
76,-0.0123686380684376,-0.0171265564858913,-0.0253369621932507,-0.0367439910769463,-0.0363386012613773,-0.0240529589354992
77,-0.0114174773916602,-0.0143572725355625,-0.0252385903149843,-0.0394001342356205,-0.0369655378162861,-0.022811695933342
78,-0.0132611999288201,-0.0136967143043876,-0.0276786722242832,-0.0446570180356503,-0.040338572114706,-0.0233384110033512
79,-0.0166417062282562,-0.01585434935987,-0.0317005291581154,-0.0510149411857128,-0.0458176098763943,-0.0264642555266619
80,-0.0193572863936424,-0.0190745536237955,-0.0355720445513725,-0.0564442276954651,-0.05098757147789,-0.0308936145156622
81,-0.0208734851330519,-0.0217729564756155,-0.038329441100359,-0.0603159256279469,-0.0540842153131962,-0.0356141440570354
82,-0.0211010500788689,-0.0236538331955671,-0.0397433415055275,-0.0628324300050735,-0.0543934404850006,-0.039946086704731
83,-0.0204305946826935,-0.0259292032569647,-0.0409297160804272,-0.0651373118162155,-0.053223479539156,-0.044099185615778
84,-0.0198297668248415,-0.0291137062013149,-0.0427807122468948,-0.067771278321743,-0.0527762733399868,-0.0482297018170357
85,-0.0199237205088139,-0.0320830121636391,-0.0448278672993183,-0.0695843771100044,-0.0537184774875641,-0.0516845211386681
86,-0.0205294080078602,-0.033788837492466,-0.0463853105902672,-0.0701730027794838,-0.055205337703228,-0.0542403943836689
87,-0.0208379402756691,-0.0337221659719944,-0.0469976142048836,-0.070079118013382,-0.0561342500150204,-0.0555715560913086
88,-0.0200574658811092,-0.0317793413996696,-0.0460217334330082,-0.0688422694802284,-0.0556042492389679,-0.0548716858029366
89,-0.018035601824522,-0.0284362398087978,-0.0431402288377285,-0.0656568929553032,-0.0535473339259624,-0.0517636798322201
90,-0.0150743303820491,-0.024301016703248,-0.0390113033354282,-0.0609439872205257,-0.0509120039641857,-0.0467899031937122
91,-0.0115383174270391,-0.0195507705211639,-0.0344704687595367,-0.0557192079722881,-0.0482592806220055,-0.0411356277763844
92,-0.00871204026043415,-0.0146924182772636,-0.0303829554468393,-0.0507026165723801,-0.045471865683794,-0.0359947942197323
93,-0.00801099836826324,-0.0106927771121264,-0.0278042014688253,-0.0466705039143562,-0.0430807955563068,-0.0323125831782818
94,-0.00945079512894154,-0.00819352921098471,-0.0272685885429382,-0.0446428917348385,-0.0422507636249065,-0.0310454629361629
95,-0.0120273102074862,-0.00675022974610329,-0.0282305683940649,-0.044421412050724,-0.0436686798930168,-0.0314477421343327
96,-0.0146517120301723,-0.00531722558662295,-0.0295269433408976,-0.0446187183260918,-0.0475410744547844,-0.0312198344618082
97,-0.0166637692600489,-0.0040690298192203,-0.0300383772701025,-0.0448930077254772,-0.0532618463039398,-0.0303422436118126
98,-0.0172334853559732,-0.00313469534739852,-0.0288999062031507,-0.0452537946403027,-0.0589636936783791,-0.0300775207579136
99,-0.0153001910075545,-0.000968077045399696,-0.0258047580718994,-0.0442311391234398,-0.062400758266449,-0.0295204967260361
100,-0.0111295310780406,0.00295188394375145,-0.0218098033219576,-0.0410629920661449,-0.0625825077295303,-0.0276682190597057
101,-0.00696553522720933,0.00602215342223644,-0.0200319737195969,-0.0385323874652386,-0.0608573853969574,-0.0264390949159861
102,-0.00471450155600905,0.00615771487355232,-0.0220745895057917,-0.0393346101045609,-0.0591509081423283,-0.0274059232324362
103,-0.00437584519386292,0.00454864511266351,-0.0262171402573586,-0.0428616590797901,-0.0588013380765915,-0.02937401086092
104,-0.00551931886002421,0.00338181480765343,-0.0309085715562105,-0.047063235193491,-0.0609295554459095,-0.0309402514249086
105,-0.00771911442279816,0.0037360021378845,-0.0354813039302826,-0.050011832267046,-0.0653698220849037,-0.0316383950412273
106,-0.0102353086695075,0.00515606347471476,-0.0394085459411144,-0.0510182268917561,-0.0711146593093872,-0.0313572436571121
107,-0.0119165843352675,0.00715065514668822,-0.0414750203490257,-0.0495388247072697,-0.0765669494867325,-0.0297006592154503
108,-0.0111965127289295,0.00966627802699804,-0.0400658883154392,-0.0457129701972008,-0.0792735069990158,-0.0275812055915594
109,-0.00799192767590284,0.0112162372097373,-0.0363871455192566,-0.0434341803193092,-0.0784880295395851,-0.028830848634243
110,-0.0041058580391109,0.010285496711731,-0.034131433814764,-0.0471758358180523,-0.075976200401783,-0.0364895723760128
111,-0.000903792330063879,0.00788264535367489,-0.0355021320283413,-0.0565225258469582,-0.0743492990732193,-0.0485817641019821
112,0.00186227040831,0.00625243503600359,-0.0393031463027,-0.0668001621961594,-0.0750847682356834,-0.0598151944577694
113,0.00473709031939507,0.00633738469332457,-0.0429658852517605,-0.073853887617588,-0.0774610713124275,-0.0667413547635078
114,0.00748145719990134,0.00729218032211065,-0.0452632009983063,-0.0770266354084015,-0.0799406096339226,-0.0700740143656731
115,0.00957778841257095,0.00723571190610528,-0.0468353107571602,-0.0789362564682961,-0.0818808525800705,-0.0734064653515816
116,0.0104887448251247,0.0051388842985034,-0.0488674864172935,-0.0820353180170059,-0.0838004872202873,-0.0791734755039215
117,0.0101096006110311,0.00237948051653802,-0.0511108860373497,-0.0851979181170464,-0.0858890041708946,-0.0857069417834282
118,0.00923387799412012,0.000581968517508358,-0.0523114576935768,-0.0862371996045113,-0.0873247683048248,-0.0903813168406487
119,0.00916673522442579,-0.000130773798446171,-0.0516294501721859,-0.085107609629631,-0.0869108811020851,-0.093065470457077
120,0.0102489804849029,-0.000692575937137008,-0.0500869117677212,-0.0840947031974792,-0.0850663185119629,-0.0961745381355286
121,0.0116602359339595,-0.00216870056465268,-0.0502605065703392,-0.0859572514891624,-0.084016278386116,-0.101984634995461
122,0.0130366124212742,-0.00440882053226233,-0.0531004555523396,-0.0905685648322105,-0.0847688540816307,-0.109334029257298
123,0.014474818482995,-0.00642257556319237,-0.0568699836730957,-0.0947170704603195,-0.086525022983551,-0.114657863974571
124,0.0162590350955725,-0.00732866348698735,-0.0584919229149818,-0.0953554213047028,-0.0872788056731224,-0.11591774970293
125,0.0182604845613241,-0.00714838923886418,-0.0567913837730885,-0.0927394032478333,-0.0861135423183441,-0.114799603819847
126,0.019545316696167,-0.00662221107631922,-0.0538760758936405,-0.0895894840359688,-0.085185207426548,-0.114197514951229
127,0.0198468118906021,-0.00591810327023268,-0.0518348105251789,-0.0879816338419914,-0.0858766436576843,-0.114773862063885
128,0.0201900620013475,-0.00453013926744461,-0.0506508275866508,-0.0878319591283798,-0.086220420897007,-0.114976860582829
129,0.0210876297205687,-0.00256239459849894,-0.0493995510041714,-0.0877811759710312,-0.0840205922722816,-0.113712750375271
130,0.0219162590801716,-0.00103620276786387,-0.047300711274147,-0.086718887090683,-0.0787487849593163,-0.111844010651112
131,0.0229286085814238,3.45023945556022E-05,-0.0436704158782959,-0.0834891051054001,-0.0715267434716225,-0.109583899378777
132,0.0243697613477707,0.00128864194266498,-0.0392359122633934,-0.0782212093472481,-0.0649436786770821,-0.105972826480865
133,0.0250796750187874,0.00286508211866021,-0.0361061729490757,-0.072914332151413,-0.0604944564402103,-0.100685931742191
134,0.024218337610364,0.00524569535627961,-0.0349610187113285,-0.068559929728508,-0.0582002140581608,-0.0937705710530281
135,0.0219898596405983,0.00839164387434721,-0.0349435657262802,-0.0648563206195831,-0.0579620897769928,-0.0865962207317352
136,0.0191972944885492,0.011367367580533,-0.0351264625787735,-0.0618929862976074,-0.0585170052945614,-0.0813764110207558
137,0.0167325139045715,0.0134671116247773,-0.0347484685480595,-0.0598837435245514,-0.0584201514720917,-0.0782173946499825
138,0.0148579617962241,0.0136753115803003,-0.0336330980062485,-0.0589465461671352,-0.0571905523538589,-0.0766111761331558
139,0.0137206092476845,0.0114567056298256,-0.0317508764564991,-0.0588547848165035,-0.0543218739330769,-0.0767813324928284
140,0.0133712021633983,0.00792793929576874,-0.0296905711293221,-0.0589366592466831,-0.0504521317780018,-0.0779875367879868
141,0.0134882610291243,0.00453502358868718,-0.0287615302950144,-0.0588288716971874,-0.0469737611711025,-0.0791186168789864
142,0.013682646676898,0.00206153024919331,-0.0284016318619251,-0.0578755997121334,-0.0434697233140469,-0.0788102000951767
143,0.0131406961008906,0.000720642623491585,-0.0266825258731842,-0.0547210685908794,-0.0389195717871189,-0.0750581249594688
144,0.0120629500597715,0.000723569362889975,-0.0230477172881365,-0.0487102717161179,-0.0336126871407032,-0.0672706291079521
145,0.0120868058875203,0.00234153377823532,-0.0186299383640289,-0.0409299954771996,-0.028794864192605,-0.0567680038511753
146,0.0139958132058382,0.00581740168854594,-0.0150073198601604,-0.0329587496817112,-0.0258568804711103,-0.04459323361516
147,0.0165741089731455,0.0103705553337932,-0.0135330818593502,-0.0264189187437296,-0.0254420675337315,-0.0322030559182167
148,0.0179684478789568,0.0140590919181705,-0.0145127912983298,-0.0229111071676016,-0.026570176705718,-0.0221977699548006
149,0.0176741406321526,0.0161987636238337,-0.0162721462547779,-0.0219366550445557,-0.0271477811038494,-0.0154558755457401
150,0.0162560567259789,0.0178936645388603,-0.0165626499801874,-0.0206144377589226,-0.0261627119034529,-0.0101117826998234
151,0.0139284702017903,0.0196538455784321,-0.0146588077768683,-0.0168602336198092,-0.0243856236338615,-0.00447036325931549
152,0.0114844292402267,0.020796924829483,-0.0108325630426407,-0.0113484188914299,-0.021679013967514,0.000624271167907864
153,0.0107196299359202,0.0209898017346859,-0.00563344359397888,-0.00621305126696825,-0.0171599388122559,0.00345190917141736
154,0.0116596277803183,0.020547354593873,-0.000593949283938855,-0.00260887248441577,-0.0121369697153568,0.00441617472097278
155,0.0123375151306391,0.0200574286282063,0.00275152758695185,0.00028416546410881,-0.00835649948567152,0.00608743960037827
156,0.011477617546916,0.0195751097053289,0.004289785400033,0.0031637055799365,-0.00507322000339627,0.00980791915208101
157,0.0094348369166255,0.018909802660346,0.00529932137578726,0.00659772055223584,-0.000392798101529479,0.0151989189907908
158,0.00645587453618646,0.0175598561763763,0.00613108836114407,0.01083580031991,0.00455044489353895,0.0210843589156866
159,0.00300232321023941,0.0155136538669467,0.00640569953247905,0.0151905119419098,0.00816367845982313,0.0265934448689222
160,0.000570331700146198,0.0144669469445944,0.00736946566030383,0.0199330933392048,0.0122214546427131,0.0329753644764423
161,-0.000609272974543273,0.0153627553954721,0.010054643265903,0.0250983461737633,0.0175353735685349,0.0404082760214806
162,-0.00144008966162801,0.0173683483153582,0.0141524970531464,0.0296299438923597,0.0228337943553925,0.0467613190412521
163,-0.00204179831780493,0.0190452747046947,0.0191721450537443,0.0332400165498257,0.0276969857513905,0.0508576780557632
164,-0.00192383909597993,0.0191657710820436,0.0242106430232525,0.0361323282122612,0.0325245745480061,0.0531146973371506
165,-0.00155519135296345,0.0173389315605164,0.0275926273316145,0.0378857553005219,0.0368692018091679,0.0539888255298138
166,-0.00203211489133537,0.0148951597511768,0.0282204244285822,0.0387971885502338,0.0394471250474453,0.0544289276003838
167,-0.0030533850658685,0.014154258184135,0.0270312037318945,0.0402157679200172,0.0399594604969025,0.0562270395457745
168,-0.00384160690009594,0.0151144117116928,0.0258095357567072,0.0421011671423912,0.0389512330293655,0.0597522482275963
169,-0.00415933784097433,0.0158723220229149,0.0258116871118546,0.0432602651417255,0.0374298058450222,0.0638463869690895
170,-0.00401186337694526,0.0155648244544864,0.0273566246032715,0.0433819517493248,0.0365540832281113,0.0671019852161407
171,-0.0039068371988833,0.0147109068930149,0.0296324454247952,0.0432094037532806,0.03632752597332,0.0683111175894737
172,-0.00422526802867651,0.0137846870347857,0.0316259190440178,0.0435243174433708,0.0364310964941978,0.0665285661816597
173,-0.00482046464458108,0.0124177439138293,0.0327314026653767,0.044169832020998,0.0367133617401123,0.0616086348891258
174,-0.00486349267885089,0.0106335422024131,0.0334781669080257,0.0446127392351627,0.0373817197978497,0.0556811802089214
175,-0.00339529989287257,0.00901803653687239,0.0351823903620243,0.0447774305939674,0.0390678122639656,0.0517137683928013
176,-0.000943444960284978,0.00784300081431866,0.0378179438412189,0.0453865937888622,0.0407899431884289,0.0507358573377132
177,0.00063023716211319,0.0067535238340497,0.0393369160592556,0.0467145815491676,0.0409764535725117,0.0516988150775433
178,0.000976200273726135,0.00621543219313025,0.0387707240879536,0.0488032624125481,0.0409005098044872,0.0541394725441933
179,0.000912684481590986,0.00715930573642254,0.037192203104496,0.0518416799604893,0.0424082614481449,0.0580835975706577
180,0.000153428394696675,0.00875696539878845,0.0350442342460155,0.054024301469326,0.0450590588152409,0.061840757727623
181,-0.00165031664073467,0.00967192742973566,0.0322254300117493,0.0531889535486698,0.0474461391568184,0.0639818385243416
182,-0.00401338562369347,0.00959692988544703,0.0292273107916117,0.0497815161943436,0.0484353788197041,0.0647007301449776
183,-0.00520521402359009,0.0096016526222229,0.0278613492846489,0.0469143837690353,0.0487104393541813,0.0652407482266426
184,-0.00388886290602386,0.0105589218437672,0.0296716429293156,0.0470207184553146,0.0495497696101666,0.0670511648058891
185,-0.00163530779536814,0.0113760372623801,0.0331724919378757,0.048904363065958,0.0495935007929802,0.0695019587874413
186,-0.000179216760443524,0.0113433375954628,0.0360732525587082,0.0510427802801132,0.0475928708910942,0.0712324157357216
187,0.000966944673564285,0.0113292951136827,0.0380846634507179,0.0538934767246246,0.0460480004549026,0.072554923593998
188,0.00199953699484468,0.0116084590554237,0.0396254733204842,0.0571457110345364,0.0468221493065357,0.0737850219011307
189,0.00225163111463189,0.0119959367439151,0.0408313386142254,0.0594946295022964,0.0484972409904003,0.075076699256897
190,0.00135493418201804,0.0119771063327789,0.0408615805208683,0.0595976375043392,0.0502914488315582,0.0760540515184402
191,-0.000280673586530611,0.0110518438741565,0.0391068086028099,0.0574106089770794,0.0529998242855072,0.0759502202272415
192,-0.00148784450720996,0.0100079383701086,0.0370729267597198,0.0551360957324505,0.0565348789095879,0.0754912123084068
193,-0.00215165456756949,0.008640524931252,0.0358783528208733,0.0538201965391636,0.0598172768950462,0.0745420679450035
194,-0.0025923743378371,0.00641200831159949,0.0357513874769211,0.0531897507607937,0.0623499751091003,0.0722873881459236
195,-0.00282381195574999,0.00437544984742999,0.0370241925120354,0.0535419210791588,0.0638190507888794,0.0697656646370888
196,-0.00302735413424671,0.00374462618492544,0.0395668298006058,0.0552225075662136,0.0644085258245468,0.0689668878912926
197,-0.00234795943833888,0.0055271009914577,0.0433296039700508,0.0587605498731136,0.0653860121965408,0.0714475736021996
198,4.05414393753745E-05,0.00914865173399448,0.0474461205303669,0.0635950341820717,0.0669587999582291,0.0760833546519279
199,0.00309923477470875,0.0118720596656203,0.0494114384055138,0.0671070888638496,0.0675913020968437,0.0790182948112488
200,0.00414115376770496,0.0111415265128016,0.047030471265316,0.0663353130221367,0.0653020963072777,0.0773227885365486
201,0.0019944803789258,0.00751893594861031,0.0417140237987041,0.0614729076623917,0.0604650862514973,0.0722840651869774
202,-0.000971044588368386,0.00442676804959774,0.0378568358719349,0.056762158870697,0.0568510815501213,0.0686001479625702
203,-0.00243953126482666,0.00418364303186536,0.0376712828874588,0.0557970739901066,0.0568798296153545,0.0696993991732597
204,-0.0029601464048028,0.00564381759613752,0.0392408184707165,0.0577116683125496,0.0582845881581306,0.0740792453289032
205,-0.00362545228563249,0.00628521805629134,0.0405355878174305,0.0600323006510735,0.058121245354414,0.0774905979633331
206,-0.00383760361000896,0.00558034842833877,0.0424207858741283,0.0619142390787601,0.0570199824869633,0.0775850713253021
207,-0.00314093381166458,0.00404890859499574,0.0448152273893356,0.0618546195328236,0.056318249553442,0.0738028585910797
208,-0.00224199192598462,0.00218933448195457,0.0454545319080353,0.0589223392307758,0.0557320639491081,0.06773491948843
209,-0.0019985178951174,0.00107367592863739,0.0439786836504936,0.0558066219091415,0.0550704747438431,0.0638027116656303
210,-0.00244077341631055,0.00143098924309015,0.0421529598534107,0.0553994812071323,0.0548266172409058,0.0649286732077599
211,-0.00228845863603055,0.00354223581962287,0.0413693748414516,0.0579470098018646,0.0557263754308224,0.069916695356369
212,-0.000752786640077829,0.00732428161427379,0.0418094545602798,0.0620703920722008,0.0578108765184879,0.075968474149704
213,0.000705986749380827,0.0112121058627963,0.0424015931785107,0.0656271576881409,0.0593364834785461,0.0809456557035446
214,-5.01252588946954E-06,0.0127602871507406,0.0415970087051392,0.066962942481041,0.0581807382404804,0.0834168791770935
215,-0.00235511176288128,0.0112998876720667,0.0395764447748661,0.0662917569279671,0.0551977977156639,0.0826146006584167
216,-0.00394857814535499,0.00816923752427101,0.0376636870205402,0.0641553178429604,0.0533986836671829,0.0781743004918098
217,-0.00355198956094682,0.00563700590282679,0.0367334820330143,0.061341967433691,0.0542273670434952,0.0715853571891785
218,-0.000918983889278024,0.00578222004696727,0.0379244834184647,0.0603547915816307,0.0573916435241699,0.0668835565447807
219,0.00206639454700053,0.00693155825138092,0.0403698869049549,0.0612112209200859,0.0606680735945702,0.0651935786008835
220,0.00215223804116249,0.00566946947947145,0.0413867719471455,0.0610449574887753,0.0611718781292439,0.0638897642493248
221,-0.000891928211785853,0.00185032677836716,0.0403432808816433,0.0585830509662628,0.0590448603034019,0.0615168325603008
222,-0.00402397476136684,-0.00163384876213968,0.0391686782240868,0.0551490373909473,0.0567163042724133,0.0594756826758385
223,-0.00470988964661956,-0.00171996827702969,0.0398016422986984,0.0532324016094208,0.0555116385221481,0.0605257339775562
224,-0.0039979200810194,0.000527607335243374,0.0407974235713482,0.0523723997175694,0.0547029562294483,0.0635848790407181
225,-0.00425536697730422,0.00146352138835937,0.039791613817215,0.0506283491849899,0.0527634136378765,0.0645666792988777
226,-0.00588839733973145,0.000264370726654306,0.0373523905873299,0.0491149462759495,0.0484295859932899,0.0632419362664223
227,-0.00703755673021078,-0.00134737067855895,0.0356920287013054,0.0500606708228588,0.0436634421348572,0.0627777874469757
228,-0.00624603172764182,-0.00242282077670097,0.0357995443046093,0.0530497170984745,0.0418705381453037,0.0643269792199135
229,-0.00430704047903419,-0.00280907237902284,0.0367124192416668,0.0556544959545136,0.0424085520207882,0.066572479903698
230,-0.0020210596267134,-0.00208213250152767,0.0373112298548222,0.0564519241452217,0.0432002916932106,0.0681395679712296
231,0.000595975841861218,-0.000716831244062632,0.0372901149094105,0.0554170422255993,0.044714629650116,0.0679368451237679
232,0.00298926280811429,0.000342056708177552,0.0365007556974888,0.0530337765812874,0.0477279499173164,0.0655981823801994
233,0.00437310850247741,0.000804502691607922,0.0348284393548965,0.0502478070557117,0.0507325418293476,0.0619569271802902
234,0.00510521465912461,0.00134683190844953,0.0337879098951817,0.0491711087524891,0.0524776689708233,0.0593343116343021
235,0.00618345662951469,0.00294987880624831,0.035242598503828,0.0512644350528717,0.0539017580449581,0.0591603890061378
236,0.00691625429317355,0.00435166526585817,0.037260290235281,0.0539273582398891,0.0546024590730667,0.0584497600793839
237,0.00603591185063124,0.00394714390859008,0.0368202365934849,0.0542134568095207,0.0532115921378136,0.0545150898396969
238,0.00429725600406528,0.00276445806957781,0.0347650647163391,0.0531317666172981,0.0506499968469143,0.0494653359055519
239,0.00276896916329861,0.00205702218227088,0.0332180522382259,0.0522189401090145,0.0480458252131939,0.0458650588989258
240,0.00141753768548369,0.00160686951130629,0.0326976031064987,0.0509495362639427,0.0455696433782578,0.0439496710896492
241,-0.000200263442820869,0.000689031323418021,0.0327311307191849,0.0481361895799637,0.0434262007474899,0.0428874306380749
242,-0.00182283308822662,-0.000458595954114571,0.0328470841050148,0.0442051440477371,0.0420511364936829,0.0423360131680965
243,-0.00177891191560775,-0.000680652621667832,0.0331121794879436,0.0412906855344772,0.0421566143631935,0.0428324937820435
244,0.000961398822255433,0.000304234679788351,0.0337427854537964,0.0405385568737984,0.0438518784940243,0.0442603044211864
245,0.00485514802858233,0.00115412950981408,0.0342057794332504,0.0407077223062515,0.0458063930273056,0.0450360178947449
246,0.0070849247276783,0.000430158019298688,0.0330030284821987,0.0398080907762051,0.045933373272419,0.0437639951705933
247,0.00658593745902181,-0.00153434544336051,0.0300682317465544,0.0374808125197887,0.0442828610539436,0.0407683961093426
248,0.00530365016311407,-0.00248863478191197,0.0280017871409655,0.0354626998305321,0.0433555096387863,0.0382555201649666
249,0.00483174668624997,-0.00114666542503983,0.0282397754490376,0.0351270064711571,0.0439147353172302,0.0383974127471447
250,0.00453738542273641,0.00104736012872308,0.0293903611600399,0.0358430743217468,0.0445759072899818,0.0409186594188213
251,0.00443978048861027,0.00299659697338939,0.0306988544762135,0.0374156609177589,0.0454390458762646,0.0444736145436764
252,0.00481750583276153,0.0043229223228991,0.0321195609867573,0.039860513061285,0.0472021885216236,0.0470869839191437
253,0.00431774742901325,0.00375617062672973,0.0324449948966503,0.0412767194211483,0.0481926500797272,0.0460078567266464
254,0.00311064091511071,0.00175117561593652,0.0318749584257603,0.0406446978449821,0.0478033646941185,0.041251752525568
255,0.00363365490920842,0.000505123694892973,0.0323032848536968,0.0391104966402054,0.0483626537024975,0.0358826443552971
256,0.00596475880593061,0.000535344297531992,0.0334350168704987,0.0374397225677967,0.0494277216494083,0.032694797962904
257,0.00835424847900867,0.00162638095207512,0.0337294898927212,0.0360253527760506,0.0487470105290413,0.0331390388309956
258,0.0102933738380671,0.00379618094302714,0.0328637510538101,0.0353895239531994,0.0470875799655914,0.0361922904849052
259,0.0111738014966249,0.00570327881723642,0.0306098535656929,0.0348260253667831,0.0450645051896572,0.038391537964344
260,0.0103980805724859,0.0060042324475944,0.0270962007343769,0.0329819358885288,0.0420411862432957,0.0372945293784142
261,0.00896413158625364,0.00530258193612099,0.023889072239399,0.0303530283272266,0.0391071662306786,0.0335762575268745
262,0.00829549133777618,0.00461534410715103,0.0225066058337688,0.0287533942610025,0.0379574112594128,0.0292011182755232
263,0.00811580754816532,0.00359099847264588,0.0226409398019314,0.0281005296856165,0.038752444088459,0.02491663582623
264,0.00731719192117453,0.00282706273719668,0.0235848370939493,0.0276654567569494,0.0403755344450474,0.0218031406402588
265,0.00594502268359065,0.00387308420613408,0.0252138078212738,0.0276503954082727,0.0416270606219769,0.0213900115340948
266,0.0041287038475275,0.00583572778850794,0.0263090841472149,0.0272033624351025,0.0415577962994576,0.0227178744971752
267,0.00188413332216442,0.00729922484606504,0.0259430389851332,0.0259611122310162,0.0403422713279724,0.0245714597404003
268,-0.00015522625471931,0.0074725141748786,0.024551460519433,0.0241946820169687,0.039466816931963,0.0262668114155531
269,-0.00159147288650274,0.00510160066187382,0.0224022418260574,0.0211479142308235,0.0393699258565903,0.0257939286530018
270,-0.0027834358625114,0.000951990310568362,0.0200892351567745,0.0176230575889349,0.0387945584952831,0.0231395959854126
271,-0.00421645259484649,-0.00235403911210597,0.0184807181358337,0.0159828849136829,0.0367688164114952,0.021239161491394
272,-0.00607502460479736,-0.00400975625962019,0.0169843416661024,0.0159335359930992,0.0330182164907455,0.0209437143057585
273,-0.00796293932944536,-0.00471293646842241,0.0148153770714998,0.0155785446986556,0.028517222031951,0.0205713268369436
274,-0.00857175048440695,-0.00416838377714157,0.0134778339415789,0.0156808756291866,0.0256100296974182,0.0197971127927303
275,-0.00803695619106293,-0.0026731425896287,0.0141035262495279,0.0170528572052717,0.0246254038065672,0.0190274752676487
276,-0.00775697268545628,-0.00136544904671609,0.0157740246504545,0.0184481460601091,0.0240700580179691,0.0183984134346247
277,-0.00772590562701225,-0.000748493301216513,0.0174358431249857,0.0188589449971914,0.0230467487126589,0.0178358275443316
278,-0.00840556994080544,-0.0020576745737344,0.0177419874817133,0.0176755413413048,0.0209478233009577,0.0165059193968773
279,-0.0101506542414427,-0.00531498016789556,0.0163229648023844,0.0154840331524611,0.0188791584223509,0.0148820988833904
280,-0.0107519263401628,-0.00707181263715029,0.0151269342750311,0.0144893601536751,0.0196617618203163,0.0149804465472698
281,-0.00953669752925634,-0.00547250406816602,0.015072182752192,0.0150202410295606,0.023201921954751,0.0165605489164591
282,-0.00897198356688023,-0.00333762285299599,0.0146020594984293,0.0149543806910515,0.025967825204134,0.0168334674090147
283,-0.00961902365088463,-0.00271901022642851,0.0138616859912872,0.0143536273390055,0.0265322159975767,0.0152952075004578
284,-0.00949591118842363,-0.00199242890812457,0.0151634076610208,0.0160486996173859,0.0266522560268641,0.0146465683355927
285,-0.00787790399044752,0.000161317002493888,0.0186888333410025,0.0206183269619942,0.0267885252833366,0.0159632451832294
286,-0.00620637461543083,0.00234119035303593,0.0216002203524113,0.0247074626386166,0.0252873972058296,0.0170208308845758
287,-0.00570584833621979,0.00326769682578743,0.0217543710023165,0.0261853337287903,0.0223789010196924,0.0168910603970289
288,-0.00646422849968076,0.00343097117729485,0.0199724789708853,0.0261224117130041,0.0201055184006691,0.0175611712038517
289,-0.0084673585370183,0.00302457110956311,0.0171573627740145,0.0246428623795509,0.0185970719903708,0.0197350364178419
290,-0.0112829059362412,0.00164741440676153,0.0133009795099497,0.0211835820227861,0.0168039854615927,0.0217992644757032
291,-0.014104007743299,-0.000594312907196581,0.00896575767546892,0.0166203305125237,0.0140955233946443,0.0223346669226885
292,-0.0153537075966597,-0.00160726706963032,0.00583981769159436,0.0133791342377663,0.011029701679945,0.0228740125894547
293,-0.013692838139832,0.000998967560008168,0.00588758895173669,0.0138517310842872,0.00963852182030678,0.0258496943861246
294,-0.0109558291733265,0.00531657552346587,0.00822906848043203,0.0164967086166143,0.0100528663024306,0.0288641136139631
295,-0.0101441312581301,0.00707124825567007,0.00997339468449354,0.0174830425530672,0.0101134292781353,0.0273113045841455
296,-0.0119045795872808,0.00480351224541664,0.00997574627399445,0.0159515682607889,0.00837897974997759,0.0207657869905233
297,-0.0146726863458753,0.000384760351153091,0.00958692841231823,0.0141843194141984,0.00502564292401075,0.0127348620444536
298,-0.0164585839956999,-0.00381822511553764,0.0103951673954725,0.013718169182539,0.00170174054801464,0.00663508614525199
299,-0.0164911411702633,-0.00630548503249884,0.0123405763879418,0.0142356026917696,1.96875716937939E-05,0.00408810144290328
300,-0.0154362926259637,-0.00689284456893802,0.014578397385776,0.014771057292819,0.000369648390915245,0.00426496472209692
301,-0.014322686009109,-0.00691331876441836,0.0160780996084213,0.0139961438253522,0.00160265481099486,0.00445078080520034
302,-0.0135950772091746,-0.00670684361830354,0.0162049010396004,0.0121245421469212,0.00207068957388401,0.00397514784708619
303,-0.0132073033601046,-0.00541399419307709,0.0152251571416855,0.0107899149879813,0.00175318541005254,0.00432785740122199
304,-0.0129918707534671,-0.00331868510693312,0.0136725660413504,0.0104415407404304,0.00135139282792807,0.00569065660238266
305,-0.0126025471836329,-0.00161304709035903,0.0121121695265174,0.0103066675364971,0.000942714628763497,0.00675348518416286
306,-0.0116387959569693,-0.00054317875765264,0.0111167654395103,0.010131417773664,0.000632079318165779,0.00705772126093507
307,-0.0102414302527905,0.000520435045473278,0.0105399806052446,0.0100059462711215,0.000489948026370257,0.00704060774296522
308,-0.00868959072977304,0.00152824830729514,0.00975303165614605,0.00944670289754868,0.000631920644082129,0.00654404703527689
309,-0.00710944039747119,0.00207703071646392,0.00877923797816038,0.00844736769795418,0.00102621072437614,0.00558477733284235
310,-0.00628317520022392,0.00215024198405445,0.00770746357738972,0.00762851629406214,0.000642786209937185,0.00500730518251657
311,-0.00638100272044539,0.00217966386117041,0.00681577110663056,0.0075746770016849,-0.00082606024807319,0.00628826022148132
312,-0.00635830592364073,0.00275075109675527,0.00684566423296928,0.00858760066330433,-0.00231961510144174,0.0104342168197036
313,-0.00552096450701356,0.00383724155835807,0.00828729383647442,0.0100628258660436,-0.00321347010321915,0.0158035680651665
314,-0.0035368159878999,0.0051303543150425,0.0112959407269955,0.0114651098847389,-0.00341291073709726,0.019671592861414
315,-0.000767400371842086,0.00595118617638946,0.0146975396201015,0.0127998190000653,-0.00286670494824648,0.0212185122072697
316,0.00171684636734426,0.00572149315848947,0.0166089050471783,0.0139419324696064,-0.00219285651110113,0.020929004997015
317,0.00397073430940509,0.00498304190114141,0.0168300177901983,0.0144421048462391,-0.00189928279723972,0.0186648201197386
318,0.00628713518381119,0.00357835553586483,0.0164401866495609,0.0131647540256381,-0.00150406488683075,0.0137681467458606
319,0.00768526969477534,0.00107445602770895,0.0160653088241816,0.00989614613354206,-0.00145301700104028,0.00768491113558412
320,0.00766686024144292,-0.00127992313355207,0.0152418864890933,0.00598712125793099,-0.00214768829755485,0.00349803455173969
321,0.00728778913617134,-0.00208234321326017,0.013838779181242,0.00312385079450905,-0.00176537176594138,0.00263503915630281
322,0.00774948159232736,-0.00126041355542839,0.0130355907604098,0.00268281786702573,0.00101170525886118,0.00447509437799454
323,0.00842944532632828,0.00020490208407864,0.0128290513530374,0.00436948938295245,0.00444420939311385,0.00729021430015564
324,0.00818102713674307,0.00146935367956758,0.0123133286833763,0.00660322839394212,0.00635231379419565,0.00947840698063374
325,0.00772416731342673,0.00235798442736268,0.0118362307548523,0.00855585094541311,0.00666616950184107,0.0108912885189056
326,0.00809705350548029,0.00284679885953665,0.0120607018470764,0.0103952437639236,0.0060178367421031,0.0124618327245116
327,0.00933424010872841,0.00289000757038593,0.013102188706398,0.0117822606116533,0.00505782850086689,0.0146306762471795
328,0.01090432330966,0.00288258702494204,0.0145405866205692,0.0120474537834525,0.00445338571444154,0.0171257071197033
329,0.0114227151498199,0.00255139474757016,0.0154072633013129,0.0110723897814751,0.00358651811257005,0.0189317315816879
330,0.0103801768273115,0.000757502682972699,0.0149668212980032,0.00858562532812357,0.00161953212227672,0.0185011923313141
331,0.00928814057260752,-0.0013015327276662,0.0136780980974436,0.00499910581856966,-0.000656830088701099,0.0164042599499226
332,0.00899648480117321,-0.000823639333248138,0.0125413816422224,0.00207021320238709,-0.00223186099901795,0.0150963263586164
333,0.00915525108575821,0.00225591263733804,0.0121458368375897,0.000929496192838997,-0.00282030692324042,0.0152168273925781
334,0.00917130522429943,0.00484397076070309,0.011838773265481,0.000419492542278022,-0.00276401801966131,0.0144377620890737
335,0.00865555834025145,0.00503498315811157,0.0109499776735902,-0.000365967978723347,-0.00247925240546465,0.0115285869687796
336,0.00796126108616591,0.00404296908527613,0.0101632289588451,-0.000384910206776112,-0.00188924313988537,0.00831130519509315
337,0.0077901859767735,0.00339621491730213,0.0100651495158672,0.000666433246806264,-0.000836025865282863,0.00596289150416851
338,0.00833043269813061,0.0031949682161212,0.0107140121981502,0.00169063440989703,0.000674567418172956,0.00401695724576712
339,0.0088712377473712,0.00256064161658287,0.0117516033351421,0.00180906953755766,0.00182010547723621,0.00188531319145113
340,0.00940006971359253,0.00152888055890799,0.0127169666811824,0.00131373561453074,0.00220159068703651,-0.0001993092300836
341,0.0100847836583853,0.00104322552215308,0.0128756025806069,0.000615947472397238,0.00193732313346118,-0.00123257341329008
342,0.0105675850063562,0.00128410395700485,0.0116241173818707,-0.000536845007445663,0.00117077550385147,-0.00101111922413111
343,0.0111006014049053,0.0017964142607525,0.00966381374746561,-0.00201737298630178,0.00101289106532931,-0.000853993697091937
344,0.0112413186579943,0.0020052024628967,0.00759360706433654,-0.00311399856582284,0.00152752397116274,-0.00211767037399113
345,0.0104096122086048,0.00165338546503335,0.00555681483820081,-0.00327550969086587,0.00193258840590715,-0.00475837709382176
346,0.00914727430790663,0.000537597225047648,0.00394656555727124,-0.00336411176249385,0.00203874497674406,-0.00834506098181009
347,0.00822773389518261,-0.000916285149287432,0.0034030310343951,-0.0040115462616086,0.00163215037900954,-0.0117243444547057
348,0.00796319078654051,-0.00148761854507029,0.00419011246412992,-0.00405000383034348,0.000744170916732401,-0.0125420708209276
349,0.00748893246054649,-0.00145311339292675,0.00466986838728189,-0.00380920059978962,-0.000961452606134117,-0.0105214528739452
350,0.00544835440814495,-0.00231648795306683,0.00286142970435321,-0.00525622209534049,-0.00409642467275262,-0.00803552009165287
351,0.00177398638334125,-0.00426351558417082,-0.000443452998297289,-0.00797794573009014,-0.00839263387024403,-0.00669326120987535
352,-0.00161301554180682,-0.00586590869352221,-0.00253550079651177,-0.00935288146138191,-0.0127575574442744,-0.00619249232113361
353,-0.00236697727814317,-0.00605263607576489,-0.00204921560361981,-0.00835401937365532,-0.0157961491495371,-0.00598035706207156
354,0.000357958022505045,-0.00500496057793498,0.000166210142197087,-0.00614511733874679,-0.0169123914092779,-0.00571955880150199
355,0.00482263881713152,-0.00383038027212024,0.00229699932970107,-0.00463953986763954,-0.0170450266450644,-0.00567658804357052
356,0.00819888338446617,-0.00356853939592838,0.00333500374108553,-0.00500857783481479,-0.0169436410069466,-0.00694234855473042
357,0.00984428264200687,-0.00394533947110176,0.0035873050801456,-0.0066180657595396,-0.0165937766432762,-0.00994825176894665
358,0.0107325129210949,-0.00413239467889071,0.00361996097490191,-0.00819621048867702,-0.0161787811666727,-0.0135984318330884
359,0.0109087098389864,-0.00409629242494702,0.00366058712825179,-0.00879050139337778,-0.0155794154852629,-0.0160847753286362
360,0.00992531888186932,-0.00425331387668848,0.00351795228198171,-0.00837206840515137,-0.0145422071218491,-0.0170671697705984
361,0.00812943559139967,-0.00439397618174553,0.00257303984835744,-0.00805366598069668,-0.0136292269453406,-0.017894109711051
362,0.00572187965735793,-0.00479410123080015,0.000119116870337166,-0.0095450971275568,-0.0137211512774229,-0.020209988579154
363,0.00239697401411831,-0.00638417527079582,-0.00352677889168262,-0.013416213914752,-0.0148131540045142,-0.0241489391773939
364,-0.00101091677788645,-0.00799257587641478,-0.00650548422709107,-0.0169731434434652,-0.016027195379138,-0.0270690955221653
365,-0.00311782886274159,-0.00794790685176849,-0.00775442458689213,-0.0175991281867027,-0.0169906429946423,-0.0268355719745159
366,-0.00470486283302307,-0.0075857313349843,-0.00891921482980251,-0.0170051958411932,-0.0187414139509201,-0.025217417627573
367,-0.00764393620193005,-0.0087978495284915,-0.0114709883928299,-0.0174490492790937,-0.0220994725823402,-0.0249947868287563
368,-0.0113255623728037,-0.0109590031206608,-0.0140403099358082,-0.0177713818848133,-0.0254652574658394,-0.0259937793016434
369,-0.0128608616068959,-0.0118972193449736,-0.014102878049016,-0.0161109138280153,-0.0257437899708748,-0.0262968149036169
370,-0.0115937916561961,-0.0105040417984128,-0.0114107606932521,-0.012923089787364,-0.0228221993893385,-0.0249082688242197
371,-0.0100847845897079,-0.00769197568297386,-0.00856084935367107,-0.0103432480245829,-0.0200769864022732,-0.0221861507743597
372,-0.00921124406158924,-0.00444662757217884,-0.0072349482215941,-0.00923232361674309,-0.0188621245324612,-0.0189043860882521
373,-0.00766421668231487,-0.00116157776210457,-0.00686475401744246,-0.00850292108952999,-0.0178426820784807,-0.015910305082798
374,-0.0065261023119092,0.000575264100916684,-0.00774389086291194,-0.00859639886766672,-0.0175346955657005,-0.0153357414528728
375,-0.00727229425683618,-4.11364908359246E-07,-0.00974652171134949,-0.0102315908297896,-0.0185113307088614,-0.0181481558829546
376,-0.00835542567074299,-0.000804837967734784,-0.0101801436394453,-0.0115323327481747,-0.0179733354598284,-0.0218270774930716
377,-0.00892242044210434,-0.000706033839378506,-0.00816147588193417,-0.0118035739287734,-0.0146166542544961,-0.0242743529379368
378,-0.00952622480690479,-0.000562369823455811,-0.0062896735034883,-0.0126536507159472,-0.011586407199502,-0.0256513506174088
379,-0.00858817528933287,-0.000223923940211535,-0.00578000256791711,-0.0140766985714436,-0.0107740573585033,-0.0260762590914965
380,-0.0047996798530221,0.000555851554963738,-0.00514001771807671,-0.0150776105001569,-0.0107763940468431,-0.0258796159178019
381,-0.000910567177925259,2.59750650002388E-05,-0.00421905145049095,-0.0162332709878683,-0.0115281753242016,-0.0267302021384239
382,8.217465801863E-05,-0.00274026719853282,-0.00417116982862353,-0.0171270202845335,-0.0142069607973099,-0.0285389367491007
383,-0.00118956388905644,-0.00625525647774339,-0.00469693960621953,-0.0158779285848141,-0.0177448000758886,-0.0288304276764393
384,-0.00257121887989342,-0.00932122021913528,-0.00517448829486966,-0.0130525259301066,-0.0192421339452267,-0.0273348186165094
385,-0.00296009052544832,-0.0109250787645578,-0.00611186865717173,-0.0111940307542682,-0.0176758803427219,-0.0257907155901194
386,-0.00325692817568779,-0.0104695009067655,-0.00840064324438572,-0.0119406003504992,-0.0155072752386332,-0.0254051201045513
387,-0.00424644537270069,-0.00881201680749655,-0.0113271819427609,-0.0142096243798733,-0.0144035201519728,-0.0261108223348856
388,-0.00491172773763537,-0.00675886403769255,-0.0130134671926498,-0.015423915348947,-0.0136182820424438,-0.0269054751843214
389,-0.00459435256198049,-0.00493501825258136,-0.0130356680601835,-0.0153710972517729,-0.0126992296427488,-0.0276144407689571
390,-0.00364884594455361,-0.00365585624240339,-0.0118630407378078,-0.0150763327255845,-0.0118954218924046,-0.0278432033956051
391,-0.00236626109108329,-0.00300491554662585,-0.00998660922050476,-0.014741069637239,-0.0116935884580016,-0.0271082911640406
392,-0.000740721239708364,-0.00358009967021644,-0.00836709700524807,-0.0150537509471178,-0.0119718695059419,-0.0268097575753927
393,0.00101255427580327,-0.00546197174116969,-0.00802423432469368,-0.016831174492836,-0.0122964950278401,-0.0279344320297241
394,0.00233166432008147,-0.00754514848813415,-0.00928836409002543,-0.0191633719950914,-0.0130164315924048,-0.0291782133281231
395,0.00262775202281773,-0.00932915229350328,-0.0115152550861239,-0.0205610133707523,-0.0141133302822709,-0.0301886647939682
396,0.00228409329429269,-0.0112161515280604,-0.0132209360599518,-0.0208432096987963,-0.0140604013577104,-0.0321862995624542
397,0.0028499064501375,-0.0125856548547745,-0.0128289069980383,-0.0201717466115952,-0.0114795127883554,-0.034480907022953
398,0.00506322691217065,-0.0120039489120245,-0.0102541772648692,-0.0178285259753466,-0.00709520513191819,-0.0345639325678349
399,0.00760542880743742,-0.00979156605899334,-0.00746338441967964,-0.0142443422228098,-0.0030079148709774,-0.0319580547511578
400,0.00869572348892689,-0.00812694896012545,-0.00607470003888011,-0.0118579966947436,-0.000698985590133816,-0.0284329857677221
401,0.00792177580296993,-0.00790010392665863,-0.00589799741283059,-0.0118107376620173,-0.000564539164770395,-0.0249137245118618
402,0.0066336365416646,-0.00788374058902264,-0.00606768950819969,-0.0129835270345211,-0.00188159884419292,-0.0213403813540936
403,0.00670450879260898,-0.00690101645886898,-0.0056584975682199,-0.0138675384223461,-0.00318657397292554,-0.0177969392389059
404,0.00756176421418786,-0.00569941010326147,-0.0051788417622447,-0.014401595108211,-0.00446286285296083,-0.0152242844924331
405,0.00770371500402689,-0.00559393363073468,-0.00579628581181169,-0.0149736311286688,-0.00554231787100434,-0.0145526016131043
406,0.00718994298949838,-0.00665879948064685,-0.00716183986514807,-0.0149532407522202,-0.00530371256172657,-0.0155928805470467
407,0.00607010954990983,-0.0084697250276804,-0.00913265068084002,-0.0145728252828121,-0.00533264596015215,-0.0178687199950218
408,0.00482808891683817,-0.0101158665493131,-0.011382918804884,-0.0144493607804179,-0.00684176944196224,-0.0205864943563938
409,0.00444681011140347,-0.0104198651388288,-0.0122277922928333,-0.0138161452487111,-0.00764559395611286,-0.02210926823318
410,0.00451085483655334,-0.00953241158276796,-0.0115157784894109,-0.0121522983536124,-0.00685340724885464,-0.0214469991624355
411,0.00423863064497709,-0.00866912398487329,-0.0106376660987735,-0.0101218139752746,-0.00571133196353912,-0.0194107256829739
412,0.00408365437760949,-0.00797626003623009,-0.00965561252087355,-0.00806612707674503,-0.00459852116182446,-0.0168902091681957
413,0.00464585795998573,-0.00690390588715672,-0.00823108572512865,-0.00615293718874455,-0.00376952858641744,-0.0145642934367061
414,0.00497888494282961,-0.00643177330493927,-0.00788021180778742,-0.00561875523999333,-0.00473497668281198,-0.0141303148120642
415,0.00392660917714238,-0.0073981094174087,-0.00992436427623034,-0.00700606079772115,-0.00778385251760483,-0.0160850156098604
416,0.00282161822542548,-0.00829309970140457,-0.0126291383057833,-0.0084877097979188,-0.0102749867364764,-0.018275611102581
417,0.00323688820935786,-0.00776969641447067,-0.0137896994128823,-0.0085276672616601,-0.0107727199792862,-0.0188919994980097
418,0.00440558325499296,-0.00669408868998289,-0.0136449756100774,-0.0078344214707613,-0.0106167430058122,-0.0185010135173798
419,0.00562984263524413,-0.00615828903391957,-0.013030307367444,-0.00667463429272175,-0.0104437069967389,-0.0179576650261879
420,0.00649027293547988,-0.00641533313319087,-0.0126459468156099,-0.0047258255071938,-0.0104389116168022,-0.0175970233976841
421,0.00577249890193343,-0.00746550690382719,-0.013294255360961,-0.00371623528189957,-0.0109644178301096,-0.0186631176620722
422,0.0039331242442131,-0.00845372769981623,-0.0139662008732557,-0.00482203857973218,-0.0109800975769758,-0.0211436673998833
423,0.00240807887166739,-0.00877033453434706,-0.0131451915949583,-0.00652299355715513,-0.00957801658660173,-0.0226236619055271
424,0.00159442541189492,-0.00874910689890385,-0.0110531924292445,-0.00746421748772264,-0.00747839687392116,-0.0210360754281282
425,0.00149377051275223,-0.00833314377814531,-0.00882109440863132,-0.00783621426671743,-0.00656484346836805,-0.0165062490850687
426,0.00134758558124304,-0.00749522633850574,-0.00764515856280923,-0.00823496468365192,-0.00809736084192991,-0.0107793053612113
427,0.000355444353772327,-0.00646931026130915,-0.00743168964982033,-0.008651252835989,-0.0101037165150046,-0.00518226157873869
428,-0.00121446722187102,-0.00525698252022266,-0.00685127964243293,-0.00849900487810373,-0.00992512237280607,7.18528463039547E-05
429,-0.00251063122414052,-0.00430352007970214,-0.00583441136404872,-0.00783352181315422,-0.00843364745378494,0.004533217754215
430,-0.00285371858626604,-0.00463587092235684,-0.00550501514226198,-0.00767428707331419,-0.00845713727176189,0.00653012236580253
431,-0.00167990336194634,-0.00641665607690811,-0.00591996219009161,-0.00807831529527903,-0.0104007683694363,0.00490425573661923
432,0.00154100032523274,-0.00861782860010862,-0.00612874003127217,-0.00762608321383595,-0.0115893669426441,0.000371475674910471
433,0.00586502207443118,-0.0103046791628003,-0.00638115964829922,-0.005817711353302,-0.0102635715156794,-0.00503413425758481
434,0.00926518440246582,-0.0109614674001932,-0.00774217396974564,-0.00401468947529793,-0.00743988342583179,-0.00892756972461939
435,0.0109759671613574,-0.0100018130615354,-0.00993416458368301,-0.00378368655219674,-0.00511503964662552,-0.0105160009115934
436,0.0110553530976176,-0.0077978721819818,-0.0124042425304651,-0.00614194246008992,-0.00514284754171968,-0.0112615115940571
437,0.0094710374251008,-0.00657779816538095,-0.0151660218834877,-0.0113214962184429,-0.00749077601358294,-0.0133611634373665
438,0.00651882821694016,-0.00789107568562031,-0.0180065203458071,-0.0175343547016382,-0.0107896896079183,-0.0169225428253412
439,0.00356014934368432,-0.010046542622149,-0.0198331084102392,-0.0209767911583185,-0.0138961235061288,-0.0186313968151808
440,0.00305098970420659,-0.0100421365350485,-0.0185090955346823,-0.0187721028923988,-0.0145350322127342,-0.015357437543571
441,0.00496478285640478,-0.00807223189622164,-0.0144686438143253,-0.0130171123892069,-0.0120341293513775,-0.00909639708697796
442,0.00626415433362126,-0.00701657822355628,-0.0113725746050477,-0.00897105690091848,-0.00921973865479231,-0.00491859624162316
443,0.00523853208869696,-0.00791132636368275,-0.0111889969557524,-0.00900480151176453,-0.00880296528339386,-0.00483041116967797
444,0.00318970624357462,-0.00943380501121283,-0.0127335079014301,-0.0112147936597466,-0.0107760997489095,-0.0071964985691011
445,0.00272374204359949,-0.00977076590061188,-0.0135242277756333,-0.0121919410303235,-0.0121967857703567,-0.00936134997755289
446,0.00407441193237901,-0.00866177305579185,-0.0123681211844087,-0.0108721973374486,-0.0113368667662144,-0.00996434316039085
447,0.00500422203913331,-0.00754470890387893,-0.00992841087281704,-0.00907132588326931,-0.00992178916931152,-0.00932974833995104
448,0.00414302758872509,-0.00774764455854893,-0.00776763819158077,-0.0089467465877533,-0.00951068196445704,-0.00838190689682961
449,0.00161361845675856,-0.00994723383337259,-0.00797194801270962,-0.0117885768413544,-0.0103880790993571,-0.00847719889134169
450,-0.00120485736988485,-0.0127065358683467,-0.00999663025140762,-0.015926007181406,-0.0118118599057198,-0.00910489447414875
451,-0.00262206001207232,-0.0134979346767068,-0.0109111126512289,-0.017848702147603,-0.0120906615629792,-0.00824932754039764
452,-0.00179993826895952,-0.0117133008316159,-0.00945901684463024,-0.0164763778448105,-0.0103280497714877,-0.00605215597897768
453,0.00082624948117882,-0.00820904783904552,-0.00663038576021791,-0.0133143765851855,-0.00760970870032907,-0.00382002536207438
454,0.00319478125311434,-0.0045283087529242,-0.00472439872100949,-0.01051723677665,-0.00620580790564418,-0.00211840542033315
455,0.00386844854801893,-0.00193377141840756,-0.00478499615564942,-0.00883028283715248,-0.00670994771644473,-0.00097564107272774
456,0.00349267642013729,-0.000756463385187089,-0.00534916436299682,-0.00795829296112061,-0.00778553448617458,-0.000384978688089177
457,0.0029720060992986,-0.00105919933412224,-0.00578300328925252,-0.00838316231966019,-0.00874006468802691,-0.000739290378987789
458,0.00310657173395157,-0.00153921148739755,-0.00594465108588338,-0.00922100152820349,-0.00893814954906702,-0.00134533876553178
459,0.00435961689800024,-0.000452262960607186,-0.00462517468258739,-0.00838123355060816,-0.00801781192421913,-0.000678740965668112
460,0.00483456160873175,0.000644518120680004,-0.00310193886980414,-0.00703697418794036,-0.00834415666759014,7.78743487899192E-05
461,0.00275980867445469,-0.000866944377776235,-0.00342586822807789,-0.007156727835536,-0.0113047771155834,-0.000731036823708564
462,-0.000189259590115398,-0.00402958691120148,-0.00446232315152884,-0.00722586596384645,-0.0138767175376415,-0.00150970323011279
463,-0.00135763199068606,-0.00531425420194864,-0.00401079328730702,-0.00485903024673462,-0.0128940595313907,-7.58761234465055E-05
464,-0.000604400760494173,-0.00290450663305819,-0.00194083852693439,-0.000468124548206106,-0.00933220703154802,0.00327251572161913
465,0.000152568900375627,0.00135450204834342,-0.000165845267474651,0.00319746811874211,-0.00616300897672772,0.00624281540513039
466,-3.56865166395437E-05,0.00476952688768506,6.56405745758093E-06,0.00427179224789143,-0.0043887123465538,0.00692325131967664
467,-0.00121856073383242,0.00594231346622109,-0.00164409179706126,0.00228153332136571,-0.00456939451396465,0.00483442051336169
468,-0.00280020735226572,0.00535592343658209,-0.00417460175231099,-0.0015161270275712,-0.00706881051883101,0.0018746922723949
469,-0.00298014120198786,0.00468210270628333,-0.00585433840751648,-0.00473338738083839,-0.00969058740884066,0.000563721754588187
470,-0.00100623827893287,0.0048216967843473,-0.00611864496022463,-0.00655284291133285,-0.00959007441997528,0.0014537776587531
471,0.00141140562482178,0.0055725066922605,-0.00589930918067694,-0.00735647650435567,-0.0068132309243083,0.0041882605291903
472,0.00108723528683186,0.00525156641378999,-0.00728860404342413,-0.00828651152551174,-0.00491396710276604,0.00683595193549991
473,-0.00231036567129195,0.00313395634293556,-0.0103146312758327,-0.00963860843330622,-0.00549584627151489,0.00767517741769552
474,-0.00535452179610729,0.00102297076955438,-0.0123291043564677,-0.0102124633267522,-0.00621806550770998,0.00721234129741788
475,-0.0066620078869164,-0.000378566444851458,-0.012960291467607,-0.0104825170710683,-0.00644117454066873,0.00548445899039507
476,-0.00695669138804078,-0.00139603926800191,-0.0129748433828354,-0.0110606895759702,-0.00703781982883811,0.00307830702513456
477,-0.00660086702555418,-0.00219518318772316,-0.0117126312106848,-0.0112802917137742,-0.00766826793551445,0.00131080974824727
478,-0.00612607225775719,-0.0028672837652266,-0.00868656486272812,-0.010655427351594,-0.00714971264824271,0.00067580136237666
479,-0.00569423008710146,-0.00265849358402193,-0.00492877746000886,-0.00865598581731319,-0.00506333773955703,0.00204585934989154
480,-0.00447527226060629,-0.000860127969644964,-0.00248591159470379,-0.00517856376245618,-0.0033276763278991,0.00565560441464186
481,-0.00150207651313394,0.00193036522250623,-0.00180918665137142,-0.000772768282331526,-0.00302743935026228,0.00948877446353436
482,0.0026482657995075,0.00320877740159631,-0.00128364912234247,0.00363719509914517,-0.00251862616278231,0.0106240343302488
483,0.00587886851280928,0.000975161558017135,7.02239194652066E-05,0.00669426657259464,-0.00127275846898556,0.00823523011058569
484,0.00593168009072542,-0.00349479471333325,0.000717446324415505,0.00686679827049375,-0.00123962305951864,0.00424130586907268
485,0.00273036863654852,-0.00682915048673749,-0.000826640345621854,0.00424742279574275,-0.00347761786542833,0.00101124646607786
486,-0.00150078965816647,-0.00739863840863109,-0.00412111077457666,0.000522293674293906,-0.00686812493950129,-0.00126102135982364
487,-0.00429646531119943,-0.00637192046269774,-0.00761745497584343,-0.00303248502314091,-0.00901937484741211,-0.00388239463791251
488,-0.00419849436730146,-0.0047764484770596,-0.00930836144834757,-0.00539376819506288,-0.00816786382347345,-0.00601495895534754
489,-0.00213032565079629,-0.00299152033403516,-0.00868858024477959,-0.00621814653277397,-0.00566359935328364,-0.00563342776149511
490,-0.000605792971327901,-0.0023707312066108,-0.00775836501270533,-0.00674309767782688,-0.00502865156158805,-0.003816346405074
491,-0.000580084975808859,-0.00368796475231647,-0.00815152656286955,-0.00783349107950926,-0.00740745011717081,-0.00303142913617194
492,-0.000639739213511348,-0.00544862728565931,-0.00870221853256226,-0.00863013509660959,-0.00979774817824364,-0.00323180621489882
493,0.00063759833574295,-0.00605874927714467,-0.00817908346652985,-0.00848183780908585,-0.00974701903760433,-0.00318025262095034
494,0.00283967470750213,-0.00527425250038505,-0.00728345708921552,-0.00764440512284637,-0.00840480718761683,-0.00202765944413841
495,0.00386215443722904,-0.00421797065064311,-0.00737934047356248,-0.00697412109002471,-0.00820217933505774,-0.000153064145706594
496,0.00296741025522351,-0.00402623414993286,-0.00833182502537966,-0.00707799615338445,-0.0095964353531599,0.00138247373979539
497,0.00175581709481776,-0.00415005069226027,-0.00851600058376789,-0.00717592891305685,-0.0115231927484274,0.00294788088649511
498,0.000224099974730052,-0.00453939521685243,-0.00863001216202974,-0.00735423900187016,-0.0141828553751111,0.00417438941076398
499,-0.00261264131404459,-0.00531890569254756,-0.0104124508798122,-0.00843799114227295,-0.0167708098888397,0.0040105702355504
500,-0.00556764286011457,-0.00492584193125367,-0.0129067460075021,-0.00971371121704578,-0.0168461389839649,0.00347646325826645
501,-0.00664510624483228,-0.00246740179136395,-0.0138986939564347,-0.00970062240958214,-0.0140633564442396,0.00416745338588953
502,-0.00493535306304693,0.00135515292640775,-0.012374646961689,-0.0075953733175993,-0.0100843627005816,0.00642638886347413
503,-0.00171584077179432,0.00454219756647944,-0.0101470444351435,-0.00507597997784615,-0.00755780236795545,0.00838099699467421
504,0.000190133447176777,0.00509074330329895,-0.0101075461134315,-0.00461982842534781,-0.00875525269657373,0.00790726765990257
505,-0.000410069653298706,0.00341868819668889,-0.0122925899922848,-0.00593405636027455,-0.0129231968894601,0.00552812544628978
506,-0.00192050880286843,0.00146813248284161,-0.0142116211354733,-0.00675826286897063,-0.0170761700719595,0.0028163599781692
507,-0.00224404269829392,0.000906725588720292,-0.0140740163624287,-0.00572018697857857,-0.0190376453101635,0.000743343494832516
508,-0.00163703004363924,0.00130116229411215,-0.0130484905093908,-0.00488901231437922,-0.0195981673896313,-0.00175304501317441
509,-0.00257745501585305,0.00016559062351007,-0.0142941577360034,-0.00717701949179173,-0.0217849276959896,-0.00665309932082891
510,-0.00585122080519795,-0.0025302735157311,-0.0185056589543819,-0.0111618489027023,-0.0261434707790613,-0.0119009576737881
511,-0.00917700864374638,-0.00395982898771763,-0.0225673858076334,-0.0133597422391176,-0.0296367146074772,-0.0134906908497214
512,-0.0109547656029463,-0.00286248465999961,-0.0236115902662277,-0.0123999388888478,-0.0303521100431681,-0.0107715409249067
513,-0.0119169605895877,-0.000617910409346223,-0.022132869809866,-0.0094818752259016,-0.0294877756386995,-0.0056468304246664
514,-0.0129476003348827,0.000563592533580959,-0.0205618850886822,-0.00774974841624498,-0.0289355292916298,-0.000629655143711716
515,-0.0140159064903855,-0.000255959836067632,-0.0202095936983824,-0.0094568757340312,-0.0285224746912718,0.00203115493059158
516,-0.0149164572358131,-0.00242122681811452,-0.0206702500581741,-0.0140067329630256,-0.0272132679820061,0.00123586505651474
517,-0.0152035811915994,-0.00485851615667343,-0.0206536445766687,-0.0188184939324856,-0.0251070056110621,-0.00234387349337339
518,-0.013656510040164,-0.00619556847959757,-0.018700122833252,-0.0206781197339296,-0.0220765452831984,-0.00594198564067483
519,-0.0106563791632652,-0.00604206882417202,-0.0156631581485271,-0.0189894791692495,-0.019183125346899,-0.00777353905141354
520,-0.00840268190950155,-0.00549831613898277,-0.0142322340980172,-0.016414700075984,-0.018152941018343,-0.00901488028466702
521,-0.00706916255876422,-0.00444183545187116,-0.0142807681113482,-0.0143716093152761,-0.0177862737327814,-0.00990020018070936
522,-0.00609490973874927,-0.00204205489717424,-0.0141776762902737,-0.0124581987038255,-0.0168381221592426,-0.00890286453068256
523,-0.0065417168661952,0.001203554100357,-0.0140297440811992,-0.0106816347688437,-0.0161451920866966,-0.00551863014698029
524,-0.0087475972250104,0.0040682340040803,-0.0142134521156549,-0.00923501513898373,-0.0160642750561237,-0.00120312836952508
525,-0.0112846912816167,0.00566559238359332,-0.013922618702054,-0.00800133682787418,-0.0156867913901806,0.00179724267218262
526,-0.0129014840349555,0.00625624926760793,-0.0118997180834413,-0.0063507528975606,-0.0143695594742894,0.00304650911130011
527,-0.0138326268643141,0.00635439343750477,-0.00813445914536715,-0.00398860778659582,-0.0120230866596103,0.00348608079366386
528,-0.0141219608485699,0.00619193818420172,-0.00383312278427184,-0.00154235458467156,-0.00854131858795881,0.00347287859767675
529,-0.0128362560644746,0.00612524105235934,-0.000295246543828398,0.000407136685680598,-0.00482756271958351,0.00328854075632989
530,-0.0102242473512888,0.00610408280044794,0.0014328082324937,0.00148984638508409,-0.00209281826391816,0.00343390903435647
531,-0.0078318165615201,0.00610525533556938,0.00101276324130595,0.0016953086014837,-0.000280887121334672,0.00417457753792405
532,-0.00696760276332498,0.0058078384026885,-0.00102766451891512,0.00153478654101491,0.000418522249674425,0.0050572813488543
533,-0.00785076897591352,0.00462601194158196,-0.00366484140977263,0.00150958192534745,-0.000523887341842055,0.00501315388828516
534,-0.00891848281025887,0.0040137330070138,-0.00507157295942307,0.00233611813746393,-0.00162131828255951,0.00421544723212719
535,-0.0082902517169714,0.00564315589144826,-0.00413790717720985,0.00387515849433839,-0.000967381871305406,0.00347906234674156
536,-0.00584712065756321,0.00837070122361183,-0.00188043841626495,0.00493797101080418,0.00145400909241289,0.00256764516234398
537,-0.00356819643639028,0.00963213853538036,-0.000458581722341478,0.00424218690022826,0.00369419390335679,0.000643079518340528
538,-0.00343151343986392,0.00880164280533791,-0.00120972178410739,0.0014856478665024,0.00375360529869795,-0.00183466740418226
539,-0.0047017578035593,0.00788102857768536,-0.00277902092784643,-0.0014475523494184,0.0027236551977694,-0.00241913413628936
540,-0.00562286889180541,0.00814123079180717,-0.00315930903889239,-0.00293223047628999,0.00253937393426895,-0.000206536147743464
541,-0.00562907615676522,0.00926679000258446,-0.00198583444580436,-0.00308263511396945,0.00317379669286311,0.0033739167265594
542,-0.00424339482560754,0.0111202616244555,0.000408357300329953,-0.00208736746571958,0.00451707514002919,0.00686511071398854
543,-0.00188004376832396,0.013159160502255,0.00282840407453477,-0.0004263240552973,0.0060211936943233,0.00896442402154207
544,-0.000527906464412808,0.0142039330676198,0.00321957189589739,0.000402734352974221,0.00616907700896263,0.00890378933399916
545,-0.000638142402749509,0.0141045395284891,0.00158710055984557,-0.000269955082330853,0.00560501776635647,0.00739066675305367
546,-0.00119616207666695,0.0130840996280313,-0.000160752519150265,-0.00199855351820588,0.0061841388233006,0.0053793708793819
547,-0.0016378847649321,0.0113015007227659,-0.000902912754099816,-0.00418217666447163,0.0078699141740799,0.00268755713477731
548,-0.00130287010688335,0.0101818963885307,-0.000229631696129218,-0.0053403964266181,0.00952523574233055,-0.000280224572634324
549,-0.000108136948256288,0.0108616733923554,0.0014936882071197,-0.00453440099954605,0.0100207421928644,-0.00198183720931411
550,0.00113337673246861,0.0128294043242931,0.00303438142873347,-0.00256467144936323,0.00863168109208345,-0.00160585658159107
551,0.00200124527327716,0.0147107318043709,0.00353747280314565,-0.000811847043223679,0.00598305417224765,-0.000244195020059124
552,0.00209278520196676,0.0146475816145539,0.00250447844155133,-0.000869939860422164,0.00408562319353223,-0.000266767718130723
553,0.000967860862147063,0.0121814291924238,0.000170169834746048,-0.0022454175632447,0.00398161448538303,-0.00212564296089113
554,-0.000977694639004767,0.00896503962576389,-0.00225500762462616,-0.00182572694029659,0.00419621076434851,-0.0039776056073606
555,-0.00296391476877034,0.00650978134945035,-0.00387662462890148,0.00126368016935885,0.00353450886905193,-0.00477678701281548
556,-0.00421185093000531,0.00570286717265844,-0.00415817182511091,0.00493029784411192,0.00295955687761307,-0.00446514459326863
557,-0.00494489818811417,0.00642962753772736,-0.003667953889817,0.00672527542337775,0.00264961156062782,-0.00378396757878363
558,-0.00598824303597212,0.00750146061182022,-0.00442594941705465,0.00523345312103629,0.000824883230961859,-0.00348416087217629
559,-0.00647179456427693,0.00848752725869417,-0.00681910617277026,0.00155427702702582,-0.00241214130073786,-0.0024286275729537
560,-0.00511719938367605,0.00931845232844353,-0.0089550232514739,-0.00218404061160982,-0.00420150812715292,0.000214471452636644
561,-0.00313237379305065,0.00883438158780336,-0.0103933783248067,-0.00559005094692111,-0.00390470423735678,0.00248905830085278
562,-0.0023084138520062,0.00667470274493098,-0.0119707556441426,-0.00890593510121107,-0.00378416921012104,0.0023801252245903
563,-0.0016879626782611,0.00508666597306728,-0.0125984521582723,-0.0104063199833035,-0.00381010305136442,0.00131271639838815
564,-0.000279696920188144,0.00562696205452085,-0.0115063916891813,-0.00877943076193333,-0.00230106478556991,0.00140519486740232
565,0.000180571849341504,0.00712768686935306,-0.0101997721940279,-0.00572280818596482,0.000195944070583209,0.00204257178120315
566,-0.0011896463111043,0.00888308230787516,-0.0091992961242795,-0.00269610527902842,0.00222624349407852,0.00269931368529797
567,-0.00253206770867109,0.0112207904458046,-0.00747639639303088,0.000502986076753587,0.00289344787597656,0.00435885740444064
568,-0.00193188665434718,0.0130696315318346,-0.004689228720963,0.003157046623528,0.00215287576429546,0.00647572008892894
569,5.9043104556622E-05,0.012428660877049,-0.00230514234863222,0.00309602497145534,0.00020579072588589,0.00632566260173917
570,0.00152399961370975,0.00946015771478415,-0.00181508949026465,8.46420516609214E-05,-0.00309103704057634,0.00296106748282909
571,0.00159598654136062,0.00619927980005741,-0.00292335916310549,-0.00304575311020017,-0.00722474046051502,-0.00137933145742863
572,0.00101599853951484,0.00381499715149403,-0.00440376531332731,-0.00365647650323808,-0.0102563919499516,-0.00431138928979635
573,0.00101907330099493,0.00260709645226598,-0.00517952535301447,-0.00147560623008758,-0.0104681169614196,-0.00479441601783037
574,0.000618228456005454,0.00231911474838853,-0.00621169712394476,0.0011992366053164,-0.00990827567875385,-0.00370011734776199
575,-0.00158226245548576,0.002816281048581,-0.00867016054689884,0.00253736274316907,-0.0111731411889195,-0.00207527750171721
576,-0.00386777869425714,0.00436764443293214,-0.0106316450983286,0.00330702867358923,-0.0123566007241607,0.000640924030449241
577,-0.00370273250155151,0.00689728930592537,-0.00951377023011446,0.00475899921730161,-0.0105724008753896,0.00439557665959001
578,-0.00151008786633611,0.00917990319430828,-0.00601670471951365,0.00608161138370633,-0.00674917874857783,0.00667470181360841
579,6.10600254731253E-05,0.00973993446677923,-0.00286591588519514,0.00573710631579161,-0.00416645454242826,0.00548808975145221
580,1.85277258424321E-05,0.00966394506394863,-0.000898783269803971,0.00515396753326058,-0.00441821571439505,0.00336183328181505
581,-0.000758198497351259,0.0105545306578279,0.00055785320000723,0.00626685004681349,-0.00624223751947284,0.0035116218496114
582,-0.00219657341949642,0.0115495519712567,0.00163694005459547,0.00848147459328175,-0.00779280159622431,0.00588305247947574
583,-0.00474903872236609,0.0114776352420449,0.00247261743061244,0.0114221479743719,-0.00862074457108974,0.00979101657867432
584,-0.00764288892969489,0.0102266250178218,0.00396444881334901,0.0151016628369689,-0.00849986914545298,0.0140021918341517
585,-0.00911105144768953,0.00781126599758863,0.00620236434042454,0.0173659902065992,-0.00668763741850853,0.0150538263842463
586,-0.00848068576306105,0.00419042911380529,0.0061499672010541,0.0142160570248961,-0.00468894699588418,0.00902765244245529
587,-0.00603037280961871,0.000477903377031907,0.00128918222617358,0.00425026332959533,-0.00469409581273794,-0.00352743244729936
588,-0.00213994132354856,-0.00121667352505028,-0.00591966928914189,-0.00792371667921543,-0.00586456013843417,-0.0159412883222103
589,0.00118464138358831,-0.000416446710005403,-0.0122139062732458,-0.0167161412537098,-0.00759305572137237,-0.0226347614079714
590,0.00214662402868271,0.00251651182770729,-0.0158039778470993,-0.0193646810948849,-0.0101085724309087,-0.0223208498209715
591,0.00125976244453341,0.00708611961454153,-0.0152397435158491,-0.0155878094956279,-0.0117712188512087,-0.0159074738621712
592,-0.000949462468270212,0.0107457553967834,-0.0119834970682859,-0.00914919190108776,-0.0120674269273877,-0.00741039216518402
593,-0.00438652560114861,0.0112791648134589,-0.00980518944561481,-0.00499198026955128,-0.0132936667650938,-0.0016011749394238
594,-0.00786229595541954,0.00946802739053965,-0.0108535159379244,-0.00475890142843127,-0.0169669762253761,-0.000308439193759114
595,-0.00964726787060499,0.00776420021429658,-0.0140512892976403,-0.00661986554041505,-0.0213147066533566,-0.00211258232593536
596,-0.00928898435086012,0.00754648493602872,-0.0174488145858049,-0.00849208049476147,-0.0240256953984499,-0.00467723561450839
597,-0.00839938502758741,0.00781655870378017,-0.0212117079645395,-0.0109344897791743,-0.0260869897902012,-0.0074355099350214
598,-0.00776598276570439,0.00747434981167316,-0.0248942598700523,-0.0144784413278103,-0.0279045794159174,-0.0105104455724359
599,-0.00584133993834257,0.0070071704685688,-0.0259923916310072,-0.0171429142355919,-0.0266249142587185,-0.0128188747912645
600,-0.00230611418373883,0.00733005627989769,-0.0240260027348995,-0.0170618910342455,-0.021854754537344,-0.013086193241179
601,0.0010945595568046,0.00871026888489723,-0.0210215151309967,-0.0146610485389829,-0.0167610943317413,-0.0115285404026508
602,0.00357279367744923,0.0109986504539847,-0.0182582344859838,-0.0112772537395358,-0.0133951883763075,-0.00912729743868113
603,0.00505414698272944,0.0132862813770771,-0.0159513745456934,-0.0082029914483428,-0.0115471938624978,-0.00699983490630984
604,0.00450320728123188,0.0140265971422195,-0.0148009732365608,-0.00645762262865901,-0.010547393001616,-0.00623241532593966
605,0.00219968939200044,0.0134449787437916,-0.0146138770505786,-0.00531071610748768,-0.0093864668160677,-0.00613964907824993
606,0.000590628595091403,0.0130086140707135,-0.0139231951907277,-0.00377409555949271,-0.0069113434292376,-0.00583140132948756
607,0.000680135213769972,0.012608528137207,-0.0126972934231162,-0.00272181816399097,-0.0038542018737644,-0.00627685617655516
608,0.000653249910101295,0.0106672830879688,-0.0119644934311509,-0.00317840068601072,-0.00201563257724047,-0.00827170163393021
609,-0.000488978752400726,0.0068274550139904,-0.0113051980733871,-0.00409368891268969,-0.00121593161020428,-0.0103097250685096
610,-0.00106529635377228,0.00322716380469501,-0.00992471631616354,-0.00384059315547347,-0.000415820453781635,-0.00997218675911427
611,7.31238978914917E-05,0.0022553545422852,-0.00845849514007568,-0.0027775326743722,0.000269720156211406,-0.00708612054586411
612,0.00247212033718824,0.00473952945321798,-0.00701033184304833,-0.00132151541765779,0.00141622859518975,-0.00272456579841673
613,0.00522595085203648,0.00947078689932823,-0.0046226535923779,0.00129488168749958,0.00392290623858571,0.00225576059892774
614,0.00720333447679877,0.0138286948204041,-0.00184705399442464,0.00439810892567039,0.00682625826448202,0.00578044867143035
615,0.0083274906501174,0.0164276566356421,-0.000294704281259328,0.00607537804171443,0.00905200466513634,0.00650989357382059
616,0.00887389667332172,0.0172233153134584,-0.000839240208733827,0.00500055635347962,0.0101901860907674,0.00514518469572067
617,0.00884574092924595,0.0170456245541573,-0.00284712505526841,0.00203324342146516,0.00975212547928095,0.00347905117087066
618,0.00884089805185795,0.0173771940171719,-0.00425639795139432,0.000271572207566351,0.00821550562977791,0.00331952748820186
619,0.00887198094278574,0.0177022460848093,-0.00370915653184056,0.00109662127215415,0.00686342688277364,0.00395785877481103
620,0.00831822864711285,0.0163192674517632,-0.00174736184999347,0.00296769640408456,0.00672426540404558,0.00327194994315505
621,0.00645372830331326,0.0128010585904121,-0.00049387029139325,0.00342222535982728,0.00677054189145565,0.000334219046635553
622,0.00351315969601274,0.00863917451351881,-0.00118397572077811,0.00164616340771317,0.00489079020917416,-0.00341386767104268
623,0.000764842145144939,0.00579208647832274,-0.00294104591012001,-0.00115069618914276,0.000735607522074133,-0.00601415848359466
624,-0.000599510909523815,0.00482061877846718,-0.00451124273240566,-0.00404021656140685,-0.00411886209622025,-0.00738066202029586
625,0.000679204415064305,0.00574590219184756,-0.00488613964989781,-0.00602036761119962,-0.00650884350761771,-0.00757337640970945
626,0.00350276031531394,0.00746897282078862,-0.00453975843265653,-0.00657616183161736,-0.0053063565865159,-0.00686969654634595
627,0.00472911214455962,0.00820500310510397,-0.00442264042794704,-0.00622045667842031,-0.00306691671721637,-0.00550074735656381
628,0.00343871186487377,0.00793890096247196,-0.00380196771584451,-0.00498394807800651,-0.00149293593131006,-0.00269501656293869
629,0.000620083825197071,0.00707197282463312,-0.00256545119918883,-0.00396872172132134,-0.000958666787482798,-0.000166705140145496
630,-0.00267784809693694,0.00550992041826248,-0.00224921246990561,-0.00492118112742901,-0.00208930484950542,-0.000747004465665668
631,-0.0044612274505198,0.00424092775210738,-0.00294861732982099,-0.00680618081241846,-0.00342976581305265,-0.00314422929659486
632,-0.00327816768549383,0.00408739782869816,-0.00341541948728263,-0.00770309520885348,-0.00259354105219245,-0.00493118679150939
633,-0.000571201380807906,0.00402899086475372,-0.00381863303482533,-0.0077919983305037,-0.000212486105738208,-0.00685766246169806
634,0.00104678946081549,0.00278699561022222,-0.0052965497598052,-0.00818241853266954,0.00119262968655676,-0.010500181466341
635,0.00117138389032334,0.00101323949638754,-0.00739853410050273,-0.00843895506113768,0.000879472529049963,-0.0145734129473567
636,0.000781692913733423,-0.000259600667050108,-0.00870148371905088,-0.0071044135838747,-0.000670512265060097,-0.0164953079074621
637,-0.000568761373870075,-0.00171528349164873,-0.00949107762426138,-0.00479294871911407,-0.00366183579899371,-0.0161607638001442
638,-0.00244121765717864,-0.00327102746814489,-0.00986719783395529,-0.00297224544920027,-0.00696114916354418,-0.0147187244147062
639,-0.00292960950173438,-0.00406254641711712,-0.00865153875201941,-0.00219176174141467,-0.00789125263690948,-0.0133448299020529
640,-0.00187879824079573,-0.00417623110115528,-0.00599989341571927,-0.00211877305991948,-0.00556571409106255,-0.0126775242388248
641,-0.00100428715813905,-0.00408902857452631,-0.00370047334581614,-0.00237498618662357,-0.00174176564905792,-0.0127002941444516
642,-0.00178401195444167,-0.00470837578177452,-0.00303819891996682,-0.00392731232568622,0.00170697271823883,-0.0142270345240831
643,-0.00349978706799448,-0.00590317416936159,-0.00319127761758864,-0.00652750115841627,0.00432176003232598,-0.0167495552450418
644,-0.00384995015338063,-0.00619125878438354,-0.00266083236783743,-0.00802961178123951,0.00608546053990722,-0.017993800342083
645,-0.00201167725026608,-0.00468726130202413,-0.00116565043572336,-0.00706000765785575,0.00704513862729073,-0.0162002183496952
646,-0.000122307086712681,-0.00281694484874606,0.000169955907040276,-0.00443322490900755,0.00674054166302085,-0.0118978908285499
647,0.000647763663437217,-0.00230520172044635,0.00136142317205668,-0.000716574722900987,0.00582882296293974,-0.00674563040956855
648,0.00159228534903377,-0.00290389941073954,0.0036815800704062,0.00495801912620664,0.00641635153442621,-0.00146321801003069
649,0.00297456770204008,-0.00335671962238848,0.00629764329642057,0.0115048727020621,0.00792485661804676,0.00314816064201295
650,0.00451725022867322,-0.00177827477455139,0.00779721327126026,0.016267878934741,0.00847404357045889,0.00620739441365004
651,0.0055628689005971,0.00134999584406614,0.00760351913049817,0.0169293582439423,0.00758872181177139,0.00631536357104778
652,0.0046820854768157,0.00372559088282287,0.00572318769991398,0.0133181819692254,0.00596537627279758,0.00360360648483038
653,0.00141145417001098,0.00490151764824986,0.00301089626736939,0.00783401541411877,0.0048844669945538,0.00106600299477577
654,-0.00278240023180842,0.00547936977818608,0.000796910899225622,0.00283868494443595,0.00514359306544065,0.000869712268467993
655,-0.00577702419832349,0.00590955791994929,0.000410508248023689,-0.000227924261707813,0.00650431169196963,0.0031265732832253
656,-0.00692407693713903,0.00599711202085018,0.00196844129823148,-0.00128646846860647,0.00807787757366896,0.00639153877273202
657,-0.00629772944375873,0.00588130531832576,0.00462377071380615,-0.00110716628842056,0.00973012577742338,0.00914258323609829
658,-0.00464118644595146,0.00597673654556274,0.00672982167452574,-0.000568954332266003,0.0109588755294681,0.0109592378139496
659,-0.00285428063943982,0.00564471678808331,0.00702785700559616,-0.000595804944168776,0.0113920755684376,0.01149723213166
660,-0.00140356202609837,0.00374587555415928,0.00597321428358555,-0.00141719030216336,0.0114228334277868,0.0103879738599062
661,-0.00110881309956312,0.000261335138930008,0.00476951850578189,-0.00232504098676145,0.0109925707802176,0.00863077025860548
662,-0.00183659803587943,-0.0030289723072201,0.00420206785202026,-0.00253805820830166,0.0106678521260619,0.00792100466787815
663,-0.00252338196150959,-0.00477333227172494,0.00398640381172299,-0.00229153269901872,0.0111931441351771,0.00828810781240463
664,-0.00281156948767602,-0.00562956463545561,0.0033445858862251,-0.00253916881047189,0.0116309225559235,0.00854526646435261
665,-0.00252381269820035,-0.0059871282428503,0.00212226947769523,-0.00338144437409937,0.00991972163319588,0.00874505564570427
666,-0.00125442212447524,-0.00461047887802124,0.00110347266308963,-0.00327315158210695,0.00642964011058211,0.0105365533381701
667,-7.41022995498497E-06,-0.0019037431338802,0.000884933804627508,-0.00128586101345718,0.00374242500402033,0.0139280892908573
668,0.000227916403673589,0.000473791820695624,0.00194452365394682,0.00234009698033333,0.00330037972889841,0.0177384782582521
669,-0.000104281803942285,0.00199930975213647,0.00402876967564225,0.00658462103456259,0.00471695372834802,0.0212276298552752
670,-0.000909467693418264,0.00172121799550951,0.00514759635552764,0.00885823555290699,0.00592883164063096,0.0220208074897528
671,-0.00243995478376746,-0.000754911918193102,0.00421719579026103,0.00798797886818647,0.00510500464588404,0.0185337048023939
672,-0.00425015855580568,-0.00416890624910593,0.00218466552905738,0.00540856225416064,0.00284462538547814,0.0122646875679493
673,-0.00514551484957337,-0.00694505032151937,0.00047702036681585,0.00289782136678696,0.00139319314621389,0.00581578491255641
674,-0.00466777198016644,-0.00841456651687622,-0.000424766156356782,0.00115025171544403,0.00146188156213611,0.00102135224733502
675,-0.00347536453045905,-0.00913035497069359,-0.00108702143188566,-0.000179539565579034,0.0015273840399459,-0.00190547085367143
676,-0.00214007846079767,-0.00931874103844166,-0.00149563699960709,-0.000909946742467582,0.000829646305646747,-0.0031246526632458
677,-0.00125660933554173,-0.00898247305303812,-0.0013076908653602,-0.000866217247676104,-0.00022828763758298,-0.00296723726205528
678,-0.000610114249866456,-0.00822006352245808,-0.000288337818346918,0.000113930131192319,-0.000779658323153853,-0.00161571009084582
679,0.00035183277213946,-0.00730803003534675,0.00151123700197786,0.00231433426961303,-0.000636362528894097,0.00119203771464527
680,0.000449445622507483,-0.00776970060542226,0.00256594200618565,0.003957140725106,-0.00168504088651389,0.00375947472639382
681,-0.00129044288769364,-0.0100396275520325,0.00166534224990755,0.0028037098236382,-0.00477227522060275,0.00364473019726574
682,-0.00307183689437807,-0.0117701115086675,0.000673447444569319,-0.000730481231585145,-0.00681836949661374,0.00109354476444423
683,-0.00251519121229649,-0.0109068853780627,0.00256330100819469,-0.00373063609004021,-0.00428468594327569,-0.00118357595056295
684,-0.000249639706453308,-0.00824364926666021,0.00648878607898951,-0.00409408193081617,0.00111991073936224,-0.00109178200364113
685,0.00127622880972922,-0.00627092551440001,0.00838697608560324,-0.00336232059635222,0.00421019038185477,0.000203422241611406
686,0.00106641591992229,-0.00656145997345448,0.00667190970852971,-0.00378341833129525,0.00332312076352537,0.000746387173421681
687,-0.000715655274689198,-0.00878855865448713,0.00325622805394232,-0.0054655154235661,0.000562199566047639,0.00060890446184203
688,-0.00278218486346304,-0.0110939498990774,0.000646164990030229,-0.00734317395836115,-0.00183419417589903,0.000626357621513307
689,-0.00311793852597475,-0.0114604830741882,0.000316121499054134,-0.00790349300950766,-0.00269418605603278,0.00183971610385925
690,-0.00252636102959514,-0.0101646995171905,0.00118283613119274,-0.00684723258018494,-0.00364742730744183,0.00457247346639633
691,-0.00362614961341023,-0.0100352885201573,0.000358330318704247,-0.00652068061754107,-0.00725654838606715,0.00617929454892874
692,-0.00602661445736885,-0.0126847987994552,-0.00275159138254821,-0.00889378041028976,-0.0122103411704302,0.00368435168638825
693,-0.00684729218482971,-0.0155825642868876,-0.00537852803245187,-0.0120060900226235,-0.015053472481668,-0.000911818409804255
694,-0.00494845444336534,-0.015393003821373,-0.00541303725913167,-0.0126724969595671,-0.014593799598515,-0.00279742921702564
695,-0.00132537772879004,-0.0116868717595935,-0.00292403367348015,-0.00962886959314346,-0.0109871895983815,0.000367676868336275
696,0.00251146825030446,-0.00672222301363945,0.00111727532930672,-0.00391346821561456,-0.00479410914704204,0.00705979019403458
697,0.00513609079644084,-0.00351188983768225,0.00460324250161648,0.000690148503053933,0.00185434462036937,0.012973346747458
698,0.00621255487203598,-0.00325525435619056,0.00537078315392137,0.000968312378972769,0.0062388782389462,0.0146991349756718
699,0.0067866244353354,-0.00476686423644423,0.00390966795384884,-0.0012361555127427,0.00725004775449634,0.013196462765336
700,0.00810220185667276,-0.00642620259895921,0.0032316364813596,-0.00127403566148132,0.00676347082480788,0.0120318373665214
701,0.00970727764070034,-0.0081728920340538,0.00429612630978227,0.0016367657808587,0.00682470388710499,0.012535541318357
702,0.00991767924278975,-0.0106787951663136,0.00461736414581537,0.00352658680640161,0.00643950700759888,0.0127446576952934
703,0.00790559407323599,-0.013734339736402,0.00238796137273312,0.000889208982698619,0.00380412396043539,0.0104367006570101
704,0.00489886291325092,-0.0159606654196978,-0.000879861472640187,-0.00513877626508474,2.53342409450852E-06,0.00645416788756847
705,0.00366968964226544,-0.0159448906779289,-0.00226979982107878,-0.0103828758001328,-0.00169707695022225,0.00327185587957501
706,0.00563568715006113,-0.0138467503711581,-0.000698825519066304,-0.0126242525875568,-7.00094024068676E-05,0.00118435395415872
707,0.00890356861054897,-0.0114866923540831,0.0016733295051381,-0.0136524355039001,0.00260047754272819,-0.00179216475225985
708,0.0110229132696986,-0.0101852109655738,0.00213535246439278,-0.0153841702267528,0.00419468572363257,-0.00629933923482895
709,0.0118941785767674,-0.00926228053867817,0.00131025561131537,-0.0161765832453966,0.00518637569621205,-0.00945711322128773
710,0.0117546720430255,-0.00820192229002714,0.000623646250460297,-0.0148923713713884,0.00593497371301055,-0.00961138214915991
711,0.0107519831508398,-0.0074961893260479,2.07212015084224E-05,-0.0132170179858804,0.00616043107584119,-0.00878651067614555
712,0.00980214774608612,-0.00717466976493597,-0.000330171635141596,-0.0121598392724991,0.00617374060675502,-0.00817351508885622
713,0.00888615474104881,-0.00706685520708561,-0.000647751265205443,-0.0117613356560469,0.00554899824783206,-0.00760876061394811
714,0.00785832386463881,-0.00690058153122664,-0.0012140569742769,-0.0118075897917151,0.00407180655747652,-0.00725040351971984
715,0.00720784952864051,-0.00643543154001236,-0.00172130763530731,-0.0117067871615291,0.00276378355920315,-0.00681619020178914
716,0.00637836987152696,-0.00665893219411373,-0.00282041286118329,-0.0120012648403645,0.00183007109444588,-0.00704902317374945
717,0.00505770277231932,-0.00760897248983383,-0.0046709799207747,-0.0125188184902072,0.000960353412665427,-0.00861714687198401
718,0.00424962909892201,-0.00754328398033977,-0.00563697470352054,-0.0113693354651332,0.000984326936304569,-0.00989050045609474
719,0.00496223103255033,-0.00576331047341228,-0.00364606268703938,-0.00784569326788187,0.00324562657624483,-0.00888502411544323
720,0.00690999161452055,-0.00374651257880032,0.00121582380961627,-0.00325121893547475,0.00691573368385434,-0.00548892002552748
721,0.00782201718539,-0.00375712569803,0.00533151440322399,0.000436290953075513,0.00862599164247513,-0.00173111446201801
722,0.00669551827013493,-0.0052446061745286,0.00638053426519036,0.00269860401749611,0.00778923742473125,0.000513760722242296
723,0.00523378234356642,-0.0055287592113018,0.0053189666941762,0.00371119705960155,0.00726069277152419,0.000534891267307103
724,0.00441528717055917,-0.00447478191927075,0.00302472105249763,0.00262242089956999,0.00759215326979756,-0.00136536301579326
725,0.00454390933737159,-0.00390046765096486,2.21869663619145E-06,-0.000738167844247073,0.00737627130001783,-0.0038686846382916
726,0.00590976793318987,-0.00414334377273917,-0.00328700663521886,-0.00477562798187137,0.00648837303742766,-0.00589326675981283
727,0.00745651824399829,-0.00406785402446985,-0.00620148284360766,-0.00748324347659945,0.00524245202541351,-0.00653910683467984
728,0.00853966549038887,-0.00295381899923086,-0.00743890600278974,-0.00795594602823257,0.00456077978014946,-0.0053199389949441
729,0.00952583178877831,-0.00138275069184601,-0.00662085553631186,-0.00691520376130939,0.00558724720031023,-0.00331374653615057
730,0.0102593349292874,-0.000399061857024208,-0.00481776800006628,-0.00562519393861294,0.00781697686761618,-0.00187429937068373
731,0.0104934377595782,-0.000117757474072278,-0.00291186920367181,-0.00440539885312319,0.0102190971374512,-0.000626600056421012
732,0.0101447608321905,-0.000363989413017407,-0.00128029752522707,-0.00354409031569958,0.0123037919402123,0.00108218239620328
733,0.00875997915863991,-0.00171171559486538,-0.000663491839077324,-0.00432392442598939,0.01337996032089,0.00200274703092873
734,0.00582879083231092,-0.00418890500441194,-0.00178037828300148,-0.00706023583188653,0.0122308935970068,0.00128001999109983
735,0.00210318504832685,-0.00633587455376983,-0.00364789390005171,-0.00945029500871897,0.00922953151166439,0.000775331747718155
736,-0.000894299999345094,-0.0071091023273766,-0.00447640009224415,-0.00938673689961433,0.00650358851999044,0.00223648641258478
737,-0.00340855191461742,-0.00755856698378921,-0.00481266155838966,-0.00781511329114437,0.00429542222991586,0.00456821266561747
738,-0.00600127456709743,-0.00794236548244953,-0.00513871014118195,-0.00559778977185488,0.00233230763114989,0.00675208447501063
739,-0.00772799737751484,-0.00717935198917985,-0.00422929786145687,-0.00291262893006206,0.00145848700776696,0.00889053661376238
740,-0.00851427670568228,-0.00596402445808053,-0.00287482677958906,-0.0016837491421029,0.000869312207214534,0.00999999791383743
741,-0.00856183469295502,-0.00451760366559029,-0.00220022490248084,-0.00213218783028424,-0.000163831544341519,0.010324738919735
742,-0.00699518760666251,-0.00165023608133197,-0.00111272290814668,-0.00201117666438222,-0.000651977607049048,0.0115666072815657
743,-0.00457372656092048,0.00166418380104005,0.000652217655442655,-0.00107692938763648,-0.000899279199074954,0.013169014826417
744,-0.00309674651362002,0.00323840393684804,0.0015756314387545,-0.00100272847339511,-0.00189520546700805,0.0133929802104831
745,-0.00239068386144936,0.00267455517314374,0.000937970355153084,-0.00218461430631578,-0.00264414725825191,0.0123420283198357
746,-0.00224985112436116,0.000314334145514295,-0.0008878568187356,-0.00416200514882803,-0.00232501048594713,0.0105560654774308
747,-0.00344649679027498,-0.00357574038207531,-0.00344367302022874,-0.00680807372555137,-0.00158174673561007,0.00785707030445337
748,-0.00471850717440248,-0.00728413835167885,-0.00479504140093923,-0.00838332623243332,0.000585701316595078,0.00522302184253931
749,-0.00507567171007395,-0.00934826768934727,-0.00355822849087417,-0.00750244082883,0.00443794997408986,0.00413835560902953
750,-0.00603753654286265,-0.0101271634921432,-0.00155628216452897,-0.00610306765884161,0.00689759664237499,0.00499058328568935
751,-0.00797627121210098,-0.0101343188434839,-0.000521332432981581,-0.00623628543689847,0.00642828736454248,0.00658833468332887
752,-0.00990629568696022,-0.00974414311349392,-0.000380862067686394,-0.00786569807678461,0.00445058569312096,0.00642754416912794
753,-0.0102952802553773,-0.00845576357096434,0.000189056605449878,-0.00924448855221272,0.00330122443847358,0.00416500819846988
754,-0.0091570382937789,-0.00627737212926149,0.00127245672047138,-0.00987796206027269,0.00319352746009827,0.00106389063876122
755,-0.00925962813198566,-0.00481681991368532,0.000999736716039479,-0.0110862758010626,0.00181671429891139,-0.00195565354079008
756,-0.011131745763123,-0.00423070322722197,-0.000210214624530636,-0.0119962356984615,-0.000739197363145649,-0.00298843602649868
757,-0.0135327354073524,-0.00421916320919991,-0.00114873680286109,-0.0117916911840439,-0.00306937075220048,-0.0021514305844903
758,-0.0158610101789236,-0.00473533850163221,-0.00195375736802816,-0.0110887726768851,-0.00455694133415818,-0.00157724437303841
759,-0.0172971412539482,-0.00477997912093997,-0.00241680280305445,-0.00942445173859596,-0.00473894085735083,-0.00134147354401648
760,-0.0183050613850355,-0.00443431362509727,-0.00301074236631393,-0.00708251958712935,-0.00523915980011225,-0.00099012244027108
761,-0.0193526223301888,-0.00466468371450901,-0.00405115308240056,-0.0053660785779357,-0.0070630069822073,-0.00152185617480427
762,-0.0189503952860832,-0.00493486132472754,-0.00412406818941236,-0.0042726225219667,-0.00801706779748201,-0.0032969715539366
763,-0.0164989251643419,-0.00385969690978527,-0.00219361390918493,-0.00259832735173404,-0.0067140981554985,-0.00467765843495727
764,-0.0136547265574336,-0.00161951733753085,0.000751969811972231,-0.000122053686936852,-0.00446796044707298,-0.00423486437648535
765,-0.0124356169253588,-0.000511464313603938,0.00223215343430638,0.00103516282979399,-0.00329514336772263,-0.0035691256634891
766,-0.0132625382393599,-0.00192298251204193,0.000661682046484202,-0.000846390379592776,-0.00355349597521126,-0.0047558038495481
767,-0.0141516113653779,-0.00397325120866299,-0.00236312253400683,-0.00416921637952328,-0.0033917163964361,-0.00648817280307412
768,-0.0136608416214585,-0.00462760031223297,-0.00447409600019455,-0.0063872872851789,-0.00214798841625452,-0.00650718668475747
769,-0.0129526630043983,-0.00433588540181518,-0.00574124837294221,-0.00722538726404309,-0.00130690913647413,-0.00506934057921171
770,-0.0131247956305742,-0.00431051757186651,-0.00695409253239632,-0.00735340360552073,-0.00131875916849822,-0.00356673891656101
771,-0.0135484160855412,-0.00505034020170569,-0.00768719660118222,-0.00652348529547453,-0.00149256247095764,-0.00213056290522218
772,-0.0130310086533427,-0.00634901179000735,-0.0071675474755466,-0.00481633003801107,-0.00155015231575817,-0.000743910146411508
773,-0.0114157628268003,-0.00766019243746996,-0.00565606588497758,-0.00345491827465594,-0.00147648132406175,-0.000488894118461758
774,-0.0097550917416811,-0.00862728152424097,-0.0046224701218307,-0.00321635068394244,-0.0013573004398495,-0.00149363465607166
775,-0.00898310169577599,-0.00939180701971054,-0.00488561578094959,-0.0030405402649194,-0.00138596468605101,-0.00224299496039748
776,-0.00873755849897861,-0.00974532589316368,-0.00508827669546008,-0.00121884234249592,-0.0011105437297374,-0.00181610777508467
777,-0.00845093932002783,-0.00934604648500681,-0.0041955285705626,0.00137969013303518,-0.00043163521331735,-0.00131228554528207
778,-0.00893497746437788,-0.00902289338409901,-0.00366487144492567,0.00142294401302934,-0.000966730585787445,-0.00259773363359272
779,-0.0099301990121603,-0.00858890730887651,-0.00403119064867496,-0.00168857653625309,-0.0029984291177243,-0.00490174163132906
780,-0.00939738471060991,-0.0064286426641047,-0.0036094537936151,-0.00469367951154709,-0.00431579723954201,-0.00536916917189956
781,-0.0070523414760828,-0.00293080811388791,-0.00158288038801402,-0.00557557400316,-0.00384500157088041,-0.00337689067237079
782,-0.00449315179139376,-0.000222831251448952,0.00139144295826554,-0.00544584263116121,-0.00292804022319615,-0.000844273250550032
783,-0.00302395760081708,0.000315541605232283,0.00378037826158106,-0.00621584849432111,-0.00337491370737553,0.000148887149407528
784,-0.00300985248759389,-0.00105718534905463,0.00437252502888441,-0.00829136837273836,-0.00497739063575864,-0.000969400396570563
785,-0.00347314239479601,-0.00233193021267653,0.00426706345751882,-0.00958697963505983,-0.00548152346163988,-0.00227719685062766
786,-0.00340773956850171,-0.00244867033325136,0.00446007400751114,-0.00897116307169199,-0.00401124591007829,-0.00222144206054509
787,-0.00322954286821187,-0.00296840537339449,0.00369986984878778,-0.00832993164658546,-0.00207540160045028,-0.00224278052337468
788,-0.00324375508353114,-0.00434946641325951,0.00166169868316501,-0.00846177991479635,-0.000852995959576219,-0.00339621282182634
789,-0.00325445923954248,-0.0052704275585711,-0.000449455925263464,-0.00839328020811081,-0.000645446823909879,-0.00471725407987833
790,-0.00323141738772392,-0.00541233224794269,-0.00188838178291917,-0.00806331261992455,-0.00101534940768033,-0.00557187665253878
791,-0.00297420308925211,-0.00565053429454565,-0.00242170901037753,-0.00808428321033716,-0.000545780290849507,-0.00633636536076665
792,-0.00253263348713517,-0.00659872079268098,-0.00244643772020936,-0.00866605062037706,0.000698372139595449,-0.00699273124337196
793,-0.00230896379798651,-0.00752703193575144,-0.00282222032546997,-0.00936887413263321,0.000925432133954018,-0.00665021641179919
794,-0.00267520267516375,-0.00767200253903866,-0.00387905887328088,-0.0094575947150588,-0.000215617066714913,-0.00512858340516686
795,-0.0034824782051146,-0.00720801390707493,-0.00496847368776798,-0.00831801258027554,-0.00117520487401634,-0.00332016055472195
796,-0.00459913304075599,-0.00687841605395079,-0.00565075920894742,-0.00658016791567206,-0.00110735010821372,-0.00261709187179804
797,-0.00625564809888601,-0.00726293958723545,-0.00571038108319044,-0.00533134303987026,-0.000164611687068827,-0.00366047327406704
798,-0.00702199805527925,-0.00734119210392237,-0.00364387221634388,-0.00332070584408939,0.00260486477054656,-0.0047050011344254
799,-0.0058878525160253,-0.00662267999723554,0.000323645741445944,8.07546314263163E-07,0.0067025781609118,-0.00473135150969028
800,-0.00458942539989948,-0.00615832861512899,0.0031893840059638,0.00195978279225528,0.00907170027494431,-0.00520451040938497
801,-0.00395632488653064,-0.00538902916014194,0.00399220595136285,0.00151971029117703,0.00881256628781557,-0.00623726192861795
802,-0.00322851678356528,-0.00328589021228254,0.00394396902993321,0.000362701743142679,0.00749054504558444,-0.00669834297150373
803,-0.00241968315094709,-0.000868212839122862,0.00389008014462888,-0.000384562648832798,0.00630990229547024,-0.0064996350556612
804,-0.00213222997263074,0.000272701639914885,0.00411577615886927,-0.000901426537893713,0.00538838747888803,-0.00626643560826778
805,-0.00285880593582988,-0.000369408400729299,0.00405540084466338,-0.00182046892587096,0.00416527409106493,-0.00660283211618662
806,-0.00386670092120767,-0.00146350066643208,0.00371698709204793,-0.00256392965093255,0.00284282467328012,-0.00675304839387536
807,-0.00383945344947279,-0.00146443245466799,0.00402421737089753,-0.00242792326025665,0.00218286085873842,-0.00589894782751799
808,-0.00279312650673091,-0.000833087775390595,0.00510393735021353,-0.00191972008906305,0.00248406128957868,-0.0047841384075582
809,-0.000983200850896537,-0.000161357980687171,0.00678570521995425,-0.000946031359490007,0.00420086272060871,-0.00359201664105058
810,0.00135562126524746,0.000837337807752192,0.00859525334089994,0.00041157630039379,0.00717273401096463,-0.00154989468865097
811,0.00318761356174946,0.00186866917647421,0.00949954520910978,0.0011689291568473,0.00992141850292683,0.0014709293609485
812,0.0034307655878365,0.00246361014433205,0.0087242079898715,0.00100088724866509,0.0108970981091261,0.00440021324902773
813,0.00180489581543952,0.00263251550495625,0.00604480970650911,4.5442797272699E-05,0.00942679867148399,0.00546238711103797
814,-0.000725706107914448,0.00232535391114652,0.00223006284795702,-0.00145397160667926,0.00608827359974384,0.00388992787338793
815,-0.00227072392590344,0.0014444759581238,-0.000902035331819206,-0.00269215228036046,0.00288658309727907,0.000941594480536878
816,-0.00191670923959464,0.000181459545274265,-0.00223587779328227,-0.00302385329268873,0.0012154650175944,-0.00187902606558055
817,-0.000256032915785909,-0.000289499817881733,-0.00206770002841949,-0.00238841539248824,0.000696707109455019,-0.00401272485032678
818,0.00190563686192036,0.00134692364372313,-0.000799157191067934,-0.000994333764538169,0.0011650922242552,-0.00521819852292538
819,0.00332222692668438,0.00388110056519508,0.000990905333310366,2.97701899398817E-05,0.00264656497165561,-0.00636568246409297
820,0.00339375692419708,0.00526146916672587,0.00319591886363924,-4.6357890823856E-05,0.00471027009189129,-0.00820469111204147
821,0.00329793500714004,0.00547780515626073,0.00621277326717973,-0.000464003882370889,0.0070339166559279,-0.00965692475438118
822,0.0034051644615829,0.00490388553589582,0.00861920043826103,-0.00116119242738932,0.00893047358840704,-0.0100993337109685
823,0.0027388958260417,0.00385017297230661,0.00889022834599018,-0.00228068977594376,0.00961368344724178,-0.00944866146892309
824,0.000841605477035046,0.00267711072228849,0.00707012694329023,-0.0037423453759402,0.00883892830461264,-0.00793960131704807
825,-0.00189722259528935,0.00146523490548134,0.00351226003840566,-0.0058277640491724,0.00691428361460567,-0.00682282727211714
826,-0.00495051546022296,0.000822931237053126,-0.000887744943611324,-0.00759449787437916,0.00439686980098486,-0.00639857212081552
827,-0.00778120616450906,0.000917215249501169,-0.00467388844117522,-0.00770221743732691,0.00204103533178568,-0.00598484557121992
828,-0.00907459203153849,0.00141559645999223,-0.00658572325482965,-0.00607760110870004,0.00112380017526448,-0.0052408897317946
829,-0.00883190985769033,0.00166902900673449,-0.00731069641187787,-0.00432954868301749,0.00127597397658974,-0.00482816435396671
830,-0.00923185236752033,0.00108435715083033,-0.00838103238493204,-0.00414790166541934,0.00069457059726119,-0.00540070980787277
831,-0.0108995586633682,0.000367205386282876,-0.00910257920622826,-0.00502887181937695,-0.00041162918205373,-0.00624904967844486
832,-0.0119732236489654,0.000177277892362326,-0.00862676184624434,-0.0059586470015347,-0.000817142077721655,-0.00706518674269319
833,-0.0110922642052174,0.000420812953962013,-0.00751289213076234,-0.00640778243541718,-0.000568075804039836,-0.00812093634158373
834,-0.00888043083250523,0.00122245668899268,-0.00612889137119055,-0.00528926588594913,-0.000555203412659466,-0.008688491769135
835,-0.00703450944274664,0.00248122634366155,-0.0050735822878778,-0.00263343076221645,-0.00155349634587765,-0.00807022955268621
836,-0.00709923822432756,0.00324447616003454,-0.00551500404253602,-0.000436897593317553,-0.00360842584632337,-0.00698310742154717
837,-0.00919689424335957,0.00261291139759123,-0.00758074363693595,-0.000544233829714358,-0.00621340842917562,-0.00695155095309019
838,-0.0109934136271477,0.00148429768159986,-0.00918412208557129,-0.00221084896475077,-0.00792002957314253,-0.00772894453257322
839,-0.00998606532812119,0.00158673629630357,-0.0084110451862216,-0.00306917587295175,-0.00732885487377644,-0.00733056524768472
840,-0.00734242284670472,0.00224724342115223,-0.00656282901763916,-0.0030492814257741,-0.00570057239383459,-0.00593613367527723
841,-0.00612959498539567,0.00137234560679644,-0.00582095049321651,-0.00317158852703869,-0.00529007520526648,-0.00521492585539818
842,-0.00694950064644217,-0.000910476490389556,-0.00613571610301733,-0.00254139583557844,-0.00622901692986488,-0.00486820843070745
843,-0.0084499903023243,-0.00281970552168787,-0.00631735194474459,-0.000980293960310519,-0.00704408111050725,-0.00404534582048655
844,-0.00986285787075758,-0.00383211113512516,-0.00606217933818698,-0.000703532772604376,-0.00697680981829762,-0.00342734856531024
845,-0.0110419858247042,-0.00432718079537153,-0.00607517594471574,-0.00295301340520382,-0.00658769207075238,-0.00352780404500663
846,-0.0115532847121358,-0.00402020150795579,-0.00651901541277766,-0.00581441028043628,-0.00592741742730141,-0.0034335320815444
847,-0.0114483078941703,-0.00347986770793796,-0.00716776307672262,-0.00738436914980412,-0.00494004506617785,-0.00327581842429936
848,-0.0112428311258554,-0.00377001008018851,-0.00804985407739878,-0.00767224235460162,-0.00430732546374202,-0.00360031588934362
849,-0.0109756635501981,-0.00486189499497414,-0.00917773600667715,-0.00767852459102869,-0.00418243743479252,-0.00381247792392969
850,-0.0112951947376132,-0.00713692512363195,-0.0108641106635332,-0.00912996660917997,-0.00477923778817058,-0.00485591357573867
851,-0.0120230047032237,-0.00986303016543388,-0.0119354436174035,-0.0112550174817443,-0.00549057172611356,-0.00685555068776011
852,-0.0116547467187047,-0.0110800415277481,-0.0108555676415563,-0.0117137487977743,-0.00494714500382543,-0.00794902630150318
853,-0.0106822904199362,-0.0109994783997536,-0.00897492840886116,-0.0110999457538128,-0.00430481182411313,-0.00814889185130596
854,-0.0101000862196088,-0.0103441206738353,-0.00754145160317421,-0.0100380387157202,-0.00491811381652951,-0.00767252454534173
855,-0.00967867020517588,-0.00937552284449339,-0.00614840490743518,-0.00827704183757305,-0.00551761081442237,-0.00647831056267023
856,-0.009783617220819,-0.00913378316909075,-0.00536767998710275,-0.00738256005570292,-0.00501862028613687,-0.00576355447992682
857,-0.010804777033627,-0.00968280993402004,-0.00568610522896051,-0.00810341630131006,-0.00354583514854312,-0.00561624439433217
858,-0.0120123354718089,-0.00969322677701712,-0.00623507332056761,-0.00913861952722073,-0.0017193725798279,-0.00498980982229114
859,-0.0123256482183933,-0.00847303681075573,-0.00603926787152886,-0.00955327320843935,-0.000161717398441397,-0.00391555577516556
860,-0.0115511547774076,-0.00693420879542828,-0.00475476635619998,-0.00968234986066818,0.00158222741447389,-0.00399375939741731
861,-0.00996322277933359,-0.00588941341266036,-0.00304170744493604,-0.00988011807203293,0.00400978326797485,-0.00573422387242317
862,-0.00773267401382327,-0.0050900848582387,-0.00178575189784169,-0.00963335484266281,0.0064807110466063,-0.00731573719531298
863,-0.00565675785765052,-0.00461436063051224,-0.00112268305383623,-0.0088958628475666,0.00843337364494801,-0.00769159337505698
864,-0.0038710362277925,-0.00442834990099072,-0.000303750770399347,-0.00807257555425167,0.0109235178679228,-0.00738836545497179
865,-0.00181116699241102,-0.00381425279192626,0.00115528120659292,-0.00701755890622735,0.0144495833665133,-0.00679133739322424
866,-0.000167121077538468,-0.00242879614233971,0.00237687863409519,-0.00561921251937747,0.0170910079032183,-0.00553779490292072
867,-0.00026703646290116,-0.0011876670178026,0.00209256168454885,-0.00463937688618898,0.0171065796166658,-0.00367494230158627
868,-0.00236303335987031,-0.00104415253736079,0.000111004796053749,-0.00473868008702993,0.014745737425983,-0.00135736016090959
869,-0.00536222383379936,-0.0018040417926386,-0.00253606075420976,-0.00558120431378484,0.0114190094172955,0.00136562099214643
870,-0.00793974846601486,-0.00343578099273145,-0.00484934542328119,-0.0070020817220211,0.0082796411588788,0.00293642841279507
871,-0.00900017283856869,-0.00533094396814704,-0.00610295915976167,-0.00812441203743219,0.00637777661904693,0.00266008079051971
872,-0.00870937947183847,-0.00630423193797469,-0.00624158699065447,-0.00759364804252982,0.00581859610974789,0.00166822585742921
873,-0.00840341672301292,-0.0063902041874826,-0.00579750817269087,-0.00560084218159318,0.00516577297821641,0.000541049230378121
874,-0.00858002621680498,-0.00626171939074993,-0.00495111523196101,-0.00333860423415899,0.00365177961066365,-0.000695508962962776
875,-0.00874051544815302,-0.0061199557967484,-0.003832439891994,-0.00175931944977492,0.00192008970770985,-0.00159725942648947
876,-0.00821170210838318,-0.00546238804236054,-0.00213461695238948,-0.000687793188262731,0.00139641272835433,-0.00122073269449174
877,-0.00717070931568742,-0.00420126970857382,0.000267609575530514,0.000347496301401407,0.00252218567766249,0.000634538941085339
878,-0.00636583426967263,-0.00283486302942038,0.00203960272483528,0.000986650353297591,0.00365415238775313,0.00292447209358215
879,-0.00600371602922678,-0.00181142298970371,0.00183012883644551,0.000605373294092715,0.00358196487650275,0.00401949277147651
880,-0.00556089915335178,-0.00156366568990052,0.000318242033245042,-0.000704378879163414,0.00324745965190232,0.00296970619820058
881,-0.0046280873939395,-0.00203623622655869,-0.000956180098000914,-0.00231922371312976,0.0029926891438663,0.000713971210643649
882,-0.00458748638629913,-0.00343920104205608,-0.00225419085472822,-0.00451301038265228,0.000736879475880414,-0.00139947037678212
883,-0.00625445414334536,-0.00570970913395286,-0.00385931693017483,-0.00716433255001903,-0.00272758980281651,-0.00277914060279727
884,-0.00782557483762503,-0.0073867728933692,-0.00423051323741674,-0.00860738847404718,-0.00279962597414851,-0.00313197448849678
885,-0.00849345698952675,-0.00822850689291954,-0.00302581209689379,-0.00797262322157621,0.000878969556652009,-0.00271043437533081
886,-0.00822737906128168,-0.00936918053776026,-0.000922635546885431,-0.00456724222749472,0.00529324496164918,-0.00122366391588002
887,-0.00583643605932593,-0.0100008985027671,0.00234293891116977,0.00202667526900768,0.00975839979946613,0.00213216454721987
888,-0.00264494516886771,-0.008632967248559,0.0053572291508317,0.00824095215648413,0.0130593106150627,0.00585487205535173
889,-0.00230173370800912,-0.00588698964565992,0.00535449292510748,0.00922013632953167,0.012466587126255,0.00741266366094351
890,-0.00501865707337856,-0.00255516683682799,0.00297971721738577,0.00572415394708514,0.0085788844153285,0.00770657416433096
891,-0.00760656083002687,0.00120860361494124,0.00125968072097749,0.00243376614525914,0.00506093958392739,0.00891793798655272
892,-0.00812653824687004,0.00400860887020826,0.000892742595169693,0.000832049583550543,0.00421215360984206,0.00941812712699175
893,-0.00730252778157592,0.0046221767552197,0.000451495900051668,-0.000651896349154413,0.00528344791382551,0.00675299437716603
894,-0.00671606976538897,0.00407348992303014,-0.000760566210374236,-0.00221574096940458,0.00582676148042083,0.00312712066806853
895,-0.00682380050420761,0.00399349303916097,-0.00221709185279906,-0.00310534471645951,0.00486897863447666,0.0022721856366843
896,-0.00740577885881066,0.00426404783502221,-0.00372503977268934,-0.00352876377291977,0.00368087040260434,0.0039906376041472
897,-0.00811472721397877,0.00408095680177212,-0.00500624161213636,-0.00331464852206409,0.00388549547642469,0.00635692570358515
898,-0.00862069427967072,0.00319578475318849,-0.00547091104090214,-0.00224636890925467,0.00494114914909005,0.00863125547766685
899,-0.00923945661634207,0.00119508802890778,-0.00552578177303076,-0.0019157906062901,0.00427595619112253,0.0095565989613533
900,-0.00970299262553453,-0.00175753911025822,-0.00586280785501003,-0.0037449945230037,0.0016096857143566,0.00756727624684572
901,-0.0094602657482028,-0.00446544215083122,-0.00691437907516956,-0.00694979587569833,-0.00133919122163206,0.00297420378774405
902,-0.00893270876258612,-0.00604033097624779,-0.00885568000376225,-0.0102512193843722,-0.00400744006037712,-0.0024619665928185
903,-0.00838728435337543,-0.006216358859092,-0.0106959547847509,-0.0126975858584046,-0.00616636220365763,-0.00653840089216828
904,-0.00713757146149874,-0.00472996756434441,-0.0107883401215076,-0.0131395636126399,-0.00689806090667844,-0.00789057556539774
905,-0.00530158076435328,-0.00203666044399142,-0.00911840610206127,-0.0116992415860295,-0.00659896759316325,-0.00728470366448164
906,-0.00489696301519871,0.00012304270057939,-0.00800338760018349,-0.010059873573482,-0.00805238354951143,-0.00668358150869608
907,-0.00642213970422745,0.000490940816234797,-0.00860270392149687,-0.00936058256775141,-0.0117756854742765,-0.00780541729182005
908,-0.00818029791116714,-0.000903124047908932,-0.00957036297768354,-0.00988104287534952,-0.0148080671206117,-0.0111853051930666
909,-0.00918334163725376,-0.00295346090570092,-0.00995848048478365,-0.0110952034592628,-0.0156151298433542,-0.0147873274981976
910,-0.00924118794500828,-0.00405178358778358,-0.00992367137223482,-0.0115270707756281,-0.0151770915836096,-0.0152576714754105
911,-0.00832206942141056,-0.00351052335463464,-0.00946547277271748,-0.0102877831086516,-0.0149129834026098,-0.0116264782845974
912,-0.00661860918626189,-0.0016553025925532,-0.00833973847329617,-0.0076941791921854,-0.0150047186762095,-0.00575820310041308
913,-0.00532394554466009,0.000380712386686355,-0.007373480591923,-0.00512056658044457,-0.0149243734776974,-0.000618068443145603
914,-0.00559254875406623,0.00145805825013667,-0.00740045867860317,-0.00373860169202089,-0.0143394125625491,0.00190309283789247
915,-0.00645347498357296,0.00115965935401618,-0.00807761494070292,-0.0036528289783746,-0.0130843352526426,0.00174759642686695
916,-0.00561407534405589,-0.000186817458597943,-0.00901364907622337,-0.00481520965695381,-0.0114487363025546,-0.000460102222859859
917,-0.00237226253375411,-0.0017343086656183,-0.00980653427541256,-0.00665615499019623,-0.0101794851943851,-0.00354433758184314
918,0.000507876393385231,-0.00331949256360531,-0.0105320382863283,-0.00863630790263414,-0.0114699667319655,-0.00618078699335456
919,0.000864234636537731,-0.00514683313667774,-0.010948283597827,-0.0103071834892035,-0.016317555680871,-0.00757979461923242
920,0.000552250363398343,-0.00684469286352396,-0.00979695189744234,-0.0100309755653143,-0.0217583645135164,-0.00759391067549586
921,0.00138777599204332,-0.00782645586878061,-0.00781419314444065,-0.00793684739619493,-0.0251714121550322,-0.00670827506110072
922,0.00287971179932356,-0.00780028337612748,-0.00765935657545924,-0.00733968615531921,-0.0268593057990074,-0.00580934155732393
923,0.00380864529870451,-0.0074371132068336,-0.011087441816926,-0.0106998002156615,-0.0284271035343409,-0.00627651764079928
924,0.0039921049028635,-0.00700925290584564,-0.0168723799288273,-0.0162723679095507,-0.0305375680327415,-0.00806859694421291
925,0.00444421917200089,-0.00596865266561508,-0.0215342398732901,-0.0209047105163336,-0.0322016477584839,-0.00988573301583529
926,0.00512819271534681,-0.0047490750439465,-0.0239269230514765,-0.0245800018310547,-0.0333802737295628,-0.0123419938609004
927,0.00512358173727989,-0.00386612629517913,-0.0257684476673603,-0.0285519920289516,-0.035866841673851,-0.0162692070007324
928,0.00469985464587808,-0.00320998835377395,-0.0281147807836533,-0.0326249971985817,-0.0405759140849113,-0.0210086889564991
929,0.00514253973960876,-0.00290616950951517,-0.0301191732287407,-0.0363420732319355,-0.0459168441593647,-0.0263079963624477
930,0.00711730774492025,-0.0022981995716691,-0.0308284070342779,-0.0394123196601868,-0.0502024739980698,-0.0315090753138065
931,0.0101639870554209,-9.38677931117127E-06,-0.0308050718158484,-0.0410703755915165,-0.0538456104695797,-0.0348293781280518
932,0.0130215855315328,0.0033736729528755,-0.0314021334052086,-0.041548565030098,-0.0580784194171429,-0.0365403927862644
933,0.0141188688576221,0.00562068726867437,-0.0334507487714291,-0.0421645678579807,-0.0638632848858833,-0.0391051433980465
934,0.0126202451065183,0.00555510353296995,-0.0370480827987194,-0.043684083968401,-0.0716313645243645,-0.0435522720217705
935,0.00901161599904299,0.00365531258285046,-0.0419547744095325,-0.0465655140578747,-0.080768957734108,-0.0489899404346943
936,0.00520771089941263,0.0012088461080566,-0.04690320789814,-0.0506875440478325,-0.0893216282129288,-0.054574117064476
937,0.00284858280792832,-0.000999968149699271,-0.0508175939321518,-0.055434700101614,-0.095891609787941,-0.0603285357356071
938,0.00153524812776595,-0.00269771553575993,-0.0545950047671795,-0.0605312436819077,-0.101622685790062,-0.0664594620466232
939,0.000563152891118079,-0.00350757618434727,-0.0585152171552181,-0.0654371231794357,-0.107164070010185,-0.072737492620945
940,0.000373338320059702,-0.00327826873399317,-0.0610066540539265,-0.0690916106104851,-0.11109521239996,-0.078428752720356
941,0.0015186439268291,-0.00225495873019099,-0.0612820312380791,-0.0709462836384773,-0.112855181097984,-0.0826122835278511
942,0.00320189143531024,-0.00147947843652219,-0.060748104006052,-0.0722086131572723,-0.114102818071842,-0.0853441134095192
943,0.00413967436179519,-0.00140300008933991,-0.0610609650611877,-0.0740152969956398,-0.116839289665222,-0.0866459533572197
944,0.0037806024774909,-0.00115376769099385,-0.0629582703113556,-0.0762347355484962,-0.122131913900375,-0.0863834619522095
945,0.00186132185626775,-0.000678046548273414,-0.0671127066016197,-0.0795553028583527,-0.130349963903427,-0.0865965485572815
946,-0.000718695402611047,-0.000658680743072182,-0.0728937536478043,-0.084871806204319,-0.139743030071259,-0.0899161919951439
947,-0.00200341269373894,-0.00128530780784786,-0.078101746737957,-0.0918366387486458,-0.147082269191742,-0.0972205102443695
948,-0.00145076203625649,-0.00269583123736084,-0.0816503539681435,-0.0995549038052559,-0.151308178901672,-0.107687681913376
949,-0.000153488668729551,-0.0045853597112,-0.0840857625007629,-0.106894686818123,-0.153480753302574,-0.118458494544029
950,0.00116645952221006,-0.00590175809338689,-0.0860478729009628,-0.112927101552486,-0.154558479785919,-0.126255661249161
951,0.00278398673981428,-0.00606991164386272,-0.0876357853412628,-0.117563493549824,-0.154999911785126,-0.130678534507751
952,0.0049001881852746,-0.00545124895870686,-0.0884453505277634,-0.120929077267647,-0.154646903276443,-0.133677572011948
953,0.00722649367526174,-0.00454763835296035,-0.0875658914446831,-0.122420966625214,-0.15261147916317,-0.136346772313118
954,0.00951977353543043,-0.0038653698284179,-0.08469408005476,-0.121710896492004,-0.148740038275719,-0.138852685689926
955,0.0114238811656833,-0.003919318318367,-0.0815107375383377,-0.119974888861179,-0.145442649722099,-0.141171276569366
956,0.0124724786728621,-0.0044657145626843,-0.0799190625548363,-0.118512444198132,-0.14502389729023,-0.142560705542564
957,0.012700411491096,-0.00488614523783326,-0.0797358602285385,-0.11784353107214,-0.146023660898209,-0.142946004867554
958,0.01242711301893,-0.00541766686365008,-0.0794516652822495,-0.118243329226971,-0.145279332995415,-0.143478766083717
