,AF3,AF4,Fp1,Fp2,AF7,AF8
0,0.00780276767909527,0.00572241330519319,0.0545460470020771,0.011917794123292,0.0204799193888903,0.0170649886131287
1,0.00837727822363377,-0.000226523246965371,0.0328857079148293,0.00516540231183171,0.0100667867809534,0.0145160146057606
2,0.00220801564864814,-0.00721452292054892,0.00311146560125053,-0.00251619704067707,-0.0034363460727036,0.012585180811584
3,-0.00534540042281151,-0.0100201768800616,-0.0193851087242365,-0.00542297586798668,-0.0113343698903918,0.0148045504465699
4,-0.0109794940799475,-0.00834770314395428,-0.0302401557564735,-0.00443597743287683,-0.0125714438036084,0.0190571323037148
5,-0.0140101062133908,-0.00445062760263681,-0.0336074158549309,-0.00270699802786112,-0.0111786983907223,0.022206524387002
6,-0.0141788851469755,-1.6872425476322E-05,-0.033149354159832,-0.000843052577693015,-0.00845457706600428,0.0242409184575081
7,-0.0116437068209052,0.0043886168859899,-0.029747661203146,0.00152917276136577,-0.00445150258019567,0.0260032266378403
8,-0.00780934141948819,0.00856508780270815,-0.0234310533851385,0.00450152484700084,-0.000204091615159996,0.0278178565204144
9,-0.00443436717614532,0.0117522701621056,-0.0150142041966319,0.00736830895766616,0.00348143023438752,0.0292904227972031
10,-0.0014612142695114,0.0140479141846299,-0.00482116127386689,0.0101625146344304,0.00779080530628562,0.0306264087557793
11,0.00123219133820385,0.0161633510142565,0.006019685883075,0.0136690894141793,0.0133516155183315,0.0326212681829929
12,0.00258015585131943,0.0179318245500326,0.0145260905846953,0.0175128262490034,0.0183163229376078,0.0349649712443352
13,0.00254814373329282,0.0190581120550632,0.0190329980105162,0.0206967778503895,0.0215836223214865,0.036780022084713
14,0.00208617513999343,0.0197378620505333,0.0199728589504957,0.0223538018763065,0.0237309094518423,0.0375877991318703
15,0.00205513485707343,0.0205741114914417,0.0189137868583202,0.0223186071962118,0.0256883930414915,0.0377684198319912
16,0.00303033669479191,0.022279204800725,0.0182073470205069,0.0215766038745642,0.0277984626591206,0.0389122478663921
17,0.00499739311635494,0.0246327500790358,0.0191545970737934,0.0203948691487312,0.0292109251022339,0.0412466935813427
18,0.00674625812098384,0.0263413973152637,0.0209003817290068,0.0178748276084661,0.0280991792678833,0.0425984747707844
19,0.00667675631120801,0.0264599192887545,0.0223658476024866,0.0144667318090796,0.0240866895765066,0.0422150231897831
20,0.00434450106695294,0.0249364748597145,0.0231199357658625,0.0116888415068388,0.0191623419523239,0.0414389222860336
21,0.00117517553735524,0.0226496979594231,0.0223649311810732,0.00981456786394119,0.0151544827967882,0.0406802967190742
22,-0.000462419440736994,0.0203841961920261,0.0193509757518768,0.00751539273187518,0.0128038180992007,0.0382628403604031
23,-0.000450808351160958,0.0173610635101795,0.0139427548274398,0.00330800726078451,0.0115902815014124,0.0329032838344574
24,-0.000646023137960583,0.0138203706592321,0.00740191387012601,-0.00167854048777372,0.00987537484616041,0.0270999148488045
25,-0.00149820337537676,0.0118552064523101,0.00213392917066813,-0.00460151629522443,0.00632107816636562,0.0245298687368631
26,-0.00202794605866075,0.0118189277127385,-0.000426279584644362,-0.00519223278388381,0.00108382583130151,0.0251650735735893
27,-0.00170416617766023,0.0120770754292607,3.77993128495291E-05,-0.0051646837964654,-0.00393273774534464,0.0263350754976273
28,-0.000189944126759656,0.0123225711286068,0.00378970219753683,-0.00475398870185018,-0.00646624341607094,0.0267943888902664
29,0.00285413977690041,0.0137707786634564,0.00952964276075363,-0.00328382756561041,-0.00601485511288047,0.0270969904959202
30,0.00600843224674463,0.0161927528679371,0.0131815718486905,-0.00142103084363043,-0.00452848011627793,0.0272035095840693
31,0.00787226483225822,0.018223162740469,0.012231046333909,-0.000102408317616209,-0.00380304781720042,0.0271045584231615
32,0.00942643824964762,0.0188244935125113,0.00768795935437083,5.21066722285468E-05,-0.0042659412138164,0.0274639446288347
33,0.0119367418810725,0.0176666676998138,0.00192385853733867,-0.00139066437259316,-0.00586606049910188,0.0284470766782761
34,0.0152033222839236,0.0154756689444184,-0.0016224643914029,-0.00332957413047552,-0.00748427771031857,0.029429791495204
35,0.0177460219711065,0.0133865494281054,-0.00132703583221883,-0.00418042624369264,-0.00863711629062891,0.0296692736446857
36,0.0183478370308876,0.0122262481600046,0.00113333656918257,-0.00347811169922352,-0.00939042773097754,0.0291676949709654
37,0.017252566292882,0.0113819912075996,0.00337915355339646,-0.00206381361931562,-0.00890166219323874,0.0275798477232456
38,0.0153716616332531,0.00959446933120489,0.0034078941680491,-0.00136790983378887,-0.00757716782391071,0.0246275179088116
39,0.0133001236245036,0.00715837720781565,0.000762727169785649,-0.00200989120639861,-0.00652311183512211,0.0216032173484564
40,0.0114435963332653,0.00525114126503468,-0.00285897427238524,-0.00335692497901618,-0.00562380207702518,0.0198047235608101
41,0.0107052456587553,0.00418364349752665,-0.0056160013191402,-0.00498037738725543,-0.00393283134326339,0.0184679552912712
42,0.0114528127014637,0.00371265923604369,-0.00624183053150773,-0.0066156885586679,-0.00068992719752714,0.0166123490780592
43,0.012189595028758,0.00370088056661189,-0.00434914417564869,-0.0074095269665122,0.00261966604739428,0.0152216600254178
44,0.0118404859676957,0.00365286879241467,-0.00112809718120843,-0.00803169794380665,0.00415643770247698,0.0144636826589704
45,0.0109055666252971,0.00321591831743717,0.00166821328457445,-0.00986046623438597,0.00431830994784832,0.0132740242406726
46,0.00910069234669209,0.00288901338353753,0.00221709324978292,-0.0123493801802397,0.00326475268229842,0.0119405630975962
47,0.00621154624968767,0.00318515696562827,-7.70614569773898E-05,-0.0144805796444416,0.00163295830134302,0.0108318980783224
48,0.00329970475286245,0.00413125334307551,-0.00384608563035727,-0.0163677781820297,0.000711889937520027,0.00931644160300493
49,0.00110424438025802,0.00612364104017615,-0.00735882762819529,-0.0173698458820581,-0.000384481478249654,0.00835012272000313
50,-2.89860345219495E-05,0.00945951230823994,-0.00930741894990206,-0.0160902570933104,-0.00258500315248966,0.0101799722760916
51,0.00012071113451384,0.0128836119547486,-0.00920094549655914,-0.0131617654114962,-0.00502286897972226,0.0150206806138158
52,0.00193811929784715,0.0151011850684881,-0.00714093958958983,-0.0101556004956365,-0.00611253688111901,0.0211423952132463
53,0.00513187423348427,0.0156797152012587,-0.00410719495266676,-0.00804309174418449,-0.00514402240514755,0.0258875824511051
54,0.0077283913269639,0.0144236171618104,-0.00199760938994586,-0.00706765148788691,-0.00337979150936008,0.0275425426661968
55,0.00834102369844913,0.0126772038638592,-0.00170512811746448,-0.00605886848643422,-0.00239554257132113,0.0275582540780306
56,0.00748834572732449,0.0123094068840146,-0.00274429051205516,-0.00443915091454983,-0.00245631020516157,0.027824716642499
57,0.00587430410087109,0.0125145446509123,-0.00463365344330668,-0.00394361838698387,-0.00329883559606969,0.0273007284849882
58,0.00335531192831695,0.0112770590931177,-0.00665533822029829,-0.00550274178385735,-0.00460886815562844,0.0247226934880018
59,0.00080418458674103,0.0097461249679327,-0.00587192364037037,-0.00589977204799652,-0.00438110111281276,0.022930046543479
60,-0.000157525428221561,0.0100275781005621,-0.000408329797210172,-0.00252381339669228,-0.00146803737152368,0.0251308418810368
61,0.000215378575376235,0.0109262326732278,0.00581921497359872,0.00154006946831942,0.00129944575019181,0.0290237348526716
62,0.00051113375229761,0.010970601812005,0.00857061706483364,0.00337615958414972,0.00185776292346418,0.0313683524727821
63,0.000219858353375457,0.0105615500360727,0.0078679034486413,0.00356618617661297,0.00116543914191425,0.0324137471616268
64,0.000140317875775509,0.0097426800057292,0.00529560493305326,0.0025765672326088,0.000869989162310958,0.0328252166509628
65,0.00106565665919334,0.00808050390332937,0.00306872418150306,0.000893545860890299,0.00257774838246405,0.0327850691974163
66,0.00269189872778952,0.00590520771220326,0.00268627679906785,-0.000529907934833318,0.00586600974202156,0.032599650323391
67,0.00417499104514718,0.00438260938972235,0.00409964798018336,-0.000979324337095022,0.00830455310642719,0.032537929713726
68,0.00465828459709883,0.00435710791498423,0.00742511823773384,0.000214786763535813,0.00892316829413176,0.0334526859223843
69,0.00399526953697205,0.0054997387342155,0.012216717004776,0.00302689964883029,0.00854244641959667,0.0353931486606598
70,0.00301956315524876,0.00704404665157199,0.0158612709492445,0.0060734711587429,0.00678011076524854,0.0365701541304588
71,0.00221123406663537,0.00827391818165779,0.0157392472028732,0.00717495381832123,0.00286696339026093,0.0357348322868347
72,0.00125387078151107,0.00865179114043713,0.0124627901241183,0.0053792716935277,-0.000666915322653949,0.033246923238039
73,0.000224255229113624,0.00856448151171207,0.00883170776069164,0.00214095623232424,-0.000629023357760161,0.0302216839045286
74,-4.98953268106561E-05,0.0090563865378499,0.00680685183033347,-0.000765854434575886,0.00212447787635028,0.0277459509670734
75,0.000970506342127919,0.011413648724556,0.00715956557542086,-0.00195219356101006,0.00528066838160157,0.0274728816002607
76,0.00259011285379529,0.0154560729861259,0.00948831718415022,-0.0011182299349457,0.00808462500572205,0.029724994674325
77,0.0037949678953737,0.0184224583208561,0.0119828740134835,-0.000392866291804239,0.0100277764722705,0.0314701609313488
78,0.00501297088339925,0.0189249236136675,0.0139863966032863,-0.000316839024890214,0.01134726498276,0.0316848009824753
79,0.00705128023400903,0.018907593563199,0.0161180645227432,0.000944288447499275,0.0126902814954519,0.0325285717844963
80,0.00842504389584064,0.0197683721780777,0.0166413094848394,0.00259412825107574,0.0119864791631699,0.0342523083090782
81,0.00729689747095108,0.0206381380558014,0.0136810149997473,0.00252762995660305,0.00765952607616782,0.0360521972179413
82,0.00456793280318379,0.0201508682221174,0.00869993772357702,0.000783691648393869,0.00206834403797984,0.0375988967716694
83,0.00240116915665567,0.0176261235028505,0.00403974810615182,-0.0024991815444082,-0.00186325411777943,0.0366089902818203
84,0.00157654320355505,0.0141779193654656,0.000982899102382362,-0.0068440125323832,-0.00354370381683111,0.0318410620093346
85,0.000980594428256154,0.0119376126676798,-0.000464008160633966,-0.0101642217487097,-0.00506734568625689,0.0261960998177528
86,0.000271131983026862,0.0113289644941688,-0.00075158744584769,-0.0114681553095579,-0.00721517065539956,0.021641006693244
87,6.48863424430601E-05,0.0106823621317744,7.92526989243925E-05,-0.0113234678283334,-0.00835105497390032,0.0171539485454559
88,-8.4922619862482E-05,0.00917656347155571,0.00176126009318978,-0.00986736081540585,-0.00832406058907509,0.0131991403177381
89,-0.000532435544300824,0.00824766419827938,0.00396197801455855,-0.00643531884998083,-0.00823360774666071,0.0128608383238316
90,-0.000956664094701409,0.00921313185244799,0.00623947521671653,-0.000118783944344614,-0.00937210489064455,0.0181013736873865
91,-0.00213774968869984,0.0109118493273854,0.00756472861394286,0.00784776452928782,-0.0124376341700554,0.0261872410774231
92,-0.00466544041410089,0.0111083146184683,0.00822191033512354,0.0138292638584971,-0.0147525602951646,0.0311610829085112
93,-0.00628856616094708,0.00956819485872984,0.00968247000128031,0.0148162646219134,-0.012583558447659,0.0289499834179878
94,-0.00544801633805037,0.00726311607286334,0.0102889267727733,0.00920435599982738,-0.00775827607139945,0.0196346808224916
95,-0.00409916369244456,0.00512084877118468,0.00670529110357165,-0.00121245032642037,-0.00626334734261036,0.00785371195524931
96,-0.00311152171343565,0.00451520690694451,0.000491502229124308,-0.0105905095115304,-0.00893246289342642,0.000121562647109386
97,-0.00119059497956187,0.00505579449236393,-0.00413601705804467,-0.0153825618326664,-0.011099292896688,-0.00197067065164447
98,0.00151927780825645,0.00478676287457347,-0.00628639478236437,-0.0167494025081396,-0.0107771568000317,-0.00158072612248361
99,0.00459387106820941,0.00386241381056607,-0.00617992551997304,-0.0156885236501694,-0.00833552982658148,-0.0006102304905653
100,0.00771650485694408,0.00328678917139769,-0.00396818853914738,-0.012384488247335,-0.0044136350043118,0.000188870893907733
101,0.0095413951203227,0.00278043048456311,-0.00165135494899005,-0.00880894437432289,-0.00104536477010697,-0.000440281204646453
102,0.0100311934947968,0.00207411148585379,-0.000232566366321407,-0.00716853467747569,0.00164129759650677,-0.00308729754760861
103,0.0102525511756539,0.00124395650345832,0.00148113747127354,-0.00691362284123898,0.00524948071688414,-0.00680958898738027
104,0.0104709127917886,3.27603447658475E-05,0.00367513205856085,-0.0062773316167295,0.00953580625355244,-0.00968473870307207
105,0.0099791269749403,-0.00232985336333513,0.004431142937392,-0.00609226897358894,0.0122679797932506,-0.0117010120302439
106,0.00816220045089722,-0.00538072688505054,0.00283654825761914,-0.00753692351281643,0.0117748389020562,-0.0137732746079564
107,0.00650205137208104,-0.00671996222808957,0.000755089218728244,-0.00879248324781656,0.00925771333277225,-0.0148409502580762
108,0.0063721090555191,-0.00566156068816781,-0.000643386621959507,-0.0085584782063961,0.00630039116367698,-0.0146368807181716
109,0.00670157698914409,-0.00367760681547225,-0.0018312557367608,-0.00761401932686567,0.00345925288274884,-0.0140741029754281
110,0.00638916902244091,-0.000902307336218655,-0.00206902343779802,-0.00568349938839674,0.00214141001924872,-0.0120681095868349
111,0.00572035647928715,0.00274424254894257,-0.000112704321509227,-0.00196662312373519,0.00341265951283276,-0.00773182883858681
112,0.00549008185043931,0.00550047773867846,0.00322406995110214,0.00208346103318036,0.00614522397518158,-0.00325228367000818
113,0.00596321281045675,0.00616832496598363,0.00610353378579021,0.0043769832700491,0.00913992431014776,-0.00106752919964492
114,0.00610976153984666,0.00545581243932247,0.00747831538319588,0.00492183864116669,0.0118725029751658,-0.00106208515353501
115,0.00495814764872193,0.00442071352154016,0.00764946360141039,0.00504417484626174,0.0136661883443594,-0.00176656409166753
116,0.00377552676945925,0.00367980869486928,0.00842076167464256,0.00568415923044086,0.0155557915568352,-0.00246035330928862
117,0.003433353966102,0.00332579971291125,0.010048477910459,0.0067332936450839,0.0179951004683971,-0.00339157250709832
118,0.00327532994560897,0.00353269255720079,0.0111818294972181,0.00823769997805357,0.0195704512298107,-0.00397793902084231
119,0.00274792895652354,0.00454516056925058,0.0115979900583625,0.0106870997697115,0.0192497689276934,-0.00272587453946471
120,0.00171224889345467,0.00546131934970617,0.011329079978168,0.0131032010540366,0.0175320897251368,-0.000647835317067802
121,0.00183455133810639,0.00619550980627537,0.010605706833303,0.0144212758168578,0.0165638942271471,0.000303336884826422
122,0.00380877032876015,0.00803054962307215,0.00959399808198214,0.015797657892108,0.0161619447171688,0.00164329470135272
123,0.00584612693637609,0.01041304692626,0.00791732687503099,0.0183308627456427,0.0145990122109652,0.00547715276479721
124,0.00693156477063894,0.0119836302474141,0.00655123265460134,0.0214433595538139,0.0129927592352033,0.0114616304636002
125,0.00666336296126246,0.0120278336107731,0.0064303083345294,0.0229807924479246,0.0129113961011171,0.0164242908358574
126,0.00474501913413405,0.0104232858866453,0.00681995088234544,0.0214067213237286,0.0134921241551638,0.0172317065298557
127,0.001929787453264,0.00885860156267881,0.00767987733706832,0.0191116090863943,0.0134066855534911,0.01544248778373
128,-0.00136834511067718,0.00825298298150301,0.00882859621196985,0.0185049418359995,0.0121353724971414,0.0139410793781281
129,-0.00483168102800846,0.00772794242948294,0.0090327225625515,0.018804345279932,0.00984079670161009,0.0133214192464948
130,-0.00686636380851269,0.00730955321341753,0.00840058829635382,0.0188293792307377,0.00802735239267349,0.013373170979321
131,-0.00633059162646532,0.00697501096874475,0.00774268293753266,0.0179004389792681,0.00771413231268525,0.0130718164145947
132,-0.00385084166191518,0.00593847734853625,0.00727885169908404,0.0160500407218933,0.00826166570186615,0.0114060528576374
133,-0.00115960754919797,0.00445484835654497,0.00727702584117651,0.0148243559524417,0.00896587315946817,0.00964399240911007
134,0.00030946682090871,0.00364859658293426,0.0077789593487978,0.0157941784709692,0.0093283811584115,0.0100492648780346
135,7.90765989222564E-06,0.00326961767859757,0.00829438865184784,0.0183346662670374,0.0089393500238657,0.012207105755806
136,-0.00153294811025262,0.0020584489684552,0.00865227822214365,0.0204212684184313,0.0082871587947011,0.0136376954615116
137,-0.0027014734223485,0.000144506106153131,0.00902081187814474,0.0209458861500025,0.00813358370214701,0.0131297819316387
138,-0.00243857083842158,-0.00112020084634423,0.00967006757855415,0.0207764524966478,0.0082249604165554,0.0118310805410147
139,-0.00134589895606041,-0.000979503034614027,0.011022855527699,0.02144580706954,0.00839078519493341,0.0120468679815531
140,-0.000537558691576123,-0.000434386689448729,0.0121313873678446,0.0217892471700907,0.00868562795221806,0.0132500762119889
141,0.000286114140180871,-0.000648756511509418,0.0117917153984308,0.0194280855357647,0.00878249201923609,0.012736938893795
142,0.00166405132040381,-0.00104852241929621,0.0108806043863297,0.015621691942215,0.00865576695650816,0.0112667987123132
143,0.00246550934389234,-0.000892751500941813,0.0101535255089402,0.0133040901273489,0.00802637077867985,0.011669528670609
144,0.00202186522074044,-0.000698943098541349,0.00944939535111189,0.0128559255972505,0.00757939647883177,0.0141454841941595
145,0.00144853862002492,-0.000639946898445487,0.00945189222693443,0.0135499248281121,0.00900626834481955,0.017632944509387
146,0.00181221135426313,-0.000490267528221011,0.0103870630264282,0.0143168484792113,0.0120501993224025,0.0206361841410398
147,0.00336814974434674,-0.000489554658997804,0.0113601200282574,0.0141725577414036,0.0150764305144548,0.0214968845248222
148,0.00501803448423743,-0.000927150598727167,0.0113655449822545,0.0139226652681828,0.0162050481885672,0.0211127940565348
149,0.00542108109220862,-0.00222254055552185,0.0105165066197515,0.0144010633230209,0.0155049860477448,0.0204079654067755
150,0.00516049144789577,-0.00384586816653609,0.0101128360256553,0.015158967114985,0.0154051734134555,0.0183187648653984
151,0.00578433275222778,-0.00381453894078732,0.0105435727164149,0.0154540864750743,0.0164356380701065,0.0152363246306777
152,0.00788912549614906,-0.00136765756178647,0.0119996694847941,0.0156665965914726,0.0175166018307209,0.0132644344121218
153,0.0102982083335519,0.00147498142905533,0.0143456039950252,0.0166122913360596,0.0178442616015673,0.0125690149143338
154,0.0116146206855774,0.00306890509091318,0.0160711668431759,0.0180068016052246,0.0173399802297354,0.0119647486135364
155,0.0115797128528357,0.00337041867896914,0.0161291286349297,0.0182420182973146,0.0167843606323004,0.0112434551119804
156,0.0107536083087325,0.00237148045562208,0.0144444108009338,0.015252779237926,0.0161850992590189,0.00963939353823662
157,0.0104489214718342,0.00131423724815249,0.0119167175143957,0.00972383096814156,0.0153649877756834,0.00688164867460728
158,0.0116367666050792,0.00180897291284055,0.00989159662276506,0.00465174345299602,0.015104410238564,0.0042589963413775
159,0.013492445461452,0.0037180776707828,0.00875271018594503,0.00198009004816413,0.015186115168035,0.0027570235542953
160,0.0144273955374956,0.00581561960279942,0.00862178765237331,0.00191589433234185,0.0149386059492826,0.00249038566835225
161,0.013797027990222,0.00665541877970099,0.00940141174942255,0.00310089439153671,0.0145357428118587,0.00236491090618074
162,0.0117691271007061,0.00630857003852725,0.0105762062594295,0.00486628850921988,0.0134642049670219,0.00245187734253705
163,0.00934145506471395,0.00605264399200678,0.0122838355600834,0.00760007882490754,0.0121118081733584,0.00419180328026414
164,0.00787871424108744,0.00607716850936413,0.0142372036352754,0.0100761773064733,0.0116116162389517,0.00689802831038833
165,0.00743308942764997,0.00568598182871938,0.0152475433424115,0.0107010034844279,0.0111332815140486,0.00884678587317467
166,0.00679564662277699,0.00386769324541092,0.0146849919110537,0.00904026441276073,0.00989387184381485,0.00927554350346327
167,0.00562044931575656,0.000914738164283335,0.0134771009907126,0.00647862302139401,0.00917273014783859,0.009628776460886
168,0.00479902280494571,-0.000871873344294727,0.0131349274888635,0.0060474369674921,0.0101741151884198,0.0128659838810563
169,0.0043360129930079,-0.000753715517930686,0.0130970673635602,0.00813951715826988,0.0115258796140552,0.0177019201219082
170,0.00323710334487259,-0.000473628519102931,0.0116354795172811,0.00977771449834108,0.0108748013153672,0.0189864095300436
171,0.000846790033392608,-0.00168514181859791,0.00828871596604586,0.00810618791729212,0.00826201308518648,0.0142466938123107
172,-0.00216907379217446,-0.00378578598611057,0.00474490271881223,0.00359625020064414,0.00673903431743383,0.00613145809620619
173,-0.00448575802147388,-0.00469960551708937,0.00329256942495704,-0.000285117974271998,0.00806660391390324,-0.000800145615357906
174,-0.0055873254314065,-0.00417404714971781,0.00359336519613862,-0.0019146065460518,0.0101267378777266,-0.00487401336431503
175,-0.00529537536203861,-0.00311581254936755,0.00459633255377412,-0.00161123985890299,0.0111232185736299,-0.00628511048853397
176,-0.00361785478889942,-0.0016092915320769,0.00609627924859524,-5.67561728530563E-05,0.0105569828301668,-0.00575621565803885
177,-0.000905342283658683,0.000662171340081841,0.00720902578905225,0.00145396986044943,0.00808230321854353,-0.00458819931373
178,0.00185464357491583,0.00306769250892103,0.00706071173772216,0.00181428517680615,0.00488681672140956,-0.00334803992882371
179,0.00391904264688492,0.00470989476889372,0.00558564672246575,0.00055216858163476,0.00244281045161188,-0.00243779271841049
180,0.00560065405443311,0.0061054453253746,0.00356750609353185,-0.000705061887856573,0.000751209445297718,-0.00132537994068116
181,0.00652119796723127,0.00733228027820587,0.00171091186348349,5.98319165874273E-05,-0.00105227739550173,0.000712360080797225
182,0.00578386150300503,0.00742850312963128,0.000133766458020546,0.00198123441077769,-0.00279838009737432,0.00243079708889127
183,0.00345211965031922,0.00598946679383516,-0.00114444550126791,0.0027519550640136,-0.00308833899907768,0.00246180081740022
184,0.000512102677021176,0.00349891488440335,-0.0021083545871079,0.00146551302168518,-0.00125576055143029,0.00121056661009789
185,-0.00187823444139212,0.000912189309019595,-0.00275394367054105,-0.000772628467530012,0.00178894132841378,0.00031825591577217
186,-0.00334112928248942,-0.00116099743172526,-0.00339026330038905,-0.00244801957160234,0.0036913666408509,0.000721367076039314
187,-0.00414174096658826,-0.00213402626104653,-0.00379704800434411,-0.00271812058053911,0.00332030840218067,0.00190388469491154
188,-0.00472358707338572,-0.00160442141350359,-0.00347323925234377,-0.00156632997095585,0.00180157285649329,0.00295386230573058
189,-0.00556969363242388,5.82346765440889E-05,-0.00304446066729724,7.37604859750718E-05,-0.000761198694817722,0.00287971436046064
190,-0.00637030508369207,0.00175695901270956,-0.00303651113063097,0.000690343440510333,-0.00416745664551854,0.000340650207363069
191,-0.00616170559078455,0.00212123990058899,-0.00318254856392741,-0.00109569460619241,-0.0063077756203711,-0.00537094101309776
192,-0.00531512312591076,0.00150222377851605,-0.00356045295484364,-0.00433778576552868,-0.00662861624732614,-0.0120366858318448
193,-0.00472509767860174,0.00176559563260525,-0.00419571716338396,-0.00630657328292727,-0.00631606532260776,-0.016281409189105
194,-0.00402369862422347,0.00305893179029226,-0.00444951513782144,-0.00678562698885798,-0.00541388476267457,-0.0180341489613056
195,-0.00278231757692993,0.00378274545073509,-0.00373406056314707,-0.00732993334531784,-0.00337716075591743,-0.0190331302583218
196,-0.00129556935280561,0.00381256989203393,-0.00183794065378606,-0.00775458104908466,-0.00079983938485384,-0.0187686532735825
197,-0.000262092566117644,0.00409611873328686,0.000577899569179863,-0.00760674104094505,0.00079292303416878,-0.0168591048568487
198,0.000261838256847113,0.00465327780693769,0.00249438895843923,-0.00723583437502384,0.00102051557041705,-0.0151104833930731
199,0.000607207184657454,0.00544254900887609,0.00328552001155913,-0.00636016111820936,0.00035402097273618,-0.0137384673580527
200,-0.000204646523343399,0.00592295965179801,0.00226637488231063,-0.00540434196591377,-0.00149003777187318,-0.012119809165597
201,-0.00267907627858222,0.00486390991136432,-0.000351924478309229,-0.00579158589243889,-0.0043881656602025,-0.011568296700716
202,-0.00547533296048641,0.0021973610855639,-0.00360845611430705,-0.00764345470815897,-0.00790537800639868,-0.0126854032278061
203,-0.0080531807616353,-0.00135073775891215,-0.00714314449578524,-0.00988611113280058,-0.0121303806081414,-0.014416485093534
204,-0.0101672848686576,-0.00453296396881342,-0.0100156394764781,-0.0111409956589341,-0.0156967658549547,-0.0151989404112101
205,-0.0110804345458746,-0.00625479407608509,-0.0108426436781883,-0.0105632124468684,-0.017083091661334,-0.0138082569465041
206,-0.0114085357636213,-0.0070892577059567,-0.00989580433815718,-0.00903040636330843,-0.0171761699020863,-0.0112976096570492
207,-0.0116245886310935,-0.00728048291057348,-0.00838471669703722,-0.00768236024305224,-0.0169076416641474,-0.00982699077576399
208,-0.0115694934502244,-0.00632253615185618,-0.00689860433340073,-0.00662250071763992,-0.0159862954169512,-0.0102648315951228
209,-0.01166155282408,-0.00477094994857907,-0.0055971285328269,-0.00575220957398415,-0.0141299227252603,-0.0120480312034488
210,-0.0116228088736534,-0.00380033277906477,-0.00494786072522402,-0.00559313129633665,-0.011656085960567,-0.014514815993607
211,-0.0112364534288645,-0.00471186405047774,-0.00584081001579762,-0.00732061360031366,-0.00962833408266306,-0.0183431729674339
212,-0.0111345639452338,-0.00732831936329603,-0.00801546964794397,-0.0104315103963017,-0.00879806187003851,-0.0232668090611696
213,-0.0114405965432525,-0.00986910983920097,-0.0101987412199378,-0.0131928557530046,-0.00917028076946735,-0.0274017006158829
214,-0.0116372983902693,-0.0113499453291297,-0.0117757590487599,-0.0155018903315067,-0.0102088237181306,-0.0300127696245909
215,-0.0113152461126447,-0.011685443110764,-0.0125187216326594,-0.0175269916653633,-0.0113844042643905,-0.0313054285943508
216,-0.0110334437340498,-0.0115859191864729,-0.0129305990412831,-0.0191596876829863,-0.0131615065038204,-0.031981572508812
217,-0.01183738745749,-0.0126785738393664,-0.014416990801692,-0.0213923621922731,-0.0160515066236258,-0.0336189568042755
218,-0.0142422830685973,-0.0154092479497194,-0.0176488403230906,-0.0245918165892363,-0.0202015265822411,-0.0364811383187771
219,-0.0173771735280752,-0.0181625410914421,-0.0213398206979036,-0.0272466335445642,-0.0245509166270494,-0.0388113297522068
220,-0.0201320424675941,-0.0200969148427248,-0.0241398122161627,-0.0288484524935484,-0.0272669717669487,-0.0400189235806465
221,-0.022174185141921,-0.0213265512138605,-0.0255849957466125,-0.0299451854079962,-0.0274855010211468,-0.0406102389097214
222,-0.0225361716002226,-0.0209903866052628,-0.0247698687016964,-0.0298385266214609,-0.0248902756720781,-0.0402419567108154
223,-0.0212092250585556,-0.0190935786813498,-0.0222692601382732,-0.0286990683525801,-0.0215989071875811,-0.0392507612705231
224,-0.0198343675583601,-0.0170539878308773,-0.0197751689702272,-0.0275481157004833,-0.0207372177392244,-0.0384658426046371
225,-0.0188589543104172,-0.0157371368259192,-0.0173265561461449,-0.0262757614254951,-0.0210676547139883,-0.0382341779768467
226,-0.0180679522454739,-0.0147792939096689,-0.0151611370965838,-0.0248724538832903,-0.0204764138907194,-0.0384638495743275
227,-0.0174146872013807,-0.0135925430804491,-0.0150179294869304,-0.024074288085103,-0.0207302868366241,-0.0383705496788025
228,-0.0162116549909115,-0.012528957799077,-0.0171386487782002,-0.0239328779280186,-0.0229283478111029,-0.0369369089603424
229,-0.0150355892255902,-0.0129391103982925,-0.0197545848786831,-0.0240077972412109,-0.0251589380204678,-0.03431661054492
230,-0.0148399220779538,-0.0154744749888778,-0.0217882003635168,-0.0248678624629974,-0.0257441475987434,-0.0330417081713676
231,-0.0155798271298409,-0.0182726681232452,-0.0240040626376867,-0.0270172469317913,-0.0261623170226812,-0.0347136147320271
232,-0.0171595253050327,-0.0196263920515776,-0.0275871157646179,-0.0302185341715813,-0.0290204882621765,-0.0380561575293541
233,-0.0181674193590879,-0.0203768629580736,-0.0317680649459362,-0.0338867008686066,-0.0330680981278419,-0.0416669920086861
234,-0.0170082170516253,-0.0215073470026255,-0.034755315631628,-0.0370223149657249,-0.0352860353887081,-0.0446418635547161
235,-0.0145970182493329,-0.0235034693032503,-0.0366268791258335,-0.0396729148924351,-0.0356429666280746,-0.0470065847039223
236,-0.0127831175923347,-0.0265674963593483,-0.0386640578508377,-0.0426031574606895,-0.0364530384540558,-0.0492989793419838
237,-0.0123118981719017,-0.0293308589607477,-0.0408501327037811,-0.045113168656826,-0.0396266393363476,-0.0506356880068779
238,-0.0130297830328345,-0.0306698363274336,-0.0420188717544079,-0.046233281493187,-0.0447493232786655,-0.050569910556078
239,-0.0134662659838796,-0.0306868571788073,-0.0411204285919666,-0.0457831807434559,-0.0485167652368546,-0.0495780818164349
240,-0.012499020434916,-0.0300709027796984,-0.038409560918808,-0.0441338755190372,-0.0479568652808666,-0.048352126032114
241,-0.0102441627532244,-0.0297721326351166,-0.0345334336161613,-0.0415563993155956,-0.0419781468808651,-0.0475406274199486
242,-0.00743421074002981,-0.0296827778220177,-0.0302147790789604,-0.0375165194272995,-0.032470777630806,-0.0459671057760715
243,-0.00565565098077059,-0.0287830792367458,-0.0266808681190014,-0.0312772318720818,-0.0244008470326662,-0.042053584009409
244,-0.00522062787786126,-0.0267645940184593,-0.0231544692069292,-0.022182073444128,-0.0196238104254007,-0.0361613072454929
245,-0.00477951252833009,-0.0241857282817364,-0.0181007012724876,-0.0114814024418592,-0.0158610083162785,-0.0302100386470556
246,-0.00408998038619757,-0.0217813178896904,-0.0121283335611224,-0.00297196838073432,-0.0116988401859999,-0.0259377155452967
247,-0.00445553800091147,-0.0203853510320187,-0.00717577617615461,-0.000195208238437772,-0.00824778899550438,-0.0238210409879684
248,-0.00551508599892259,-0.0189913790673018,-0.00360963167622685,-0.00201831315644085,-0.00590471783652902,-0.0217361524701118
249,-0.00579216703772545,-0.0157322194427252,-4.35514957644045E-05,-0.00349470716901124,-0.0035823576617986,-0.0173962358385324
250,-0.00522702885791659,-0.0113050788640976,0.00319201103411615,-0.00280679110437632,-0.00146901712287217,-0.0126613341271877
251,-0.00373095297254622,-0.00691631017252803,0.00469193467870355,-0.00120436016004533,4.82230752822943E-05,-0.00950621720403433
252,-0.00157621630933136,-0.00267831445671618,0.00426682317629457,0.000528185453731567,0.00129288528114557,-0.00736464653164148
253,0.000130119267851114,0.000553163350559771,0.00245723058469594,0.0016458504833281,0.00233480241149664,-0.00635588588193059
254,0.00125369289889932,0.00202069082297385,0.000679750752169639,0.00198942236602306,0.00375932944007218,-0.00656349770724773
255,0.00259189214557409,0.00277210935018957,0.000875436409842223,0.00303161167539656,0.00653856573626399,-0.00608906848356128
256,0.00408471096307039,0.00383367436006665,0.00311073008924723,0.00584072712808847,0.00994730833917856,-0.00316146924160421
257,0.00504699116572738,0.00479474943131208,0.00567479338496923,0.00924396142363548,0.0123869571834803,0.00122328579891473
258,0.00601453986018896,0.00507278647273779,0.00798592902719975,0.0118077825754881,0.014218314550817,0.00420755939558148
259,0.00733498577028513,0.00439742719754577,0.010070494376123,0.0131847048178315,0.0159579887986183,0.00409418158233166
260,0.00786898843944073,0.00291835400275886,0.0111283017322421,0.0132868560031056,0.0167275704443455,0.00164207280613482
261,0.0064335591159761,0.00215270789340138,0.0110185844823718,0.0127185080200434,0.0160722155123949,0.000141981829074211
262,0.00368505227379501,0.00378137151710689,0.0106743220239878,0.0123992124572396,0.0150971515104175,0.00166860211174935
263,0.00129485502839088,0.00653065321967006,0.0103365732356906,0.0121278399601579,0.0148408720269799,0.00298191467300057
264,-0.000597090693190694,0.00846125651150942,0.00941929500550032,0.0123837878927588,0.0137431966140866,0.00217936793342233
265,-0.00153058627620339,0.0106320586055517,0.00897907093167305,0.014973197132349,0.0117017459124327,0.00252591934986413
266,-0.00101877539418638,0.0135876629501581,0.0104978093877435,0.0196639057248831,0.0113988863304257,0.00552438106387854
267,0.00012248067650944,0.0160377193242311,0.0137568945065141,0.0243428088724613,0.0141458883881569,0.00965118128806353
268,0.00156379223335534,0.0173738114535809,0.0172197315841913,0.0272535718977451,0.0183512885123491,0.0134528521448374
269,0.00230279751121998,0.017393633723259,0.0189559422433376,0.0280217118561268,0.0203407965600491,0.0160592682659626
270,0.00214831833727658,0.016502084210515,0.0195886436849833,0.0280889328569174,0.0199708677828312,0.0174910556524992
271,0.00275643914937973,0.0151819018647075,0.0206343363970518,0.0282282419502735,0.0201767850667238,0.0180765874683857
272,0.00484420219436288,0.0133066941052675,0.0217941012233496,0.0277808587998152,0.0215819086879492,0.0177155565470457
273,0.00793151743710041,0.0112550044432282,0.0228397473692894,0.0266870204359293,0.0234283152967691,0.0159375220537186
274,0.0105020785704255,0.00932823680341244,0.0235729292035103,0.0254352912306786,0.0248896647244692,0.0128590622916818
275,0.0114429304376245,0.00743325287476182,0.0239007193595171,0.024465499445796,0.0259177386760712,0.00995268858969212
276,0.0110342614352703,0.00613437872380018,0.0243527106940746,0.0242540277540684,0.0267724934965372,0.00892245210707188
277,0.00907391961663961,0.00573697732761502,0.0240215547382832,0.0238351821899414,0.0256987195461988,0.00931080710142851
278,0.00644472846761346,0.00611810898408294,0.0222123097628355,0.0219428334385157,0.0220557600259781,0.00947476457804441
279,0.00509142782539129,0.00672435853630304,0.020141813904047,0.0191923249512911,0.0177132561802864,0.00897645484656096
280,0.00490048713982105,0.00645309127867222,0.0188027415424585,0.0167690142989159,0.0140176517888904,0.00824372190982103
281,0.00536181312054396,0.00542406318709254,0.0188561175018549,0.0155889727175236,0.0124509483575821,0.00728994933888316
282,0.00621318956837058,0.00449266657233238,0.0202177464962006,0.0161969363689423,0.0133843952789903,0.00609733024612069
283,0.00645702797919512,0.00367605546489358,0.021556543186307,0.0177172683179379,0.0149725684896111,0.00528872385621071
284,0.00559893390163779,0.00265893200412393,0.0212619863450527,0.0177113320678473,0.015267432667315,0.00432975357398391
285,0.00390961999073625,0.00164951931219548,0.0189171619713306,0.0152362575754523,0.0135995289310813,0.00267434795387089
286,0.00231742020696402,0.00136558653321117,0.0161749590188265,0.0123248640447855,0.0116438902914524,0.00178632896859199
287,0.00143019412644207,0.00191121082752943,0.0141990464180708,0.0105028478428721,0.0110524315387011,0.00239247269928455
288,0.00106653408147395,0.00204986822791398,0.0126045281067491,0.00905666407197714,0.0114251999184489,0.00250018108636141
289,0.00101679656654596,0.00100128864869475,0.011281999759376,0.00750573631376028,0.0115291364490986,0.000340340891852975
290,0.00104353774804622,-0.000466389989014715,0.010388383641839,0.00634540989995003,0.0109219430014491,-0.00329784722998738
291,0.00135938741732389,-0.000820482848212123,0.0100758885964751,0.00634022569283843,0.0104924160987139,-0.00585637846961617
292,0.00183766626287252,0.000313553842715919,0.00999837089329958,0.00747325411066413,0.0103585179895163,-0.00590856606140733
293,0.00180427497252822,0.00179686932824552,0.00943536590784788,0.00848584435880184,0.00936377793550491,-0.00446960562840104
294,0.00144439656287432,0.00304484087973833,0.00854289531707764,0.008854771964252,0.00752429850399494,-0.00263770134188235
295,0.00142916233744472,0.00422262772917748,0.00818510260432959,0.00938799511641264,0.00676375441253185,-0.000580286898184568
296,0.00202655396424234,0.00533501477912068,0.00903164688497782,0.0106666451320052,0.00838859844952822,0.001155941397883
297,0.0025632434990257,0.00563015323132277,0.0100833559408784,0.0117710614576936,0.0107488231733441,0.000793644867371768
298,0.00219965539872646,0.00453771930187941,0.0103139290586114,0.0124340383335948,0.0119434371590614,-0.0015766677679494
299,0.000794264895375818,0.00247869361191988,0.0103933420032263,0.0136569337919354,0.0122578144073486,-0.00361012457869947
300,-0.00191056379117072,0.000168743368703872,0.0102616297081113,0.0145643604919314,0.0117423804476857,-0.00490132533013821
301,-0.00513981468975544,-0.00180108868516982,0.00900889653712511,0.0130343968048692,0.0101222125813365,-0.00708406092599034
302,-0.00692072743549943,-0.00297198724001646,0.0066559761762619,0.00920245889574289,0.00771145429462194,-0.0101833129301667
303,-0.00650104274973273,-0.00225656619295478,0.00504110846668482,0.00629596598446369,0.00560451671481133,-0.0108116874471307
304,-0.00478719547390938,0.000755092594772577,0.00580647587776184,0.00656942604109645,0.00540865305811167,-0.00686044106259942
305,-0.00312010035850108,0.00415238551795483,0.00783241167664528,0.00839218031615019,0.00702468072995543,-0.00141209200955927
306,-0.00262066349387169,0.00564227206632495,0.00915214046835899,0.00922925118356943,0.00860422849655151,0.00124627607874572
307,-0.0036040626000613,0.00540086394175887,0.00921106897294521,0.0088005792349577,0.00849270541220903,0.000720362644642591
308,-0.00485639739781618,0.00537352310493588,0.00872121658176184,0.00830306019634008,0.00688612088561058,-0.000338286714395508
309,-0.00533155258744955,0.00579409999772906,0.00870574451982975,0.00837074033915997,0.00578640308231115,-0.000776244152802974
310,-0.00538230640813708,0.00554609438404441,0.00977290235459805,0.00932415015995502,0.00643119588494301,-0.00100365316029638
311,-0.00486001372337341,0.00483892066404223,0.0120760034769773,0.0113931559026241,0.00851906090974808,-0.000799969828221947
312,-0.00344500201754272,0.00395642872899771,0.0140920365229249,0.012994946911931,0.0106658078730106,-0.00101067905779928
313,-0.00252685463055968,0.00216010119765997,0.0132759138941765,0.0122630316764116,0.0104263080283999,-0.00296335038729012
314,-0.00303201773203909,-0.000269980781013146,0.0103960335254669,0.0102459443733096,0.00785298179835081,-0.00588815100491047
315,-0.00417363410815597,-0.00240426999516785,0.0084441751241684,0.00894698407500982,0.00535691622644663,-0.00843730475753546
316,-0.00518541736528277,-0.00364538794383407,0.00848269369453192,0.00903210416436195,0.00380678195506334,-0.00922820065170527
317,-0.00583856645971537,-0.00333545822650194,0.0103420186787844,0.010876901447773,0.00333459745161235,-0.00672013219445944
318,-0.0063258339650929,-0.00198494899086654,0.0133266290649772,0.0135502219200134,0.00431753415614367,-0.00211081723682582
319,-0.00646625272929668,-0.000531431578565389,0.0160046778619289,0.0143979396671057,0.00651325983926654,0.000968435662798584
320,-0.00574266538023949,0.00099073932506144,0.0176584087312222,0.0127197960391641,0.00929153244942427,0.000654690607916564
321,-0.00464103976264596,0.00283654406666756,0.0191329885274172,0.0115432674065232,0.0118728093802929,-0.000525160110555589
322,-0.00469026621431112,0.00488534895703197,0.0205857269465923,0.0131513029336929,0.0126515785232186,0.000716393522452563
323,-0.00650766398757696,0.0060915076173842,0.0210778117179871,0.0159236676990986,0.0115427570417523,0.00299676600843668
324,-0.00855549238622189,0.00618699565529823,0.0215115156024694,0.0184576567262411,0.0116026913747191,0.00404872000217438
325,-0.00915657263249159,0.00679643591865897,0.0232870299369097,0.0214337948709726,0.014335579238832,0.00511433696374297
326,-0.0084723774343729,0.00863803364336491,0.0250569619238377,0.0239560063928366,0.0170489270240068,0.00668864138424397
327,-0.0077361767180264,0.0101958764716983,0.0243574269115925,0.0240016020834446,0.0168496631085873,0.0069991466589272
328,-0.00755785033106804,0.0105194663628936,0.0218311510980129,0.022281052544713,0.014673700556159,0.00579587090760469
329,-0.00782604888081551,0.0100066550076008,0.0201417300850153,0.0204937495291233,0.0134835243225098,0.00412036804482341
330,-0.00843754503875971,0.00902141071856022,0.0198437254875898,0.0189467575401068,0.0139599973335862,0.0027895993553102
331,-0.00931930541992188,0.00758866826072335,0.0193894375115633,0.0172562599182129,0.0143104987218976,0.00186725461389869
332,-0.0099317179992795,0.00610213680192828,0.0181871857494116,0.0155794341117144,0.0137944286689162,0.0012868451885879
333,-0.0103210434317589,0.00551001355051994,0.0170757137238979,0.0152673432603478,0.0128930853679776,0.00255894986912608
334,-0.011137361638248,0.00642285589128733,0.0168991591781378,0.0174129623919725,0.0119845913723111,0.00722603360190988
335,-0.0113557856529951,0.00880108587443829,0.0188674814999104,0.0219845417886972,0.01280786562711,0.0146129252389073
336,-0.0101590435951948,0.0113396411761642,0.0227030329406261,0.0271863210946321,0.0158970225602388,0.0212317015975714
337,-0.00866227317601442,0.0128766400739551,0.0259517896920443,0.0309903211891651,0.0185487437993288,0.0244825184345245
338,-0.00737548246979713,0.0139305964112282,0.0274479687213898,0.0334695167839527,0.0196113288402557,0.0255944021046162
339,-0.00631421059370041,0.0147580793127418,0.0277550220489502,0.035313107073307,0.0202730465680361,0.0260898880660534
340,-0.00640183547511697,0.0148912174627185,0.0264962781220675,0.035794235765934,0.0196918696165085,0.025537520647049
341,-0.00801294017583132,0.0142564009875059,0.0226723700761795,0.0335954278707504,0.0163022708147764,0.0229572635143995
342,-0.00944663677364588,0.0137618090957403,0.0179315879940987,0.0301297958940268,0.012343100272119,0.0196533128619194
343,-0.00912467855960131,0.0139876501634717,0.0156505387276411,0.0280207842588425,0.0117745781317353,0.0175720416009426
344,-0.00809723045676947,0.0138310519978404,0.0162241086363792,0.0271026585251093,0.0144563717767596,0.0157688464969397
345,-0.00719494698569179,0.0132681652903557,0.0174980368465185,0.0266956500709057,0.0170584563165903,0.0138182938098907
346,-0.00612786831334233,0.0132113667204976,0.0176039338111877,0.0266164895147085,0.0171109493821859,0.0125576863065362
347,-0.00529708946123719,0.0133968936279416,0.0158512070775032,0.0259739477187395,0.0142606105655432,0.0117544215172529
348,-0.00488093309104443,0.0136712845414877,0.0132532520219684,0.0246533788740635,0.010106991045177,0.0116908773779869
349,-0.00468906806781888,0.0139291835948825,0.0110117057338357,0.022711168974638,0.00630376394838095,0.0127886114642024
350,-0.00494086649268866,0.0132672786712646,0.00887682754546404,0.0193390659987926,0.00312176626175642,0.014037974178791
351,-0.00562198599800467,0.0118175279349089,0.00668736174702644,0.0152232451364398,0.000735157867893577,0.0149504728615284
352,-0.0066050156019628,0.0111598009243608,0.00540353544056416,0.0125578725710511,-9.04246771824546E-05,0.0163703616708517
353,-0.00822967942804098,0.0112673370167613,0.0055372747592628,0.0115641411393881,0.000916687597054988,0.0172731392085552
354,-0.00988117884844542,0.0109931258484721,0.00699567655101419,0.0113110532984138,0.00383523548953235,0.0159054789692163
355,-0.0101687302812934,0.0106897242367268,0.00893114507198334,0.0118547845631838,0.0075034131295979,0.0136644383892417
356,-0.00856589898467064,0.0112356264144182,0.0100311823189259,0.0131599949672818,0.00930175464600325,0.0130258277058601
357,-0.00579104386270046,0.0120406989008188,0.00999008398503065,0.0141985351219773,0.00838759168982506,0.0137015515938401
358,-0.00336335343308747,0.0114140538498759,0.00895386468619108,0.0137413376942277,0.0060028382577002,0.0132744079455733
359,-0.00218921434134245,0.00871476158499718,0.0070905270986259,0.011639541015029,0.00362103967927396,0.0101020997390151
360,-0.00177955545950681,0.00518675986677408,0.00513515388593078,0.0086888000369072,0.00245624897070229,0.00505591509863734
361,-0.00086570589337498,0.00298054609447718,0.00471424264833331,0.00628002407029271,0.00376699888147414,0.0010583926923573
362,0.00124252843670547,0.00332455267198384,0.00675633689388633,0.00560390809550881,0.0073644183576107,8.19868637336185E-06
363,0.00352274929173291,0.00563801219686866,0.009945934638381,0.00692093791440129,0.0104898354038596,0.00178690522443503
364,0.00400942470878363,0.00789259653538466,0.0120535790920258,0.00877065025269985,0.0107854418456554,0.00474952952936292
365,0.00203890772536397,0.00842749606817961,0.0119413118809462,0.00894595496356487,0.00835009105503559,0.00658928696066141
366,-0.000689171487465501,0.00770849082618952,0.0102714719250798,0.00752854300662875,0.00480410270392895,0.00702776992693543
367,-0.00253576086834073,0.0066130249761045,0.00807614251971245,0.00578809017315507,0.00156251818407327,0.00727812899276614
368,-0.00382069428451359,0.00499152205884457,0.00612599868327379,0.00411045923829079,-0.000809016753919423,0.00774632766842842
369,-0.00493381591513753,0.00266070640645921,0.00493282917886972,0.00221170438453555,-0.00192282511852682,0.0075951567851007
370,-0.00534640438854694,0.000101776357041672,0.00419777818024158,-0.000125029604532756,-0.00183767545968294,0.00647531636059284
371,-0.0050214696675539,-0.00151330651715398,0.00397282652556896,-0.00171530700754374,-0.00203663855791092,0.00632513826712966
372,-0.00501298159360886,-0.00129224848933518,0.00452734110876918,-0.00136332446709275,-0.00441325968131423,0.00839126668870449
373,-0.00575897144153714,0.000276784790912643,0.00532981660217047,0.000147675076732412,-0.00808882527053356,0.0110605778172612
374,-0.00579201709479094,0.00215233350172639,0.00653299037367105,0.00181987369433045,-0.00900605134665966,0.0124690122902393
375,-0.00480849854648113,0.00366107327863574,0.00809288583695889,0.00325571652501822,-0.00604353426024318,0.012402368709445
376,-0.00449679931625724,0.00455771805718541,0.0088895121589303,0.0044165151193738,-0.00257656909525394,0.0121573386713862
377,-0.0046341372653842,0.00495755393058062,0.00872495025396347,0.005560212302953,-0.000329876667819917,0.0128888823091984
378,-0.00433178618550301,0.00421798368915915,0.0070618037134409,0.00545661384239793,0.000378847238607705,0.0134229268878698
379,-0.00415059365332127,0.00182747223880142,0.00351200788281858,0.00317764072678983,-0.000732307962607592,0.0119588151574135
380,-0.00403685076162219,-0.00060670607490465,7.5447402196005E-05,0.000939844409003854,-0.00241746776737273,0.00973741058260202
381,-0.00382511666975915,-0.0013967826962471,-0.00202369876205921,0.000826914852950722,-0.00432889116927981,0.00881364662200212
382,-0.00369665864855051,-0.000593616103287786,-0.00364581705071032,0.00195698160678148,-0.00705513404682279,0.00851370766758919
383,-0.00325816357508302,0.000711561762727797,-0.00501831574365497,0.00259699556045234,-0.00977521762251854,0.00732130464166403
384,-0.00237753218971193,0.00085704296361655,-0.00564137659966946,0.00189507531467825,-0.0108297904953361,0.0045928773470223
385,-0.00151771679520607,-0.000786888878792524,-0.00527929374948144,0.000262842746451497,-0.00963680259883404,0.000837927043903619
386,-0.00133569969329983,-0.00282083195634186,-0.00442093005403876,-0.00108362582977861,-0.00813843309879303,-0.00223466823808849
387,-0.00196987763047218,-0.0043297978118062,-0.00387840950861573,-0.00187298527453095,-0.00776957115158439,-0.00399518338963389
388,-0.00234547443687916,-0.00561108579859138,-0.00331821292638779,-0.00237901136279106,-0.00698786741122603,-0.00478558568283916
389,-0.00097764004021883,-0.00567525625228882,-0.00159107893705368,-0.00176148419268429,-0.00474999006837606,-0.00362244294956326
390,0.00188018404878676,-0.00367253692820668,0.000594032404478639,-4.03267149522435E-05,-0.0028262862470001,-0.000173020729562268
391,0.00395313650369644,-0.00167773920111358,0.000398558651795611,4.28078019467648E-05,-0.00422977330163121,0.00313306110911071
392,0.00350367045029998,-0.00228104065172374,-0.00288317305967212,-0.00295308325439692,-0.00964988395571709,0.00410075252875686
393,0.00122620014008135,-0.00503056216984987,-0.00650189071893692,-0.00646291952580214,-0.0160159654915333,0.00337127968668938
394,-0.000688229105435312,-0.00753476982936263,-0.00816594436764717,-0.0081090871244669,-0.0198847278952599,0.00236135208979249
395,-0.000746661156881601,-0.0085628554224968,-0.00814525689929724,-0.00821738038212061,-0.0205591171979904,0.00109320902265608
396,0.00116443354636431,-0.00851446483284235,-0.00720232399180532,-0.00767874903976917,-0.0186805669218302,-0.00072347215609625
397,0.0037243899423629,-0.00842132791876793,-0.00582135748118162,-0.00711119454354048,-0.015010860748589,-0.00245949486270547
398,0.00533655611798167,-0.00842362456023693,-0.00444416794925928,-0.00650378363206983,-0.0104820178821683,-0.00263465847820044
399,0.00557921128347516,-0.00790914613753557,-0.00258223968558013,-0.00541905872523785,-0.00549227092415094,-0.000835082377307117
400,0.00441926112398505,-0.00740086426958442,-0.000775639724452049,-0.00515493145212531,-0.00171518221031874,0.000549384858459234
401,0.00335965282283723,-0.00692855473607779,-7.08195002516732E-05,-0.00666462676599622,-0.000499843270517886,1.41895025080885E-05
402,0.00471761683002114,-0.00519743887707591,0.00055626651737839,-0.00811268575489521,0.00018449175695423,-0.000458923954283819
403,0.00749720307067037,-0.0027050506323576,0.00148030021227896,-0.00850287918001413,0.00164011004380882,0.000369790039258078
404,0.00884093251079321,-0.00127225311007351,0.00142541923560202,-0.00871602445840836,0.00239935307763517,0.00168830377515405
405,0.00763474544510245,-0.00145147007424384,0.00013794052938465,-0.00911766476929188,0.00136355881113559,0.00283885817043483
406,0.00417801411822438,-0.00314033054746687,-0.00203091977164149,-0.0101986229419708,-0.00167682603932917,0.00269833928905427
407,-0.000440645118942484,-0.00612080469727516,-0.00474780146032572,-0.0127595337107778,-0.0059086149558425,0.000253178150160238
408,-0.00418593361973763,-0.00895408820360899,-0.00657483609393239,-0.0155632616952062,-0.00914407800883055,-0.0030334647744894
409,-0.00539446529000998,-0.00965240504592657,-0.00617773411795497,-0.0161099676042795,-0.00993924960494041,-0.00444919057190418
410,-0.00448669493198395,-0.00789595581591129,-0.00465559400618076,-0.0142799215391278,-0.00939342007040977,-0.00326575059443712
411,-0.00355043984018266,-0.00532893929630518,-0.00447445455938578,-0.0121614206582308,-0.00959973875433207,-0.000772672356106341
412,-0.00458078412339091,-0.00406532641500235,-0.0063937776722014,-0.0113160079345107,-0.0107532292604446,0.00165597419254482
413,-0.00761342654004693,-0.00443695019930601,-0.0087824696674943,-0.011263876222074,-0.0115336338058114,0.00401184661313891
414,-0.010401907376945,-0.0049369209446013,-0.00958758406341076,-0.0106866890564561,-0.0109898904338479,0.00672237994149327
415,-0.0113626671954989,-0.00509098684415221,-0.00905797630548477,-0.0100604966282845,-0.00990834645926952,0.00857988744974136
416,-0.0111033851280808,-0.00579106528311968,-0.00936510693281889,-0.0109119890257716,-0.0103000141680241,0.00797343999147415
417,-0.0108068799600005,-0.00701960409060121,-0.0112406816333532,-0.01293910946697,-0.0130119994282722,0.00561366369947791
418,-0.010642196983099,-0.00736308237537742,-0.0129769127815962,-0.0139610366895795,-0.0166465919464827,0.00412666518241167
419,-0.0103309210389853,-0.00650086347013712,-0.0137477098032832,-0.0137342009693384,-0.0197905711829662,0.00439439294859767
420,-0.0100150220096111,-0.00558871682733297,-0.0144597124308348,-0.014021135866642,-0.0225260425359011,0.00535125937312841
421,-0.00956467445939779,-0.00539974449202418,-0.0148781463503838,-0.0150005053728819,-0.024074487388134,0.00614887988194823
422,-0.00927286874502897,-0.00664948532357812,-0.0146709270775318,-0.0161728747189045,-0.0234809294342995,0.00560961198061705
423,-0.00926169287413359,-0.00877441093325615,-0.0143808489665389,-0.0173567645251751,-0.0217475276440382,0.00365812866948545
424,-0.008435083553195,-0.00972638558596373,-0.0139359682798386,-0.0181030109524727,-0.0201566834002733,0.0017796290339902
425,-0.00653904071077704,-0.00878819823265076,-0.013045322149992,-0.0175114013254642,-0.0190223287791014,0.00123992888256907
426,-0.00478891562670469,-0.00666622444987297,-0.0119237564504147,-0.0147684728726745,-0.0185880847275257,0.00262256478890777
427,-0.00399475963786244,-0.00436903117224574,-0.0108965840190649,-0.0109652364626527,-0.0188596062362194,0.00495397392660379
428,-0.00378164346329868,-0.00275332783348858,-0.00988784804940224,-0.0081084193661809,-0.0186921935528517,0.00648814719170332
429,-0.00374469789676368,-0.00200047343969345,-0.00900492630898952,-0.0070926696062088,-0.0171269904822111,0.0063404799439013
430,-0.00354337925091386,-0.00123176421038806,-0.00797854363918304,-0.00701650558039546,-0.0142770474776626,0.005454006139189
431,-0.00298676430247724,-1.73462503880728E-05,-0.0064551024697721,-0.00683834496885538,-0.0116509264335036,0.00520044378936291
432,-0.00271635735407472,0.00046860717702657,-0.0057793059386313,-0.00772360945120454,-0.0118728997185826,0.00474325707182288
433,-0.00351203209720552,-0.000205740565434098,-0.00668808910995722,-0.0102931689471006,-0.0152500197291374,0.00355950742959976
434,-0.00556578487157822,-0.00123477634042501,-0.00828748568892479,-0.0131391091272235,-0.0198203604668379,0.00297701940871775
435,-0.00779467448592186,-0.00221174885518849,-0.0101759321987629,-0.0156535916030407,-0.0241637174040079,0.00321740936487913
436,-0.0087085347622633,-0.00309632322750986,-0.0117470230907202,-0.0176450572907925,-0.0268282890319824,0.00369088631123304
437,-0.00838449690490961,-0.00361941521987319,-0.0118640456348658,-0.0177396852523088,-0.0265807099640369,0.00556001206859946
438,-0.00818501599133015,-0.00376348756253719,-0.0109061440452933,-0.015837799757719,-0.0243227519094944,0.00989864487200975
439,-0.00867909379303455,-0.00392229901626706,-0.0104682575911283,-0.0141052659600973,-0.0219631753861904,0.0148433856666088
440,-0.00895627867430449,-0.00388514483347535,-0.0107045033946633,-0.0137187521904707,-0.0196170695126057,0.0180361997336149
441,-0.00834999047219753,-0.00339616113342345,-0.0105898668989539,-0.0141785135492682,-0.0164646059274673,0.0190503224730492
442,-0.00785955786705017,-0.00311895529739559,-0.0104573108255863,-0.0151051729917526,-0.0137510960921645,0.0185287538915873
443,-0.00892197992652655,-0.00399371236562729,-0.0115966722369194,-0.0162407197058201,-0.0135986087843776,0.0172028746455908
444,-0.0111078787595034,-0.00560886925086379,-0.0134297786280513,-0.0164568033069372,-0.0153119303286076,0.0160485357046127
445,-0.0119572440162301,-0.00605412852019072,-0.0134957702830434,-0.014587139710784,-0.0160159859806299,0.0160712376236916
446,-0.0100459288805723,-0.00478660129010677,-0.010900616645813,-0.0113499285653234,-0.0145350797101855,0.0168662276118994
447,-0.00723591027781367,-0.00381072401069105,-0.00791179947555065,-0.00918570067733526,-0.0126442238688469,0.0168239437043667
448,-0.00505198398604989,-0.00370150618255138,-0.00576806208118796,-0.00840809941291809,-0.0110927121713758,0.0162980481982231
449,-0.00298745930194855,-0.00278747477568686,-0.00327346054837108,-0.00723748235031962,-0.00860467087477446,0.0166445579379797
450,-0.00138579518534243,-0.00152366666588932,-0.00143347773700953,-0.00659012096002698,-0.0063025439158082,0.0164741426706314
451,-0.00097087980248034,-0.00123699719551951,-0.00208350410684943,-0.00761924125254154,-0.0067880074493587,0.0149565748870373
452,-0.00202789739705622,-0.00131072534713894,-0.00462162680923939,-0.00885111000388861,-0.0110503826290369,0.0134530318900943
453,-0.00443182373419404,-0.000924750056583434,-0.00769551889970899,-0.00948887225240469,-0.0179652515798807,0.0123055893927813
454,-0.00730493059381843,-0.00064763380214572,-0.0104244751855731,-0.0105785764753819,-0.0246086400002241,0.0108147449791431
455,-0.0099083948880434,-0.00166645646095276,-0.0123657267540693,-0.0129871172830462,-0.0284118931740522,0.00844033993780613
456,-0.0115900821983814,-0.00362082407809794,-0.0131083708256483,-0.0158734992146492,-0.0283924769610167,0.00563733279705048
457,-0.0117533057928085,-0.00487781455740333,-0.0123569024726748,-0.0176285021007061,-0.0253771860152483,0.00390809075906873
458,-0.0104968762025237,-0.00437401840463281,-0.0105563933029771,-0.0175200141966343,-0.0214628875255585,0.00446654390543699
459,-0.00858758296817541,-0.00240584276616573,-0.00877904146909714,-0.016452269628644,-0.0181561261415482,0.00667861988767982
460,-0.00757392961531878,-0.000786174146924168,-0.00833957269787788,-0.0164862815290689,-0.0164373144507408,0.00798639468848705
461,-0.00860057771205902,-0.000445044686784968,-0.00961652770638466,-0.0179594792425632,-0.0168561059981585,0.00751730892807245
462,-0.0105873793363571,4.37709168181755E-05,-0.0114620057865977,-0.0186979174613953,-0.018686804920435,0.00756682176142931
463,-0.0124626979231834,0.000598287617322057,-0.0136181861162186,-0.0182814858853817,-0.0218140333890915,0.00824871007353067
464,-0.0142559222877026,-0.00102543353568763,-0.0162721872329712,-0.0185276512056589,-0.0258012060075998,0.00696583837270737
465,-0.0152909308671951,-0.00439829332754016,-0.017807200551033,-0.019395787268877,-0.0282596834003925,0.00375462765805423
466,-0.0151200294494629,-0.00656051421537995,-0.017357561737299,-0.0198819302022457,-0.0281733833253384,0.00072457711212337
467,-0.0141625860705972,-0.00657332222908735,-0.0167834274470806,-0.0210714507848024,-0.0271206256002188,-0.00159920717123896
468,-0.0133394310250878,-0.00608360767364502,-0.0182209983468056,-0.02406270429492,-0.0273031014949083,-0.00395537680014968
469,-0.0133911725133657,-0.00626425771042705,-0.0214035008102655,-0.02788788639009,-0.0290128905326128,-0.00682848785072565
470,-0.0140491481870413,-0.00696288980543613,-0.0245406739413738,-0.0313939303159714,-0.0308552775532007,-0.0104861613363028
471,-0.0136854536831379,-0.00762822385877371,-0.0257082358002663,-0.033836305141449,-0.0311931781470776,-0.0145808244124055
472,-0.0112916119396687,-0.00794226862490177,-0.0246156770735979,-0.0349402986466885,-0.0298453941941261,-0.0182390715926886
473,-0.00798861309885979,-0.00795510597527027,-0.0231775492429733,-0.0351643562316895,-0.028748007491231,-0.0205943044275045
474,-0.00527976825833321,-0.00838228594511747,-0.022565932944417,-0.03512854129076,-0.0288997702300549,-0.0215700641274452
475,-0.00421896856278181,-0.00995925907045603,-0.0225470922887325,-0.0350616574287415,-0.0299012381583452,-0.0215968191623688
476,-0.00475560175254941,-0.0121344989165664,-0.0235116947442293,-0.0353708453476429,-0.0315509326756001,-0.0214212760329247
477,-0.00587587198242545,-0.0140016041696072,-0.02651771530509,-0.037216205149889,-0.0340518802404404,-0.0225703679025173
478,-0.00697348546236753,-0.0154233416542411,-0.0309434849768877,-0.0407112091779709,-0.0370079465210438,-0.0251617524772882
479,-0.00815814174711704,-0.016779663041234,-0.034996259957552,-0.0448418743908405,-0.0394663140177727,-0.0277638975530863
480,-0.00884257256984711,-0.0170458555221558,-0.0370868556201458,-0.0478609465062618,-0.0403560772538185,-0.0286002773791552
481,-0.00855676922947168,-0.0151331005617976,-0.0365228541195393,-0.0481046661734581,-0.0391627736389637,-0.0267413407564163
482,-0.00855359341949224,-0.0126885771751404,-0.0344127342104912,-0.046224270015955,-0.0364214554429054,-0.023889085277915
483,-0.00926240347325802,-0.0112127708271146,-0.0315530747175217,-0.0435666777193546,-0.0320898666977882,-0.0221103187650442
484,-0.00910994876176119,-0.0101134274154902,-0.0275211650878191,-0.0399516075849533,-0.0264991447329521,-0.0211370419710875
485,-0.00672982959076762,-0.00833547208458185,-0.0219515338540077,-0.0346632860600948,-0.020422725006938,-0.0193490888923407
486,-0.00314593804068863,-0.00528817530721426,-0.0157700050622225,-0.0281001329421997,-0.0146300699561834,-0.0155770881101489
487,-0.000523675756994635,-0.00145975057967007,-0.0107165155932307,-0.0219711363315582,-0.0105312764644623,-0.0105175543576479
488,0.000534713268280029,0.00200058310292661,-0.00732393004000187,-0.0175904668867588,-0.00814741384238005,-0.00609686551615596
489,0.00049383903387934,0.00469689397141337,-0.00562755716964602,-0.0146983042359352,-0.00696490844711661,-0.00284408195875585
490,-0.000321388419251889,0.00642532762140036,-0.00595690310001373,-0.0127673875540495,-0.00778298964723945,-0.000324705499224365
491,-0.000690953223966062,0.00703877117484808,-0.0072333631105721,-0.0114802364259958,-0.009802863933146,0.00166363653261214
492,0.00136974861379713,0.00767613155767322,-0.00702776992693543,-0.00963595509529114,-0.00980385113507509,0.00396276125684381
493,0.00518740154802799,0.00923389475792646,-0.00462612230330706,-0.00664265267550945,-0.00707622617483139,0.00687227258458734
494,0.00814223103225231,0.0107563743367791,-0.00143359007779509,-0.00359951728023589,-0.00370185379870236,0.0089877238497138
495,0.00890325754880905,0.0108972685411572,0.00111035513691604,-0.00130785687360913,-0.00112251925747842,0.00948143191635609
496,0.00777058675885201,0.00954124983400106,0.00261115352623165,0.000112515663204249,0.000779334979597479,0.00897742155939341
497,0.00614629266783595,0.00787347555160522,0.00368955172598362,0.000949100649449974,0.00303818355314434,0.00840437691658735
498,0.00475507043302059,0.00699812825769186,0.00426781829446554,0.00169944739900529,0.00492441887035966,0.00836761668324471
499,0.00413631973788142,0.00721741374582052,0.00421039527282119,0.0024028243497014,0.00585143500939012,0.00879695266485214
500,0.00449202815070748,0.0080238301306963,0.00390384485945106,0.00263883336447179,0.00636449130252004,0.00914316717535257
501,0.00449265679344535,0.00920181628316641,0.00336403562687337,0.00290935370139778,0.00555833149701357,0.0100531531497836
502,0.00364827155135572,0.0114360125735402,0.00330839632079005,0.00472313864156604,0.00355866528116167,0.0131480917334557
503,0.00256927032023668,0.0143405590206385,0.00423655658960342,0.00766800483688712,0.00178340415004641,0.018033554777503
504,0.00186331337317824,0.0172231066972017,0.00586671428754926,0.0106952767819166,0.00112668774090707,0.0234083086252213
505,0.00160615018103272,0.0193780194967985,0.00780680403113365,0.0134141035377979,0.00228406256064773,0.0275556538254023
506,0.00125135364942253,0.0199489407241344,0.00939641986042261,0.0149122774600983,0.00485516851767898,0.02854691632092
507,0.000601997948251665,0.0199634917080402,0.0106966104358435,0.0157634485512972,0.007476138882339,0.027959430590272
508,-0.000678437296301126,0.021113745868206,0.0126306638121605,0.0186713691800833,0.00890050921589136,0.0302206445485353
509,-0.00265759881585836,0.0228550899773836,0.0159403327852488,0.024786040186882,0.00951294135302305,0.0365725718438625
510,-0.00450475281104445,0.0229825582355261,0.0204021017998457,0.0316758938133717,0.0111229345202446,0.0429687052965164
511,-0.00495363445952535,0.0217556394636631,0.0250932648777962,0.0364230312407017,0.0145018240436912,0.0454954989254475
512,-0.00310081010684371,0.0205142740160227,0.0283206272870302,0.0362325683236122,0.0191492736339569,0.0418795198202133
513,0.000723178207408637,0.0187980215996504,0.02813052944839,0.0292683951556683,0.0242372751235962,0.0312757268548012
514,0.00530045665800571,0.0171812195330858,0.0245034955441952,0.0185658652335405,0.028509670868516,0.0177973788231611
515,0.00870881322771311,0.0162883698940277,0.0188301857560873,0.00882464367896318,0.0304824057966471,0.00681160064414144
516,0.0102449394762516,0.0156342871487141,0.013312335126102,0.00282959151081741,0.0306610055267811,0.00036283303052187
517,0.0111848283559084,0.0154037335887551,0.0103842299431562,0.00152762560173869,0.0313711650669575,-0.00174162595067173
518,0.0123483808711171,0.0153032271191478,0.010446866042912,0.00319137517362833,0.0338256470859051,-0.00192869431339204
519,0.0127277076244354,0.0137082254514098,0.01097581256181,0.00446459650993347,0.0362435057759285,-0.00412823539227247
520,0.0111710084602237,0.0101977717131376,0.00885212887078524,0.00313999969512224,0.0355600640177727,-0.00985098350793123
521,0.00902495346963406,0.00739083532243967,0.00502377608790994,0.00119537441059947,0.0320654474198818,-0.0155834909528494
522,0.00797856785356998,0.00699082342907786,0.00290251499973238,0.00172645156271756,0.0286023244261742,-0.017974354326725
523,0.00753909396007657,0.00735088996589184,0.0026731644757092,0.00359864067286253,0.0262320004403591,-0.0188431646674871
524,0.00697972159832716,0.00658302847296,0.001757150166668,0.00341405114158988,0.0242228750139475,-0.0218283049762249
525,0.00637207645922899,0.00447824085131288,-0.000972077541518956,0.000433287612395361,0.0222510471940041,-0.0273346211761236
526,0.00563069200143218,0.00198072148486972,-0.00438166223466396,-0.00306069408543408,0.0208956208080053,-0.032729908823967
527,0.00470890896394849,-1.42983262776397E-05,-0.00749990670010448,-0.00584878586232662,0.0202764589339495,-0.036138541996479
528,0.00381002109497786,-0.00128798326477408,-0.010123030282557,-0.00854652468115091,0.0192160699516535,-0.0370362140238285
529,0.00340808695182204,-0.0016457230085507,-0.0111515261232853,-0.010296662338078,0.0176982842385769,-0.0348010584712029
530,0.00420710816979408,-0.000728071900084615,-0.00915393698960543,-0.00894731096923351,0.0177563633769751,-0.0294715240597725
531,0.00566383963450789,0.000441383221186697,-0.00555388303473592,-0.00511568365618587,0.0191422998905182,-0.0237252376973629
532,0.00656780647113919,0.000269092590315267,-0.00342816626653075,-0.00207915809005499,0.0196886789053679,-0.0213030371814966
533,0.0069246026687324,-0.000366224034223706,-0.00331237842328846,-0.000668331224005669,0.0190355125814676,-0.021834846585989
534,0.00697614531964064,0.000109662985778414,-0.00412072148174047,0.000560636341106147,0.0172164831310511,-0.0222110282629728
535,0.00687605468556285,0.00119496078696102,-0.00513032544404268,0.00158947368618101,0.0147252706810832,-0.022209981456399
536,0.00696845492348075,0.0022109046112746,-0.0055853258818388,0.00213542627170682,0.0134879536926746,-0.0228332057595253
537,0.00658654188737273,0.0032625887542963,-0.00513290986418724,0.00313247926533222,0.0139671489596367,-0.0229307785630226
538,0.00422270642593503,0.00365438661538064,-0.00485746841877699,0.00441591953858733,0.0134714543819427,-0.0216057784855366
539,-0.00099175120703876,0.00221484689973295,-0.00615776982158422,0.00422734348103404,0.00949311535805464,-0.0199692845344543
540,-0.00726329023018479,-0.000846914539579302,-0.00848959665745497,0.00192340870853513,0.00370530737563968,-0.0191841721534729
541,-0.0109635069966316,-0.0038850677665323,-0.0102529237046838,-0.00137459498364478,-0.000136123577249236,-0.0195571705698967
542,-0.0105638634413481,-0.00513007072731853,-0.0102779511362314,-0.00372543837875128,-0.000161312113050371,-0.0202903244644403
543,-0.00800441484898329,-0.00484183942899108,-0.00905193854123354,-0.00453157117590308,0.00198281765915453,-0.0207817554473877
544,-0.00643810722976923,-0.00579113466665149,-0.00877525843679905,-0.00557090016081929,0.00290181441232562,-0.0221193302422762
545,-0.00702940439805388,-0.00909389276057482,-0.010338026098907,-0.00792790297418833,0.00136070128064603,-0.0243990961462259
546,-0.00838051456958056,-0.0121390307322145,-0.0123635558411479,-0.00991291273385286,-0.00143606460187584,-0.0251546110957861
547,-0.00873436406254768,-0.0123456884175539,-0.0131194014102221,-0.00893920660018921,-0.00338235078379512,-0.0223193168640137
548,-0.00799902621656656,-0.0102730467915535,-0.01258066855371,-0.00515796756371856,-0.00347988912835717,-0.0171587504446507
549,-0.00661556143313646,-0.00799991749227047,-0.0117554124444723,-0.00140390626620501,-0.00211062305606902,-0.0127803254872561
550,-0.00458042975515127,-0.00700073316693306,-0.011326989158988,-0.000567424111068249,0.00016316406254191,-0.0114338621497154
551,-0.00256627216003835,-0.00745131447911263,-0.0116731813177466,-0.00295897340402007,0.00213589449413121,-0.012731165625155
552,-0.00151331978850067,-0.0085191298276186,-0.0126010291278362,-0.00591750117018819,0.00242699380032718,-0.0140597447752953
553,-0.00170574884396046,-0.00981104467064142,-0.0139190666377544,-0.00777114601805806,0.000758085632696748,-0.0146390339359641
554,-0.0018572238041088,-0.0105286370962858,-0.0147228678688407,-0.00828600209206343,-0.000576868478674442,-0.0152489952743053
555,-0.000491729530040175,-0.00943196099251509,-0.0135215884074569,-0.00692961597815156,0.0011138382833451,-0.0154834920540452
556,0.00136433530133218,-0.00688068708404899,-0.0106894904747605,-0.00390403065830469,0.00459401262924075,-0.0144488960504532
557,0.0020486400462687,-0.00424745911732316,-0.00765692256391048,-0.000508173077832907,0.00711561273783445,-0.0121427522972226
558,0.00231363880448043,-0.00200158450752497,-0.00429913774132729,0.00250464212149382,0.00888743810355663,-0.00937679503113031
559,0.00329637806862593,-0.000227803422603756,-0.000627131958026439,0.00482354266569018,0.010569310747087,-0.00699811754748225
560,0.00410688109695911,0.000485895405290648,0.00172383058816195,0.00527098868042231,0.0110261794179678,-0.00574762234464288
561,0.00390106765553355,0.000209049510885961,0.00219221576116979,0.00382901285775006,0.00990144163370132,-0.00547326821833849
562,0.002750986488536,-0.00056668120669201,0.00150212622247636,0.00219351262785494,0.00744755612686276,-0.00517311319708824
563,0.000872344942763448,-0.00182610668707639,7.39066890673712E-05,0.00159792753402144,0.00372473616153002,-0.00416972301900387
564,-0.000523737689945847,-0.00319236819632351,-0.00103515759110451,0.0027981495950371,0.000490979175083339,-0.00226352177560329
565,-0.000406844774261117,-0.00364482356235385,-0.000430860265623778,0.00612563407048583,-6.9446221459657E-05,0.000482710864162073
566,0.00051777419866994,-0.00226078950800002,0.0013005193322897,0.0100723160430789,0.0013586567947641,0.00343547854572535
567,0.00137865275610238,0.00100013450719416,0.0024771885946393,0.0126362796872854,0.00267567276023328,0.00557268271222711
568,0.00194004504010081,0.00454063061624765,0.00290471594780684,0.0139393536373973,0.00328011624515057,0.00647802976891398
569,0.00222150329500437,0.00646135630086064,0.0038455578032881,0.0152308261021972,0.00417331699281931,0.0062778708525002
570,0.00267854938283563,0.00659403065219522,0.0059172548353672,0.0162649508565664,0.0062163332477212,0.00463914358988404
571,0.00329417106695473,0.00599992088973522,0.00788582023233175,0.0156834330409765,0.00797513127326965,0.00172788137570024
572,0.00321600260213017,0.00568610662594438,0.00839898642152548,0.0135909160599113,0.00706216599792242,-0.000656560529023409
573,0.00251683220267296,0.00568467099219561,0.00716518936678767,0.010872389189899,0.00325043150223792,-0.00157285656314343
574,0.00181621604133397,0.00512380292639136,0.00461711781099439,0.00774581450968981,-0.00175553851295263,-0.00190359773114324
575,0.000845910049974918,0.00343286828137934,0.00177237053867429,0.00455530127510428,-0.00632534129545093,-0.00246125087141991
576,0.000147391998325475,0.00130175903905183,-4.40079384134151E-06,0.0023167384788394,-0.00921591278165579,-0.00302261020988226
577,0.000691632740199566,-0.000523339142091572,-0.000371175759937614,0.00156371691264212,-0.00997478794306517,-0.00326959672383964
578,0.00235967803746462,-0.00174684333615005,-0.000174201777554117,0.00174507510382682,-0.00915285293012857,-0.00355639192275703
579,0.00539467576891184,-0.00102789443917573,0.00118191074579954,0.00329489726573229,-0.00652268715202808,-0.00336368172429502
580,0.00958978105336428,0.00215014955028892,0.00428767874836922,0.00684877904132009,-0.00211760052479804,-0.0016684076981619
581,0.0133630493655801,0.00606550928205252,0.00783220957964659,0.0112450681626797,0.00256180157884955,0.00114965939428657
582,0.0156550239771605,0.00889853853732347,0.0108351847156882,0.0150470938533545,0.00677983742207289,0.00331392092630267
583,0.0160091631114483,0.0095179071649909,0.0126731181517243,0.0171002242714167,0.0103675499558449,0.00311475852504373
584,0.0139821134507656,0.00761669781059027,0.0125789735466242,0.0163130443543196,0.0121197542175651,0.000356833945261315
585,0.0106563307344913,0.00464389193803072,0.0109437704086304,0.0132505372166634,0.0115016214549541,-0.00329734338447452
586,0.00818703696131706,0.00259303883649409,0.00913150329142809,0.0101709142327309,0.00974179897457361,-0.00544221047312021
587,0.00711076613515615,0.00161277956794947,0.0076920036226511,0.00819507800042629,0.00761739909648895,-0.00551474839448929
588,0.00719815632328391,0.000709083979018033,0.00660996604710817,0.00667753582820296,0.00582960294559598,-0.00500031234696507
589,0.00858639739453793,-0.000261665583821014,0.00610404228791595,0.00510524399578571,0.00560825830325484,-0.00480055017396808
590,0.0104923574253917,-0.000681130855809897,0.00595087185502052,0.00374074140563607,0.0070079336874187,-0.00434411503374577
591,0.0117992777377367,-0.000414492737036198,0.00613647978752851,0.00341005600057542,0.00984820630401373,-0.00293085048906505
592,0.0122910663485527,-0.000218949586269446,0.00686598243191838,0.00425661075860262,0.0138133019208908,-0.00125468522310257
593,0.0128645813092589,-0.000160264025907964,0.00807525496929884,0.00599926896393299,0.0176097936928272,-5.29956269019749E-05
594,0.0142962820827961,0.000849911652039737,0.0096237426623702,0.00877369195222855,0.0198096539825201,0.00119670748244971
595,0.0157374870032072,0.00302674435079098,0.0107746161520481,0.0114758489653468,0.0193408150225878,0.00249140011146665
596,0.015908682718873,0.00490739336237311,0.0107869217172265,0.0120063927024603,0.0163269061595201,0.00302012963220477
597,0.0147507069632411,0.00505412090569735,0.00963551830500364,0.00964663177728653,0.0119611192494631,0.00235224165953696
598,0.0133963720872998,0.00412511406466365,0.00821418222039938,0.00628750491887331,0.00752096530050039,0.000963316939305514
599,0.0128045501187444,0.0036613903939724,0.00769760319963098,0.00450410228222609,0.00405944837257266,-0.00012713938485831
600,0.0126415602862835,0.00350700877606869,0.00761138554662466,0.00437440956011415,0.00161297421436757,-0.000467311358079314
601,0.0124882813543081,0.00277728028595448,0.0066786021925509,0.00432672025635839,-0.000118873867904767,-0.00078605703311041
602,0.0122694447636604,0.00146945042070001,0.00482976203784347,0.00371035584248602,-0.00109821010846645,-0.00242930860258639
603,0.012414775788784,0.000715824076905847,0.00375651894137263,0.00392079260200262,-0.000717528630048037,-0.00482321949675679
604,0.0134014608338475,0.00129888416267931,0.00488002179190516,0.00614768313243985,0.00175989209674299,-0.00619834428653121
605,0.0136596588417888,0.00234544044360518,0.00716020679101348,0.0091891884803772,0.00507019972428679,-0.00626039272174239
606,0.0123551758006215,0.00333161279559135,0.00890844501554966,0.0114668942987919,0.00694950763136148,-0.00526392972096801
607,0.0113915419206023,0.0043183509260416,0.00899728201329708,0.0118841249495745,0.00652141124010086,-0.00402619084343314
608,0.0118237780407071,0.0050908918492496,0.00773531896993518,0.0105911046266556,0.00486607197672129,-0.00319792330265045
609,0.0130192702636123,0.00584990158677101,0.00697052106261253,0.00939700659364462,0.00386610021814704,-0.00221708416938782
610,0.0146517995744944,0.00676847249269485,0.00729188183322549,0.00904608238488436,0.00430501811206341,-0.0015843742294237
611,0.0154692297801375,0.00678589753806591,0.00657859724014997,0.00772086437791586,0.00433986913412809,-0.00328310788609087
612,0.014507326297462,0.00550026539713144,0.0040442761965096,0.00509034376591444,0.00272344122640789,-0.00673421798273921
613,0.0137274684384465,0.00482044508680701,0.00268649798817933,0.00440152874216437,0.00206179753877223,-0.00844714976847172
614,0.01407331507653,0.00592999951913953,0.00390287255868316,0.00656448677182198,0.00368545390665531,-0.00743963662534952
615,0.0138187957927585,0.00792569387704134,0.00564538966864347,0.00880744680762291,0.00539127783849835,-0.00612416304647923
616,0.012869680300355,0.0102701690047979,0.00716340076178312,0.0106662707403302,0.00656112004071474,-0.00558302970603108
617,0.012725718319416,0.0128850089386106,0.00931503064930439,0.0139390835538507,0.0081463810056448,-0.00445819040760398
618,0.0129337990656495,0.0144132962450385,0.0112932408228517,0.0182584840804338,0.00912738870829344,-0.00168800121173263
619,0.0131423203274608,0.0142177026718855,0.0122448243200779,0.021739199757576,0.00968213193118572,0.00217119394801557
620,0.0139650739729404,0.0133927715942264,0.0124475806951523,0.0229579955339432,0.0112974243238568,0.00507032172754407
621,0.0142967337742448,0.012852918356657,0.0115149654448032,0.0216312296688557,0.0120858959853649,0.00636602379381657
622,0.0135050611570477,0.0128236785531044,0.00972472503781319,0.0190168507397175,0.0106140952557325,0.0075743799097836
623,0.0130176553502679,0.0133114103227854,0.00890804361552,0.0169519856572151,0.00968571659177542,0.00956335756927729
624,0.0134137962013483,0.0141177885234356,0.00991257932037115,0.0161906480789185,0.0115658259019256,0.0117202186957002
625,0.013730539008975,0.0148350298404694,0.0119698047637939,0.01644541695714,0.0151645271107554,0.0134069863706827
626,0.0133362198248506,0.0150192575529218,0.0140027785673738,0.0171392243355513,0.0179479662328959,0.0147266760468483
627,0.0123133761808276,0.0141382711008191,0.0151280872523785,0.0171646736562252,0.0184681136161089,0.0150946294888854
628,0.011308066546917,0.0126641923561692,0.0156936012208462,0.0161712691187859,0.0179747845977545,0.0142558524385095
629,0.0108149629086256,0.0118421819061041,0.0165557190775871,0.0150639023631811,0.0182677451521158,0.0133436201140285
630,0.00970495119690895,0.0112760150805116,0.0165665503591299,0.013778074644506,0.0180220641195774,0.0120638990774751
631,0.00728554744273424,0.00989772193133831,0.0144986938685179,0.0117124374955893,0.015333310700953,0.00900095794349909
632,0.00418968126177788,0.00769572146236897,0.0107654770836234,0.00871611759066582,0.0107944374904037,0.00444475607946515
633,0.00106113776564598,0.00527941808104515,0.00653355289250612,0.00514921359717846,0.00601691845804453,0.000342303130310029
634,-0.000385100021958351,0.00347773102112114,0.00401094602420926,0.00250749918632209,0.00317227374762297,-0.00152499903924763
635,0.000573886500205845,0.00193089712411165,0.00378041807562113,0.000929473200812936,0.00306751090101898,-0.00207988009788096
636,0.00226090359501541,-0.000177185269421898,0.00406584423035383,-0.000880969921126962,0.00418871827423573,-0.00325607368722558
637,0.00339635810814798,-0.00220959028229117,0.00401846971362829,-0.00239167036488652,0.00490781525149941,-0.00424734875559807
638,0.00392885413020849,-0.00371683505363762,0.00412733945995569,-0.00229267030954361,0.00481387879699469,-0.00374662107788026
639,0.0037476762663573,-0.00518086180090904,0.00454411236569285,-0.000902857049368322,0.00405603600665927,-0.00198966800235212
640,0.00341391912661493,-0.00616490514948964,0.00482312776148319,0.000778256275225431,0.00288732256740332,0.00041082885582
641,0.00439307931810617,-0.00619446765631437,0.00504526868462563,0.00222901301458478,0.00283339386805892,0.00213228701613843
642,0.00645941495895386,-0.00577028887346387,0.00555348582565784,0.00337235629558563,0.00467925099655986,0.00230105919763446
643,0.00804593693464994,-0.00525117758661509,0.00588708650320768,0.00388253992423415,0.00683712866157293,0.00162605789955705
644,0.00849706493318081,-0.00471158232539892,0.0056460746563971,0.00319508952088654,0.00818879716098309,0.000786447722930461
645,0.00821796804666519,-0.00389245501719415,0.00540793919935822,0.00216913712210953,0.00915106665343046,-1.36515545818838E-05
646,0.00892429798841476,-0.00216789683327079,0.00622975639998913,0.00246264669112861,0.0111213522031903,-0.000137252704007551
647,0.0117154316976666,-0.000392831076169387,0.00766155403107405,0.00328321801498532,0.0143342921510339,0.000185649754712358
648,0.0149531774222851,-0.000527675612829626,0.00811869837343693,0.00253506912849844,0.0170880220830441,-0.000194955428014509
649,0.0166069678962231,-0.00234797410666943,0.00730463489890099,0.000398005562601611,0.0180049799382687,-0.00100658729206771
650,0.0159728918224573,-0.0041913315653801,0.0051823453977704,-0.00205639936029911,0.0159679614007473,-0.00207088864408433
651,0.0133585883304477,-0.00556370709091425,0.00141289760358632,-0.00462067732587457,0.0109606878831983,-0.00463097216561437
652,0.0103209000080824,-0.00599524052813649,-0.00273953680880368,-0.00647108210250735,0.00552458642050624,-0.00781505834311247
653,0.00892342533916235,-0.00446870969608426,-0.00477535976096988,-0.00623224955052137,0.00293064722791314,-0.00853118114173412
654,0.0093909315764904,-0.0017560557462275,-0.00447808671742678,-0.00425158021971583,0.00339561281725764,-0.00611085817217827
655,0.01004290394485,-4.61597846879158E-05,-0.0039429496973753,-0.00248854490928352,0.00455043977126479,-0.00287494319491088
656,0.0101619763299823,1.65162091434468E-05,-0.00347418035380542,-0.00177709374111146,0.00561575358733535,-0.000899709179066122
657,0.0099029429256916,-0.000922405975870788,-0.00226028263568878,-0.00133483042009175,0.00644666561856866,-0.000610638526268303
658,0.00878907553851604,-0.00254420330747962,-0.000826555769890547,-0.000709648767951876,0.00632306886836886,-0.00144733907654881
659,0.00715571874752641,-0.00438306108117104,9.93908688542433E-05,-0.000663799699395895,0.00537062808871269,-0.00260582705959678
660,0.00555995898321271,-0.00633779587224126,-0.000162231284775771,-0.00235599302686751,0.00342852203175426,-0.00379047449678183
661,0.00387420738115907,-0.00835427641868591,-0.00166173942852765,-0.00519079575315118,0.000771831488236785,-0.00471651880070567
662,0.00254881009459496,-0.00958805810660124,-0.00340842851437628,-0.0072112288326025,-0.0014431340387091,-0.00483861146494746
663,0.00201253639534116,-0.00963892880827188,-0.00478575192391872,-0.00786739215254784,-0.0030305462423712,-0.00434447824954987
664,0.00191983697004616,-0.0089448057115078,-0.00563961593434215,-0.00814242288470268,-0.0040665059350431,-0.00392464129254222
665,0.00187766400631517,-0.00817116163671017,-0.00572054088115692,-0.00859734602272511,-0.0039235781878233,-0.00385441305115819
666,0.00223117345012724,-0.00755981635302305,-0.00469406507909298,-0.00881146546453238,-0.00203534844331443,-0.0036905906163156
667,0.00317764398641884,-0.00695583689957857,-0.00319628906436265,-0.00880523771047592,0.000497099186759442,-0.00304328999482095
668,0.00442987401038408,-0.00641363253816962,-0.00243925023823977,-0.00901489797979593,0.00207780348137021,-0.0022502257488668
669,0.00565710943192244,-0.00619350606575608,-0.0024237020406872,-0.00908688642084599,0.00290177785791457,-0.00158755085431039
670,0.00523044168949127,-0.00690169772133231,-0.00353216053918004,-0.00915390625596046,0.00229047890752554,-0.00153021409641951
671,0.00219568959437311,-0.00867082178592682,-0.00606126664206386,-0.0100296409800649,-0.000466154044261202,-0.00293219229206443
672,-0.00150116183795035,-0.0102496147155762,-0.00791402999311686,-0.0110838869586587,-0.00263807573355734,-0.00512474123388529
673,-0.00313781993463635,-0.0108482372015715,-0.00751895969733596,-0.0113428151234984,-0.00180173653643578,-0.00691862218081951
674,-0.00211574952118099,-0.0114301787689328,-0.00627885479480028,-0.0115409912541509,0.000574961421079934,-0.00881100352853537
675,-0.000389394874218851,-0.0125253731384873,-0.00568126561120152,-0.0118619641289115,0.00175713561475277,-0.010397432371974
676,0.000485620665131137,-0.012866985052824,-0.00484014535322785,-0.0107222273945808,0.00150086218491197,-0.00915486365556717
677,-9.86326776910573E-05,-0.0120231183245778,-0.0038442516233772,-0.0087650753557682,-1.82833136932459E-05,-0.00481942016631365
678,-0.00144850346259773,-0.0107050063088536,-0.00399062037467957,-0.00830488465726376,-0.00288856355473399,1.841205812525E-05
679,-0.00228064204566181,-0.0095354812219739,-0.00516635831445456,-0.00955264549702406,-0.00593181373551488,0.00292951217852533
680,-0.00400146469473839,-0.0098654692992568,-0.0073367222212255,-0.0119579043239355,-0.009250164963305,0.00255120196379721
681,-0.00735762948170304,-0.0119376750662923,-0.00985916238278151,-0.0147017743438482,-0.0130203915759921,-0.00020451785530895
682,-0.00990458484739065,-0.0141477575525641,-0.0116430884227157,-0.0169426426291466,-0.0157277714461088,-0.00354370567947626
683,-0.0100751100108027,-0.0156193356961012,-0.0126682072877884,-0.0191314816474915,-0.0160616841167212,-0.00723097380250692
684,-0.00864221435040236,-0.016406049951911,-0.0126888826489449,-0.0212577302008867,-0.0140979187563062,-0.0107834506779909
685,-0.00745434546843171,-0.0165495779365301,-0.0120282527059317,-0.0223759077489376,-0.0118712745606899,-0.0130032356828451
686,-0.00784120429307222,-0.0162100344896317,-0.0117647899314761,-0.0220153443515301,-0.0114922113716602,-0.0135876499116421
687,-0.00867956224828959,-0.0156022785231471,-0.0113785434514284,-0.0206017568707466,-0.0119487037882209,-0.0133357616141438
688,-0.00862688757479191,-0.015207682736218,-0.0104027632623911,-0.0194038171321154,-0.0119062541052699,-0.0137804057449102
689,-0.008323366753757,-0.0149588007479906,-0.0100209470838308,-0.0187939312309027,-0.0126972189173102,-0.0150953838601708
690,-0.00842714123427868,-0.014407692477107,-0.0105432942509651,-0.0179956182837486,-0.0146142970770597,-0.0163631923496723
691,-0.00806295592337847,-0.0135672893375158,-0.0102578578516841,-0.0165068935602903,-0.014908348210156,-0.0172210987657309
692,-0.00629471940919757,-0.0124466810375452,-0.00834436248987913,-0.0144204013049603,-0.0122648812830448,-0.0171635709702969
693,-0.0042304489761591,-0.0117915887385607,-0.00692890584468842,-0.0131118604913354,-0.00942585803568363,-0.0165861640125513
694,-0.00346124498173594,-0.0126308538019657,-0.00755303632467985,-0.0138861536979675,-0.00859643705189228,-0.0170939397066832
695,-0.00414775917306542,-0.0148697411641479,-0.00933529436588287,-0.0163545776158571,-0.00913082528859377,-0.0196469984948635
696,-0.00561462482437491,-0.0176675897091627,-0.0111810527741909,-0.0192844439297915,-0.00990866683423519,-0.0233464520424604
697,-0.00698932632803917,-0.0202031377702951,-0.0123388823121786,-0.0214903336018324,-0.0101765813305974,-0.0258962567895651
698,-0.00839395355433226,-0.0218185149133205,-0.0133963394910097,-0.0235596373677254,-0.0108312265947461,-0.0264517851173878
699,-0.0110138561576605,-0.0219834037125111,-0.0157574843615294,-0.0269132573157549,-0.0136519661173224,-0.0261815134435892
700,-0.0143326940014958,-0.020971704274416,-0.0184662919491529,-0.030649283900857,-0.0175491329282522,-0.0257230438292027
701,-0.0163928829133511,-0.0203451476991177,-0.0202617142349482,-0.0336219482123852,-0.0206855908036232,-0.0254779756069183
702,-0.0168937519192696,-0.0207645501941442,-0.0221684500575066,-0.0361063182353973,-0.0234322901815176,-0.0262317955493927
703,-0.0171039942651987,-0.0210574306547642,-0.0250130966305733,-0.038155309855938,-0.0265503097325563,-0.027758402749896
704,-0.0174504276365042,-0.0208712816238403,-0.0280800871551037,-0.03990188986063,-0.0296810306608677,-0.0296254102140665
705,-0.0176736172288656,-0.0213933400809765,-0.0304785743355751,-0.0419940464198589,-0.0319967977702618,-0.0321389138698578
706,-0.0185424741357565,-0.0235194861888886,-0.0325450301170349,-0.0450351126492023,-0.0340730175375938,-0.0354518257081509
707,-0.0209677275270224,-0.0270406100898981,-0.0355497263371944,-0.0492375865578651,-0.0377567782998085,-0.0394439660012722
708,-0.0243784841150045,-0.0308853499591351,-0.0394857153296471,-0.0535934716463089,-0.0434012040495873,-0.0432756468653679
709,-0.0276553183794022,-0.0343108177185059,-0.04317282512784,-0.0571177266538143,-0.0491992272436619,-0.0460590124130249
710,-0.030608918517828,-0.036911278963089,-0.0460469610989094,-0.0595551989972591,-0.0536677725613117,-0.0471808202564716
711,-0.0321818292140961,-0.0366777218878269,-0.0464136153459549,-0.0588534250855446,-0.0546441152691841,-0.0447255149483681
712,-0.0307763870805502,-0.0322048775851727,-0.0427078604698181,-0.053331408649683,-0.0502431951463223,-0.0376786217093468
713,-0.0272255633026361,-0.0254393108189106,-0.0370318293571472,-0.0452972650527954,-0.0428039953112602,-0.0285379737615585
714,-0.0231791250407696,-0.0192612782120705,-0.0320615619421005,-0.0378933139145374,-0.0356855466961861,-0.0211645048111677
715,-0.0198608320206404,-0.0151236047968268,-0.0282240491360426,-0.0315280184149742,-0.0305866785347462,-0.0172536168247461
716,-0.0180236361920834,-0.0123781180009246,-0.0244887415319681,-0.0251591298729181,-0.0272956416010857,-0.0154424607753754
717,-0.0166535321623087,-0.00935939885675907,-0.019529115408659,-0.0187448468059301,-0.0230573602020741,-0.0140777053311467
718,-0.0145509457215667,-0.00588606437668204,-0.0137031245976686,-0.0137330144643784,-0.0165373887866735,-0.0134751703590155
719,-0.0124905426055193,-0.00377893354743719,-0.00953823141753674,-0.0117657743394375,-0.0107638724148273,-0.0146224489435554
720,-0.0119265243411064,-0.00501628359779716,-0.00879745278507471,-0.0129266502335668,-0.00888385809957981,-0.0175667684525251
721,-0.0121488738805056,-0.00898979138582945,-0.00967461243271828,-0.0150127355009317,-0.00918472651392221,-0.0207547564059496
722,-0.0115294475108385,-0.0125749129801989,-0.00927204638719559,-0.0150537546724081,-0.00823583826422691,-0.0213580261915922
723,-0.0109241884201765,-0.0140212858095765,-0.00799477845430374,-0.0127110807225108,-0.00694418046623468,-0.0188523530960083
724,-0.0121258068829775,-0.0143111711367965,-0.00813695695251226,-0.0101375756785274,-0.00759480427950621,-0.0156570058315992
725,-0.0145619157701731,-0.0144031774252653,-0.00957660656422377,-0.00813150964677334,-0.00857625715434551,-0.013025576248765
726,-0.0159213803708553,-0.0139391738921404,-0.0105451168492436,-0.00600115349516273,-0.00791298411786556,-0.0105155762284994
727,-0.0150523316115141,-0.0125168794766068,-0.0105362460017204,-0.00372982979752123,-0.00635768659412861,-0.00784821063280106
728,-0.0125042703002691,-0.0100772874429822,-0.00975115410983562,-0.00156971043907106,-0.00479610497131944,-0.00476173171773553
729,-0.00927412044256926,-0.00681312056258321,-0.00827106274664402,0.000565117632504553,-0.00348231801763177,-0.000878530147019774
730,-0.00711698271334171,-0.00447006663307548,-0.00724581629037857,0.00155243196059018,-0.00329699576832354,0.00198868266306818
731,-0.00757636781781912,-0.00459633767604828,-0.00750929117202759,0.000713264744263142,-0.00453333603218198,0.0018939096480608
732,-0.00984282325953245,-0.00587520748376846,-0.00813695229589939,-0.000263629568507895,-0.00610808189958334,0.000305633089737967
733,-0.0115721793845296,-0.00604654476046562,-0.00767198158428073,0.000181360956048593,-0.00661713629961014,-0.00063956092344597
734,-0.0120454374700785,-0.0044909892603755,-0.00527059147134423,0.00217270199209452,-0.00491596199572086,-0.0002491619088687
735,-0.0121448533609509,-0.00224875891581178,-0.00211995630525053,0.00435338681563735,-0.00133859703782946,0.000559985463041812
736,-0.0118325827643275,-0.000266625720541924,0.00021278289204929,0.00558668375015259,0.00243527465499938,0.000904398621059954
737,-0.0113046737387776,0.000883231870830059,0.00152610940858722,0.00624056719243526,0.00444099865853786,0.00108794518746436
738,-0.0107531882822514,0.00129661918617785,0.00241701654158533,0.00696260901167989,0.00422291690483689,0.00119121838361025
739,-0.00936490576714277,0.00207013753242791,0.00371167552657425,0.00814949255436659,0.00346064008772373,0.00167358026374131
740,-0.0078924959525466,0.00320890941657126,0.00468550203368068,0.009184037335217,0.00256596994586289,0.00315972021780908
741,-0.00736011518165469,0.00413068477064371,0.00459604384377599,0.00981448963284492,0.00122858420945704,0.00584922078996897
742,-0.00684118224307895,0.00555649865418673,0.00490016955882311,0.0115174232050776,0.00118493940681219,0.00999946240335703
743,-0.00622564367949963,0.00769397290423512,0.00602329988032579,0.014329781755805,0.00286743021570146,0.0142791960388422
744,-0.00678907381370664,0.00925633125007153,0.00606567366048694,0.016218913719058,0.00381091260351241,0.0162973906844854
745,-0.0082973362877965,0.00965050142258406,0.00448524439707398,0.0164773147553205,0.00317207258194685,0.0158335138112307
746,-0.00994044449180365,0.00926380883902311,0.00235690572299063,0.0162981525063515,0.00192990468349308,0.0150962993502617
747,-0.0119365379214287,0.00899213738739491,0.000770621991250664,0.0178252495825291,0.000444116041762754,0.0172651745378971
748,-0.0144111094996333,0.00978184305131435,0.00104315381031483,0.022850489243865,-0.000818209664430469,0.0237152203917503
749,-0.0165464635938406,0.0109272934496403,0.00396509561687708,0.0297228265553713,-0.000149217565194704,0.0308701563626528
750,-0.0165189690887928,0.0108584081754088,0.00897957570850849,0.0333942398428917,0.00491766445338726,0.0324516966938972
751,-0.0128578506410122,0.00971397943794727,0.0139878876507282,0.0305327475070953,0.0144903426989913,0.0256442353129387
752,-0.00660997955128551,0.0088643841445446,0.0156220719218254,0.0221583973616362,0.0241862684488297,0.0131798544898629
753,-0.00105862645432353,0.00894332304596901,0.0122529342770576,0.0122774764895439,0.0287363287061453,0.000889056478627026
754,0.00166779104620218,0.00955639220774174,0.00670100934803486,0.00545650068670511,0.02796939201653,-0.00660996045917273
755,0.00198502303101122,0.00993079878389835,0.00296899932436645,0.00342241558246315,0.0261396206915379,-0.00903351604938507
756,0.0016418588347733,0.0103514203801751,0.00290308962576091,0.00491468282416463,0.0268771331757307,-0.00859002117067575
757,0.00219679204747081,0.0112409917637706,0.00555782625451684,0.00734021002426744,0.0297961104661226,-0.00813523586839437
758,0.0033558034338057,0.0109140323475003,0.00760508514940739,0.00753051694482565,0.0312146171927452,-0.010495844297111
759,0.00443440768867731,0.00861963350325823,0.00790679547935724,0.00494003761559725,0.0301392413675785,-0.0156488995999098
760,0.00592233333736658,0.00657844357192516,0.00853505358099937,0.00269231828860939,0.0288130920380354,-0.0203527342528105
761,0.00775870541110635,0.00597427925094962,0.00975742656737566,0.00270266807638109,0.0276130922138691,-0.0224069319665432
762,0.00954695045948029,0.00579541688784957,0.0104869185015559,0.00391497183591127,0.0265142377465963,-0.0226247850805521
763,0.0115842986851931,0.00485328119248152,0.0110588306561112,0.0049521834589541,0.026938559487462,-0.0229709204286337
764,0.0138136344030499,0.00324667897075415,0.011317883618176,0.00499921618029475,0.028536394238472,-0.0244154203683138
765,0.0152379916980863,0.00215584342367947,0.00977803021669388,0.00365991401486099,0.0287658963352442,-0.026274224743247
766,0.0153398364782333,0.00227611279115081,0.00626847939565778,0.00168514309916645,0.0263000298291445,-0.0274233426898718
767,0.0146985566243529,0.00339358183555305,0.00267962832003832,0.000781847164034843,0.0222367495298386,-0.0272630620747805
768,0.0140391774475574,0.00454607279971242,0.000697403738740832,0.00178130995482206,0.0184449814260006,-0.0260258074849844
769,0.0134477261453867,0.00448289699852467,0.000129988518892787,0.00360699091106653,0.0156683791428804,-0.0250696204602718
770,0.0122950207442045,0.00223972625099123,-0.000355333584593609,0.00430557737126946,0.0135455727577209,-0.0261543989181519
771,0.0115418238565326,-0.000977089861407876,-0.000580367748625577,0.00429792609065771,0.0126790907233953,-0.0283964052796364
772,0.0127981463447213,-0.00289056240580976,0.00034028961090371,0.00526037998497486,0.0137954019010067,-0.0296054743230343
773,0.0152726052328944,-0.00333994952961802,0.00162122515030205,0.00633261073380709,0.0162869170308113,-0.0303333774209023
774,0.0174847897142172,-0.00299909710884094,0.00228740344755352,0.00641931360587478,0.018928274512291,-0.0312548205256462
775,0.0186250563710928,-0.00268492195755243,0.00222120061516762,0.006133490242064,0.020297322422266,-0.0311505515128374
776,0.0180282276123762,-0.00366010470315814,0.00167679868172854,0.00605466868728399,0.0199932549148798,-0.0294706542044878
777,0.0157635472714901,-0.00628992402926087,0.000936846365220845,0.00596340838819742,0.0188147407025099,-0.0273239519447088
778,0.0129822669550776,-0.00976635608822107,-8.39455242385156E-05,0.00515286438167095,0.0171808693557978,-0.0265203844755888
779,0.0112832877784967,-0.0127875544130802,-0.000813521386589855,0.00355102377943695,0.0159678813070059,-0.0277977026998997
780,0.0108186677098274,-0.0146176051348448,-0.000523258640896529,0.00219974596984684,0.0160681121051311,-0.0296319108456373
781,0.0103144971653819,-0.0157005693763494,-0.000198826091946103,0.00155931280460209,0.016517149284482,-0.0307878591120243
782,0.00981514435261488,-0.0166293438524008,-0.00099089730065316,0.00152000016532838,0.0161547493189573,-0.0315586775541306
783,0.0101401032879949,-0.0170724131166935,-0.00224460754543543,0.00288462685421109,0.0151371974498034,-0.0311087500303984
784,0.0110107883810997,-0.0164205301553011,-0.00260299071669579,0.00590878818184137,0.014592731371522,-0.0286299549043179
785,0.0112720727920532,-0.0150377694517374,-0.00216863211244345,0.00907816458493471,0.0147501053288579,-0.0257305409759283
786,0.0102729769423604,-0.0141179533675313,-0.00202640797942877,0.0106227332726121,0.0149252293631434,-0.0245710667222738
787,0.00892297923564911,-0.014392183162272,-0.00237655290402472,0.00993549544364214,0.0153622478246689,-0.0255614742636681
788,0.0083378404378891,-0.0151715511456132,-0.00253143324516714,0.00818775314837694,0.0162910576909781,-0.0271200966089964
789,0.00874115992337465,-0.0148819694295526,-0.00194252212531865,0.00726020336151123,0.0173771549016237,-0.0273406095802784
790,0.00954138487577438,-0.0132656898349524,-0.000877816404681653,0.00757488608360291,0.0184772238135338,-0.0258782878518105
791,0.0100124655291438,-0.0116751901805401,-0.000115958959213458,0.00812116172164679,0.0193085558712482,-0.0236968621611595
792,0.0100165978074074,-0.0111001115292311,-0.000362039019819349,0.0078929653391242,0.0191566906869411,-0.0220132283866405
793,0.00941279344260693,-0.0112709747627378,-0.00108042219653726,0.00732962880283594,0.0179487448185682,-0.020833196118474
794,0.00808913633227348,-0.0113026667386293,-0.000602737243752927,0.00774766784161329,0.0170863308012486,-0.0185572411864996
795,0.00676671927794814,-0.0106729948893189,0.00140324770472944,0.00919272750616074,0.0175806898623705,-0.0144030442461371
796,0.00659333309158683,-0.00953384395688772,0.0036581945605576,0.0105349468067288,0.0187010392546654,-0.0100523680448532
797,0.00780814327299595,-0.00837209168821573,0.00518940528854728,0.011082292534411,0.0195988193154335,-0.0080171525478363
798,0.00962302554398775,-0.00706221163272858,0.00605037529021502,0.0115052070468664,0.0198153089731932,-0.00838301330804825
799,0.0110057834535837,-0.00579332374036312,0.00603533536195755,0.0120566189289093,0.0184669084846973,-0.0100097274407744
800,0.0112230097874999,-0.00585802923887968,0.00424681277945638,0.0114030288532376,0.0150607088580728,-0.0130457431077957
801,0.0106034567579627,-0.0072978800162673,0.00137758429627866,0.00955313164740801,0.0109263090416789,-0.0166262648999691
802,0.0103867761790752,-0.00831971690058708,-1.39475823743851E-05,0.00926121231168509,0.00859977398067713,-0.0178765375167131
803,0.011007172986865,-0.00792140047997236,0.00123087305109948,0.0119589157402515,0.0091774882748723,-0.0160154532641172
804,0.0106514636427164,-0.00725355371832848,0.00262810895219445,0.0147986309602857,0.0101391579955816,-0.0143137071281672
805,0.00827057007700205,-0.00678811687976122,0.00189566274639219,0.0152469640597701,0.00883956905454397,-0.0144770825281739
806,0.00646907929331064,-0.00501412525773048,0.00126678682863712,0.0148536367341876,0.00765803782269359,-0.0139175783842802
807,0.00713962409645319,-0.0017059943638742,0.00296076294034719,0.0154495285823941,0.00945190899074078,-0.010972392745316
808,0.00859496463090181,0.00129420252051204,0.00505066802725196,0.0160927660763264,0.0123099805787206,-0.00742769427597523
809,0.00921166408807039,0.00296996114775538,0.00560766784474254,0.0160058047622442,0.0140011552721262,-0.00514743849635124
810,0.00950936879962683,0.00449465773999691,0.00574447121471167,0.0166380573064089,0.0151107870042324,-0.00361943338066339
811,0.00956452172249556,0.00604096427559853,0.00620510661974549,0.0182544272392988,0.0155672105029225,-0.00238544098101556
812,0.00858619809150696,0.00574990874156356,0.00579624529927969,0.0188724417239428,0.014307820238173,-0.00270504434593022
813,0.00721691735088825,0.00356780015863478,0.00406972970813513,0.0174467768520117,0.0119581203907728,-0.00537505187094212
814,0.00676882499828935,0.00135632476303726,0.00198079133406281,0.0148689318448305,0.0100284907966852,-0.00912963878363371
815,0.00737116765230894,-5.11931684741285E-05,0.000399651820771396,0.0123795038089156,0.0094904862344265,-0.0118881240487099
816,0.00762567343190312,-0.00104825815651566,-0.00068916572490707,0.0109998434782028,0.00974650681018829,-0.0122738815844059
817,0.00581869995221496,-0.00196217489428818,-0.00159770157188177,0.0118373734876513,0.00852533709257841,-0.00985349994152784
818,0.00210710731334984,-0.00270870816893876,-0.00217211223207414,0.0146989319473505,0.00518136750906706,-0.00588000798597932
819,-0.00141017348505557,-0.00293458695523441,-0.00176298164296895,0.0179327744990587,0.00219921651296318,-0.00268230517394841
820,-0.00308389472775161,-0.0024315994232893,-0.000432578555773944,0.0200223252177238,0.00159607490058988,-0.0017899158410728
821,-0.00240708095952868,-0.00124402006622404,0.00116187683306634,0.0207866076380014,0.00355644710361958,-0.0029031652957201
822,0.000533010344952345,0.000132187502458692,0.00284909526817501,0.0205480642616749,0.00784297566860914,-0.00510578649118543
823,0.00445395242422819,0.000812231271993369,0.00407788064330816,0.0190469715744257,0.0128738982602954,-0.00827731005847454
824,0.00796162895858288,0.000970695109572262,0.00442303065210581,0.0170558616518974,0.0168277733027935,-0.0112829338759184
825,0.0102305253967643,0.00117758673150092,0.0039505916647613,0.0154970651492476,0.0185260362923145,-0.0124264424666762
826,0.0105889942497015,0.00119063595775515,0.00254548597149551,0.0140040423721075,0.0168015938252211,-0.0112911090254784
827,0.0101087316870689,0.00135229993611574,0.00114530813880265,0.0129732703790069,0.0129232611507177,-0.0078642051666975
828,0.0101437214761972,0.00205522333271801,0.000848208379466087,0.012961046770215,0.00938014220446348,-0.00350644183345139
829,0.0102820182219148,0.00265543209388852,0.00134842784609646,0.0135120628401637,0.00674442620947957,-0.000438286282587796
830,0.0101575665175915,0.00263234204612672,0.0021392023190856,0.0143158696591854,0.0052752629853785,0.00054566579638049
831,0.00991274230182171,0.00167251611128449,0.0025269768666476,0.0144934430718422,0.00554945040494204,-0.0012616275344044
832,0.00989347137510777,0.000136575239594094,0.0021542077884078,0.0136355422437191,0.00743989460170269,-0.00559461256489158
833,0.0104295648634434,-0.000737357069738209,0.00207979092374444,0.013306844048202,0.0105069829151034,-0.00982825830578804
834,0.0108966073021293,-0.00110781122930348,0.00257440004497766,0.014225022867322,0.0135026406496763,-0.0117807798087597
835,0.0107884453609586,-0.00177620199974626,0.00304066762328148,0.0157395210117102,0.0150380292907357,-0.0104757053777575
836,0.0100122215226293,-0.00260194065049291,0.00339604844339192,0.0172158256173134,0.0148052452132106,-0.00702770706266165
837,0.00841515511274338,-0.00316547742113471,0.003639044938609,0.0177004355937243,0.0135283544659615,-0.00500554777681828
838,0.00694512203335762,-0.00272290268912911,0.0042970459908247,0.0168388299643993,0.0128646977245808,-0.00592915713787079
839,0.00693512288853526,-0.00124595547094941,0.00578074483200908,0.0154309179633856,0.013984995894134,-0.00810005981475115
840,0.00768125103786588,5.35795952600893E-05,0.00700025819242001,0.01426459569484,0.015666663646698,-0.00983959157019854
841,0.00737407663837075,0.00069614325184375,0.0069009498693049,0.013804686255753,0.0155988503247499,-0.0103985816240311
842,0.00562147330492735,0.00106467073783278,0.00584215158596635,0.0140861105173826,0.0131158158183098,-0.00981809291988611
843,0.00353336310945451,0.000784709467552602,0.0043459078297019,0.0140902763232589,0.00954192876815796,-0.00934077985584736
844,0.00280313054099679,4.48712780780625E-05,0.0034882330801338,0.0137036954984069,0.0077704363502562,-0.00944195874035358
845,0.00405305996537209,0.000284209556411952,0.00439260713756084,0.0145585732534528,0.00935385655611753,-0.00845310091972351
846,0.00661294953897595,0.00198360672220588,0.00610372563824058,0.016822213307023,0.0123383291065693,-0.00555618153885007
847,0.00932999793440104,0.00376546429470181,0.00703087588772178,0.0183551758527756,0.0144754284992814,-0.00286929053254426
848,0.0104914233088493,0.00388448312878609,0.00676244450733066,0.017720578238368,0.015058315359056,-0.0021035757381469
849,0.00837522558867931,0.0019283484434709,0.00487384852021933,0.0153287788853049,0.0129695739597082,-0.00205212621949613
850,0.00326306908391416,-0.000638933212030679,0.0015982415061444,0.0124586950987577,0.00815820787101984,-0.000766640878282487
851,-0.00165420304983854,-0.00171758444048464,-0.000542091496754438,0.0103586809709668,0.00398509111255407,0.00175769114866853
852,-0.00454387394711375,-0.00183130917139351,-0.00101376359816641,0.00779323792085052,0.00224901176989079,0.00224597821943462
853,-0.00634564226493239,-0.00269853696227074,-0.00195941841229796,0.0034843347966671,0.0011955703375861,-0.00114936160389334
854,-0.00668061524629593,-0.00320884911343455,-0.00274139293469489,0.000419406889704987,0.000769972277339548,-0.00488010747358203
855,-0.00494760880246758,-0.00205542240291834,-0.00166090880520642,0.000978148775175214,0.00184060074388981,-0.005823262501508
856,-0.00287448242306709,-0.000934534007683396,0.000201458009541966,0.00286172749474645,0.00295641226693988,-0.00530560314655304
857,-0.00206680246628821,-0.00186628848314285,0.00111266633030027,0.00310142966918647,0.00301172607578337,-0.00576585670933127
858,-0.00191296031698585,-0.0041500348597765,0.00128501281142235,0.00184843083843589,0.003155249170959,-0.00722651742398739
859,-0.000856406928505749,-0.00600569881498814,0.00205674348399043,0.00119469524361193,0.00467809569090605,-0.00823213066905737
860,0.000928710040170699,-0.00753023335710168,0.00352790299803019,0.00184116116724908,0.00718980608507991,-0.00886207818984985
861,0.00208990159444511,-0.00928290467709303,0.00488278549164534,0.00336004863493145,0.00959874503314495,-0.00946268066763878
862,0.00270897103473544,-0.0103198420256376,0.00586813548579812,0.00557251367717981,0.0114243905991316,-0.0090812100097537
863,0.0029723986517638,-0.0104476781561971,0.0059470827691257,0.00706132827326655,0.0123222358524799,-0.00809974689036608
864,0.00244448520243168,-0.0102329961955547,0.00515148835256696,0.00695766042917967,0.0125013571232557,-0.00699645653367043
865,0.00138753093779087,-0.00911619700491428,0.00493317283689976,0.0068696103990078,0.0129659986123443,-0.00428174203261733
866,0.000124677913845517,-0.0071582798846066,0.0054574622772634,0.00731409806758165,0.0138498870655894,-0.000555653648916632
867,-0.00132511812262237,-0.00575410109013319,0.00474307686090469,0.00647131446748972,0.0134413437917829,0.000804458220954984
868,-0.00250065349973738,-0.00537924375385046,0.00220599491149187,0.00400353036820889,0.0112417079508305,-0.00136130361352116
869,-0.00244854320771992,-0.00531421508640051,-2.71481767413206E-05,0.00177683855872601,0.00985788088291883,-0.00516498647630215
870,-0.000960644916631281,-0.00531836040318012,-0.000445005862275139,0.000998194795101881,0.010785149410367,-0.00863872654736042
871,0.000941468926612288,-0.00556516321375966,2.43089052673895E-05,0.00141260086093098,0.0120934247970581,-0.0105105126276612
872,0.00251377606764436,-0.00534903025254607,0.000189182421308942,0.00268643791787326,0.0120409894734621,-0.00961634982377291
873,0.00415644748136401,-0.00377107504755259,0.00037559523480013,0.00487549509853125,0.0115982918068767,-0.0062557477504015
874,0.0058571663685143,-0.00157403375487775,0.000682435173075646,0.00680798385292292,0.0113567244261503,-0.00308034662157297
875,0.00697204191237688,1.93503747141222E-05,0.000950683141127229,0.00734508270397782,0.0106765124946833,-0.00217104516923428
876,0.00751514174044132,0.00112307583913207,0.00213782303035259,0.007605847902596,0.0103290854021907,-0.00326543487608433
877,0.00827605184167624,0.00303721404634416,0.00500572705641389,0.00947893504053354,0.0117171155288816,-0.00446488475427032
878,0.00960985291749239,0.00642914744094014,0.00831033661961555,0.0127904480323195,0.0140048786997795,-0.00407612416893244
879,0.00991811323910952,0.00954075809568167,0.00932479649782181,0.0149475354701281,0.01407999265939,-0.00273273186758161
880,0.00796633027493954,0.0104894693940878,0.00727509334683418,0.0144494893029332,0.0109346639364958,-0.00176498503424227
881,0.0051509696058929,0.00957645382732153,0.00415390590205789,0.0121928816661239,0.00689595006406307,-0.00115935469511896
882,0.00306829088367522,0.00794927775859833,0.00166562898084521,0.00928021408617496,0.00358583801425993,-0.000775891880039126
883,0.00236541079357266,0.00636084098368883,0.000943819235544652,0.00659851217642426,0.00192093034274876,-0.00111927196849138
884,0.00360311334952712,0.0051711299456656,0.00340611441060901,0.00542368460446596,0.00392562942579389,-0.00202324590645731
885,0.00595275964587927,0.00430220970883965,0.00898235384374857,0.00669673178344965,0.00969779584556818,-0.00251843524165452
886,0.00724156107753515,0.00320796528831124,0.0155997099354863,0.0101774847134948,0.0161232110112906,-0.00232417765073478
887,0.00632780464366078,0.0017938552191481,0.0201424136757851,0.0140071650967002,0.0190911088138819,-0.00165936117991805
888,0.00382221001200378,0.000897313875611871,0.0195667538791895,0.0150260804221034,0.0156996473670006,-0.000327422225382179
889,0.00155450811143965,0.00140523933805525,0.0133870905265212,0.0113521981984377,0.00668495334684849,0.00190297304652631
890,-5.57793973712251E-05,0.00328463688492775,0.00397159438580275,0.00436312798410654,-0.00519271800294518,0.00490971561521292
891,-0.0019502054201439,0.00600751349702477,-0.00505971163511276,-0.0024992604739964,-0.0167961679399014,0.00858746375888586
892,-0.00355262286029756,0.00936122052371502,-0.0103042041882873,-0.00621446501463652,-0.0244538020342588,0.0133256856352091
893,-0.00432335631921887,0.0126459542661905,-0.011162375099957,-0.0065312972292304,-0.0270004700869322,0.0191662702709436
894,-0.00451207114383578,0.0154150370508432,-0.00960237439721823,-0.0054404865950346,-0.0263739861547947,0.0255533698946238
895,-0.00410955352708697,0.0184639878571033,-0.00764125632122159,-0.00442221714183688,-0.0246093925088644,0.0323060005903244
896,-0.00317957368679345,0.0224474873393774,-0.00617762561887503,-0.00346591277047992,-0.0225747544318438,0.0393600761890411
897,-0.00237898761406541,0.02622683160007,-0.00473666749894619,-0.00216224556788802,-0.0209251455962658,0.0456956587731838
898,-0.00224754237569869,0.0275581292808056,-0.00242201378569007,-0.0010354861151427,-0.0199648160487413,0.0490444339811802
899,-0.00193063740152866,0.0264473427087069,0.000400470948079601,-0.00103093811776489,-0.0194229297339916,0.0481977984309196
900,-0.000944920699112117,0.0245656836777925,0.00135012378450483,-0.00311053683981299,-0.0198662094771862,0.043949268758297
901,-0.000287728937109932,0.0227468814700842,-0.00139533751644194,-0.0072409245185554,-0.0222499426454306,0.0382837988436222
902,-0.00046961780753918,0.0217875316739082,-0.00589487515389919,-0.0107082165777683,-0.0259126350283623,0.0345976911485195
903,-0.00125019811093807,0.0216505751013756,-0.0096477959305048,-0.0122635401785374,-0.0298591498285532,0.033844381570816
904,-0.00204964959993958,0.021533066406846,-0.0121562471613288,-0.0135871414095163,-0.0332126952707767,0.0334037616848946
905,-0.00201155454851687,0.021499365568161,-0.0129476543515921,-0.0147931333631277,-0.0341464839875698,0.0318686403334141
906,-0.00154767208732665,0.0212182179093361,-0.0122056901454926,-0.0152586000040174,-0.0327250324189663,0.0296415649354458
907,-0.00127420586068183,0.0205378886312246,-0.0104642761871219,-0.0146147543564439,-0.0301805324852467,0.0278419964015484
908,-0.000549074960872531,0.020300691947341,-0.00769191980361938,-0.0120015209540725,-0.0266642440110445,0.027562627568841
909,0.000715007947292179,0.0204096622765064,-0.00462204590439796,-0.00819297507405281,-0.0230837501585484,0.0282098613679409
910,0.00174149707891047,0.0199793055653572,-0.00227872002869844,-0.00512253865599632,-0.0205884892493486,0.028303811326623
911,0.00173748494125903,0.0188102778047323,-0.00107873394154012,-0.00346854608505964,-0.0193693451583385,0.0274924784898758
912,0.000117055256851017,0.0174061674624681,-0.00123772292863578,-0.00301008741371334,-0.019531486555934,0.0270647387951612
913,-0.00304629933089018,0.0163590796291828,-0.00256813364103436,-0.00370185310021043,-0.0210588332265615,0.0279123522341251
914,-0.00656417151913047,0.0160932522267103,-0.00417674239724875,-0.00532050896435976,-0.0227266736328602,0.0289241783320904
915,-0.00918586552143097,0.0163031928241253,-0.00565125420689583,-0.00763955200091004,-0.0230788569897413,0.0285215973854065
916,-0.011207870207727,0.0161798056215048,-0.00756005989387631,-0.0106340749189258,-0.0224084407091141,0.026827035471797
917,-0.0124932201579213,0.016478518024087,-0.00910081993788481,-0.0126378210261464,-0.0213781893253326,0.026280028745532
918,-0.012151338160038,0.0179063230752945,-0.00879120547324419,-0.0118290232494473,-0.0197719689458609,0.0280629228800535
919,-0.0111042596399784,0.0187438856810331,-0.00734906084835529,-0.0096277566626668,-0.01761862821877,0.0294923111796379
920,-0.0109534207731485,0.0176138151437044,-0.00619687372818589,-0.0084872804582119,-0.0156973544508219,0.0282424036413431
921,-0.0113841919228435,0.0154323382303119,-0.00514867156744003,-0.00861560180783272,-0.0145350778475404,0.025419570505619
922,-0.0116025637835264,0.0130211487412453,-0.00396179314702749,-0.00934181362390518,-0.0144736645743251,0.0223262310028076
923,-0.011932217516005,0.0102801518514752,-0.00336439581587911,-0.010157510638237,-0.0157423336058855,0.0192120689898729
924,-0.0117096770554781,0.00859101861715317,-0.00270927511155605,-0.00941158924251795,-0.0169650055468082,0.0176445990800858
925,-0.0102479374036193,0.00902010779827833,-0.00111037399619818,-0.00657816464081407,-0.0167946629226208,0.0183744784444571
926,-0.00878356210887432,0.0102724153548479,0.000294474797556177,-0.00364562193863094,-0.0158866383135319,0.0198706332594156
927,-0.00898606237024069,0.0107023436576128,-0.000141147495014593,-0.00281976372934878,-0.0159395765513182,0.0207188725471497
928,-0.0108296005055308,0.00989835616201162,-0.00234830472618341,-0.00434990040957928,-0.0173199363052845,0.0208717286586761
929,-0.0124564245343208,0.00891294796019793,-0.0041707968339324,-0.00552127929404378,-0.0181917287409306,0.021285517141223
930,-0.0129264490678906,0.00824359804391861,-0.00434878561645746,-0.00415111659094691,-0.0173846445977688,0.0219414811581373
931,-0.0130034675821662,0.00697650294750929,-0.00404320145025849,-0.00153163028880954,-0.0157063789665699,0.0216943603008986
932,-0.013123132288456,0.00542275328189135,-0.00400244491174817,0.000501926930155605,-0.0135094383731484,0.0205556340515614
933,-0.0130114378407598,0.00529960449784994,-0.00350127485580742,0.00159082713071257,-0.0102792177349329,0.0194809716194868
934,-0.0127850081771612,0.00675390940159559,-0.00251519796438515,0.00155692861881107,-0.0069271675311029,0.0184854622930288
935,-0.0128281135112047,0.00811124499887228,-0.00214787083677948,0.000319808459607884,-0.00541947595775127,0.0171866044402123
936,-0.0130643919110298,0.00821107253432274,-0.00283076241612434,-0.00118355441372842,-0.00617202138528228,0.015963364392519
937,-0.0131234712898731,0.00706944242119789,-0.00329326768405735,-0.00171143724583089,-0.0070588462986052,0.0153253767639399
938,-0.0129452487453818,0.0048616393469274,-0.00217018648982048,-0.00138532731216401,-0.0058989804238081,0.0147656230255961
939,-0.0132013019174337,0.00212314329110086,7.16641006874852E-05,-0.00117898057214916,-0.00329328025691211,0.0134436655789614
940,-0.0144142303615808,0.000222595772356726,0.00211022794246674,-0.00109952059574425,-0.00155802979134023,0.011534821242094
941,-0.0157973896712065,-0.000131116205011494,0.00338800600729883,-0.000785740616265684,-0.00213000527583063,0.00932057294994593
942,-0.0160772614181042,0.000772920961026102,0.0041090571321547,-0.00059515394968912,-0.00465937424451113,0.00696761393919587
943,-0.0147748319432139,0.00300473067909479,0.00473709916695952,-0.000651315203867853,-0.00758814159780741,0.00543556315824389
944,-0.012542269192636,0.00606453372165561,0.00526797072961926,-0.000997931812889874,-0.00930072367191315,0.00495896022766829
945,-0.0108522269874811,0.00815480668097734,0.00495710549876094,-0.0021993750706315,-0.00948448106646538,0.00473291706293821
946,-0.00996739231050015,0.00870962161570787,0.00409377412870526,-0.00348879327066243,-0.00848701130598783,0.00517397420480847
947,-0.00885097496211529,0.00874385051429272,0.00364434975199401,-0.00353675405494869,-0.00675961188971996,0.00679972628131509
948,-0.00765415374189615,0.00834992993623018,0.00351377576589584,-0.00237398454919457,-0.00507310964167118,0.00863243546336889
949,-0.00731348944827914,0.00684509240090847,0.00345724704675376,1.6765137843322E-05,-0.00379062839783728,0.0101165538653731
950,-0.00762545922771096,0.00495173316448927,0.00375971104949713,0.00412247981876135,-0.00306413741782308,0.0123650608584285
951,-0.00780787458643317,0.00382819212973118,0.00439499039202929,0.0083653312176466,-0.0026105169672519,0.015420631505549
952,-0.0086419777944684,0.00238129892386496,0.0035401473287493,0.00826822966337204,-0.00253238412551582,0.0157741438597441
953,-0.0107093174010515,6.59989746054634E-05,0.000114940587081946,0.00239186454564333,-0.00343751185573637,0.0115858074277639
954,-0.0124064404517412,-0.00125684658996761,-0.00357365910895169,-0.00493268202990294,-0.0046857176348567,0.0061383256688714
955,-0.0125925503671169,-0.000553634250536561,-0.00534718949347734,-0.00959627982228994,-0.00545709254220128,0.00291576003655791
956,-0.0118852239102125,0.00177456613164395,-0.00549431843683124,-0.011360208503902,-0.00623996742069721,0.00252664904110134
957,-0.0115115623921156,0.00465963920578361,-0.00499086687341332,-0.0115390215069056,-0.00755871972069144,0.0038146642036736
958,-0.0122821098193526,0.00605652341619134,-0.00435460032895207,-0.010782060213387,-0.00884253717958927,0.00514695234596729
959,-0.0136824641376734,0.00525594502687454,-0.00379330269061029,-0.00921827647835016,-0.00941348914057016,0.00617656484246254
960,-0.0145614584907889,0.0043692821636796,-0.00322122173383832,-0.00660976022481918,-0.00947401113808155,0.00838726293295622
961,-0.0146279074251652,0.00484805833548307,-0.00235975557006896,-0.00312298675999045,-0.00927397701889277,0.0124199343845248
962,-0.0147586958482862,0.0056249494664371,-0.00118486769497395,0.000125007674796507,-0.00836080964654684,0.016659377142787
963,-0.0156155340373516,0.00577142834663391,-2.25641761062434E-05,0.00244930479675531,-0.0065168566070497,0.0193521399050951
964,-0.0165613368153572,0.00510069308802485,6.34959214949049E-05,0.0035249306820333,-0.00510108936578035,0.0194859150797129
965,-0.0166571866720915,0.00345978140830994,-0.00158372637815773,0.00311109330505133,-0.00537113193422556,0.0170772802084684
966,-0.015360695309937,0.0018894006498158,-0.00329824513755739,0.00250708591192961,-0.00619774963706732,0.0139658655971289
