,AF3,AF4,Fp1,Fp2,AF7,AF8
0,0.00713655957952142,-0.00320094474591315,-0.00077889661770314,-0.00637939758598804,-0.011273255571723,0.000234960301895626
1,0.00973847880959511,-0.000330689072143286,-0.00251363683491945,-0.00700985221192241,-0.0107744093984365,0.0044351052492857
2,0.01362026296556,0.00226056156679988,-0.00287564820609987,-0.00700262514874339,-0.0072358981706202,0.00579119892790914
3,0.0167441386729479,0.00301019195467234,-0.00267016724683344,-0.00670537911355495,-0.00200731563381851,0.00430556386709213
4,0.0180531423538923,0.0014438146026805,-0.0026386275421828,-0.00713884131982923,0.00225823698565364,0.000657791737467051
5,0.0172960590571165,-0.00217967526987195,-0.00329909916035831,-0.0102584352716804,0.00400387356057763,-0.00570213282480836
6,0.0143577745184302,-0.0058473777025938,-0.0046689510345459,-0.0153550719842315,0.00236546550877392,-0.0126084294170141
7,0.0108081381767988,-0.0071049234829843,-0.00591855403035879,-0.0190498977899551,-0.00243433960713446,-0.016815822571516
8,0.00850082002580166,-0.00694572832435369,-0.00663491245359182,-0.0206839088350534,-0.00805303640663624,-0.0189078934490681
9,0.00817505456507206,-0.00758627895265818,-0.0073499446734786,-0.0221285615116358,-0.0115985563024879,-0.0204533506184816
10,0.00937139801681042,-0.00929566007107496,-0.00827396009117365,-0.0230033025145531,-0.0120879504829645,-0.0204684771597385
11,0.011066934093833,-0.0108365565538406,-0.00782034080475569,-0.0202541574835777,-0.0101118022575974,-0.0166182741522789
12,0.0122384224087,-0.0102351456880569,-0.00552681647241116,-0.0145743293687701,-0.00682095717638731,-0.00966301281005144
13,0.0118399932980537,-0.00675877137109637,-0.00407120864838362,-0.0107292728498578,-0.00348309148102999,-0.00317470962181687
14,0.0100158918648958,-0.00237304158508778,-0.00478608254343271,-0.00975354015827179,-0.000881336978636682,0.00176929601002485
15,0.00830025505274534,0.000409579341067001,-0.0062503912486136,-0.00985981523990631,0.000497043016366661,0.00496310787275434
16,0.00748890032991767,0.00078520568786189,-0.00754693057388067,-0.0109653314575553,-0.000245019618887454,0.00491582415997982
17,0.00614923844113946,-0.00135843583848327,-0.00913034565746784,-0.0136586390435696,-0.00411499757319689,0.00167019001673907
18,0.00254517397843301,-0.00523687014356256,-0.0104936650022864,-0.0168261546641588,-0.0104814590886235,-0.00212697591632605
19,-0.00223692273721099,-0.00772495940327644,-0.00992161687463522,-0.0181001275777817,-0.0163418129086494,-0.00357679254375398
20,-0.00494351796805859,-0.00664068106561899,-0.00767287658527493,-0.0173375029116869,-0.0187153574079275,-0.00277989637106657
21,-0.0043369815684855,-0.00345449591986835,-0.0063862525857985,-0.016343466937542,-0.0181812532246113,-0.00159725907724351
22,-0.0024173182900995,-0.000515686406288296,-0.0076974336989224,-0.014979112893343,-0.0180351529270411,-0.00032869735150598
23,-0.000768041878473014,0.00134703540243208,-0.00980528257787228,-0.0109163466840982,-0.0184988752007484,0.002047203714028
24,0.000788121484220028,0.00199608271941543,-0.010265314951539,-0.00503775849938393,-0.0168917812407017,0.00497979251667857
25,0.00218580034561455,0.00155133311636746,-0.00998167414218187,-0.00261193769983947,-0.0132498219609261,0.00589908985421062
26,0.00272526871412992,0.000432147120591253,-0.0112023074179888,-0.00616726605221629,-0.00996259972453117,0.00284381187520921
27,0.00131217704620212,-0.00208881683647633,-0.01468516420573,-0.013568427413702,-0.00974290911108255,-0.00462726410478354
28,-0.00202240236103535,-0.00627575814723969,-0.0193232968449593,-0.0212157089263201,-0.0136539889499545,-0.0139229902997613
29,-0.00471979659050703,-0.0101872468367219,-0.0224626027047634,-0.025664584711194,-0.0187016427516937,-0.0200105458498001
30,-0.0054562957957387,-0.013568352907896,-0.023309763520956,-0.0267794281244278,-0.0220404844731092,-0.0212179142981768
31,-0.00557791953906417,-0.0179522465914488,-0.0230178982019424,-0.0262394156306982,-0.0240008346736431,-0.0197296589612961
32,-0.00589756248518825,-0.022395571693778,-0.021120011806488,-0.0238511953502893,-0.0251080617308617,-0.0171508472412825
33,-0.00659590773284435,-0.024516873061657,-0.0177319869399071,-0.0205059852451086,-0.0255501884967089,-0.0146489590406418
34,-0.00727158505469561,-0.0235553830862045,-0.0152257075533271,-0.0193061139434576,-0.025511534884572,-0.0146814808249474
35,-0.00734742172062397,-0.0213509555906057,-0.0148527100682259,-0.0221991557627916,-0.0251004286110401,-0.019563116133213
36,-0.00723488116636872,-0.0199914369732141,-0.0163707472383976,-0.0278450846672058,-0.0255306251347065,-0.0277144685387611
37,-0.00678271660581231,-0.0190250147134066,-0.0193773545324802,-0.0322338789701462,-0.0269542764872313,-0.0330700613558292
38,-0.00592961395159364,-0.0177692230790854,-0.0227860789746046,-0.03293177485466,-0.0274053402245045,-0.0317978449165821
39,-0.00527714006602764,-0.0162869896739721,-0.0251485258340836,-0.0312063489109278,-0.0258508566766977,-0.0264483466744423
40,-0.00476487958803773,-0.0142989102751017,-0.0256930291652679,-0.0292144846171141,-0.0228325985372067,-0.0221448112279177
41,-0.00437671551480889,-0.0124387070536613,-0.0246556606143713,-0.0282124802470207,-0.0195289235562086,-0.021653750911355
42,-0.00479497108608484,-0.0121030500158668,-0.0229802373796701,-0.0285904668271542,-0.0181445702910423,-0.0241088084876537
43,-0.00660504726693034,-0.0134762153029442,-0.0219250973314047,-0.0298513602465391,-0.0207001958042383,-0.0269086994230747
44,-0.00896764639765024,-0.0149284126237035,-0.022243021056056,-0.0308814756572247,-0.0255365259945393,-0.0273177120834589
45,-0.0108369151130319,-0.0151025168597698,-0.0238004550337791,-0.0310045517981052,-0.0285411905497313,-0.0242375191301107
46,-0.0120594147592783,-0.0139582138508558,-0.0250955577939749,-0.0300912130624056,-0.028009919449687,-0.0191718675196171
47,-0.0126247061416507,-0.0123458066955209,-0.0242565590888262,-0.0281604863703251,-0.0257115736603737,-0.0146135361865163
48,-0.0129943527281284,-0.0116431945934892,-0.0215399526059628,-0.0260657370090485,-0.0246860012412071,-0.0125087602064013
49,-0.0133418049663305,-0.0122325867414474,-0.0183030907064676,-0.0242337416857481,-0.0251939576119184,-0.0131524987518787
50,-0.0137265846133232,-0.0137934237718582,-0.0155473109334707,-0.0215898118913174,-0.0247207134962082,-0.0148612102493644
51,-0.0147259775549173,-0.0164161790162325,-0.0141975078731775,-0.0177408885210752,-0.0227062851190567,-0.0161428153514862
52,-0.0158159844577312,-0.0199284423142672,-0.0146319670602679,-0.0152081232517958,-0.0207697749137878,-0.0178215093910694
53,-0.0154960593208671,-0.0233046356588602,-0.0163924787193537,-0.0173142310231924,-0.0198748726397753,-0.02099191211164
54,-0.0134331053122878,-0.0249718092381954,-0.0187876597046852,-0.0232313144952059,-0.0199865773320198,-0.0237488932907581
55,-0.011125897988677,-0.0242451913654804,-0.0213858410716057,-0.0292307678610086,-0.0212478749454021,-0.0229711979627609
56,-0.00994080025702715,-0.0220642816275358,-0.0236293599009514,-0.0335713513195515,-0.0239030793309212,-0.0182359386235476
57,-0.00998251233249903,-0.0199621990323067,-0.0251270178705454,-0.0366003550589085,-0.0277253519743681,-0.0121502364054322
58,-0.0108754402026534,-0.0194984637200832,-0.0260663293302059,-0.0388699807226658,-0.0316027887165546,-0.00851244386285543
59,-0.0122092701494694,-0.021386755630374,-0.0265868939459324,-0.0398580022156239,-0.034167904406786,-0.00903594493865967
60,-0.0131403859704733,-0.0241147391498089,-0.0263974405825138,-0.0380754768848419,-0.0347894951701164,-0.0115608535706997
61,-0.0130573250353336,-0.0255907941609621,-0.0256729423999786,-0.0337216332554817,-0.0337737128138542,-0.0138873597607017
62,-0.0125812338665128,-0.025540167465806,-0.0253837760537863,-0.0294810421764851,-0.0325018130242825,-0.0166276022791862
63,-0.0123872607946396,-0.0262367110699415,-0.0256865527480841,-0.0279468894004822,-0.0316590741276741,-0.0214744675904512
64,-0.012368586845696,-0.0303519070148468,-0.0255103949457407,-0.0282050929963589,-0.0306835733354092,-0.0276674404740334
65,-0.0122204711660743,-0.0354908592998981,-0.0243663433939219,-0.0267274659126997,-0.0300778206437826,-0.0316671170294285
66,-0.0118127753958106,-0.0362937673926353,-0.0229830332100391,-0.0235450994223356,-0.03156728297472,-0.0324090681970119
67,-0.0112501261755824,-0.0326547510921955,-0.0215578638017178,-0.02190176025033,-0.0359679572284222,-0.0316752679646015
68,-0.010406855493784,-0.0280098672956228,-0.0192960258573294,-0.0225320663303137,-0.041635550558567,-0.0298133585602045
69,-0.00938696786761284,-0.0236735418438911,-0.0162293501198292,-0.0238779131323099,-0.0459886305034161,-0.02615269087255
70,-0.00891374424099922,-0.020145408809185,-0.0135433226823807,-0.0251974817365408,-0.0474900864064693,-0.0213571786880493
71,-0.00871505495160818,-0.0182220600545406,-0.0120207956060767,-0.026955196633935,-0.0446291975677013,-0.0178186558187008
72,-0.00856576301157475,-0.0178707744926214,-0.0121311424300075,-0.0293782278895378,-0.0381464138627052,-0.0172672718763351
73,-0.00911537371575832,-0.0183070581406355,-0.0139734297990799,-0.031110780313611,-0.0317099653184414,-0.018269706517458
74,-0.0099321510642767,-0.0185404252260923,-0.0161614157259464,-0.0306732505559921,-0.0269748922437429,-0.0183042082935572
75,-0.0100017664954066,-0.0178416203707457,-0.0170897487550974,-0.0276409331709147,-0.0228035226464272,-0.0157906785607338
76,-0.00985050108283758,-0.0166165195405483,-0.0171670410782099,-0.0225138310343027,-0.019072650000453,-0.0103765884414315
77,-0.0106459222733974,-0.0158735290169716,-0.017543613910675,-0.0176363792270422,-0.0172569304704666,-0.00424915598705411
78,-0.0124449301511049,-0.0152531387284398,-0.0178287997841835,-0.0152649190276861,-0.0174460373818874,-0.000211249382118694
79,-0.0148775111883879,-0.013661228120327,-0.0166391618549824,-0.0149078089743853,-0.017963832244277,0.00205654138699174
80,-0.0168674439191818,-0.0107164401561022,-0.0132031626999378,-0.0146624250337482,-0.0174994189292192,0.0057218330912292
81,-0.0168898608535528,-0.00720473192632198,-0.00879473984241486,-0.0143195819109678,-0.015918780118227,0.0118987243622541
82,-0.0146791012957692,-0.00416220584884286,-0.00512638874351978,-0.0143041200935841,-0.0133161265403032,0.0181224327534437
83,-0.011448479257524,-0.00230046827346087,-0.00253496947698295,-0.013760625384748,-0.0101102394983172,0.0215749349445105
84,-0.00845802761614323,-0.00302729941904545,-0.000855821708682925,-0.012230952270329,-0.00699590146541595,0.0204449892044067
85,-0.00519580906257033,-0.00580763071775436,0.00120947835966945,-0.00859036203473806,-0.00332126906141639,0.0170188117772341
86,-0.00141378561966121,-0.00760886492207646,0.00421809311956167,-0.00265375501476228,0.000928406196180731,0.0155294742435217
87,0.00108796753920615,-0.00732538942247629,0.00607526302337646,0.00158901337999851,0.0032146736048162,0.0155319627374411
88,0.00208769086748362,-0.00508522428572178,0.00702111050486565,0.00275767268612981,0.00334314815700054,0.0163946580141783
89,0.00257472973316908,-0.00118631694931537,0.0094303535297513,0.00398207549005747,0.00345724704675376,0.019466008991003
90,0.00168696732725948,0.00204081111587584,0.0124022355303168,0.00572403706610203,0.00272192270494998,0.0226948130875826
91,-0.000967450265306979,0.00237549608573318,0.0134496344253421,0.00609974376857281,0.000327690009726211,0.0225935131311417
92,-0.00399531470611691,0.00027735874755308,0.0119218090549111,0.00510268332436681,-0.0016191047616303,0.0189101416617632
93,-0.00623028865084052,-0.00226178066805005,0.00903823226690292,0.00411454355344176,-0.00143326597753912,0.0140078458935022
94,-0.00773967383429408,-0.0039541875012219,0.00646398309618235,0.00378289120271802,6.371831841534E-05,0.0101012904196978
95,-0.00913256220519543,-0.0047340989112854,0.00502763828262687,0.00436758156865835,0.000822727626655251,0.00824742205440998
96,-0.0101824495941401,-0.00477411551401019,0.00545048760250211,0.00629502302035689,0.000105278471892234,0.00784683227539063
97,-0.0103096682578325,-0.00385348033159971,0.00784459430724382,0.0084249097853899,-0.00121935002971441,0.0074959434568882
98,-0.0100993327796459,-0.00165864860173315,0.0100592486560345,0.00877938978374004,-0.0020189902279526,0.00823336374014616
99,-0.0102809024974704,0.001205048058182,0.0100805452093482,0.00729425344616175,-0.00164552382193506,0.0126102669164538
100,-0.0102301305159926,0.00320859090425074,0.00896655675023794,0.00579806510359049,-0.000449906277935952,0.0196723509579897
101,-0.0097853746265173,0.00332550262100995,0.00819859933108091,0.00542884971946478,0.000121807046525646,0.0249595381319523
102,-0.0100075919181108,0.00166392070241272,0.00693548982962966,0.00458034826442599,-0.000762081879656762,0.0256354957818985
103,-0.0105628808960319,-0.000246537500061095,0.00494199339300394,0.00210877461358905,-0.00208804989233613,0.0231978911906481
104,-0.00985795259475708,-0.00107222609221935,0.00379207031801343,-0.000560502870939672,-0.00241237040609121,0.0200833547860384
105,-0.0075538856908679,-0.00187763408757746,0.00407151086255908,-0.00253390497528017,-0.00154956616461277,0.0163371041417122
106,-0.00539761036634445,-0.00457875523716211,0.00451261643320322,-0.00457963952794671,-0.00121156696695834,0.0106703285127878
107,-0.00453818123787642,-0.00848851352930069,0.00470078364014626,-0.00668731890618801,-0.00218579336069524,0.00296844867989421
108,-0.00366515177302063,-0.0108403889462352,0.00608910573646426,-0.00713628530502319,-0.00255297380499542,-0.00477270409464836
109,-0.00202832068316638,-0.0108163198456168,0.00939964223653078,-0.00523208733648062,-0.000720398966223001,-0.0104527911171317
110,-0.00109955773223192,-0.00982840731739998,0.0139693794772029,-0.00261794775724411,0.00240315520204604,-0.012877288274467
111,-0.00109807483386248,-0.00932122673839331,0.0193181745707989,0.000373862101696432,0.00565093476325274,-0.0103304199874401
112,-5.14147395733744E-05,-0.00941248796880245,0.0246734116226435,0.00536949280649424,0.00924193020910025,-0.00263195903971791
113,0.00177431630436331,-0.00864060129970312,0.0269083138555288,0.00989395380020142,0.0108438348397613,0.00563476327806711
114,0.00207425281405449,-0.00639928737655282,0.0233084801584482,0.00895634666085243,0.00783768482506275,0.00943602528423071
115,0.000779369671363384,-0.00384214427322149,0.0159510653465986,0.00279504922218621,0.00329230283387005,0.00869478657841682
116,-0.000497754255775362,-0.00183416169602424,0.00924449134618044,-0.00432324362918735,0.00115466711577028,0.00601618876680732
117,-0.00147049210499972,-0.000490581674966961,0.00536561850458384,-0.00900854263454676,0.00127643090672791,0.00288147502578795
118,-0.00278731947764754,0.000246300885919482,0.00390314520336688,-0.0100705027580261,0.00182178465183824,0.000477719499031082
119,-0.00441278284415603,-4.21173490394722E-06,0.00380545086227357,-0.00843483116477728,0.00193128816317767,0.000307061185594648
120,-0.00581655185669661,-0.00145990180317312,0.00478122988715768,-0.00530683621764183,0.00186738825868815,0.00275680748745799
121,-0.00693247094750404,-0.00287892553023994,0.00623859837651253,-0.00168671773280948,0.000574429519474506,0.00697131315246224
122,-0.00814411789178848,-0.00318740820512176,0.00716581242159009,0.000393124850234017,-0.00351106631569564,0.0106635587289929
123,-0.00908445101231337,-0.00290816649794579,0.00801239628344774,0.00014010292943567,-0.00853354204446077,0.0118366098031402
124,-0.00906228832900524,-0.00305709964595735,0.00882178079336882,-0.0017695160349831,-0.0113117331638932,0.0111129898577929
125,-0.0084473667666316,-0.00449872389435768,0.00779256038367748,-0.00563312042504549,-0.0110807353630662,0.0097905034199357
126,-0.00745103415101767,-0.00687928264960647,0.00497444020584226,-0.0101594142615795,-0.00848174374550581,0.00830572005361319
127,-0.00531482603400946,-0.00822543352842331,0.00353631167672575,-0.0106757041066885,-0.00382060697302222,0.00775943836197257
128,-0.00276311719790101,-0.00793253630399704,0.00465988181531429,-0.00522341765463352,0.000964907696470618,0.00813922006636858
129,-0.00204096757806838,-0.00778809934854507,0.00570255797356367,0.00105345330666751,0.00205821520648897,0.0067012757062912
130,-0.00386139494366944,-0.00840986892580986,0.00511136604472995,0.00255773891694844,-0.00104050838854164,0.00367087800987065
131,-0.00682972371578217,-0.00832012947648764,0.00373413879424334,-0.000639690086245537,-0.00443129520863295,0.00313240219838917
132,-0.00859283097088337,-0.00680517684668303,0.00288721546530724,-0.00531571125611663,-0.00506005715578794,0.00579220475628972
133,-0.00778032280504704,-0.00471239257603884,0.00335873872973025,-0.00904054287821054,-0.00366368982940912,0.00813739467412233
134,-0.00608104467391968,-0.0031604717951268,0.0040106070227921,-0.0109998788684607,-0.00317099061794579,0.0077311615459621
135,-0.00632624188438058,-0.00290954811498523,0.0035848377738148,-0.0106841418892145,-0.00570693099871278,0.00542761851102114
136,-0.00811888184398413,-0.00338271609507501,0.00270918942987919,-0.00775490561500192,-0.0102327037602663,0.00430932641029358
137,-0.00892767496407032,-0.00271233124658465,0.00183262012433261,-0.00339474226348102,-0.0137011017650366,0.00637274840846658
138,-0.00811903923749924,9.41641337703913E-05,0.00105578592047095,0.000146593534736894,-0.0136321010068059,0.00985307991504669
139,-0.00706386426463723,0.0036012299824506,0.000839809654280543,0.0010420820908621,-0.0104336785152555,0.0111341839656234
140,-0.00714010745286942,0.00501549895852804,0.000923526822589338,-0.00131598010193557,-0.00709551898762584,0.0080869859084487
141,-0.00799890980124474,0.00429562479257584,0.0012693734606728,-0.00497346930205822,-0.00537100061774254,0.00227585528045893
142,-0.00839599035680294,0.0041167470626533,0.00237314659170806,-0.00683144247159362,-0.00507394457235932,-0.00211346452124417
143,-0.00819914415478706,0.00526519026607275,0.00378066534176469,-0.0065747401677072,-0.00560271693393588,-0.00292587233707309
144,-0.007803316693753,0.00637419568374753,0.00429757917299867,-0.00571725238114595,-0.00658581033349037,-0.00152485875878483
145,-0.00690994132310152,0.00650139153003693,0.00325101870112121,-0.0049510607495904,-0.00788151752203703,0.000118705313070677
146,-0.00496904924511909,0.00594932353124022,0.00145109789445996,-0.00418713036924601,-0.00867424346506596,0.00133898563217372
147,-0.00256857951171696,0.00502645876258612,0.000455862726084888,-0.0035644480958581,-0.00826907902956009,0.00183260859921575
148,-0.00150090199895203,0.00301629467867315,0.000205510354135185,-0.00466462131589651,-0.00858039781451225,0.000724814715795219
149,-0.00213999161496758,0.000374231720343232,0.00011832138261525,-0.00716311298310757,-0.0118642458692193,-0.00062095164321363
150,-0.00221945974044502,-0.000720912707038224,0.00160765578038991,-0.0067486185580492,-0.0162222739309072,0.00218562642112374
151,-0.000151932588778436,0.000860624364577234,0.00541960727423429,-0.00154825020581484,-0.0183596443384886,0.0100876959040761
152,0.00217051059007645,0.004100336227566,0.00861056242138147,0.00416919961571693,-0.0186251197010279,0.0178534612059593
153,0.00217440514825284,0.00651495950296521,0.00839539989829063,0.00601735059171915,-0.0188774447888136,0.0202469937503338
154,2.04716016014572E-05,0.00689191045239568,0.00585481338202953,0.0040748892351985,-0.0196853931993246,0.0169549509882927
155,-0.00236215721815825,0.00690310867503285,0.00358297140337527,0.000936051656026393,-0.0206980612128973,0.0122018000110984
156,-0.00381142273545265,0.00799968186765909,0.00379497953690588,-0.00059885933296755,-0.0204935166984797,0.00976987183094025
157,-0.0045395283959806,0.00925525091588497,0.00711199222132564,0.000564862217288464,-0.0184889640659094,0.00896894279867411
158,-0.00456176651641726,0.00961423199623823,0.0114174364134669,0.00327153224498034,-0.0159477740526199,0.00763504114001989
159,-0.00358120445162058,0.00911876931786537,0.0139420507475734,0.00571262091398239,-0.0136234797537327,0.00562630267813802
160,-0.00137056841049343,0.00790498498827219,0.0138851320371032,0.00680657988414168,-0.0105413636192679,0.00417680526152253
161,0.00217266194522381,0.00666778348386288,0.012452220544219,0.00648839399218559,-0.00587713159620762,0.00417560385540128
162,0.00600684154778719,0.00680994568392634,0.0110637741163373,0.00541655998677015,-0.000207009928999469,0.00584786850959063
163,0.00849915016442537,0.00855452194809914,0.010265382938087,0.00464485213160515,0.00527166109532118,0.0093965670093894
164,0.00917350593954325,0.0106773544102907,0.0101625313982368,0.0051953811198473,0.00917859189212322,0.0144285531714559
165,0.00847780890762806,0.0116834826767445,0.0103474697098136,0.00626929802820086,0.0097619378939271,0.0184569917619228
166,0.00690255640074611,0.0107038114219904,0.0101868193596601,0.00597463687881827,0.00635106535628438,0.0180339366197586
167,0.00556711805984378,0.00883088912814856,0.010304163210094,0.00466246111318469,0.00159079302102327,0.0125432051718235
168,0.00441531790420413,0.00734836282208562,0.0109108164906502,0.00254972954280674,-0.00217080931179225,0.00475261593237519
169,0.00218763737939298,0.00639527477324009,0.0114179644733667,-0.00108377391006798,-0.00543198781087995,-0.00158741581253707
170,-0.00010297469998477,0.00646323431283236,0.0123911099508405,-0.00431118346750736,-0.00765935191884637,-0.00359363644383848
171,-0.000429983250796795,0.00701975915580988,0.0134466392919421,-0.00519531453028321,-0.00769824953749776,-0.00186652969568968
172,0.00163504714146256,0.00672253640368581,0.0133116142824292,-0.00463156867772341,-0.0061763278208673,0.0002318742335774
173,0.00475588906556368,0.00561934057623148,0.0118641527369618,-0.00406558392569423,-0.00434120418503881,0.000747787009458989
174,0.0067969630472362,0.0045085777528584,0.00940440222620964,-0.00381384533829987,-0.00331466528587043,0.000399637094233185
175,0.0067360857501626,0.00384522741660476,0.00628977594897151,-0.00327764009125531,-0.00375024951063097,0.000968638458289206
176,0.00504016457125545,0.00346960918977857,0.00347632099874318,-0.00261346343904734,-0.00534422276541591,0.00246513565070927
177,0.00370791601017118,0.0037431251257658,0.00296963728033006,-0.00249282503500581,-0.00634301686659455,0.00352197350002825
178,0.00467571336776018,0.00505539495497942,0.00522159785032272,-0.00295191421173513,-0.00497332355007529,0.00391494296491146
179,0.00713682034984231,0.00647981371730566,0.00790614541620016,-0.00407009525224566,-0.00176289607770741,0.00456685246899724
180,0.00841618608683348,0.00708106067031622,0.0089263878762722,-0.00562138529494405,0.000578520353883505,0.00690406188368797
181,0.00699989078566432,0.00586658669635654,0.00784170720726252,-0.00713700940832496,0.00022084110241849,0.0101805385202169
182,0.00471014808863401,0.00249686371535063,0.00673871906474233,-0.00735283549875021,-0.000168583486811258,0.0117226019501686
183,0.00374466902576387,-0.00090860651107505,0.00752430409193039,-0.00557810300961137,0.00195378763601184,0.0110419569537044
184,0.00329132564365864,-0.00225403904914856,0.00879677850753069,-0.00362573587335646,0.00430866237729788,0.00970447063446045
185,0.00285797496326268,-0.000281508459011093,0.00952536799013615,-0.00241939164698124,0.00535884220153093,0.00963077042251825
186,0.00323682301677763,0.00565539579838514,0.00982521008700132,-0.00227473466657102,0.005751958116889,0.0112674497067928
187,0.00398473208770156,0.0123894838616252,0.00991404708474875,-0.00393904093652964,0.00559462187811732,0.0126308044418693
188,0.00430273357778788,0.0155191710218787,0.0109258685261011,-0.00596131104975939,0.00458028865978122,0.0117630399763584
189,0.00368708069436252,0.0141841880977154,0.0125605147331953,-0.00733331078663468,0.00171286263503134,0.00758862867951393
190,0.002477852627635,0.0102450083941221,0.013237252831459,-0.00865023676306009,-0.00200058333575726,0.000651698734145612
191,0.00201472616754472,0.00621101865544915,0.0122829452157021,-0.00976794585585594,-0.00305676995776594,-0.00545497890561819
192,0.00309894210658967,0.00384576246142387,0.0101289171725512,-0.0105617390945554,0.00035684005706571,-0.00712652131915092
193,0.00533343944698572,0.00316720013506711,0.00800933875143528,-0.0108652599155903,0.00648856582120061,-0.00422183983027935
194,0.00748295802623034,0.00266214064322412,0.00690229516476393,-0.0102133685722947,0.0113013219088316,0.000822338624857366
195,0.0091407485306263,0.00197602575644851,0.00721510825678706,-0.00825661513954401,0.0122987208887935,0.00621394813060761
196,0.010897777043283,0.00261491048149765,0.00887235160917044,-0.0050436113961041,0.0114986505359411,0.0112709421664476
197,0.0123655684292316,0.00491414591670036,0.011178788729012,-0.00155553652439266,0.0125154731795192,0.0149063384160399
198,0.0125531777739525,0.0076447045430541,0.0132563775405288,0.00128371699247509,0.015384922735393,0.0163497384637594
199,0.0118335699662566,0.00978050101548433,0.0144385797902942,0.00261091650463641,0.0173506308346987,0.0155853806063533
200,0.010810193605721,0.0100697884336114,0.0140279056504369,0.000500238325912505,0.016390161588788,0.0122203277423978
201,0.00946607068181038,0.00840124767273664,0.0119350254535675,-0.00508610997349024,0.0127701293677092,0.00785072613507509
202,0.00857951492071152,0.00706569664180279,0.00981786753982306,-0.0104906894266605,0.00879800133407116,0.00642554229125381
203,0.00897452980279922,0.00753093929961324,0.00946902018040419,-0.0125628979876637,0.00630982220172882,0.0086910193786025
204,0.0101323239505291,0.00844782311469316,0.0103721590712667,-0.0116182956844568,0.00495203351601958,0.0112540926784277
205,0.0102143883705139,0.00729354145005345,0.0104115959256887,-0.00986018124967813,0.00271340366452932,0.0111131314188242
206,0.00815556384623051,0.00420819642022252,0.00919347628951073,-0.00805949326604605,-0.00135787494946271,0.00901006069034338
207,0.00462927250191569,0.00194499676581472,0.00777987996116281,-0.00625466974452138,-0.0063668699003756,0.0073274620808661
208,0.000521480629686266,0.00154922599904239,0.00613466091454029,-0.00566727109253407,-0.0108552258461714,0.0071752960793674
209,-0.0030805729329586,0.00175215897615999,0.00399449141696095,-0.00682992860674858,-0.0131778502836823,0.00886764004826546
210,-0.0045565883629024,0.00178224570117891,0.00240105087868869,-0.00847370177507401,-0.0126810343936086,0.0117289992049336
211,-0.00328578124754131,0.00198188051581383,0.00269919307902455,-0.00886117573827505,-0.0104376887902617,0.0143180079758167
212,-0.00118885166011751,0.0014583965530619,0.00388299580663443,-0.00841653998941183,-0.0083553958684206,0.0148751782253385
213,-0.000265116075752303,-0.00023832127044443,0.00389534328132868,-0.00892076920717955,-0.00674838898703456,0.0128509178757668
214,0.000636766140814871,-0.000952871982008219,0.0042355265468359,-0.00884974095970392,-0.0035725049674511,0.0107025364413857
215,0.00352813932113349,0.000979539472609758,0.00766966724768281,-0.00607646629214287,0.00185273308306932,0.00994732230901718
216,0.00730612222105265,0.00494413357228041,0.0121038733050227,-0.00418705400079489,0.0067993295378983,0.00835506245493889
217,0.00905842334032059,0.00873603112995625,0.013243175111711,-0.00732709933072329,0.00864627119153738,0.0048428550362587
218,0.00823764689266682,0.0106296008452773,0.0106826573610306,-0.0133062284439802,0.00730470661073923,0.00176439376082271
219,0.00686037121340632,0.0106251947581768,0.00700189964845777,-0.0180755145847797,0.00510557414963841,0.00023412196605932
220,0.00674886675551534,0.00960074458271265,0.00455703772604465,-0.0201750881969929,0.0047682118602097,-0.000866411719471216
221,0.00724810874089599,0.00863264407962561,0.00407184846699238,-0.0190669298171997,0.00544200139120221,-0.000744921097066253
222,0.00626823445782065,0.00803428515791893,0.00447417097166181,-0.015311042778194,0.00450638402253389,0.00190795806702226
223,0.00385733437724411,0.00792704802006483,0.00457513332366943,-0.0112173100933433,0.00186352408491075,0.00549546396359801
224,0.0013360675657168,0.00851326063275337,0.00394150381907821,-0.00859982520341873,-0.00152997486293316,0.00739043299108744
225,-0.000773670035414398,0.00910726189613342,0.00287674088031054,-0.00750574888661504,-0.0046802475117147,0.00722091598436236
226,-0.00167235231492668,0.0099001582711935,0.00230894424021244,-0.00613675126805902,-0.00550004513934255,0.00880232360213995
227,-0.00136346044018865,0.0112418765202165,0.00216840486973524,-0.00291800335980952,-0.00357620837166905,0.015557985752821
228,-0.00104176241438836,0.011604767292738,0.00168165459763259,0.00063307659002021,-0.000837964587844908,0.024592200294137
229,-0.00115148688200861,0.0102397734299302,0.000980542507022619,0.00158655119594187,0.00196494930423796,0.0299772024154663
230,-0.00206198240630329,0.00790577102452517,-0.000519726134371012,-0.00150564988143742,0.00381807168014348,0.0294266920536757
231,-0.00301812798716128,0.00567167019471526,-0.00336326821707189,-0.0070083374157548,0.00317575293593109,0.0257294271141291
232,-0.00192010414320976,0.00455653155222535,-0.00594534166157246,-0.0113458447158337,0.00130875606555492,0.0221049562096596
233,0.00128537905402482,0.00460443599149585,-0.00685742404311895,-0.0130306826904416,0.000218954955926165,0.0187074560672045
234,0.00491396803408861,0.00521999038755894,-0.00629103509709239,-0.0130829568952322,0.000322218023939058,0.0140120638534427
235,0.00732018705457449,0.00532945431768894,-0.00533171417191625,-0.0130908498540521,0.000585600442718714,0.0070992698892951
236,0.00744934752583504,0.00354674481786788,-0.00561080034822226,-0.0144435223191977,-0.000495033164042979,-0.000632480718195438
237,0.00609982665628195,0.000413126748753712,-0.0074512274004519,-0.0161714628338814,-0.00187368784099817,-0.00553886126726866
238,0.00575485499575734,-0.00159568106755614,-0.00859906245023012,-0.015555395744741,-0.000418828654801473,-0.00477555114775896
239,0.00755847152322531,-0.00137983111198992,-0.00747701153159142,-0.0120502384379506,0.00425414787605405,0.00125755474437028
240,0.0101810768246651,-0.00022613322653342,-0.0051845982670784,-0.00688142981380224,0.00925539247691631,0.00914717838168144
241,0.0114270066842437,-0.000144746460136957,-0.00369376735761762,-0.00187783222645521,0.0114151323214173,0.0145360752940178
242,0.0100630149245262,-0.00144998857285827,-0.00371801666915417,0.000846435548737645,0.00989227741956711,0.0161324739456177
243,0.00701837567612529,-0.00246576010249555,-0.00422524847090244,0.000438643095549196,0.00714574102312326,0.0155964670702815
244,0.00401950115337968,-0.0019454233115539,-0.00469457777217031,-0.00281086005270481,0.00522165140137076,0.0139235872775316
245,0.00196881568990648,-0.00021760052186437,-0.00580795900896192,-0.00771454814821482,0.00358878797851503,0.0116357048973441
246,0.00110671750735492,0.00147429702337831,-0.00766570027917624,-0.0120137482881546,0.00156345649156719,0.00960963033139706
247,0.00147576560266316,0.00238566542975605,-0.00905904360115528,-0.0132486261427403,-2.35675724979956E-05,0.00876184273511171
248,0.00237294123508036,0.00236761779524386,-0.00912764761596918,-0.0109524326398969,-0.000311671989038587,0.00939232762902975
249,0.0027554826810956,0.00160626019351184,-0.00821764022111893,-0.00740549992769957,3.91466055589262E-05,0.0109412260353565
250,0.00260780518874526,0.000928591063711792,-0.0068505359813571,-0.00536386296153069,-0.000220995701965876,0.0125015424564481
251,0.00242920638993382,0.000714209745638072,-0.00572886550799012,-0.00590633740648627,-0.00170140410773456,0.0124441916123033
252,0.00230179610662162,0.000816882646176964,-0.00516949314624071,-0.00799810327589512,-0.00465004332363606,0.0102751906961203
253,0.00252267136238515,0.00107811740599573,-0.00423124944791198,-0.0096048666164279,-0.00865545123815537,0.00827608909457922
254,0.00432154256850481,0.00108209869358689,-0.00149657938163728,-0.00761329149827361,-0.0105097768828273,0.00927730556577444
255,0.0075547955930233,0.00117501767817885,0.00265685468912125,-0.000734992034267634,-0.00779421301558614,0.0135359400883317
256,0.00993291568011045,0.00263348920270801,0.00611049355939031,0.0068168225698173,-0.00328476540744305,0.0188368745148182
257,0.00994285847991705,0.00541927665472031,0.00778620690107346,0.0106529071927071,-0.000374180352082476,0.0234457906335592
258,0.00752352923154831,0.00811036583036184,0.00746824126690626,0.00992208067327738,0.000387611711630598,0.0261827781796455
259,0.00379239162430167,0.00963542331010103,0.00557416398078203,0.00551317213103175,0.000134813119075261,0.0254810266196728
260,0.000653101596981287,0.00935662910342216,0.00345731806010008,-0.000506826676428318,0.000433681474532932,0.0210912395268679
261,-0.00151811831165105,0.0072885868139565,0.00110713741742074,-0.00631846813485026,0.0012873918749392,0.0148019194602966
262,-0.00372571591287851,0.00463023502379656,-0.00228944350965321,-0.0107948798686266,0.00136430759448558,0.00922501739114523
263,-0.00588010204955935,0.00316354096867144,-0.00577443977817893,-0.0126716922968626,0.000355349126039073,0.00673542311415076
264,-0.00742950849235058,0.00337207526899874,-0.00794140715152025,-0.0114868227392435,-0.00130008487030864,0.00762125197798014
265,-0.00847324542701244,0.00420017167925835,-0.00817503128200769,-0.00815329607576132,-0.00341633963398635,0.00998128578066826
266,-0.009326814673841,0.00527081964537501,-0.00626590801402926,-0.00368622993119061,-0.00508939381688833,0.0129882702603936
267,-0.0104846432805061,0.00703059229999781,-0.00313937151804566,0.00117645761929452,-0.00466516986489296,0.0170765891671181
268,-0.0120387291535735,0.00893370620906353,-0.000646804284770042,0.00519348634406924,-0.00209305761381984,0.0211190022528172
269,-0.0120391193777323,0.0107712494209409,0.0010475815506652,0.00815338362008333,0.00134807417634875,0.0242212060838938
270,-0.00830646138638258,0.0131719913333654,0.00346831488423049,0.0117231365293264,0.00490861851722002,0.0275074318051338
271,-0.00312365987338126,0.0147440200671554,0.00604383833706379,0.0156643837690353,0.00649233115836978,0.0299278479069471
272,-0.000778370478656143,0.013238275423646,0.00671674078330398,0.0164636243134737,0.0042336662299931,0.0275157317519188
273,-0.0020105168223381,0.00936935655772686,0.00510939443483949,0.0123266819864511,1.73838943737792E-05,0.0202521476894617
274,-0.00445433938875794,0.00632153637707233,0.00302522792480886,0.00588731979951262,-0.00308686797507107,0.0137162944301963
275,-0.00598341133445501,0.00585574563592672,0.00274139200337231,0.00109199318103492,-0.00387853756546974,0.0124054728075862
276,-0.00644443416967988,0.00684802932664752,0.00468587130308151,-0.000256578350672498,-0.00281752902083099,0.0158917903900146
277,-0.00632284767925739,0.00754467723891139,0.00800327304750681,0.000791069236584008,-0.00089326361194253,0.0206294376403093
278,-0.00659962231293321,0.00689006224274635,0.0106473499909043,0.00192151346709579,-0.000199965943465941,0.0233928970992565
279,-0.00803779531270266,0.00501132663339376,0.0111404871568084,0.00278808106668293,-0.00173523020930588,0.024340620264411
280,-0.00908836908638477,0.00388737465254962,0.0113231828436255,0.00558644765987992,-0.00261848117224872,0.0262607671320438
281,-0.00909874029457569,0.00503640854731202,0.0119452169165015,0.0102995950728655,-0.00118047546129674,0.0296329781413078
282,-0.00935890059918165,0.00806274451315403,0.01131521910429,0.014309142716229,0.000751123472582549,0.0322602801024914
283,-0.0101557765156031,0.0116053996607661,0.00956854782998562,0.0170015655457973,0.00167957262601703,0.0334836952388287
284,-0.0106149259954691,0.0145552139729261,0.00848168600350618,0.0197135247290134,0.00247254315763712,0.0349512621760368
285,-0.0098447734490037,0.0168759617954493,0.00908424705266953,0.0226462744176388,0.00535750854760408,0.0372188612818718
286,-0.0081584332510829,0.0186468046158552,0.0104710394516587,0.0242725163698196,0.0103157488629222,0.0381972640752792
287,-0.00621928786858916,0.0201920941472054,0.0110790031030774,0.0238638669252396,0.0157640837132931,0.0359591133892536
288,-0.00453100632876158,0.0217926446348429,0.0106482692062855,0.0225943271070719,0.0210897848010063,0.0305895507335663
289,-0.00301693822257221,0.0230412371456623,0.0104882596060634,0.0222609154880047,0.0259254332631826,0.0246770512312651
290,-0.00076329818693921,0.0228280741721392,0.0113990642130375,0.0230720173567533,0.0291710253804922,0.0211115721613169
291,0.00239115860313177,0.0199369918555021,0.0128908734768629,0.0247731301933527,0.0302535649389029,0.0211503654718399
292,0.00605333829298615,0.0163785237818956,0.0148055898025632,0.0283407606184483,0.0307193230837584,0.024901008233428
293,0.00849240086972713,0.0149159077554941,0.0156155005097389,0.0311150588095188,0.0310210771858692,0.0284772608429194
294,0.00767899258062243,0.0145819056779146,0.0137246241793036,0.029995284974575,0.0296247899532318,0.027784327045083
295,0.00461511965841055,0.0146371070295572,0.0107199670746922,0.0276013407856226,0.0260855183005333,0.0250476002693176
296,0.00145000976044685,0.0155114280059934,0.00833958946168423,0.0257825013250113,0.0212758332490921,0.0237368904054165
297,-0.00158622697927058,0.0155504271388054,0.00619150372222066,0.0227602906525135,0.0167071260511875,0.0234177988022566
298,-0.00517391785979271,0.013506100513041,0.00400874484330416,0.0181936714798212,0.0132168317213655,0.0216916855424643
299,-0.00898882001638412,0.0108780134469271,0.00264293840155005,0.0146022103726864,0.0111799435690045,0.0181073490530252
300,-0.0115293590351939,0.00907626934349537,0.00273899314925075,0.0140383765101433,0.0118472510948777,0.0150624848902225
301,-0.0121572082862258,0.00704383570700884,0.00330110848881304,0.0146931083872914,0.0137677267193794,0.0131322247907519
302,-0.0117080081254244,0.00434626173228025,0.00274240993894637,0.013438243418932,0.0133460210636258,0.0107071418315172
303,-0.0110970502719283,0.00291801895946264,0.00100249249953777,0.00969591364264488,0.0101313460618258,0.00767088541761041
304,-0.0110305631533265,0.00260157976299524,-0.0012888468336314,0.00455799465999007,0.00596569292247295,0.0040973792783916
305,-0.0110543463379145,0.00141878763679415,-0.00306377350352705,0.000118811047286727,0.00299868383444846,0.000265364913502708
306,-0.00982630904763937,0.000618056277744472,-0.00270574097521603,-0.0011078214738518,0.00259643164463341,-0.001853619934991
307,-0.00735441641882062,0.00210774200968444,-0.000320208870107308,0.00076173956040293,0.00436901580542326,-0.00196187733672559
308,-0.00471429759636521,0.00444082450121641,0.00180478719994426,0.00277541601099074,0.00689687766134739,-0.00218707462772727
309,-0.0021388225723058,0.00578264193609357,0.00214602961204946,0.00299992226064205,0.00879596546292305,-0.00355005264282227
310,0.000606655841693282,0.00628875615075231,0.00190331670455635,0.00247541558928788,0.0106655862182379,-0.00522482022643089
311,0.00218251068145037,0.00604820298030972,0.001587143400684,0.00195760233327746,0.0121301840990782,-0.00662596616894007
312,0.0013378692092374,0.00498552480712533,2.58270429185359E-05,0.0010085292160511,0.0105568338185549,-0.00733796041458845
313,-0.000852456141728908,0.00393999228253961,-0.0021774775814265,0.000121319659228902,0.00632164720445871,-0.00641958601772785
314,-0.00340059003792703,0.00260005029849708,-0.00445309514179826,-0.00115678028669208,0.00112213916145265,-0.0050927666015923
315,-0.00622319662943482,-8.26495088404045E-05,-0.00730910757556558,-0.00425526592880487,-0.00477813603356481,-0.00625196425244212
316,-0.00848767161369324,-0.0035856943577528,-0.00973866786807776,-0.00894850958138704,-0.00991405919194222,-0.0103266732767224
317,-0.0097240274772048,-0.00645632948726416,-0.0110172983258963,-0.0135577488690615,-0.0131324036046863,-0.0145977297797799
318,-0.0107536986470222,-0.00788988545536995,-0.0125169903039932,-0.0168464072048664,-0.0158535335212946,-0.016357809305191
319,-0.0112803252413869,-0.00766262272372842,-0.0145056657493114,-0.0185456834733486,-0.0185550097376108,-0.015400055795908
320,-0.0098143769428134,-0.00632568076252937,-0.0153721533715725,-0.0188421234488487,-0.0191310290247202,-0.0139270992949605
321,-0.00674349255859852,-0.00586813082918525,-0.0148508790880442,-0.0189113225787878,-0.0167716667056084,-0.015083285048604
322,-0.00461072707548738,-0.0078457910567522,-0.01479122787714,-0.0203858837485313,-0.0141383856534958,-0.0202496238052845
323,-0.0043280478566885,-0.0110434433445334,-0.0161598902195692,-0.022922195494175,-0.0136444577947259,-0.0269293915480375
324,-0.00391799351200461,-0.0131056271493435,-0.0178270917385817,-0.0252327099442482,-0.0144022507593036,-0.0317855328321457
325,-0.00265526724979281,-0.0144502026960254,-0.0198815669864416,-0.0285362545400858,-0.0149725507944822,-0.0351703464984894
326,-0.00161513348575681,-0.0166742764413357,-0.0232082344591618,-0.0337256453931332,-0.0151602141559124,-0.0381932519376278
327,-0.000749744649510831,-0.0188149902969599,-0.0266472548246384,-0.0380553044378757,-0.0148065853863955,-0.0398082919418812
328,0.000222330883843824,-0.0194119494408369,-0.028848759829998,-0.0394447781145573,-0.0142543343827128,-0.0399040058255196
329,0.000768931931816041,-0.0191887225955725,-0.0294928234070539,-0.0385572910308838,-0.0144339138641953,-0.0390052907168865
330,0.000795395171735436,-0.0196289531886578,-0.0280984025448561,-0.0352364964783192,-0.0144840115681291,-0.0364528261125088
331,0.000731255509890616,-0.0194377154111862,-0.0248322859406471,-0.0294440258294344,-0.0124929770827293,-0.0324198417365551
332,0.000413825560826808,-0.0165639575570822,-0.0223500169813633,-0.0245462879538536,-0.0101525597274303,-0.0288470461964607
333,-0.000807177391834557,-0.0130513152107596,-0.0237133968621492,-0.0236960705369711,-0.0118824504315853,-0.0271783322095871
334,-0.0030906239990145,-0.0118642095476389,-0.0282012186944485,-0.0258950181305408,-0.0183100737631321,-0.027331380173564
335,-0.00541652739048004,-0.0128942467272282,-0.0315952934324741,-0.0278553701937199,-0.0249083135277033,-0.0285068023949862
336,-0.00629903702065349,-0.0146076614037156,-0.0310525093227625,-0.0272880382835865,-0.0277056563645601,-0.0295062530785799
337,-0.00577230378985405,-0.0158572290092707,-0.0277280509471893,-0.0237687807530165,-0.0266803540289402,-0.0290262326598167
338,-0.00516094686463475,-0.0165400113910437,-0.0247476939111948,-0.0187825951725245,-0.0238866209983826,-0.0268536470830441
339,-0.00503083923831582,-0.0169488880783319,-0.0240921899676323,-0.0152121242135763,-0.0210046824067831,-0.0236610174179077
340,-0.00457790168002248,-0.0157680250704288,-0.0244844760745764,-0.0141763482242823,-0.0180023666471243,-0.0188310146331787
341,-0.00318072992376983,-0.0122275818139315,-0.0234477054327726,-0.0147979790344834,-0.0142745682969689,-0.0127812195569277
342,-0.00117521022912115,-0.00836544670164585,-0.02056366764009,-0.0160452220588923,-0.0100486427545547,-0.00909080822020769
343,0.00100964633747935,-0.00616772612556815,-0.0170029606670141,-0.017070172354579,-0.00623086933046579,-0.0104994121938944
344,0.0028662197291851,-0.0062428074888885,-0.0139013156294823,-0.0182419195771217,-0.00444242497906089,-0.017146110534668
345,0.00419355882331729,-0.00838979054242373,-0.0116977645084262,-0.0208409149199724,-0.00504017015919089,-0.0274237487465143
346,0.00559749687090516,-0.0109288105741143,-0.0100077986717224,-0.0239927433431149,-0.00551068317145109,-0.0369943380355835
347,0.00739027746021748,-0.0116341728717089,-0.00804004538804293,-0.024982487782836,-0.00416683172807097,-0.0410023331642151
348,0.0089608570560813,-0.0103756133466959,-0.00572853023186326,-0.0236392505466938,-0.00245256279595196,-0.0388219133019447
349,0.00984278414398432,-0.00830446556210518,-0.00361238070763648,-0.0205529369413853,-0.00145445135422051,-0.0327999629080296
350,0.00979693699628115,-0.00582224875688553,-0.00234309304505587,-0.0144845340400934,-0.000994990929029882,-0.0245091505348682
351,0.00826289970427752,-0.00333520513959229,-0.00258622667752206,-0.00648665241897106,-0.00139086588751525,-0.0156510602682829
352,0.00609823642298579,-0.000885532237589359,-0.00372806843370199,0.000383555423468351,-0.00148767302744091,-0.00845575053244829
353,0.00476883305236697,0.00176003843080252,-0.00493137864395976,0.00417628372088075,0.000351841124938801,-0.00469501409679651
354,0.00376656698063016,0.00391265423968434,-0.00642918469384313,0.00440596044063568,0.00289302505552769,-0.00453307293355465
355,0.00189623318146914,0.00457038357853889,-0.0084712402895093,0.00232871598564088,0.00389376026578248,-0.00580189749598503
356,-0.000639658421278,0.00382438953965902,-0.0103191621601582,0.000165632824064232,0.00339977978728712,-0.00588886812329292
357,-0.00192804040852934,0.00306581938639283,-0.0104999234899879,-0.000430816377047449,0.00362176238559186,-0.0033323063980788
358,-0.000770565064158291,0.00229306821711361,-0.00896264426410198,0.000283903384115547,0.00555830588564277,0.00114888825919479
359,0.00136317999567837,-0.000128639556351118,-0.00702350027859211,0.0008756821625866,0.00819928571581841,0.00566261727362871
360,0.00216574314981699,-0.00409869709983468,-0.00516853667795658,0.000811940815765411,0.0106968730688095,0.00947676133364439
361,0.00112423638347536,-0.0072252401150763,-0.00289640366099775,0.001772326300852,0.0129547175019979,0.012684783898294
362,2.3291313482332E-06,-0.00655121495947242,-0.000409761618357152,0.00464789802208543,0.0147827351465821,0.0146124782040715
363,0.000570731237530708,-0.00216170493513346,0.00100148585624993,0.00635249307379127,0.0161166358739138,0.0140211852267385
364,0.00237060431391001,0.00188972044270486,0.000341199076501653,0.00424115778878331,0.0171372517943382,0.0107808681204915
365,0.00348518462851644,0.00307211768813431,-0.00257511856034398,-4.76690547657199E-05,0.0161009505391121,0.00612374627962708
366,0.0033535014372319,0.00231815502047539,-0.00629500299692154,-0.00277865212410688,0.0119973532855511,0.00165043899323791
367,0.00260132923722267,0.000760036637075245,-0.00872990023344755,-0.00274889101274312,0.00720262108370662,-0.00204143300652504
368,0.00143489288166165,-0.00124954245984554,-0.00976143684238195,-0.00277814315631986,0.00346690532751381,-0.00582098495215178
369,0.000941959209740162,-0.00244611059315503,-0.00921808276325464,-0.00407889392226934,0.00199063774198294,-0.00921440590173006
370,0.00206608115695417,-0.00174464331939816,-0.00662749772891402,-0.00454828422516584,0.00374549860134721,-0.0107981590554118
371,0.00382012478075922,-0.000607541063800454,-0.0032666923943907,-0.00354185421019793,0.00692283967509866,-0.0114568555727601
372,0.0047397674061358,-0.00130190665367991,-0.000778708432335407,-0.00276106665842235,0.0087397126480937,-0.0125968800857663
373,0.00361748295836151,-0.00398457376286387,-0.000592031399719417,-0.00352959218434989,0.00739984074607491,-0.0133103793486953
374,0.00134023756254464,-0.00610953150317073,-0.0020952622871846,-0.00475806696340442,0.0038186099845916,-0.0108740115538239
375,5.88477632845752E-05,-0.00606055278331041,-0.00345743191428483,-0.00564030837267637,0.000627449189778417,-0.00580754643306136
376,-0.000865848734974861,-0.00526221748441458,-0.00513870734721422,-0.00723703345283866,-0.00226572086103261,-0.00308740162290633
377,-0.00259551336057484,-0.00466229813173413,-0.00717622647061944,-0.00875076092779636,-0.00556754367426038,-0.00553617626428604
378,-0.00452772108837962,-0.004005525726825,-0.00819407589733601,-0.00839397963136435,-0.00794330611824989,-0.0107760429382324
379,-0.00641892431303859,-0.00341570959426463,-0.00797027908265591,-0.00676683383062482,-0.00930975656956434,-0.0138322515413165
380,-0.008209228515625,-0.00300450040958822,-0.0070059266872704,-0.00551013508811593,-0.0109140034765005,-0.0128925796598196
381,-0.00846920534968376,-0.00240301177836955,-0.00519752828404307,-0.00496898498386145,-0.0112825240939856,-0.0110945971682668
382,-0.00647897273302078,-0.00170001655351371,-0.0025435306597501,-0.00486301258206367,-0.0081689665094018,-0.0112707065418363
383,-0.00382033665664494,-0.00250545749440789,-0.000168545957421884,-0.0053163762204349,-0.00282209157012403,-0.0136322686448693
384,-0.00160230626352131,-0.00576250534504652,0.00104890903457999,-0.00601114612072706,0.00232823519036174,-0.0169210117310286
385,-0.000333761068759486,-0.00950184743851423,0.00082016340456903,-0.00693242438137531,0.00511302147060633,-0.0188348516821861
386,-0.000971931323874742,-0.0111268814653158,-0.00144148524850607,-0.00899886339902878,0.00361356209032238,-0.017513507977128
387,-0.0027370760217309,-0.0101932995021343,-0.0049648666754365,-0.0117740985006094,-0.00106948614120483,-0.0132007300853729
388,-0.00379160908050835,-0.00830702017992735,-0.00803892500698566,-0.0138808805495501,-0.00574712594971061,-0.00889687798917294
389,-0.00362985138781369,-0.00728080235421658,-0.0102060483768582,-0.0152620738372207,-0.00788457971066237,-0.00788795854896307
390,-0.00228448328562081,-0.00727276876568794,-0.0110315410420299,-0.0159972701221704,-0.00628682039678097,-0.00934212096035481
391,-0.000106657797005028,-0.00716611184179783,-0.0102764470502734,-0.0155897829681635,-0.00254062772728503,-0.0101069854572415
392,0.00224164966493845,-0.00624861940741539,-0.00849259737879038,-0.0139025067910552,0.00107864232268184,-0.00926226656883955
393,0.00469862530007958,-0.00488052517175674,-0.00566356815397739,-0.0107104005292058,0.00426118774339557,-0.00748646818101406
394,0.00615720078349113,-0.00431984942406416,-0.00249575288034976,-0.00687538739293814,0.00543970381841064,-0.00596255296841264
395,0.00471404148265719,-0.00524257915094495,-0.000848421186674386,-0.00493772746995091,0.00216200086288154,-0.00604972057044506
396,0.0012614019215107,-0.00630088523030281,-0.00126818800345063,-0.00598417315632105,-0.00382284983061254,-0.00747250579297543
397,-0.00155826809350401,-0.00651995465159416,-0.00295719271525741,-0.00942473951727152,-0.00795943662524223,-0.00962694548070431
398,-0.00283655151724815,-0.00654861656948924,-0.00469020707532763,-0.0140239354223013,-0.00779717974364758,-0.0120858186855912
399,-0.00257069547660649,-0.00610844092443585,-0.00520650763064623,-0.0171213820576668,-0.00411625346168876,-0.0130547741428018
400,-0.00101578363683075,-0.00504243932664394,-0.00460847234353423,-0.0171694289892912,-0.000279901723843068,-0.0121369333937764
401,0.000841092318296433,-0.00510285841301084,-0.0035501760430634,-0.0154685564339161,0.000774897227529436,-0.011460212059319
402,0.00302831525914371,-0.00716877914965153,-0.00137680245097727,-0.0123092951253057,9.53836715780199E-05,-0.0117471506819129
403,0.00577164953574538,-0.00863761641085148,0.00210166210308671,-0.00713089667260647,8.31174911581911E-05,-0.0118720456957817
404,0.00729981670156121,-0.00691152829676867,0.00449354806914926,-0.00313734402880073,-0.000315128389047459,-0.0121241351589561
405,0.00682603847235441,-0.00375519320368767,0.00407027592882514,-0.00355790788307786,-0.00269598327577114,-0.0135155254974961
406,0.00669280393049121,-0.00156687339767814,0.00242271623574197,-0.00692357821390033,-0.00512674869969487,-0.0154211558401585
407,0.00862443260848522,0.000111010122054722,0.00104656838811934,-0.0107928272336721,-0.00579658430069685,-0.0168572720140219
408,0.0114391427487135,0.00163854868151248,-0.000968464592006058,-0.0150283053517342,-0.00524886464700103,-0.0182124488055706
409,0.0131769869476557,0.00223371479660273,-0.00449347775429487,-0.019903251901269,-0.00493991933763027,-0.0198903549462557
410,0.0130081810057163,0.00216978741809726,-0.0088424663990736,-0.0242395848035812,-0.0066855177283287,-0.0213166940957308
411,0.011780115775764,0.00248168082907796,-0.0128094162791967,-0.0269646793603897,-0.0104127107188106,-0.0227053984999657
412,0.0111318398267031,0.00292928121052682,-0.0161084719002247,-0.0291364584118128,-0.0143230734393001,-0.0259593594819307
413,0.0117433024570346,0.00253397831693292,-0.0191953498870134,-0.0323470532894135,-0.0174338929355145,-0.0322102904319763
414,0.0133716398850083,0.00187863712199032,-0.0211629439145327,-0.0353102684020996,-0.0191666502505541,-0.0389482825994492
415,0.0147807449102402,0.00181907752994448,-0.0216215439140797,-0.0366612859070301,-0.0206790529191494,-0.0436128340661526
416,0.0140777286142111,0.00101386068854481,-0.0227061882615089,-0.0384468324482441,-0.0252037551254034,-0.0480854324996471
417,0.0114382784813643,-0.0012599085457623,-0.0253156889230013,-0.0418471358716488,-0.0328146554529667,-0.0541172735393047
418,0.00979157630354166,-0.00288687413558364,-0.0275006946176291,-0.0451591797173023,-0.0392741411924362,-0.059450376778841
419,0.0104356613010168,-0.00309472088702023,-0.0283455401659012,-0.0479317009449005,-0.0427074208855629,-0.0625549182295799
420,0.0116666238754988,-0.00343508785590529,-0.0285398252308369,-0.050699919462204,-0.0450804866850376,-0.064664252102375
421,0.01246596314013,-0.00378798344172537,-0.027939211577177,-0.0522666350007057,-0.0474465638399124,-0.0663708597421646
422,0.0129697863012552,-0.00306582800112665,-0.0268912725150585,-0.0520952232182026,-0.0497289337217808,-0.0674681961536407
423,0.0131739480420947,-0.00135551672428846,-0.0276217684149742,-0.0521258674561977,-0.0532654374837875,-0.0687120705842972
424,0.0125891594216228,0.000530148681718856,-0.0326967798173428,-0.0548311807215214,-0.0607485435903072,-0.0719927474856377
425,0.0110187577083707,0.00175381370354444,-0.0417020730674267,-0.0605826824903488,-0.0720479041337967,-0.0783210620284081
426,0.00876198802143335,0.0016696093371138,-0.0510734692215919,-0.0672369226813316,-0.0835930407047272,-0.0861723124980927
427,0.00569224869832397,0.000223785129492171,-0.0576721169054508,-0.0726819634437561,-0.0931199491024017,-0.0931089520454407
428,0.00241438788361847,-0.00130509457085282,-0.0603560395538807,-0.0762304067611694,-0.100083045661449,-0.0973155051469803
429,0.000305417779600248,-0.00188164983410388,-0.0602980367839336,-0.0788005962967873,-0.104347623884678,-0.0988927781581879
430,-4.48982209491078E-05,-0.00192284514196217,-0.0601915530860424,-0.08260478079319,-0.10706964880228,-0.100148074328899
431,0.00158383115194738,-0.00187433767132461,-0.061228659003973,-0.0884005501866341,-0.108519703149796,-0.102805264294147
432,0.00495635811239481,-0.00214042351581156,-0.062392421066761,-0.0946713760495186,-0.107085905969143,-0.106911025941372
433,0.00921349972486496,-0.00279871397651732,-0.0621818713843822,-0.099008284509182,-0.103105649352074,-0.111267141997814
434,0.0136577188968658,-0.00273274420760572,-0.0594368614256382,-0.0987081080675125,-0.0991491973400116,-0.113262377679348
435,0.0165645815432072,-0.00199537863954902,-0.0556137636303902,-0.0939558744430542,-0.0982796549797058,-0.111718229949474
436,0.0156543459743261,-0.00222768378444016,-0.0547921881079674,-0.089106060564518,-0.103283300995827,-0.108816489577293
437,0.0105016687884927,-0.00415851920843124,-0.0595138669013977,-0.0886751860380173,-0.113947361707687,-0.10745345056057
438,0.00401308387517929,-0.00681519322097301,-0.0674634426832199,-0.0935554578900337,-0.124916613101959,-0.108298324048519
439,0.00115947960875928,-0.00826455187052488,-0.072377011179924,-0.100659258663654,-0.128420159220696,-0.10987850278616
440,0.00238390220329165,-0.0085676172748208,-0.0722220614552498,-0.107765629887581,-0.123690083622932,-0.112316437065601
441,0.00373164447955787,-0.00891754403710365,-0.0711428076028824,-0.114217326045036,-0.11825692653656,-0.116011649370193
442,0.00461757136508822,-0.00848881807178259,-0.070670947432518,-0.117420539259911,-0.116235464811325,-0.118703432381153
443,0.00664983224123716,-0.0071209236048162,-0.0685924738645554,-0.115848831832409,-0.115127041935921,-0.119184888899326
444,0.00948272738605738,-0.00594869861379266,-0.0643153339624405,-0.110961504280567,-0.11204931885004,-0.118016622960567
445,0.0119757633656263,-0.00550375133752823,-0.0598057806491852,-0.105537846684456,-0.106923185288906,-0.116198606789112
446,0.013440621085465,-0.00577371194958687,-0.0565212294459343,-0.101090088486671,-0.101688139140606,-0.113969229161739
447,0.0144790047779679,-0.00596535392105579,-0.0536838471889496,-0.0965847298502922,-0.0973568484187126,-0.109894260764122
448,0.0158135816454887,-0.00580124882981181,-0.0502812415361404,-0.0912685394287109,-0.0930901616811752,-0.103038169443607
449,0.0170403588563204,-0.00597836170345545,-0.0454670414328575,-0.0838257148861885,-0.0874542817473412,-0.0925715491175652
450,0.0173026360571384,-0.00604383740574121,-0.0395650453865528,-0.0736937001347542,-0.0807800516486168,-0.0792961493134499
451,0.0160265099257231,-0.00373081606812775,-0.0347751118242741,-0.0646599009633064,-0.0751390233635902,-0.0671606957912445
452,0.0137412175536156,0.00119965861085802,-0.0322750993072987,-0.0600723326206207,-0.0715137720108032,-0.0589206516742706
453,0.0112830651924014,0.0059947264380753,-0.0322327986359596,-0.0591702125966549,-0.0701841190457344,-0.0540497414767742
454,0.00936969462782145,0.00911144353449345,-0.034628551453352,-0.0598149783909321,-0.0704614892601967,-0.050795279443264
455,0.00894801039248705,0.0109787546098232,-0.0378749817609787,-0.0604835711419582,-0.0703373029828072,-0.0478787422180176
456,0.00987145490944386,0.0118736261501908,-0.0396784357726574,-0.0605446919798851,-0.0690814927220345,-0.0450516119599342
457,0.0099930427968502,0.0112530756741762,-0.0400081910192966,-0.059656135737896,-0.0675950273871422,-0.0420447252690792
458,0.00763971172273159,0.00902782287448645,-0.0402332134544849,-0.0565917529165745,-0.0659440010786057,-0.0377084463834763
459,0.00465993769466877,0.00627198209986091,-0.0393169373273849,-0.0508938729763031,-0.0614743754267693,-0.0318636484444141
460,0.00412937346845865,0.00501097925007343,-0.034534465521574,-0.043690949678421,-0.0514960773289204,-0.0246640145778656
461,0.00629904819652438,0.00643676705658436,-0.0259235613048077,-0.0361620113253593,-0.0373633652925491,-0.0162018649280071
462,0.00909765996038914,0.00931382272392511,-0.0172308702021837,-0.029918247833848,-0.0240106768906116,-0.00868461839854717
463,0.0101330615580082,0.0111778611317277,-0.0125973867252469,-0.0269322488456964,-0.0167708415538073,-0.00483542215079069
464,0.0085524944588542,0.0106068598106503,-0.0124702686443925,-0.0270379576832056,-0.0163447167724371,-0.00422668689861894
465,0.00640493910759687,0.00893007125705481,-0.013370986096561,-0.0272511746734381,-0.01775923371315,-0.00302783283405006
466,0.00557070784270763,0.00875318609178066,-0.0126666221767664,-0.025225680321455,-0.0173686034977436,0.00176296511199325
467,0.0051635755226016,0.0105269057676196,-0.011099117808044,-0.0219751223921776,-0.0157489087432623,0.00861073844134808
468,0.00459734629839659,0.0129481386393309,-0.00960415694862604,-0.0188849549740553,-0.01298111025244,0.0144236329942942
469,0.00450952351093292,0.0154217574745417,-0.00712114339694381,-0.0148874474689364,-0.00796973705291748,0.019359203055501
470,0.00441871583461761,0.017525689676404,-0.00303081376478076,-0.00931735150516033,-0.00184124265797436,0.0252900514751673
471,0.00346777075901628,0.0189422499388456,0.00147824175655842,-0.00272343540564179,0.00264370045624673,0.0330690294504166
472,0.00182130141183734,0.0201891995966434,0.00486558023840189,0.00498155830428004,0.00414241617545486,0.04208654910326
473,0.000118258089059964,0.0211689490824938,0.00676774093881249,0.0132028013467789,0.0040047001093626,0.0501251593232155
474,-0.000706413993611932,0.0216175448149443,0.00846509076654911,0.0204886142164469,0.00512644974514842,0.0571440830826759
475,0.000155334113514982,0.0226921401917934,0.0107635138556361,0.0263675153255463,0.00843776948750019,0.0665609687566757
476,0.00143028795719147,0.0243991781026125,0.0126386592164636,0.0299934279173613,0.0122009133920074,0.0778808146715164
477,0.00125140405725688,0.0252094976603985,0.014006263576448,0.0307586695998907,0.0159525536000729,0.0861919596791267
478,0.000161367715918459,0.0246021542698145,0.015453583560884,0.0298850499093533,0.0206518862396479,0.0882906243205071
479,-0.000504153198562562,0.022367998957634,0.015965960919857,0.0281198900192976,0.0257567670196295,0.0836756527423859
480,-0.000175176188349724,0.0188638735562563,0.0156372077763081,0.0266903210431337,0.0302209667861462,0.0751980692148209
481,0.000865763402543962,0.0153236901387572,0.01638806425035,0.027979938313365,0.0340251177549362,0.068054772913456
482,0.00128399941604584,0.0123295076191425,0.0185167659074068,0.0321629904210567,0.0368748642504215,0.0648172646760941
483,0.000979365431703627,0.0101375421509147,0.0207446366548538,0.0368066877126694,0.0387978032231331,0.0638253092765808
484,0.000870835152454674,0.00900671724230051,0.0217180605977774,0.0396387912333012,0.040380097925663,0.063370056450367
485,0.00111348775681108,0.00915534701198339,0.0212972275912762,0.0409417115151882,0.0416746288537979,0.064445972442627
486,0.00217638118192554,0.0110158883035183,0.0215413831174374,0.0428154282271862,0.0432280898094177,0.068148285150528
487,0.00376095483079553,0.0144524574279785,0.0235501006245613,0.0465401373803616,0.0450779721140862,0.0733029916882515
488,0.00373097881674767,0.0176495742052794,0.025267044082284,0.0505991466343403,0.0449544116854668,0.0765965506434441
489,0.00147896353155375,0.0190677884966135,0.0253327284008265,0.0535474084317684,0.0417222566902637,0.0764090716838837
490,-0.000813022372312844,0.0193872321397066,0.0253226701170206,0.0570748634636402,0.0380112007260323,0.0750943720340729
491,-0.00171426369342953,0.019103555008769,0.0260841809213161,0.0610790923237801,0.0366484932601452,0.0742239058017731
492,-0.00133164855651557,0.0184510871767998,0.0275891050696373,0.0635801777243614,0.0385036170482636,0.0738857388496399
493,-0.000219396708416753,0.0182888619601727,0.0303554385900497,0.0647931322455406,0.0423076301813126,0.0750383883714676
494,0.000400545861339197,0.0179358460009098,0.0334011763334274,0.0644563362002373,0.0459495186805725,0.0774449929594994
495,-0.000211421283893287,0.0159594677388668,0.035415556281805,0.0619405284523964,0.0489671900868416,0.0801926031708717
496,-0.00144490227103233,0.0136476699262857,0.0367366038262844,0.0599535182118416,0.0514215789735317,0.0845731198787689
497,-0.00252829561941326,0.0146959135308862,0.0377408899366856,0.060974445194006,0.0526249408721924,0.0916332006454468
498,-0.00354575365781784,0.0197974015027285,0.0379975028336048,0.0629782304167748,0.0519814006984234,0.0991657301783562
499,-0.00513838184997439,0.0246911980211735,0.0371670909225941,0.0635216906666756,0.0493325255811214,0.10370771586895
500,-0.00701460428535938,0.0259629338979721,0.0355269275605679,0.0625984519720078,0.0455161519348621,0.102785691618919
501,-0.00779188051819801,0.0238838121294975,0.033757608383894,0.0607890710234642,0.0425684377551079,0.096420019865036
502,-0.00709326379001141,0.0202030073851347,0.0322665348649025,0.0588245168328285,0.0418209694325924,0.0879814475774765
503,-0.00515483599156141,0.017527099698782,0.0320965312421322,0.0584315620362759,0.0435480698943138,0.0827374458312988
504,-0.00241297599859536,0.0172479618340731,0.0341852493584156,0.0602340959012508,0.0469773486256599,0.0828925967216492
505,-0.00112731289118528,0.0176773276180029,0.0372059978544712,0.0622843652963638,0.0497046411037445,0.085071861743927
506,-0.00288026384077966,0.0178505182266235,0.0401184856891632,0.064197339117527,0.0509867146611214,0.086405836045742
507,-0.00558180967345834,0.0187470763921738,0.043376263231039,0.0675476938486099,0.0526962727308273,0.0871451199054718
508,-0.00571573153138161,0.0203360319137573,0.0466464310884476,0.0721356421709061,0.0556121617555618,0.0877273306250572
509,-0.00248257978819311,0.0213813092559576,0.0483338497579098,0.0753495395183563,0.0577513016760349,0.0878854691982269
510,0.00166339497081935,0.021006902679801,0.0473517067730427,0.0749333426356316,0.0572741627693176,0.0870953351259232
511,0.00476776994764805,0.0201469138264656,0.045083936303854,0.0724792405962944,0.0557160042226315,0.0863024666905403
512,0.00725250970572233,0.0202252790331841,0.0438161082565784,0.0711959078907967,0.0561411157250404,0.0868481248617172
513,0.00980106089264154,0.0212355423718691,0.044709388166666,0.0723476707935333,0.0595878921449184,0.0887196734547615
514,0.0116817830130458,0.0225912071764469,0.0478410162031651,0.0756144523620605,0.0641542822122574,0.0913158282637596
515,0.0114791616797447,0.0233536511659622,0.0514960959553719,0.0788764357566834,0.0670652091503143,0.0925446525216103
516,0.00871535670012236,0.0225390270352364,0.0535212643444538,0.079454317688942,0.0678138807415962,0.0900676846504211
517,0.0043181711807847,0.0200499892234802,0.0537442453205585,0.0766423717141151,0.0679368674755096,0.0845811292529106
518,-0.000305383291561157,0.0168537050485611,0.0528544038534164,0.0719527453184128,0.0674945786595345,0.0796798020601273
519,-0.00405693240463734,0.0146050043404102,0.0511671118438244,0.0679904147982597,0.0649196431040764,0.0788205936551094
520,-0.00650930311530828,0.0134290587157011,0.0486415103077888,0.0654783323407173,0.0604208186268806,0.0807875245809555
521,-0.00721753062680364,0.0121887903660536,0.0460834391415119,0.0636475682258606,0.0571649223566055,0.0811319276690483
522,-0.00571348378434777,0.0110346209257841,0.0455974936485291,0.0640708953142166,0.0576888956129551,0.0793456807732582
523,-0.00308698625303805,0.0102609600871801,0.0477557666599751,0.0692140311002731,0.0605389140546322,0.0786861404776573
524,-0.00147133343853056,0.00953990966081619,0.0507404766976833,0.0780404657125473,0.0624448210000992,0.0806922391057014
525,-0.00182898202911019,0.00967264361679554,0.052502978593111,0.085641622543335,0.0614310316741467,0.0839403867721558
526,-0.00404554046690464,0.0108104757964611,0.0520361363887787,0.0868196487426758,0.0570446364581585,0.0849984511733055
527,-0.00770200556144118,0.011561943218112,0.0495392233133316,0.0803877636790276,0.0506946705281734,0.0819337964057922
528,-0.0110272355377674,0.0121896537020803,0.0464055798947811,0.0702164396643639,0.0455335527658463,0.0775110423564911
529,-0.0117795215919614,0.0136950947344303,0.0442872121930122,0.0611120723187923,0.0437431894242764,0.0746703371405602
530,-0.00997133832424879,0.0150407198816538,0.0431958772242069,0.0548688061535358,0.0452317036688328,0.072508379817009
531,-0.00710490951314569,0.0157714337110519,0.0425919182598591,0.0521781779825687,0.0483916848897934,0.0703436583280563
532,-0.0046671936288476,0.0173918660730124,0.0428331457078457,0.0535520017147064,0.0509750880300999,0.0697244629263878
533,-0.00416225334629416,0.0191691927611828,0.0427060127258301,0.0562317930161953,0.0512587502598763,0.0700145736336708
534,-0.00481885671615601,0.0191304665058851,0.0405869856476784,0.0571360252797604,0.0494193658232689,0.0695130825042725
535,-0.0039671934209764,0.0182498246431351,0.0378094129264355,0.0573798976838589,0.0476039461791515,0.0697829276323318
536,-0.00167818646878004,0.0177675634622574,0.0364649035036564,0.0592213273048401,0.0471957549452782,0.0726259350776672
537,4.5444267016137E-05,0.0163638889789581,0.0370559506118298,0.062846802175045,0.0479171760380268,0.0769258737564087
538,0.00137802714016289,0.0133997052907944,0.0398017838597298,0.0677368715405464,0.0501455180346966,0.0801715329289436
539,0.00250769406557083,0.0114091858267784,0.0439332947134972,0.072116382420063,0.0537069439888,0.079824410378933
540,0.00164969160687178,0.0117984069511294,0.0466394573450089,0.0728197023272514,0.0559515208005905,0.0746232345700264
541,-0.00154032139107585,0.0126816025003791,0.0464221425354481,0.0696531012654305,0.0548953488469124,0.0669121369719505
542,-0.00569259654730558,0.0126958824694157,0.044189378619194,0.0647767260670662,0.0510470606386662,0.0607845671474934
543,-0.00952639803290367,0.01196198631078,0.0414678864181042,0.0595153085887432,0.0469262935221195,0.0577047355473042
544,-0.0121040074154735,0.0111590791493654,0.0394659638404846,0.0552039369940758,0.0451053269207478,0.0569570921361446
545,-0.0135211134329438,0.0109945675358176,0.0380000732839108,0.0529715418815613,0.0449294559657574,0.0577382519841194
546,-0.0138292368501425,0.0112371873110533,0.0370680578052998,0.0528224222362041,0.044839046895504,0.0590259619057179
547,-0.0134723829105496,0.0104972030967474,0.0370032265782356,0.0533315539360046,0.0444289296865463,0.0589380078017712
548,-0.0136086568236351,0.00828466191887856,0.0368962623178959,0.0537216067314148,0.0432428531348705,0.0571396313607693
549,-0.0140691036358476,0.0056633991189301,0.0358991473913193,0.0546277463436127,0.0412850305438042,0.0550714321434498
550,-0.0141200115904212,0.00334699335508049,0.0342334620654583,0.0554013215005398,0.0392875038087368,0.0532137155532837
551,-0.01311503816396,0.00222774501889944,0.0332168713212013,0.0553704872727394,0.0386784747242928,0.0527427867054939
552,-0.0112841418012977,0.00273305573500693,0.0334004983305931,0.0545835308730602,0.0396921820938587,0.0544842854142189
553,-0.0105417324230075,0.00371211068704724,0.0334451012313366,0.0526181571185589,0.0408424772322178,0.0564636066555977
554,-0.0112719144672155,0.00437109591439366,0.0326078124344349,0.0496595352888107,0.0417524166405201,0.0569770187139511
555,-0.0115813817828894,0.00451755523681641,0.0313980765640736,0.0461886934936047,0.0431735701858997,0.0561807565391064
556,-0.0108112301677465,0.00390038755722344,0.0303762201219797,0.0433382354676723,0.0451628342270851,0.0552157461643219
557,-0.00963567662984133,0.0031661638058722,0.0301620904356241,0.0433158576488495,0.046115979552269,0.0551927201449871
558,-0.00847974605858326,0.00271448702551425,0.0304533373564482,0.045290257781744,0.0446288473904133,0.0545588992536068
559,-0.00767224188894033,0.00241331849247217,0.0302127581089735,0.0463065952062607,0.042104996740818,0.0515834130346775
560,-0.00791034754365683,0.00269880355335772,0.0290612261742353,0.0459977611899376,0.0397339463233948,0.0476129837334156
561,-0.00948663055896759,0.003400266636163,0.0269999001175165,0.0452578142285347,0.036738745868206,0.0441934391856194
562,-0.0112567432224751,0.00368031021207571,0.0248027052730322,0.0445122458040714,0.0336757004261017,0.0419972911477089
563,-0.0124227907508612,0.00282868929207325,0.0235153008252382,0.0433228686451912,0.0324370414018631,0.0407831110060215
564,-0.012947641313076,0.00133661273866892,0.0238167140632868,0.041014701128006,0.0336218066513538,0.0398505032062531
565,-0.0129044400528073,0.00049050961388275,0.0256527792662382,0.0379017181694508,0.0353733710944653,0.0391415096819401
566,-0.0124261118471622,0.00103940034750849,0.0285253636538982,0.0357360653579235,0.0361268222332001,0.0394572913646698
567,-0.0111098494380713,0.00278280186466873,0.032091960310936,0.0367567725479603,0.0360595211386681,0.0418629869818687
568,-0.00909743923693895,0.00396604835987091,0.0346549339592457,0.0406172089278698,0.0346743725240231,0.0446493402123451
569,-0.00731829833239317,0.00248670880682766,0.034401748329401,0.0438241064548492,0.0321344956755638,0.0434064082801342
570,-0.00617171637713909,-0.00234400224871933,0.0316761285066605,0.0438438542187214,0.0299290120601654,0.0372804179787636
571,-0.00505415163934231,-0.00842028763145208,0.0284145046025515,0.0428436733782291,0.0283876229077578,0.0317574813961983
572,-0.00361739285290241,-0.0113947754725814,0.025970995426178,0.0428087338805199,0.0267462134361267,0.0305406842380762
573,-0.00268707307986915,-0.00999459344893694,0.0232148319482803,0.0410024635493755,0.0242901649326086,0.03096286021173
574,-0.00286422111093998,-0.00747921038419008,0.0188188645988703,0.0365101881325245,0.0212235730141401,0.0310006998479366
575,-0.00359784788452089,-0.00561584392562509,0.0144196385517716,0.03305559232831,0.0187830124050379,0.0320836640894413
576,-0.00482733082026243,-0.00409795017912984,0.0115264067426324,0.0315385423600674,0.0166197679936886,0.0333520583808422
577,-0.00688047101721168,-0.00346134533174336,0.00902234390377998,0.0287025198340416,0.013681186363101,0.0312560610473156
578,-0.00885289628058672,-0.00351803144440055,0.00640549696981907,0.0237190127372742,0.0114190969616175,0.0257885847240686
579,-0.00924991630017757,-0.00295721413567662,0.00506147462874651,0.0192085858434439,0.0111892456188798,0.0208269767463207
580,-0.0078371362760663,-0.0020685454364866,0.00543427234515548,0.0165202915668488,0.0119270319119096,0.0182109382003546
581,-0.0058625522069633,-0.00234353565610945,0.00660832645371556,0.0152718229219317,0.0132696479558945,0.0168729443103075
582,-0.00453633582219481,-0.00385663798078895,0.00834128353744745,0.0158551819622517,0.0159791465848684,0.0162220280617476
583,-0.00429050531238317,-0.00555073004215956,0.0105358408764005,0.0178717821836472,0.0191266313195229,0.0169874578714371
584,-0.00467478623613715,-0.00611223792657256,0.0127264941111207,0.0199496857821941,0.0209792666137218,0.0205554608255625
585,-0.00488023227080703,-0.004804661963135,0.0150830931961536,0.0216670967638493,0.0211109183728695,0.0265963189303875
586,-0.00471640005707741,-0.00245950813405216,0.0177035015076399,0.0225414000451565,0.0196901354938746,0.0317314229905605
587,-0.00417154049500823,-0.000117045412480365,0.0200035367161036,0.0222424138337374,0.0176017303019762,0.0333550199866295
588,-0.00263073714450002,0.00213188165798783,0.0216062534600496,0.0215537454932928,0.0169025231152773,0.0319180972874165
589,-0.000266997463768348,0.00398728111758828,0.0221967305988073,0.021295128390193,0.0176022611558437,0.0282012969255447
590,0.00120802794117481,0.00408944860100746,0.0214591920375824,0.0209280457347631,0.0181247964501381,0.0219816565513611
591,6.48135464871302E-05,0.00130249676294625,0.0192282199859619,0.0185145232826471,0.0178081355988979,0.0135666960850358
592,-0.00327901053242385,-0.00252460967749357,0.0163365863263607,0.014395977370441,0.0168331284075975,0.00597944436594844
593,-0.00665208417922258,-0.00459116650745273,0.0140452729538083,0.0112073021009564,0.0155601873993874,0.00214548874646425
594,-0.00893355626612902,-0.00471006007865071,0.0126810409128666,0.0102292420342565,0.0138239841908216,0.00168129941448569
595,-0.0108394334092736,-0.00424908567219973,0.0123851457610726,0.011670152656734,0.0110295815393329,0.00329741556197405
596,-0.0132279004901648,-0.00477389246225357,0.0121859004721045,0.0149709563702345,0.00622753240168095,0.0061394008807838
597,-0.0151338335126638,-0.00643230183050036,0.0109073491767049,0.0192981939762831,0.000378670869395137,0.00992219615727663
598,-0.0149458916857839,-0.00806315708905458,0.00984649173915386,0.0237011946737766,-0.00314976368099451,0.0139704579487443
599,-0.0127538526430726,-0.00972240604460239,0.0113096525892615,0.0267581101506948,-0.00263002444989979,0.0158209856599569
600,-0.0100001720711589,-0.0114210899919271,0.0151516310870647,0.0269721895456314,3.12487209157553E-05,0.0129215260967612
601,-0.00749698234722018,-0.0113349622115493,0.0187651310116053,0.0235953647643328,0.00265159155242145,0.00615821033716202
602,-0.00526233995333314,-0.00864067766815424,0.0199601538479328,0.0181867238134146,0.00474439701065421,-0.000243433547439054
603,-0.00439214427024126,-0.00508101470768452,0.0174625385552645,0.0123605150729418,0.00514014577493072,-0.00391439627856016
604,-0.0055894204415381,-0.00244095921516418,0.0120291793718934,0.00709268311038613,0.00305338902398944,-0.00498249568045139
605,-0.00723755173385143,-0.000922832929063588,0.00685049686580896,0.00451654521748424,0.000258982239756733,-0.00328629231080413
606,-0.00821222644299269,-0.000224905394134112,0.0032206978648901,0.00445019826292992,-0.0020420893561095,0.000106358653283678
607,-0.00922464393079281,-0.000425499776611105,0.000194162363186479,0.00368319661356509,-0.00484733050689101,0.00232167611829937
608,-0.0101784318685532,-0.00125763274263591,-0.0020531858317554,0.000943022547289729,-0.00783036462962627,0.0010157770011574
609,-0.010235695168376,-0.00237865862436593,-0.00323525140993297,-0.00278018368408084,-0.009881891310215,-0.00399368163198233
610,-0.00957956630736589,-0.00364596955478191,-0.00337967439554632,-0.00560414232313633,-0.0120033249258995,-0.0105429505929351
611,-0.00861360505223274,-0.0051931575872004,-0.00192208588123322,-0.00653955293819308,-0.0147616118192673,-0.0178796872496605
612,-0.00767388846725225,-0.0078895092010498,-0.000499791465699673,-0.00843627471476793,-0.0173998363316059,-0.0276345554739237
613,-0.00721834134310484,-0.0112335653975606,-0.00209687184542418,-0.0135047556832433,-0.0197676029056311,-0.0379233062267303
614,-0.0072933197952807,-0.0129543095827103,-0.00682716118171811,-0.0199409425258636,-0.0223016291856766,-0.0443922057747841
615,-0.00709962705150247,-0.0112255392596126,-0.0122756995260715,-0.0253832153975964,-0.0252131652086973,-0.0456755422055721
616,-0.00567148765549064,-0.00634418753907084,-0.0164834018796682,-0.0293015111237764,-0.0281063802540302,-0.0439134240150452
617,-0.00342731224372983,-0.00135607132688165,-0.0192335769534111,-0.0327458642423153,-0.0308384858071804,-0.0431551411747932
618,-0.00181293534114957,0.00102254853118211,-0.0208567753434181,-0.0356658920645714,-0.0343257486820221,-0.0454890578985214
619,-0.00183400954119861,0.000367174099665135,-0.0221050772815943,-0.0373249426484108,-0.0396318398416042,-0.0504041351377964
620,-0.00326886982657015,-0.00300456071272492,-0.0244432426989079,-0.0395266003906727,-0.0464895814657211,-0.0574826002120972
621,-0.0045334012247622,-0.00774546386674047,-0.0280551854521036,-0.0445057526230812,-0.0533952638506889,-0.0657516568899155
622,-0.0042918911203742,-0.0114276520907879,-0.0316850729286671,-0.0515703558921814,-0.059682946652174,-0.0731287077069283
623,-0.00345265911892056,-0.0130167780444026,-0.0348908826708794,-0.0584992580115795,-0.0669756084680557,-0.0787194818258286
624,-0.00358932511880994,-0.0135383689776063,-0.0384766235947609,-0.0647144839167595,-0.0765905231237412,-0.0844549760222435
625,-0.00428558234125376,-0.0138047086074948,-0.0424487665295601,-0.0708660781383514,-0.0862827226519585,-0.0921466201543808
626,-0.00425620889291167,-0.0135212251916528,-0.0453051216900349,-0.0762941315770149,-0.0923221185803413,-0.100019976496696
627,-0.00395412836223841,-0.0129031101241708,-0.0463589765131474,-0.079412080347538,-0.0946376025676727,-0.104645699262619
628,-0.00463077472522855,-0.0136144906282425,-0.0464541167020798,-0.0803911909461021,-0.0964157804846764,-0.106549113988876
629,-0.00559993274509907,-0.0162187181413174,-0.0464200563728809,-0.0812482684850693,-0.0997249707579613,-0.110088989138603
630,-0.00519522512331605,-0.0188888125121593,-0.0471562892198563,-0.0839529410004616,-0.105011276900768,-0.117800556123257
631,-0.00312969228252769,-0.0204207077622414,-0.0495409853756428,-0.0898616537451744,-0.111677445471287,-0.129371255636215
632,-0.000346993008861318,-0.0214857663959265,-0.0529906675219536,-0.0990234613418579,-0.117769278585911,-0.143651455640793
633,0.00212036399170756,-0.023821709677577,-0.0567598789930344,-0.110988236963749,-0.121584877371788,-0.159899011254311
634,0.00431540654972196,-0.0280150827020407,-0.0608301274478436,-0.124657608568668,-0.122172944247723,-0.176972955465317
635,0.00666690757498145,-0.0321292728185654,-0.0645087212324142,-0.136470317840576,-0.119598671793938,-0.191625505685806
636,0.00932876206934452,-0.0344277992844582,-0.0668289810419083,-0.142559200525284,-0.115331023931503,-0.201084688305855
637,0.0131193362176418,-0.0354168862104416,-0.0677651539444923,-0.143298149108887,-0.11073512583971,-0.207562521100044
638,0.0178103931248188,-0.037038192152977,-0.068186841905117,-0.143342703580856,-0.106900528073311,-0.216342344880104
639,0.0213291626423597,-0.0398412309587002,-0.068874217569828,-0.146369218826294,-0.105003535747528,-0.228520706295967
640,0.0224939025938511,-0.0421321392059326,-0.0704886242747307,-0.152848035097122,-0.105952210724354,-0.240620002150536
641,0.0225116983056068,-0.0426208637654781,-0.0725785419344902,-0.160703137516975,-0.108172804117203,-0.250005781650543
642,0.0227868873625994,-0.0416435524821281,-0.0735655277967453,-0.166727587580681,-0.108418203890324,-0.256087332963943
643,0.0232869684696198,-0.0409333221614361,-0.0732861310243607,-0.169418096542358,-0.105781227350235,-0.258793383836746
644,0.0241598580032587,-0.0424708984792233,-0.0722897723317146,-0.168560177087784,-0.100527361035347,-0.2580586373806
645,0.0244933981448412,-0.0456667728722095,-0.0717830136418343,-0.166063874959946,-0.0949924439191818,-0.255823045969009
646,0.0230374895036221,-0.0472173765301704,-0.0729512274265289,-0.1658596098423,-0.0926232859492302,-0.255922228097916
647,0.0213453248143196,-0.0464411973953247,-0.0741920918226242,-0.168264016509056,-0.0922230109572411,-0.26017227768898
648,0.0211565289646387,-0.0457047745585442,-0.073274053633213,-0.169448882341385,-0.0907020047307014,-0.266324579715729
649,0.0219790488481522,-0.046214185655117,-0.0709167793393135,-0.16797100007534,-0.0881148055195808,-0.271209180355072
650,0.0227571073919535,-0.047262366861105,-0.0693030804395676,-0.165704682469368,-0.086012177169323,-0.272365868091583
651,0.0237885545939207,-0.0464804843068123,-0.0680757462978363,-0.162238374352455,-0.0840118825435638,-0.26682922244072
652,0.0249960534274578,-0.0434646494686604,-0.0660503283143044,-0.156582564115524,-0.0809726715087891,-0.256730228662491
653,0.0251061674207449,-0.0410847403109074,-0.0635083615779877,-0.150447681546211,-0.0770468562841415,-0.248477071523666
654,0.0242790710180998,-0.0403276197612286,-0.0603120587766171,-0.144370257854462,-0.0730350613594055,-0.242270424962044
655,0.0233012568205595,-0.039800014346838,-0.0561329759657383,-0.137375250458717,-0.0698494836688042,-0.233940005302429
656,0.0224271081387997,-0.0389019511640072,-0.0507905259728432,-0.129658684134483,-0.0664335861802101,-0.223567008972168
657,0.0216752644628286,-0.0379256419837475,-0.0452557988464832,-0.122320920228958,-0.0612908639013767,-0.215536937117577
658,0.0208038240671158,-0.037454891949892,-0.0418419614434242,-0.116206474602222,-0.0555901788175106,-0.21269516646862
659,0.0205907076597214,-0.0376888550817966,-0.0404452756047249,-0.111313216388226,-0.0499916300177574,-0.212878122925758
660,0.0215053800493479,-0.0380818136036396,-0.0392677038908005,-0.10744122415781,-0.044102244079113,-0.212521061301231
661,0.0226322673261166,-0.0378205850720406,-0.0376628562808037,-0.103653617203236,-0.0373992137610912,-0.209401547908783
662,0.0232622120529413,-0.0366153903305531,-0.0360498987138271,-0.0988919213414192,-0.0296339336782694,-0.201204150915146
663,0.0233668573200703,-0.0345547832548618,-0.0346474945545197,-0.0932910069823265,-0.0220812801271677,-0.185972169041634
664,0.0227098595350981,-0.0314165018498898,-0.0328329689800739,-0.0877451226115227,-0.0156819317489862,-0.165478825569153
665,0.0209093391895294,-0.0271081440150738,-0.030145388096571,-0.0825405791401863,-0.0106730032712221,-0.144032210111618
666,0.0187888033688068,-0.0223461650311947,-0.026148309931159,-0.0752778872847557,-0.00710480147972703,-0.122901149094105
667,0.0169960148632526,-0.0183284357190132,-0.0216530002653599,-0.0652674436569214,-0.005707997828722,-0.103553965687752
668,0.0145377302542329,-0.0152077972888947,-0.0192932039499283,-0.0578648075461388,-0.00803673639893532,-0.0912730246782303
669,0.0115002263337374,-0.011819732375443,-0.0192753914743662,-0.0559441521763802,-0.0120465494692326,-0.086807057261467
670,0.00941555202007294,-0.00781428441405296,-0.0191462878137827,-0.0551841594278812,-0.0130939241498709,-0.0840299054980278
671,0.00846654735505581,-0.00478981854394078,-0.0181006900966167,-0.0522505342960358,-0.010046754963696,-0.0789202898740768
672,0.00810165144503117,-0.00381149351596832,-0.0166192371398211,-0.0472695045173168,-0.00430780835449696,-0.0714274048805237
673,0.00738542387261987,-0.00405463296920061,-0.0149412238970399,-0.0405392721295357,0.00224369671195745,-0.0614370331168175
674,0.00556088890880346,-0.00424538645893335,-0.012893496081233,-0.0323171876370907,0.00810882914811373,-0.0487860441207886
675,0.00402352726086974,-0.00348453526385129,-0.0096253827214241,-0.0234084203839302,0.0135965803638101,-0.035275936126709
676,0.00380722107365727,-0.00161636620759964,-0.00547352852299809,-0.0152003653347492,0.0175238084048033,-0.0240272507071495
677,0.00387474149465561,0.000769615231547505,-0.00190243392717093,-0.00841001234948635,0.0178967099636793,-0.016620984300971
678,0.00264287972822785,0.00190513371489942,0.000121630990179256,-0.0031655253842473,0.0162537712603807,-0.0132246995344758
679,5.07280747115146E-05,0.00101974792778492,0.00163038657046855,0.00171338487416506,0.0156421661376953,-0.012530186213553
680,-0.00205989694222808,-6.95534763508476E-05,0.00491453800350428,0.00841432437300682,0.0173808131366968,-0.0114177223294973
681,-0.00337841873988509,-0.000468991609523073,0.00898456387221813,0.0154078314080834,0.0206417664885521,-0.00866246968507767
682,-0.0054372102022171,-0.000384729792131111,0.0107108131051064,0.0197012461721897,0.0235693883150816,-0.00431639421731234
683,-0.00842438824474812,0.00123735202942044,0.00966325867921114,0.0222362019121647,0.0255050845444202,0.00491181388497353
684,-0.0103259310126305,0.00593474134802818,0.0085515882819891,0.0259288232773542,0.0283785853534937,0.0239441134035587
685,-0.0100752664729953,0.0128335515037179,0.00935890432447195,0.0314400754868984,0.0333706624805927,0.0509628280997276
686,-0.0096943536773324,0.0184010677039623,0.0110592031851411,0.0364845171570778,0.0382997430860996,0.0752319619059563
687,-0.0110713746398687,0.0205601919442415,0.0124584343284369,0.0395252965390682,0.0410949252545834,0.0876351892948151
688,-0.013198091648519,0.0204409379512072,0.0138571821153164,0.0415291339159012,0.0421299897134304,0.0882789194583893
689,-0.0135198524221778,0.0206004772335291,0.0157491005957127,0.0434645339846611,0.042548656463623,0.0825371965765953
690,-0.0111056733876467,0.0225005820393562,0.0176068246364594,0.0446050427854061,0.0426991246640682,0.0750264525413513
691,-0.00785850081592798,0.0245654992759228,0.018652668222785,0.0445066876709461,0.0425687246024609,0.0685838609933853
692,-0.00610119709745049,0.0243898015469313,0.0197548437863588,0.0454888120293617,0.0427601784467697,0.0661554411053658
693,-0.0058980486355722,0.0215731933712959,0.022432554513216,0.0502887777984142,0.0445208661258221,0.0704518184065819
694,-0.00563665945082903,0.0171513967216015,0.0267181154340506,0.0589836239814758,0.0483799837529659,0.0807582661509514
695,-0.0047402367927134,0.0139051899313927,0.0308060646057129,0.0679300054907799,0.0526783801615238,0.0912955030798912
696,-0.0040230737067759,0.0144387008622289,0.0326287448406219,0.0722094550728798,0.0554395355284214,0.0965224131941795
697,-0.0039397026412189,0.0170789305120707,0.0323380567133427,0.0716165155172348,0.0570941045880318,0.0971315652132034
698,-0.0042212326079607,0.0188440792262554,0.0317104607820511,0.0703525543212891,0.0586252696812153,0.0979191735386848
699,-0.00468891905620694,0.0197006147354841,0.0315712317824364,0.0711140111088753,0.0596731305122375,0.101614192128181
700,-0.0060279369354248,0.020652225241065,0.0317912101745605,0.0731337517499924,0.059827659279108,0.106586091220379
701,-0.00915144104510546,0.0217162873595953,0.0317035317420959,0.0741695910692215,0.0581483840942383,0.109994672238827
702,-0.0131631698459387,0.0227043684571981,0.0303748212754726,0.0727009028196335,0.053689431399107,0.110472023487091
703,-0.0161046870052814,0.023754833266139,0.0284342654049397,0.0698779374361038,0.0479498095810413,0.109509713947773
704,-0.0176466982811689,0.0244785007089376,0.0273836068809032,0.0680860206484795,0.04317532107234,0.110403813421726
705,-0.0179627146571875,0.0244840011000633,0.0285926852375269,0.0683992877602577,0.0414930954575539,0.114597775042057
706,-0.0169274490326643,0.0243893098086119,0.0327568128705025,0.0713547542691231,0.0445658937096596,0.121382869780064
707,-0.0161108858883381,0.0239142682403326,0.0377392619848251,0.0764221101999283,0.0501215271651745,0.128273472189903
708,-0.0172315556555986,0.0217564385384321,0.0408115908503532,0.0813969895243645,0.0541148148477077,0.131459936499596
709,-0.0194182507693768,0.0183463506400585,0.0420326925814152,0.084496334195137,0.0554516576230526,0.128712624311447
710,-0.0212798248976469,0.015562579035759,0.0421480126678944,0.0850938111543655,0.0549728460609913,0.121655754745007
711,-0.022283036261797,0.0149745177477598,0.0417553633451462,0.0842058137059212,0.0543558560311794,0.116078108549118
712,-0.021909061819315,0.016926322132349,0.042096633464098,0.0840665996074677,0.0554307922720909,0.11740180850029
713,-0.0211304500699043,0.0196206048130989,0.0431406125426292,0.0856603235006332,0.0583974085748196,0.124666690826416
714,-0.0216040350496769,0.0209050737321377,0.0440149120986462,0.0894105806946754,0.0618044249713421,0.132914081215858
715,-0.0224356167018414,0.0208748131990433,0.0445492118597031,0.0951305106282234,0.0638005211949348,0.13903135061264
716,-0.0214039757847786,0.0212447848170996,0.045083824545145,0.10042666643858,0.0639710202813149,0.142840549349785
717,-0.0182577576488256,0.0230819247663021,0.0463077463209629,0.103374846279621,0.0638978853821754,0.144945085048676
718,-0.0147995259612799,0.0251899305731058,0.0476077608764172,0.103414289653301,0.0643980726599693,0.144453585147858
719,-0.0126424040645361,0.025736877694726,0.0475167632102966,0.101086422801018,0.0645025670528412,0.14210245013237
720,-0.0114689348265529,0.0242694206535816,0.0468964204192162,0.100313432514668,0.0643874555826187,0.14285896718502
721,-0.0111155295744538,0.0217492338269949,0.0468354374170303,0.103141158819199,0.063767708837986,0.147716969251633
722,-0.0128737166523933,0.0199824087321758,0.0459109917283058,0.104620359838009,0.0599426366388798,0.150448873639107
723,-0.0170978624373674,0.019267475232482,0.0431387163698673,0.100463449954987,0.0518193207681179,0.148516997694969
724,-0.02191979624331,0.0183936823159456,0.0399672165513039,0.0926377549767494,0.0430438332259655,0.145570412278175
725,-0.0242148619145155,0.0174276847392321,0.0384139269590378,0.0862583741545677,0.0390570648014545,0.143361449241638
726,-0.0224271714687347,0.0173637438565493,0.0388687290251255,0.0840575248003006,0.0408818870782852,0.140579491853714
727,-0.018135404214263,0.0177409593015909,0.0400330647826195,0.0842787101864815,0.0443580262362957,0.136487051844597
728,-0.0132892895489931,0.0175203364342451,0.0408117212355137,0.0852707251906395,0.0468397624790668,0.131906598806381
729,-0.00880256295204163,0.0168525762856007,0.0407021231949329,0.0865148305892944,0.0490433983504772,0.127680540084839
730,-0.00619885278865695,0.0164880342781544,0.0394475609064102,0.0865567028522491,0.0511342585086823,0.123970232903957
731,-0.00596155598759651,0.0174094419926405,0.037622194737196,0.0848173424601555,0.0534827746450901,0.121108159422874
732,-0.00655588554218411,0.0195299834012985,0.0363203063607216,0.0830463469028473,0.056980088353157,0.119750902056694
733,-0.00703137507662177,0.0209398195147514,0.0362182334065437,0.0836226269602776,0.0610249191522598,0.119633264839649
734,-0.00810161978006363,0.0206432323902845,0.0363156497478485,0.0868678018450737,0.0633979514241219,0.119418740272522
735,-0.0102106649428606,0.019806906580925,0.0358296371996403,0.0907690152525902,0.0633346438407898,0.118959367275238
736,-0.0120120635256171,0.0195144712924957,0.0360285863280296,0.0928992331027985,0.0623108893632889,0.119191661477089
737,-0.0121028795838356,0.0196525752544403,0.0372936651110649,0.0921107828617096,0.0601364225149155,0.119815565645695
738,-0.0103006875142455,0.0201241821050644,0.0385321266949177,0.0890643671154976,0.0568857826292515,0.120406620204449
739,-0.00782208703458309,0.0207451824098825,0.0386964045464993,0.0849243849515915,0.0542009063065052,0.121477648615837
740,-0.00640878034755588,0.0211357660591602,0.0376814492046833,0.0810392647981644,0.0524167194962502,0.123120240867138
741,-0.00585093954578042,0.0216136537492275,0.0371836386620998,0.0795897543430328,0.0523466020822525,0.12473026663065
742,-0.00537742767482996,0.021996796131134,0.0381535217165947,0.0816407725214958,0.054584164172411,0.125244915485382
743,-0.00552347488701344,0.0220628809183836,0.0392987690865994,0.0860086902976036,0.0574584528803825,0.124070771038532
744,-0.00727477995678782,0.0218593664467335,0.0388183519244194,0.0895406603813171,0.0585819147527218,0.120352998375893
745,-0.0106685068458319,0.0211440417915583,0.0367980189621449,0.0894384905695915,0.0572015307843685,0.113210618495941
746,-0.0141106136143208,0.0200312454253435,0.0352206639945507,0.0860002860426903,0.0551148094236851,0.104560725390911
747,-0.016530679538846,0.017554797232151,0.034753929823637,0.0820352807641029,0.053674079477787,0.098998986184597
748,-0.0173112787306309,0.0137751903384924,0.0354328937828541,0.080843910574913,0.0533609576523304,0.100211374461651
749,-0.0164848323911428,0.0117812464013696,0.0370623171329498,0.0815612077713013,0.0540570430457592,0.105700388550758
750,-0.0161479841917753,0.013320779427886,0.0375240109860897,0.0800860449671745,0.0539140626788139,0.108858391642571
751,-0.0176207404583693,0.0167432092130184,0.0352788791060448,0.0759881213307381,0.0515619441866875,0.107520930469036
752,-0.0198130067437887,0.0196246337145567,0.0317717455327511,0.0723292380571365,0.0479943603277206,0.105325937271118
753,-0.0210579037666321,0.0202893801033497,0.0296960473060608,0.0706473961472511,0.0457598976790905,0.105414383113384
754,-0.0207361504435539,0.0187064092606306,0.0300862956792116,0.0699614658951759,0.0449081994593143,0.106797523796558
755,-0.0195484925061464,0.0163884721696377,0.0318822897970676,0.0688830018043518,0.0426886603236198,0.106718555092812
756,-0.0184628739953041,0.0139976115897298,0.0332705341279507,0.0665911883115768,0.0388737842440605,0.103696532547474
757,-0.0180402882397175,0.0108293183147907,0.0329794846475124,0.0632812678813934,0.0348433777689934,0.0981712192296982
758,-0.0179281122982502,0.00716897938400507,0.0315747745335102,0.0601791739463806,0.0314413420855999,0.091871403157711
759,-0.0166694838553667,0.00487618148326874,0.0304872803390026,0.0582139417529106,0.0301346424967051,0.0864550992846489
760,-0.013833929784596,0.00464301882311702,0.0300818812102079,0.0571858622133732,0.0313706733286381,0.0824095159769058
761,-0.0109286569058895,0.00545815285295248,0.030042702332139,0.0568123236298561,0.0335922725498676,0.0798175558447838
762,-0.00932902935892344,0.00683796359226108,0.0302611459046602,0.0572038106620312,0.0353454351425171,0.0791696608066559
763,-0.00946419686079025,0.00850736629217863,0.0306094884872437,0.0580022819340229,0.036641176789999,0.0804812535643578
764,-0.0107324020937085,0.00948520004749298,0.0307181756943464,0.0586623959243298,0.0377185754477978,0.0827485024929047
765,-0.0112773152068257,0.00912515446543694,0.030431404709816,0.0590533949434757,0.0379026271402836,0.0842162370681763
766,-0.0101165156811476,0.0077762408182025,0.0296093169599772,0.0588541738688946,0.0363050438463688,0.0828215777873993
767,-0.00869455002248287,0.0061088097281754,0.0276295840740204,0.0569198168814182,0.032780546694994,0.0783912315964699
768,-0.00856657791882753,0.00417668977752328,0.0243670791387558,0.0528694838285446,0.0284221321344376,0.0736672431230545
769,-0.00888839084655046,0.00292226322926581,0.021523030474782,0.0493022538721561,0.0258699618279934,0.0717213526368141
770,-0.00861005112528801,0.00358892185613513,0.0202136337757111,0.0484433993697166,0.0265856981277466,0.0721461996436119
771,-0.00833073910325766,0.00467487704008818,0.019166000187397,0.0488494783639908,0.0293335188180208,0.0718223452568054
772,-0.00784685462713242,0.00418991968035698,0.01804712228477,0.048862162977457,0.0331872403621674,0.0704407021403313
773,-0.00591357937082648,0.00298284669406712,0.0187192428857088,0.0499690286815166,0.0382416471838951,0.0710276886820793
774,-0.00356666883453727,0.00326619786210358,0.0210131108760834,0.0518777184188366,0.0423376187682152,0.0743486657738686
775,-0.00318145449273288,0.00553531758487225,0.0222158804535866,0.050000011920929,0.0418113395571709,0.0772277340292931
776,-0.00478916289284825,0.00797094590961933,0.021277729421854,0.043371606618166,0.0369654968380928,0.0763359218835831
777,-0.00696618296205997,0.0090755196288228,0.0189219508320093,0.0358910076320171,0.0310970805585384,0.0710985735058784
778,-0.00845538079738617,0.00954461190849543,0.0165101103484631,0.0312873423099518,0.0261035300791264,0.0649780109524727
779,-0.00880606193095446,0.0100603913888335,0.0150294909253716,0.030445383861661,0.0226959269493818,0.0613498389720917
780,-0.0083623081445694,0.00984197203069925,0.0148053644225001,0.0318052247166634,0.02178387157619,0.0591732077300549
781,-0.00781519711017609,0.00827195309102535,0.0157917253673077,0.0340707451105118,0.022976066917181,0.0565648935735226
782,-0.0081592183560133,0.00542329577729106,0.016351668164134,0.0356074012815952,0.0240720696747303,0.052861150354147
783,-0.00907333195209503,0.00277510657906532,0.0161387138068676,0.0357556194067001,0.0248485878109932,0.0491231456398964
784,-0.00940392352640629,0.00249131279997528,0.0170499514788389,0.0365857779979706,0.0268599074333906,0.0486110784113407
785,-0.00952383782714605,0.0040837274864316,0.0186466965824366,0.0388441011309624,0.0284493882209063,0.0522079132497311
786,-0.00962661113590002,0.00563076743856072,0.0192749686539173,0.0409136265516281,0.0266313590109348,0.0565433725714684
787,-0.0088415713980794,0.00644862744957209,0.0189419612288475,0.0412712804973125,0.0218141861259937,0.0581224597990513
788,-0.00786260608583689,0.0060620722360909,0.0177191086113453,0.039191123098135,0.0161638278514147,0.0566826984286308
789,-0.00763691961765289,0.00408980855718255,0.0158817116171122,0.0354833640158176,0.0120354108512402,0.0537332706153393
790,-0.00827843137085438,0.00118653371464461,0.0133634656667709,0.0310907419770956,0.0100171528756619,0.0497422739863396
791,-0.00936595629900694,-0.00049280293751508,0.0100884614512324,0.0264692604541779,0.00913263484835625,0.0452879518270493
792,-0.00894065294414759,0.000556308135855943,0.00806068070232868,0.0228345692157745,0.0104088457301259,0.0412052981555462
793,-0.00610487814992666,0.00245312182232738,0.00852848961949348,0.0210473258048296,0.0141080832108855,0.0371368378400803
794,-0.00261199800297618,0.00332742906175554,0.0102551002055407,0.0210001394152641,0.0174577608704567,0.0338279530405998
795,-0.000365137413609773,0.00416506733745337,0.0115539850667119,0.0218682233244181,0.017956817522645,0.0333908349275589
796,0.000735329347662628,0.00579926185309887,0.0118485307320952,0.0230960305780172,0.0159667786210775,0.0355243608355522
797,0.00142946979030967,0.00786639656871557,0.0118933543562889,0.0246342923492193,0.0129489451646805,0.037105280905962
798,0.000195073225768283,0.00964209251105785,0.01117570605129,0.0237988512963057,0.00799544621258974,0.0345623344182968
799,-0.00404909532517195,0.00958906952291727,0.00813831109553576,0.0184478107839823,0.00102973659522831,0.0270818099379539
800,-0.00856116134673357,0.00779875414445996,0.00440245540812612,0.0126983253285289,-0.00414572469890118,0.019192211329937
801,-0.0107988640666008,0.00641171028837562,0.00244543142616749,0.0111303012818098,-0.00547519326210022,0.0171920135617256
802,-0.0113842757418752,0.00581864640116692,0.00177972111850977,0.0129420151934028,-0.00470647402107716,0.0218574535101652
803,-0.0117935072630644,0.00502988090738654,0.00160509953275323,0.0155001254752278,-0.00367334950715303,0.0282474439591169
804,-0.0123607711866498,0.00438120774924755,0.00204764143563807,0.0174091495573521,-0.00306189781986177,0.0337215662002563
805,-0.0122584523633122,0.00501795951277018,0.00291308970190585,0.0177260003983974,-0.00265013729222119,0.0401502139866352
806,-0.0113217663019896,0.00620381953194737,0.0037771777715534,0.0158082377165556,-0.0024867036845535,0.0468067824840546
807,-0.00967579986900091,0.00590479047968984,0.00535454181954265,0.0130264852195978,-0.00253312080167234,0.0490393899381161
808,-0.00678797997534275,0.00429509393870831,0.00880579557269812,0.0123550975695252,-0.00141188036650419,0.0449781976640224
809,-0.00369428098201752,0.00237379781901836,0.0127018168568611,0.0137711279094219,0.00147870485670865,0.0361864641308784
810,-0.0017248751828447,-0.000228750839596614,0.014625133946538,0.0139440121129155,0.00497783487662673,0.0248543377965689
811,-0.000570969539694488,-0.00351318647153676,0.0135108036920428,0.0110145714133978,0.00700025586411357,0.0136014316231012
812,-0.000115219292638358,-0.00593842519447207,0.00954301655292511,0.00646371906623244,0.00583400577306747,0.00504227727651596
813,3.41441664204467E-05,-0.00541797699406743,0.00531259458512068,0.00335597340017557,0.0027061786968261,0.00137081858702004
814,0.00048052440979518,-0.00213160854764283,0.00339526915922761,0.00294856796972454,-0.000137151146191172,0.00294510484673083
815,0.00091000652173534,0.00129196105990559,0.0033009450417012,0.00428240187466145,-0.00244064396247268,0.00829799566417933
816,0.00151816685684025,0.00331395119428635,0.00365967163816094,0.00646817637607455,-0.00402607396245003,0.0153785077854991
817,0.00360035221092403,0.00429988047108054,0.00493329111486673,0.00913515593856573,-0.00295683252625167,0.0214569922536612
818,0.00710724154487252,0.00325230229645967,0.0077707190066576,0.0119254970923066,0.00121975713409483,0.0245171096175909
819,0.00968088023364544,0.000431261345511302,0.0106690376996994,0.0142184188589454,0.00520370621234179,0.0257272776216269
820,0.00962631963193417,0.000296202721074224,0.0117945838719606,0.0145906722173095,0.00554663175716996,0.0275876838713884
821,0.00643506599590182,0.00371822877787054,0.0103235766291618,0.0114603396505117,0.000291989650577307,0.02903644554317
822,0.00106949207838625,0.00659503182396293,0.00650025811046362,0.00518371211364865,-0.0087857935577631,0.0268542636185884
823,-0.00305557437241077,0.00644903164356947,0.00221631396561861,-0.00182308431249112,-0.0152525240555406,0.0203574560582638
824,-0.0039451471529901,0.00327641190961003,-0.000573512981645763,-0.00700844032689929,-0.0160273071378469,0.0108971735462546
825,-0.00252724415622652,-0.00171913579106331,-0.00125693005975336,-0.00897317379713058,-0.0135454311966896,0.000416968017816544
826,0.000519559602253139,-0.00655909115448594,0.000484402116853744,-0.00696400413289666,-0.00945303961634636,-0.00804701820015907
827,0.00509819388389587,-0.00935102254152298,0.00411322386935353,-0.000979663105681539,-0.00387556990608573,-0.0118585284799337
828,0.00969881191849709,-0.00970223266631365,0.00690434454008937,0.00566793698817492,0.00173497316427529,-0.0121309068053961
829,0.0118602579459548,-0.00905245076864958,0.00639547593891621,0.00785429589450359,0.00501351850107312,-0.012436798773706
830,0.01166464202106,-0.00797775108367205,0.00372160715050995,0.00529333623126149,0.00535109592601657,-0.01324063539505
831,0.0112681668251753,-0.00605993019416928,0.00168506032787263,0.00226577208377421,0.00378518272191286,-0.0119973449036479
832,0.0111688729375601,-0.00434064585715532,0.00123446062207222,0.000871371186804026,0.00136399909388274,-0.00822581443935633
833,0.0109154172241688,-0.00339574296958745,0.00193762651178986,0.000291637086775154,-0.000737630762159824,-0.00415151286870241
834,0.0105692502111197,-0.00201165163889527,0.0035858906339854,0.000662624253891408,-0.000718874449376017,-0.00122234108857811
835,0.00958300475031137,-0.000419281190261245,0.00546720204874873,0.00256131496280432,0.00213729799725115,-0.000336685101501644
836,0.00756009807810187,-0.000160670577315614,0.00531157199293375,0.00452161207795143,0.00486931717023253,-0.00218093278817832
837,0.00588273117318749,-0.00159697560593486,0.00168140861205757,0.00418752105906606,0.00425278721377254,-0.0059522083029151
838,0.00630941288545728,-0.00376544124446809,-0.00331856054253876,0.00167268549557775,0.00161191273946315,-0.00969685241580009
839,0.00834973156452179,-0.00573022197932005,-0.0066025354899466,-0.000955920608248562,-0.000337927136570215,-0.010855202563107
840,0.0100999660789967,-0.00758336158469319,-0.00758655602112412,-0.00305767636746168,-0.00111980724614114,-0.00857015419751406
841,0.0108544956892729,-0.00878535956144333,-0.00710749998688698,-0.00462772790342569,-0.00100893282797188,-0.00439185136929154
842,0.0103781949728727,-0.008916643448174,-0.00639181770384312,-0.00560729252174497,-0.000509471690747887,-0.000947111111599952
843,0.00872863549739122,-0.00861794408410788,-0.00560029409825802,-0.00498481700196862,0.000450471532531083,0.00115095789078623
844,0.00672501279041171,-0.0068339379504323,-0.00372951198369265,-0.00133690924849361,0.0021689971908927,0.00323198363184929
845,0.0043866503983736,-0.00318110734224319,-0.00211215857416391,0.00250609940849245,0.00257254578173161,0.00359084014780819
846,0.00167319586034864,-0.001109674340114,-0.00292626512236893,0.00257314625196159,0.000174881701241247,0.000286470400169492
847,0.000324949127389118,-0.00190970138646662,-0.00464740488678217,0.00076039123814553,-0.00200085039250553,-0.00371691235341132
848,0.00141758203972131,-0.00290210195817053,-0.00438462337478995,0.00169030274264514,-0.00150377512909472,-0.00536150252446532
849,0.00359974429011345,-0.00294864713214338,-0.00271319760940969,0.00548835191875696,-0.000574597914237529,-0.00576126202940941
850,0.00561994686722755,-0.00310735683888197,-0.0019210574682802,0.00852203648537397,-0.00111642631236464,-0.00687680020928383
851,0.00663297763094306,-0.00443095248192549,-0.00303373485803604,0.00788911245763302,-0.00297311949543655,-0.00899015180766582
852,0.00582835031673312,-0.00653290841728449,-0.00576065853238106,0.00293527496978641,-0.00599047169089317,-0.0114786410704255
853,0.00362241826951504,-0.00810510572046041,-0.00888447929173708,-0.00488360458984971,-0.00899005960673094,-0.0143644949421287
854,0.000864301575347781,-0.00877059996128082,-0.011397291906178,-0.0130919562652707,-0.0104953171685338,-0.0179191343486309
855,-0.0018734069308266,-0.00901525001972914,-0.0129678891971707,-0.0195234771817923,-0.0106928814202547,-0.0209945347160101
856,-0.00355848553590477,-0.00871243514120579,-0.0132235633209348,-0.0225152261555195,-0.010323372669518,-0.0212001577019691
857,-0.00366406142711639,-0.00765696633607149,-0.0121645992621779,-0.0216423757374287,-0.00978720095008612,-0.0173955261707306
858,-0.00334721757099032,-0.00679075159132481,-0.0103835742920637,-0.0189422853291035,-0.0100009124726057,-0.0123677738010883
859,-0.00385538185946643,-0.00663933111354709,-0.00804875325411558,-0.0168098155409098,-0.0117583777755499,-0.0102895991876721
860,-0.0055493819527328,-0.00715394504368305,-0.00589867727831006,-0.0157879386097193,-0.014904135838151,-0.0123544400557876
861,-0.00886508915573359,-0.00925322342664003,-0.00549246789887547,-0.0156217087060213,-0.0183308161795139,-0.0172702539712191
862,-0.0127835469320416,-0.0122063346207142,-0.00618535792455077,-0.0154388463124633,-0.0190070644021034,-0.0226244237273932
863,-0.0144036617130041,-0.0130432415753603,-0.00598728703334928,-0.0139261931180954,-0.0148715768009424,-0.0260439217090607
864,-0.012329320423305,-0.0105918841436505,-0.0047878292389214,-0.0106147993355989,-0.00839956104755402,-0.0267917811870575
865,-0.00816390756517649,-0.0065670688636601,-0.00387024017982185,-0.00679279211908579,-0.00380645366385579,-0.0252005774527788
866,-0.00502807600423694,-0.00428102957084775,-0.00445270491763949,-0.00452297180891037,-0.00398495979607105,-0.0220400132238865
867,-0.00444985833019018,-0.00432999804615974,-0.00638434942811728,-0.00382737955078483,-0.00865978561341763,-0.0184089709073305
868,-0.00509469816461205,-0.00377998338080943,-0.00776419555768371,-0.00299080112017691,-0.014206925407052,-0.0149114336818457
869,-0.00543013168498874,-0.00271354196593165,-0.00723061058670282,-0.00180652795825154,-0.0177351571619511,-0.0124347722157836
870,-0.00594640197232366,-0.00362905208021402,-0.00627406826242805,-0.00301712634973228,-0.0200457628816366,-0.0139050278812647
871,-0.00767524912953377,-0.00668197171762586,-0.00661618635058403,-0.00897514540702105,-0.0232832618057728,-0.0214598998427391
872,-0.0104823904111981,-0.0107019254937768,-0.00779326958581805,-0.0176507588475943,-0.0277912188321352,-0.0321959592401981
873,-0.0132705140858889,-0.0141584277153015,-0.00916572473943233,-0.0248509980738163,-0.032003115862608,-0.0403952784836292
874,-0.0149746537208557,-0.015622460283339,-0.0103777209296823,-0.0284721497446299,-0.0349062494933605,-0.0428006164729595
875,-0.0150329452008009,-0.0147341350093484,-0.010561490431428,-0.0278765261173248,-0.0368128269910812,-0.0392442680895329
876,-0.0138316294178367,-0.0121743427589536,-0.00977137126028538,-0.0240868777036667,-0.0375685133039951,-0.0314245820045471
877,-0.0125558171421289,-0.009275171905756,-0.00936673860996962,-0.0205359123647213,-0.0366005524992943,-0.0226804949343205
878,-0.0109654292464256,-0.0064684459939599,-0.00889082718640566,-0.0185813903808594,-0.0329797156155109,-0.0154886022210121
879,-0.00860853120684624,-0.00415304489433765,-0.00706228381022811,-0.0172608066350222,-0.0270645897835493,-0.011620837263763
880,-0.00674472097307444,-0.0034781969152391,-0.00513056060299277,-0.0165340434759855,-0.0214829966425896,-0.0129281682893634
881,-0.00625729933381081,-0.00412660045549273,-0.0049703810364008,-0.0162414293736219,-0.017597783356905,-0.0181056074798107
882,-0.00639926828444004,-0.00473836390301585,-0.00655292719602585,-0.0159164424985647,-0.0143873784691095,-0.0237016286700964
883,-0.00595815386623144,-0.00474388618022203,-0.00851589627563953,-0.0159547962248325,-0.0111806923523545,-0.0276526175439358
884,-0.0055050365626812,-0.00534982793033123,-0.0106330113485456,-0.0174913462251425,-0.00984532758593559,-0.0300285201519728
885,-0.006459123454988,-0.00883167423307896,-0.0127222053706646,-0.0193298812955618,-0.0117591163143516,-0.030893174931407
886,-0.00772738363593817,-0.0140989255160093,-0.012756641022861,-0.017609866335988,-0.0143651627004147,-0.0285877864807844
887,-0.00768231600522995,-0.0165610425174236,-0.0113238766789436,-0.0139468805864453,-0.0161965433508158,-0.0236693099141121
888,-0.00650086998939514,-0.0143494429066777,-0.0111897932365537,-0.0139778815209866,-0.0189559143036604,-0.0193283893167973
889,-0.00456200074404478,-0.00942746549844742,-0.0117315407842398,-0.0173062942922115,-0.0223507061600685,-0.0171064790338278
890,-0.00269426708109677,-0.00405799318104982,-0.0114530678838491,-0.019892193377018,-0.0249704960733652,-0.0164493545889854
891,-0.00219086650758982,0.000260939006693661,-0.0110161053016782,-0.0208026673644781,-0.0265403371304274,-0.0166760217398405
892,-0.00356634077616036,0.0021363680716604,-0.0114142782986164,-0.0223463997244835,-0.0268295053392649,-0.0188148841261864
893,-0.00591591745615005,0.00161290785763413,-0.0126375211402774,-0.0256702844053507,-0.026153402402997,-0.0232197232544422
894,-0.00688802590593696,0.000949725857935846,-0.0134145896881819,-0.0285179298371077,-0.0243865847587585,-0.027476292103529
895,-0.00554310996085405,0.00130047497805208,-0.012907525524497,-0.0286455824971199,-0.0214493907988071,-0.0293665248900652
896,-0.00322765181772411,0.00183086271863431,-0.0114180911332369,-0.025692205876112,-0.0186496693640947,-0.0281607508659363
897,-0.000628040928859264,0.00259541720151901,-0.00893631670624018,-0.019986966624856,-0.0160035323351622,-0.0237419474869967
898,0.00223782751709223,0.00434194132685661,-0.00573338381946087,-0.0131679056212306,-0.0126087535172701,-0.0172306690365076
899,0.00443860655650496,0.00586516223847866,-0.00354755925945938,-0.00922567863017321,-0.00919538550078869,-0.0121650295332074
900,0.00543142901733518,0.00579482223838568,-0.00286197266541421,-0.0097531583160162,-0.00679987855255604,-0.0106700574979186
901,0.00601014588028193,0.00521303294226527,-0.00208489526994526,-0.0113830929622054,-0.00611452059820294,-0.0102944793179631
902,0.00654426356777549,0.00500485580414534,-0.00174031138885766,-0.012668295763433,-0.00783172249794006,-0.00953405257314444
903,0.00682708434760571,0.0048355027101934,-0.00338661321438849,-0.014719714410603,-0.0107932835817337,-0.00923695415258408
904,0.006129817571491,0.00366276572458446,-0.00696549005806446,-0.0174770001322031,-0.0134412925690413,-0.0104167675599456
905,0.0032649498898536,0.000249181495746598,-0.0114137632772326,-0.0210296083241701,-0.0154736638069153,-0.0137748792767525
906,-0.000542737077921629,-0.00445982394739985,-0.0138473603874445,-0.0244018379598856,-0.0146936317905784,-0.0171584822237492
907,-0.00253913411870599,-0.00815291237086058,-0.0123394802212715,-0.0253747049719095,-0.00919319130480289,-0.0175038427114487
908,-0.00227665994316339,-0.00937966536730528,-0.00901829916983843,-0.0237108133733273,-0.0022026663646102,-0.0147781623527408
909,-0.000500044552609324,-0.00884321425110102,-0.00654147425666451,-0.0209934040904045,0.00182866642717272,-0.0112907495349646
910,0.00272716162726283,-0.00831588357686996,-0.00463502341881394,-0.0177017915993929,0.0025986498221755,-0.0087700504809618
911,0.00542598497122526,-0.00783285684883595,-0.00297663360834122,-0.0151315070688725,0.000711969216354191,-0.00915995892137289
912,0.00515585672110319,-0.006390739697963,-0.00204316456802189,-0.0152616798877716,-0.00468727946281433,-0.0131705030798912
913,0.00312366057187319,-0.00345255853608251,-0.000637258170172572,-0.0161295980215073,-0.0116466097533703,-0.0166347976773977
914,0.00115632312372327,0.000200676717213355,0.000771690509282053,-0.0157232619822025,-0.0168473087251186,-0.0162709783762693
915,-1.82928706635721E-05,0.00300524942576885,-0.000133881665533409,-0.0156975295394659,-0.0195769853889942,-0.0142560759559274
916,0.000655623967759311,0.00491839833557606,-0.00297093740664423,-0.0175594557076693,-0.0201188884675503,-0.0137400859966874
917,0.00263939658179879,0.00627277186140418,-0.00606872560456395,-0.0203886590898037,-0.0188075620681047,-0.0155882928520441
918,0.00433710450306535,0.00658742897212505,-0.00865780562162399,-0.0220425389707088,-0.0158026460558176,-0.0186529569327831
919,0.00530760921537876,0.00592372054234147,-0.00948777887970209,-0.0215431209653616,-0.0111928703263402,-0.0213365722447634
920,0.00518930330872536,0.00442772451788187,-0.00845641829073429,-0.0205273870378733,-0.00688413111492991,-0.0232908371835947
921,0.00314797461032867,0.00136663392186165,-0.00816068984568119,-0.0212733373045921,-0.00483870878815651,-0.0244789309799671
922,-0.000927032611798495,-0.00316388183273375,-0.0102386847138405,-0.0239919684827328,-0.00494763441383839,-0.0244535524398088
923,-0.00591335538774729,-0.00644838251173496,-0.0132169937714934,-0.0267930533736944,-0.00697267381474376,-0.0226419046521187
924,-0.00977511797100306,-0.0063594221137464,-0.0148768704384565,-0.0279328133910894,-0.0100283399224281,-0.0190121438354254
925,-0.0107080806046724,-0.00427695829421282,-0.0147279147058725,-0.0276301372796297,-0.0115989400073886,-0.0148448580875993
926,-0.00885527767241001,-0.00273303827270865,-0.0136589128524065,-0.0268955491483212,-0.0111450683325529,-0.0114854965358973
927,-0.00620986009016633,-0.00365366553887725,-0.0128043107688427,-0.0263763144612312,-0.0109964730218053,-0.00993241183459759
928,-0.00401594117283821,-0.00786820985376835,-0.0127794090658426,-0.0265407953411341,-0.0117122810333967,-0.0110594686120749
929,-0.00221832422539592,-0.0129911415278912,-0.012845785357058,-0.0262576229870319,-0.0110979713499546,-0.013769774697721
930,-0.00158318737521768,-0.0151723194867373,-0.0124946208670735,-0.0240645557641983,-0.00860864762216806,-0.0163666158914566
931,-0.00211268896237016,-0.0140543784946203,-0.0123576410114765,-0.0215630996972322,-0.00595664931461215,-0.0198430139571428
932,-0.00157129019498825,-0.0118920179083943,-0.0125932563096285,-0.0206876862794161,-0.0045806635171175,-0.0252587404102087
933,0.000584980414714664,-0.0101006096228957,-0.0132069978863001,-0.0205140300095081,-0.0054680947214365,-0.0307429693639278
934,0.0027109005022794,-0.00970262940973043,-0.0137625802308321,-0.0182937625795603,-0.00771891279146075,-0.0335329100489616
935,0.00407162122428417,-0.0105227064341307,-0.0132809346541762,-0.0125250853598118,-0.00897025316953659,-0.0334634259343147
936,0.00421799439936876,-0.0101066213101149,-0.012556716799736,-0.0071706660091877,-0.0100281406193972,-0.0326289981603622
937,0.00296042929403484,-0.00765899103134871,-0.0127141438424587,-0.00754311727359891,-0.0131370294839144,-0.0315970927476883
938,0.00175953435245901,-0.00470173638314009,-0.0129266288131475,-0.0124007491394877,-0.0166561212390661,-0.029138870537281
939,0.00189141230657697,-0.00211182585917413,-0.0121496580541134,-0.0169947445392609,-0.0174813568592072,-0.0251770243048668
940,0.00251764757558703,-0.000476414279546589,-0.0104950796812773,-0.019839683547616,-0.0159730818122625,-0.0218865964561701
941,0.00172940571792424,-0.000993197783827782,-0.00974225532263517,-0.0231536421924829,-0.0156589914113283,-0.0224520582705736
942,-0.000452201900770888,-0.00353398523293436,-0.0111883152276278,-0.0277040340006351,-0.0176071412861347,-0.0266344845294952
943,-0.00216155336238444,-0.00575336813926697,-0.0132914548739791,-0.0308111738413572,-0.0190514344722033,-0.0297970939427614
944,-0.00224377424456179,-0.0062227207235992,-0.0146376565098763,-0.0302614308893681,-0.0194921121001244,-0.0294179450720549
945,0.00184414256364107,-0.00503169745206833,-0.0146362474188209,-0.0258515924215317,-0.0197899024933577,-0.0268885120749474
946,0.0105194374918938,-0.00339093734510243,-0.0129710845649242,-0.0198905747383833,-0.0191211942583323,-0.0245150066912174
947,0.0166237410157919,-0.0037332980427891,-0.011314538307488,-0.0157519150525332,-0.017700482159853,-0.0235616844147444
948,0.0146742630749941,-0.00639533065259457,-0.0107485884800553,-0.0132917137816548,-0.0159512031823397,-0.0230958200991154
949,0.00740758515894413,-0.00931114051491022,-0.0103784753009677,-0.0108453156426549,-0.0138105526566505,-0.0222825650125742
950,6.35264295851812E-05,-0.0111143924295902,-0.0105781266465783,-0.00952147599309683,-0.0122139463201165,-0.0219055730849504
951,-0.00361893232911825,-0.0111377695575356,-0.0119048273190856,-0.00950377341359854,-0.0108041195198894,-0.0216799527406693
952,-0.0029690726660192,-0.0085874330252409,-0.0128801520913839,-0.00855672173202038,-0.00805393513292074,-0.0191528555005789
953,-0.00126079621259123,-0.00452495226636529,-0.0133712524548173,-0.00808721501380205,-0.00608255993574858,-0.0139870634302497
954,-0.00130061095114797,-0.00136770959943533,-0.01463124435395,-0.0112956734374166,-0.00837043300271034,-0.00875889323651791
955,-0.00182854465674609,-7.76376691646874E-05,-0.0154053391888738,-0.0153775373473763,-0.0128337480127811,-0.00501044653356075
956,-0.00141095987055451,-5.10656500409823E-05,-0.0145897334441543,-0.0166961457580328,-0.0154359024018049,-0.00490711629390717
957,-0.00142380921170115,-0.00031510298140347,-0.0138767892494798,-0.0174280609935522,-0.0166158471256495,-0.010676559060812
958,-0.00303160073235631,-0.00036356906639412,-0.0144434468820691,-0.0194880273193121,-0.0183256268501282,-0.0194376241415739
959,-0.00522590149194002,-8.2222482888028E-05,-0.0158689357340336,-0.0224883463233709,-0.0205590035766363,-0.0262291487306356
960,-0.00634610652923584,0.000362123246304691,-0.0176869295537472,-0.0266246851533651,-0.0222479812800884,-0.0297644473612309
961,-0.00644368398934603,0.000531871395651251,-0.0198958572000265,-0.0304910689592361,-0.023344436660409,-0.0313731320202351
962,-0.00653784675523639,0.000261866982327774,-0.0216185860335827,-0.0304298084229231,-0.024017445743084,-0.0320048332214355
963,-0.00611809967085719,-0.00039740715874359,-0.0204478595405817,-0.0244345925748348,-0.0226828642189503,-0.0319428108632565
964,-0.00529158115386963,-0.00264670606702566,-0.0166841559112072,-0.0154467029497027,-0.0201656445860863,-0.0325453951954842
965,-0.00496130017563701,-0.0069878101348877,-0.0136110791936517,-0.00791612546890974,-0.019264617934823,-0.0342013984918594
966,-0.00434920331463218,-0.010504643432796,-0.0120551772415638,-0.00301381829194725,-0.0190885607153177,-0.0338607393205166
967,-0.00326165719889104,-0.010593319311738,-0.0113261397928,-0.00119721866212785,-0.0183481611311436,-0.0299759320914745
968,-0.00254273950122297,-0.00799057073891163,-0.0117842862382531,-0.00426919059827924,-0.0180196464061737,-0.0246878042817116
969,-0.00159868609625846,-0.00436410354450345,-0.0128224231302738,-0.0119266007095575,-0.0179667975753546,-0.0203939098864794
970,0.000687739928252995,-0.000334695767378435,-0.0128246722742915,-0.0197171736508608,-0.0169434193521738,-0.0179161243140697
971,0.00470432825386524,0.00368253770284355,-0.0110065760090947,-0.0222915932536125,-0.0141233261674643,-0.0160614065825939
972,0.00870339572429657,0.0060158921405673,-0.00904334615916014,-0.0199468452483416,-0.0111547894775867,-0.0142336767166853
