,AF3,AF4,Fp1,Fp2,AF7,AF8
0,0.00246744346804917,0.0249631628394127,0.0158387366682291,0.00675019761547446,0.0004318812279962,0.0793935209512711
1,0.00243278662674129,0.0231810994446278,0.0146174971014261,0.00877473317086697,-0.00441471999511123,0.0784786492586136
2,0.00330274947918952,0.0231372565031052,0.0141877429559827,0.0113557474687696,-0.0102189313620329,0.0759976133704185
3,0.00498323561623693,0.0236322265118361,0.0139034623280168,0.0134084662422538,-0.0152725093066692,0.0705621242523193
4,0.00611850013956428,0.0221052542328835,0.0123382434248924,0.0141234314069152,-0.0201346687972546,0.0615942068397999
5,0.00535966549068689,0.0186139773577452,0.00951833464205265,0.0126281566917896,-0.0261145979166031,0.0512785091996193
6,0.00323433289304376,0.0147258453071117,0.00680207321420312,0.00872374605387449,-0.0316068194806576,0.042321689426899
7,0.00165381887927651,0.0122625855728984,0.00560436397790909,0.00376431783661246,-0.0323937125504017,0.0365587212145329
8,0.00180637219455093,0.0128341400995851,0.00649337796494365,0.000158699593157507,-0.0265429485589266,0.0355437658727169
9,0.00307941948994994,0.0156376734375954,0.00854884088039398,-0.000440905947471038,-0.0170335248112679,0.0380412675440311
10,0.00388032314367592,0.018148597329855,0.00980099011212587,0.00213453988544643,-0.00944118015468121,0.0407902337610722
11,0.00248336000367999,0.018813593313098,0.00802888534963131,0.00536482920870185,-0.00855072215199471,0.0426431261003017
12,-0.000650044530630112,0.018670629709959,0.00349887926131487,0.00583474198356271,-0.0129398396238685,0.0442229807376862
13,-0.00263054901733994,0.0197228696197271,4.80935996165499E-05,0.00398476328700781,-0.0159258339554071,0.045950923115015
14,-0.00266031315550208,0.0213522780686617,-0.000632359704468399,0.00179146486334503,-0.0154452854767442,0.0477349683642387
15,-0.00282601709477603,0.0211584530770779,-0.000725193880498409,-0.00103032600600272,-0.0152515545487404,0.0490574762225151
16,-0.00391344679519534,0.0193449389189482,-0.000941985286772251,-0.00426225597038865,-0.0165473092347384,0.0500248558819294
17,-0.00409689033403993,0.0181566309183836,0.000340819417033345,-0.00564982602372766,-0.0165118835866451,0.0514160841703415
18,-0.00215854845009744,0.0170246921479702,0.00359992007724941,-0.00307631283067167,-0.0142769636586308,0.054139893501997
19,0.000565460359212011,0.0143021671101451,0.00702179269865155,0.00335381645709276,-0.0122935157269239,0.0582324676215649
20,0.00118151458445936,0.0115338759496808,0.00723598292097449,0.00844715163111687,-0.0138325337320566,0.0599608644843102
21,-0.00226831785403192,0.010099345818162,0.00197924254462123,0.00587315205484629,-0.0197056494653225,0.0544789209961891
22,-0.00752869574353099,0.0102858198806643,-0.0057266466319561,-0.00253671850077808,-0.0259513426572084,0.0432489141821861
23,-0.0100794825702906,0.012834832072258,-0.0102870874106884,-0.0102225132286549,-0.0281961038708687,0.0317356698215008
24,-0.00875885877758265,0.0159727986901999,-0.0102517185732722,-0.0143030770123005,-0.0259902961552143,0.0227306578308344
25,-0.00614375295117497,0.0168405659496784,-0.00795700959861279,-0.0149391377344728,-0.0215816292911768,0.0170883927494287
26,-0.00380192627198994,0.0164396651089191,-0.00438961805775762,-0.0120949372649193,-0.0158876590430737,0.016700292006135
27,-0.00181353150401264,0.0181117281317711,0.000740777002647519,-0.00651861261576414,-0.00839507207274437,0.0230660233646631
28,-0.00150115706492215,0.0224281065165997,0.00589631963521242,-0.00081301957834512,-0.00196535955183208,0.0348208025097847
29,-0.00236096791923046,0.0272772666066885,0.00943851284682751,0.00338758830912411,-0.000302844651741907,0.0484463423490524
30,-0.00193036743439734,0.0305652711540461,0.0109684942290187,0.00648376392200589,-0.00264572189189494,0.0594994649291039
31,-0.0007431615376845,0.0308943018317223,0.0105743082240224,0.00916653405874968,-0.005484355147928,0.0646348297595978
32,-0.000674783659633249,0.0283115468919277,0.00914185307919979,0.0107804695144296,-0.00622941320762038,0.0629039257764816
33,-0.00151844695210457,0.0244862288236618,0.00759398937225342,0.00990188680589199,-0.00496260914951563,0.0552354007959366
34,-0.00224299402907491,0.0213062129914761,0.00642676232382655,0.00719426665455103,-0.00347590027377009,0.0449242442846298
35,-0.00180708663538098,0.0201458297669888,0.00693181343376637,0.00655892351642251,-0.00270150741562247,0.0369885936379433
36,-0.000244860624661669,0.02022884786129,0.0094900568947196,0.00972748268395662,-0.00275646569207311,0.0340139381587505
37,0.000972434645518661,0.0194465238600969,0.0122211612761021,0.0131609495729208,-0.00371612701565027,0.0354059003293514
38,0.00104097847361118,0.0179931093007326,0.0135490028187633,0.0136058796197176,-0.00569822220131755,0.0397176593542099
39,0.000615765689872205,0.0178799442946911,0.0140284784138203,0.0115247266367078,-0.00809875130653381,0.0446363091468811
40,0.000881894084159285,0.0198460407555103,0.0151329468935728,0.00973184034228325,-0.00882555916905403,0.0476571023464203
41,0.0014111635973677,0.0221631862223148,0.0161680709570646,0.00980071816593409,-0.00798022467643023,0.0465125739574432
42,0.00129921489860862,0.0230917539447546,0.0158730372786522,0.0110475709661841,-0.00729658454656601,0.0413342751562595
43,0.00141679518856108,0.0220221374183893,0.0156673863530159,0.0131463510915637,-0.00621834583580494,0.0356000065803528
44,0.00196520565077662,0.0198256745934486,0.015848483890295,0.0145212132483721,-0.00454258359968662,0.0310656987130642
45,0.00124544790014625,0.0188146084547043,0.0137046212330461,0.0116087021306157,-0.00427848985418677,0.0269516110420227
46,-0.00114587775897235,0.0198178067803383,0.00883111543953419,0.00451855082064867,-0.00635070446878672,0.0249578505754471
47,-0.00343514513224363,0.0219303146004677,0.00386904529295862,-0.00317592988722026,-0.00879654381424189,0.0270102098584175
48,-0.00471556046977639,0.0235374458134174,3.67737266060431E-05,-0.0100115733221173,-0.0100327571853995,0.0296975057572126
49,-0.0055149900726974,0.022795720025897,-0.00353508535772562,-0.0158264804631472,-0.010745189152658,0.0282603669911623
50,-0.00556086283177137,0.0196491330862045,-0.00659358641132712,-0.0188560001552105,-0.0106632392853498,0.0229349080473185
51,-0.00435510603711009,0.0166356451809406,-0.00767035642638803,-0.0175681561231613,-0.00906069483608007,0.0182587020099163
52,-0.0034383509773761,0.0153019530698657,-0.00739412428811193,-0.0137988915666938,-0.00813264492899179,0.017276369035244
53,-0.00492374319583178,0.0142992306500673,-0.00725249387323856,-0.0107578355818987,-0.010283044539392,0.0188439302146435
54,-0.00803503580391407,0.0133281396701932,-0.00578908808529377,-0.0082921925932169,-0.0137194413691759,0.0220432803034782
55,-0.0104687316343188,0.0128461588174105,-0.00170569471083581,-0.00532056065276265,-0.0154014574363828,0.0265855975449085
56,-0.0107597196474671,0.0124042360112071,0.00315502029843628,-0.00230167945846915,-0.0148752173408866,0.0310127101838589
57,-0.00833847466856241,0.0122616030275822,0.00664075976237655,0.000380534504074603,-0.0134388813748956,0.0343529433012009
58,-0.00514618679881096,0.0117970872670412,0.00700840773060918,0.00128496764227748,-0.0134045286104083,0.0354241766035557
59,-0.0034587134141475,0.0102759636938572,0.00436938367784023,-0.00022030872059986,-0.0146896736696363,0.0338923223316669
60,-0.0031840424053371,0.00835866294801235,0.00128893775399774,-0.00300709903240204,-0.0148507487028837,0.0304491091519594
61,-0.00391807081177831,0.00677336193621159,-0.000929428788367659,-0.0060695051215589,-0.0138980410993099,0.0258310474455357
62,-0.00566232390701771,0.00608674995601177,-0.00267985509708524,-0.00823793187737465,-0.0129277631640434,0.0219089724123478
63,-0.00740957912057638,0.00607616128399968,-0.00348245352506638,-0.00826065428555012,-0.011451224796474,0.0208035949617624
64,-0.00794264301657677,0.00643047224730253,-0.00226198509335518,-0.0050435233861208,-0.00906626414507627,0.0237009041011333
65,-0.00799525994807482,0.00808982830494642,0.000283957924693823,0.000645429652649909,-0.00646535586565733,0.0296212248504162
66,-0.00887313112616539,0.0116786835715175,0.00216246070340276,0.00570833776146173,-0.00435071811079979,0.0358363762497902
67,-0.00997915957123041,0.0164395663887262,0.0033279275521636,0.00909775495529175,-0.00235584820620716,0.0409972742199898
68,-0.00998974777758121,0.0208451729267836,0.0050156400538981,0.0119324242696166,0.000763191375881433,0.0442776158452034
69,-0.009364222176373,0.0231080465018749,0.0064843432046473,0.0134196355938911,0.00389591255225241,0.0443098656833172
70,-0.00930716190487146,0.021962383762002,0.00703483819961548,0.0138589842244983,0.00409776484593749,0.0426889657974243
71,-0.00996119156479836,0.0179415736347437,0.00702442601323128,0.0146056860685349,0.00123708508908749,0.0417327284812927
72,-0.0115975728258491,0.0126786706969142,0.00516466237604618,0.0136760743334889,-0.00320959510281682,0.0398114435374737
73,-0.0144499083980918,0.00731932232156396,0.00132921326439828,0.0103406654670835,-0.00764200696721673,0.0354363732039928
74,-0.0169656537473202,0.00428807083517313,-0.00155626842752099,0.00634977594017982,-0.00911198556423187,0.030864629894495
75,-0.0177365802228451,0.00512199569493532,-0.0022119611967355,0.0018083913018927,-0.00698261056095362,0.0280205495655537
76,-0.0169930253177881,0.00795907527208328,-0.00161931070033461,-0.00277515384368598,-0.00463491445407271,0.0269261449575424
77,-0.0147491451352835,0.011001612059772,-0.00054975546663627,-0.00602606497704983,-0.00475293677300215,0.0268337894231081
78,-0.0115936426445842,0.0134967779740691,0.000138586037792265,-0.0077354684472084,-0.00719931861385703,0.0259937960654497
79,-0.00914059858769178,0.0146069824695587,-3.09126371575985E-05,-0.0082690604031086,-0.0106567954644561,0.023393489420414
80,-0.00755889154970646,0.0143064018338919,-0.000576258345972747,-0.00806430075317621,-0.0133914779871702,0.0212146788835526
81,-0.00607410212978721,0.0136850830167532,-0.000895901583135128,-0.00713711744174361,-0.0142750628292561,0.0233951415866613
82,-0.00530296983197331,0.0129408128559589,-0.000976425071712583,-0.00564027111977339,-0.0147188203409314,0.0306818541139364
83,-0.00623968197032809,0.0115746082738042,-0.00110134726855904,-0.00462895538657904,-0.0166709404438734,0.0399042963981628
84,-0.00796130858361721,0.0105257844552398,-0.000825002091005445,-0.00462143355980515,-0.0187439657747746,0.0463428199291229
85,-0.00950251333415508,0.0110793402418494,0.000339784222887829,-0.00498621398583055,-0.0186742730438709,0.0460294932126999
86,-0.0115731293335557,0.0116094592958689,0.00123675493523479,-0.00591290229931474,-0.0169906802475452,0.0381955057382584
87,-0.0127150109037757,0.00977270491421223,0.00145712529774755,-0.00712885288521647,-0.0139647917822003,0.0270754639059305
88,-0.0101201087236404,0.00709506636485457,0.00213704444468021,-0.00650856224820018,-0.00901287142187357,0.019484655931592
89,-0.0056411805562675,0.00586339505389333,0.00225690216757357,-0.00446038926020265,-0.00394694693386555,0.0171757116913795
90,-0.00344190094619989,0.00613669818267226,7.27698788978159E-05,-0.00350188929587603,-0.0016866858350113,0.0171722266823053
91,-0.00445126881822944,0.00723472004756331,-0.00375417922623456,-0.00425982195883989,-0.00331590045243502,0.0173198338598013
92,-0.00686373328790069,0.00836266111582518,-0.00729001313447952,-0.00597367249429226,-0.00681254779919982,0.0171569287776947
93,-0.00803694874048233,0.00868075527250767,-0.00857456773519516,-0.00626107444986701,-0.00808204803615808,0.018159493803978
94,-0.00738607347011566,0.00747462036088109,-0.00805055163800716,-0.00459289131686091,-0.00599607964977622,0.0201694983989
95,-0.00684085907414556,0.00558259384706616,-0.008153161033988,-0.00443735532462597,-0.00379065005108714,0.0204589571803808
96,-0.00687059015035629,0.0048847608268261,-0.00845552235841751,-0.00558154797181487,-0.00310050183907151,0.0201216954737902
97,-0.00696492427960038,0.00564047787338495,-0.00744398543611169,-0.00519856810569763,-0.00300064729526639,0.022212915122509
98,-0.00754784746095538,0.00641748355701566,-0.0062107602134347,-0.00506969355046749,-0.00401619635522366,0.0253358166664839
99,-0.00909130088984966,0.00578494463115931,-0.00657604355365038,-0.00859727617353201,-0.00712998816743493,0.0258978512138128
100,-0.0110383527353406,0.00429202290251851,-0.00877062883228064,-0.0149969551712275,-0.0105194821953774,0.0235698875039816
101,-0.012665699236095,0.00334536633454263,-0.0116103990003467,-0.0201839543879032,-0.0126163838431239,0.0205654446035624
102,-0.0140904998406768,0.00253225956112146,-0.0135143026709557,-0.0219048988074064,-0.0144523773342371,0.0181073397397995
103,-0.0142780290916562,0.00165668840054423,-0.0130068082362413,-0.0211279094219208,-0.0153147596865892,0.016586858779192
104,-0.0118142683058977,0.00183125166222453,-0.00998752843588591,-0.0194972306489944,-0.0132362507283688,0.0158044528216124
105,-0.00848490372300148,0.0020888342987746,-0.00708775874227285,-0.0186893884092569,-0.00995367579162121,0.013382276520133
106,-0.00673752371221781,0.000606254499871284,-0.00683958036825061,-0.0196114014834166,-0.00890269689261913,0.00740751437842846
107,-0.00629176013171673,-0.0012536538997665,-0.00843547936528921,-0.0204525496810675,-0.0110924318432808,0.00115749018732458
108,-0.00670477654784918,-0.00169030332472175,-0.0107799619436264,-0.019892729818821,-0.0164816100150347,-0.000868170289322734
109,-0.00739407772198319,-0.00114537274930626,-0.0133999567478895,-0.0189793966710567,-0.0228041782975197,0.00163278717081994
110,-0.00781556870788336,-0.00039527760236524,-0.0151291592046618,-0.0179080124944448,-0.0262006334960461,0.00712394248694181
111,-0.00896911881864071,0.000674139009788632,-0.0159617755562067,-0.016224130988121,-0.0256223157048225,0.0135509660467505
112,-0.0104867471382022,0.00295907747931778,-0.0165486261248589,-0.0150221548974514,-0.0214221682399511,0.0171933174133301
113,-0.0108910938724875,0.00555182062089443,-0.0171333868056536,-0.0158145390450954,-0.0150638362392783,0.0148982862010598
114,-0.00983721390366554,0.00609311508014798,-0.0170726645737886,-0.0178659558296204,-0.00916944537311792,0.0075060767121613
115,-0.00775536429136992,0.00514280283823609,-0.0144992219284177,-0.017723374068737,-0.00489088986068964,0.00106596224941313
116,-0.00610439432784915,0.00373343867249787,-0.00964788254350424,-0.0131890848278999,-0.00285287015140057,0.00167137267999351
117,-0.00620514247566462,0.00193019618745893,-0.00572386104613543,-0.00736614037305117,-0.00326604139991105,0.00805085152387619
118,-0.00824607163667679,0.00152283580973744,-0.00476766703650355,-0.00570851843804121,-0.00541897583752871,0.0136783039197326
119,-0.0116322794929147,0.00262272823601961,-0.00586489029228687,-0.00944732874631882,-0.00855751428753138,0.0146233355626464
120,-0.014346738345921,0.00343879661522806,-0.0072261355817318,-0.0149101866409183,-0.012096269056201,0.0121968574821949
121,-0.0144416838884354,0.00344142923131585,-0.00846155919134617,-0.0187445022165775,-0.0156850442290306,0.00966675486415625
122,-0.0117872692644596,0.00257408712059259,-0.00922704953700304,-0.0193807426840067,-0.0171173438429832,0.00917826127260923
123,-0.00815752241760492,0.000827880983706564,-0.00863749533891678,-0.0163762215524912,-0.0150178335607052,0.0110755525529385
124,-0.00576741946861148,-0.00124691054224968,-0.00717595871537924,-0.011994962580502,-0.0119709260761738,0.0137679297477007
125,-0.00474386941641569,-0.00240674568340182,-0.0061027486808598,-0.00966856442391872,-0.00995513796806335,0.0148600609973073
126,-0.00385910249315202,-0.00126235699281096,-0.00619192747399211,-0.00995873566716909,-0.0092537384480238,0.0137558514252305
127,-0.00264339777640998,0.00199150713160634,-0.00708647165447474,-0.0101995719596744,-0.00928031094372272,0.0111703416332603
128,-0.00143402325920761,0.00470736436545849,-0.00778057798743248,-0.00886057876050472,-0.00808507017791271,0.00739403208717704
129,-6.28957714070566E-05,0.00436568120494485,-0.00778721133247018,-0.00727604003623128,-0.00476024067029357,0.00420364458113909
130,0.00173573615029454,0.00149882805999368,-0.00734775792807341,-0.00681299576535821,-0.00126321206334978,0.00430757785215974
131,0.00292227207683027,-0.00166009168606251,-0.00736159784719348,-0.00814656540751457,-0.000933903036639094,0.00662669818848372
132,0.00308416248299181,-0.00351935066282749,-0.00828222185373306,-0.0115900272503495,-0.00479772314429283,0.00640238029882312
133,0.00353642948903143,-0.00338552263565362,-0.00927384104579687,-0.0162271708250046,-0.0104633420705795,0.00145018438342959
134,0.00487321056425571,-0.00202601123601198,-0.00965118128806353,-0.02063824608922,-0.014798735268414,-0.00590995186939836
135,0.0065481960773468,-0.00146926799789071,-0.00948285311460495,-0.0238896552473307,-0.0159308891743422,-0.0128313172608614
136,0.00822797324508429,-0.00228167092427611,-0.00847985222935677,-0.0247247368097305,-0.0139258578419685,-0.0162815004587173
137,0.0095418207347393,-0.0027333612088114,-0.0066425115801394,-0.0221884902566671,-0.0107696559280157,-0.0131336823105812
138,0.00930988043546677,-0.00291934027336538,-0.00550561118870974,-0.0180448107421398,-0.00910701975226402,-0.00458942959085107
139,0.00761160533875227,-0.00478254305198789,-0.00542176980525255,-0.0135842058807611,-0.00861844886094332,0.00555291818454862
140,0.00617986591532826,-0.006534812040627,-0.00459412392228842,-0.00766109582036734,-0.00695376889780164,0.0148850306868553
141,0.00441989162936807,-0.00586221739649773,-0.00433432590216398,-0.00309450901113451,-0.00641866307705641,0.0195167865604162
142,0.00162029825150967,-0.00478374399244785,-0.00734192412346601,-0.00381798855960369,-0.00943483132869005,0.0167795773595572
143,0.000409156869864091,-0.00463381176814437,-0.0116063132882118,-0.00824160501360893,-0.011966597288847,0.00992159452289343
144,0.00156606326345354,-0.00513936905190349,-0.0140084745362401,-0.0138612994924188,-0.0115437181666493,0.00270033907145262
145,0.00286901276558638,-0.00718792108818889,-0.0138928992673755,-0.019134359434247,-0.0103683536872268,-0.00358842266723514
146,0.00347522273659706,-0.0105123221874237,-0.0123087577521801,-0.0218945872038603,-0.00951475650072098,-0.00763510121032596
147,0.00342701142653823,-0.0135644236579537,-0.0113221285864711,-0.0210603289306164,-0.00910576712340117,-0.008436837233603
148,0.0026896707713604,-0.0152541128918529,-0.0108118103817105,-0.0169034879654646,-0.00865707453340292,-0.00577658414840698
149,0.00169622746761888,-0.0147034889087081,-0.00923381745815277,-0.011638417840004,-0.00705868005752563,-0.000653233088087291
150,0.000829989439807832,-0.0123861255124211,-0.00797519087791443,-0.0100864730775356,-0.00612913304939866,0.00296954647637904
151,0.00061283609829843,-0.010129009373486,-0.00915602874010801,-0.0145032489672303,-0.00895277503877878,0.00182316661812365
152,0.00198483746498823,-0.00878527667373419,-0.0117098009213805,-0.0212145689874887,-0.0144530925899744,-0.00272053480148315
153,0.00462038116529584,-0.0085416492074728,-0.0138963293284178,-0.0259418655186892,-0.0192870981991291,-0.00809688773006201
154,0.00694450130686164,-0.00948959402740002,-0.0156299155205488,-0.0276582147926092,-0.0223519615828991,-0.0128762135282159
155,0.00810421537607908,-0.0104151293635368,-0.0173562821000814,-0.0277674831449986,-0.0242317896336317,-0.0165808200836182
156,0.00767847523093224,-0.00966808665543795,-0.019858330488205,-0.0285622328519821,-0.0259299520403147,-0.0190462935715914
157,0.00587817840278149,-0.00706271827220917,-0.0232106279581785,-0.0309153776615858,-0.0281355287879705,-0.0187865141779184
158,0.0047604781575501,-0.00337622384540737,-0.025126188993454,-0.0328531265258789,-0.029907176271081,-0.0142769636586308
159,0.00549075240269303,-0.000338232173817232,-0.0240751691162586,-0.0324706211686134,-0.0297465492039919,-0.00722867995500565
160,0.00632473733276129,0.00038382044294849,-0.0216134190559387,-0.0303353443741798,-0.0274542979896069,-0.000938619894441217
161,0.006033840123564,-0.000752935477066785,-0.0193053483963013,-0.0273898132145405,-0.0241653211414814,0.00308827706612647
162,0.00625007506459951,-0.00286166067235172,-0.0164838936179876,-0.0231092441827059,-0.0209114477038383,0.00435487926006317
163,0.00832188595086336,-0.00475148111581802,-0.012246354483068,-0.0171093326061964,-0.0179159007966518,0.00304626836441457
164,0.0103620272129774,-0.00525064161047339,-0.00888879969716072,-0.0129609638825059,-0.0157078430056572,-0.00116325356066227
165,0.0103434910997748,-0.00600778590887785,-0.00911671947687864,-0.0145183894783258,-0.0151844257488847,-0.00899783987551928
166,0.00821562204509974,-0.00935396738350391,-0.0122996345162392,-0.0200705919414759,-0.0170875135809183,-0.0187037196010351
167,0.00548978103324771,-0.0140121039003134,-0.0159422978758812,-0.0253401473164558,-0.0196977872401476,-0.0266345720738173
168,0.00454491190612316,-0.0165442656725645,-0.017619239166379,-0.0277168117463589,-0.0189880821853876,-0.0298514813184738
169,0.00542141683399677,-0.0161765031516552,-0.0169281158596277,-0.0276124570518732,-0.0144129348918796,-0.028622180223465
170,0.00631181988865137,-0.0141087984666228,-0.0151274669915438,-0.0262050405144691,-0.0101479860022664,-0.0247830469161272
171,0.00668499059975147,-0.0106788007542491,-0.0129346204921603,-0.0234364587813616,-0.00948068778961897,-0.019302923232317
172,0.00693119317293167,-0.0063497768715024,-0.0103644039481878,-0.0195909962058067,-0.0113131813704968,-0.0137412054464221
173,0.0073898141272366,-0.00174236274324358,-0.00688805198296905,-0.0137904211878777,-0.0125913303345442,-0.00872251763939857
174,0.00812993664294481,0.00272565265186131,-0.00211869133636355,-0.00381474732421339,-0.011412700638175,-0.0025259384419769
175,0.00870634149760008,0.0056213908828795,0.00320469448342919,0.0094856321811676,-0.00729566952213645,0.00605056853964925
176,0.0077904392965138,0.00513451732695103,0.00727517157793045,0.0207275226712227,-0.00221625762060285,0.014959336258471
177,0.00408586906269193,0.00156878877896816,0.00827692728489637,0.0234167687594891,0.0002326895337319,0.0195685401558876
178,-0.00194242992438376,-0.00212406530044973,0.00601762905716896,0.0159168597310781,-0.000983760459348559,0.0177313722670078
179,-0.0076276701875031,-0.00253038411028683,0.00198623584583402,0.0037389702629298,-0.00420541036874056,0.0131165906786919
180,-0.00959860533475876,0.000972415553405881,-0.00160235725343227,-0.00591555144637823,-0.00673977425321937,0.0103994244709611
181,-0.00657040579244494,0.00614758487790823,-0.00244808429852128,-0.00954879634082317,-0.0058071305975318,0.0105211352929473
182,-0.000535709725227207,0.0107914134860039,-4.56104971817695E-05,-0.00782911013811827,-0.00199076347053051,0.0123764034360647
183,0.00454946607351303,0.0124557679519057,0.00281039741821587,-0.0047493102028966,0.000687295920215547,0.0138306925073266
184,0.00714823976159096,0.0101616736501455,0.0045802891254425,-0.00171306426636875,0.000581547676119953,0.0147065548226237
185,0.00870163179934025,0.00745445443317294,0.00669310754165053,0.00350296311080456,-0.000811342673841864,0.017164783552289
186,0.00908057764172554,0.00707838498055935,0.00785514153540134,0.00805056747049093,-0.00280902697704732,0.0190534293651581
187,0.00788561161607504,0.00754235684871674,0.00601978693157434,0.00802883878350258,-0.00489075295627117,0.0170275010168552
188,0.00702984631061554,0.00787755567580462,0.00352805526927114,0.00575966155156493,-0.00545076280832291,0.0129763744771481
189,0.00769192585721612,0.0085023483261466,0.00334267062135041,0.00414534145966172,-0.00382664473727345,0.00966715440154076
190,0.00955027993768454,0.00985864922404289,0.00573279242962599,0.00396391935646534,-0.000806711963377893,0.00800036825239658
191,0.0118076466023922,0.0117711937054992,0.00946260057389736,0.00520968670025468,0.00215335912071168,0.00827355962246656
192,0.0123150572180748,0.0119212372228503,0.012374241836369,0.00668870517984033,0.00291385548189282,0.00868258345872164
193,0.0101891299709678,0.00889876764267683,0.013004869222641,0.00756661919876933,0.000758842623326927,0.0067583411000669
194,0.00757323764264584,0.00479029957205057,0.0113380746915936,0.00767677370458841,-0.00206490163691342,0.0026668980717659
195,0.0067514656111598,0.00282097980380058,0.00858404207974672,0.00760011794045568,-0.00228093168698251,-0.000508119468577206
196,0.00813023466616869,0.00455394992604852,0.00713679706677794,0.00904164463281631,0.0016778166173026,0.00114716356620193
197,0.0100045679137111,0.00834886729717255,0.00764452945441008,0.0124572338536382,0.00787483248859644,0.00843403860926628
198,0.0104761915281415,0.0113557670265436,0.00855285115540028,0.0161963067948818,0.0128626599907875,0.0176213048398495
199,0.00964871514588594,0.0125894360244274,0.00887611601501703,0.0179852414876223,0.015213523991406,0.0239325743168592
200,0.00882429629564285,0.0129078356549144,0.00891919434070587,0.0170724187046289,0.0158017463982105,0.0255759730935097
201,0.00946355983614922,0.0138733014464378,0.0100173773244023,0.015655854716897,0.0166805367916822,0.0246590040624142
202,0.01224993634969,0.0160624962300062,0.0127330645918846,0.0164504330605268,0.0193187668919563,0.0241172201931477
203,0.0148200280964375,0.0175471529364586,0.0149585613980889,0.0190789196640253,0.0218059737235308,0.0239564273506403
204,0.0139084244146943,0.0165577940642834,0.0144998524338007,0.020608875900507,0.0210199393332005,0.0224375296384096
205,0.0101905791088939,0.014555437490344,0.0122290095314384,0.0191875342279673,0.0171675141900778,0.019432770088315
206,0.00728611880913377,0.0139654446393251,0.010966282337904,0.0159249790012836,0.0131941074505448,0.0166638623923063
207,0.00652547972276807,0.0137571198865771,0.0113552138209343,0.0123246191069484,0.0110037298873067,0.0144880441948771
208,0.0060205995105207,0.0106778712943196,0.0118846083059907,0.00920733157545328,0.0101417535915971,0.0117509718984365
209,0.0040698298253119,0.00645263772457838,0.0118119418621063,0.00717714847996831,0.00946338567882776,0.00936441123485565
210,0.000397248659282923,0.00551100727170706,0.0105384858325124,0.0046634585596621,0.00807230360805988,0.00839810073375702
211,-0.00335092702880502,0.00751916924491525,0.00865183491259813,0.00095707835862413,0.00670917378738523,0.00809675082564354
212,-0.00509802717715502,0.00953233614563942,0.00741011369973421,-0.00218410673551261,0.00682836677879095,0.00790802109986544
213,-0.00431679049506783,0.0100327301770449,0.00649843271821737,-0.0041040051728487,0.00862044841051102,0.00739552034065127
214,-0.00148609734605998,0.00968256220221519,0.00546552985906601,-0.00458236737176776,0.0110871801152825,0.0062985410913825
215,0.001459916587919,0.00936645083129406,0.00436183158308268,-0.00325674004852772,0.0126012293621898,0.00515515636652708
216,0.00275608012452722,0.00856940262019634,0.003360252128914,-0.00125048484187573,0.0128993596881628,0.00463877804577351
217,0.00315137370489538,0.0072253942489624,0.00278727733530104,1.73800435732119E-05,0.0129914879798889,0.00516266981139779
218,0.0039323871023953,0.00613978132605553,0.00281156902201474,0.000125226055388339,0.013312915340066,0.00642327126115561
219,0.0048358365893364,0.00565617904067039,0.00328229856677353,-0.000524086935911328,0.0138211008161306,0.00786529667675495
220,0.00452025234699249,0.00533398147672415,0.00359178869985044,-0.000974271562881768,0.0135375084355474,0.00994513649493456
221,0.00198434107005596,0.00448757316917181,0.0028346492908895,-0.000584499328397214,0.0100281266495585,0.0131258396431804
222,-0.00175373302772641,0.00295161711983383,0.00120811443775892,0.00105593074113131,0.00306134927086532,0.015986068174243
223,-0.00466709351167083,0.00113504484761506,0.00028622688842006,0.00367915700189769,-0.00410582730546594,0.0168608427047729
224,-0.00573241012170911,-0.000212800980079919,0.00158551789354533,0.00594043266028166,-0.00829781498759985,0.0160239059478045
225,-0.00495836557820439,-0.000304129585856572,0.00545173464342952,0.00752722984179854,-0.00911536253988743,0.0150274317711592
226,-0.00313419289886951,0.000409780419431627,0.0100736748427153,0.00844317954033613,-0.00809130538254976,0.0141021711751819
227,-0.00165309512522072,0.000165728881256655,0.0123003274202347,0.00832327362149954,-0.0069210221990943,0.0120565230026841
228,-0.00128799083177,-0.0013826044742018,0.0109506342560053,0.00903992727398872,-0.00720250559970737,0.00941321905702353
229,-0.00142254226375371,-0.00290174060501158,0.00773640023544431,0.0110694756731391,-0.00827817432582378,0.00685671996325254
230,-0.00175891420803964,-0.00355231831781566,0.00441973144188523,0.0109700066968799,-0.00804069917649031,0.00396707281470299
231,-0.00194327358622104,-0.00298760319128633,0.00211821449920535,0.00749979028478265,-0.0052261259406805,0.00213618576526642
232,-0.00173667492344975,-0.00197172118350863,0.00136047985870391,0.00342371361330152,-0.000858847051858902,0.00381901441141963
233,-0.00185623939614743,-0.000520705478265882,0.00117687042802572,0.00098451494704932,0.0017772406572476,0.00925085600465536
234,-0.00225828331895173,0.00364047870971262,0.000356090953573585,-0.000846189563162625,0.00106702244374901,0.0152895981445909
235,-0.00222860253416002,0.0099910506978631,-0.000963524798862636,-0.00341999158263206,-0.00119779305532575,0.0188598651438951
236,-0.000927238317672163,0.0155357792973518,-0.00140703143551946,-0.00558401457965374,-0.0020343353971839,0.0205510258674622
237,0.00147128943353891,0.0191187374293804,-0.00025853468105197,-0.00610942021012306,-0.000861661101225764,0.0221169050782919
238,0.00280877249315381,0.0202183835208416,0.00138759007677436,-0.00557159120216966,9.83047721092589E-05,0.0226636733859777
239,0.00215164222754538,0.0183437019586563,0.00232340837828815,-0.00462089432403445,-0.000754069478716701,0.020254235714674
240,0.0016142496606335,0.0142735056579113,0.00318958587013185,-0.00255534471943974,-0.00218157027848065,0.0161859374493361
241,0.00219503417611122,0.00884318724274635,0.00432576239109039,0.000457607704447582,-0.00278380094096065,0.0126437470316887
242,0.00227577076293528,0.00256673083640635,0.00442548422142863,0.00318583101034164,-0.00323498272337019,0.00928550306707621
243,0.00158478773664683,-0.00269813649356365,0.00389957590959966,0.00546341994777322,-0.00375027791596949,0.00563662359490991
244,0.00247502489946783,-0.00438608648255467,0.0046563777141273,0.00696919998154044,-0.00358970975503325,0.00332819973118603
245,0.00553745264187455,-0.00181149668060243,0.00634298473596573,0.00680616684257984,-0.0038302440661937,0.00471127964556217
246,0.0081228818744421,0.00326076592318714,0.00682824710384011,0.00507736066356301,-0.00603161100298166,0.00844228826463223
247,0.00893375836312771,0.00848063640296459,0.00554252462461591,0.00291781360283494,-0.00886191800236702,0.00998161546885967
248,0.00848595332354307,0.0121178235858679,0.00369376735761762,0.00124619272537529,-0.0111149540171027,0.0074705914594233
249,0.00702556408941746,0.0140886325389147,0.0017558615654707,0.000333331117872149,-0.014565346762538,0.00381831382401288
250,0.0051056076772511,0.0151735227555037,-0.00109225022606552,-0.000426369777414948,-0.0200065784156322,0.00224005826748908
251,0.00385066075250506,0.0151865128427744,-0.00426428252831101,-0.00181009212974459,-0.0241360869258642,0.00263479468412697
252,0.00385378301143646,0.0133482553064823,-0.00542123196646571,-0.00262798415496945,-0.0233253184705973,0.00417987629771233
253,0.00422835955396295,0.00920651201158762,-0.00351980794221163,-0.000684595026541501,-0.0175535827875137,0.0068591358140111
254,0.00348537066020072,0.00475037144497037,-0.000490407168399543,0.00223328196443617,-0.010693583637476,0.00881595723330975
255,0.00106083950959146,0.00334911793470383,0.000449547340394929,0.00117036828305572,-0.00893871951848269,0.00749499723315239
256,-0.00172208610456437,0.00603429460898042,-0.000807409698609263,-0.003647246863693,-0.014072791673243,0.00487126829102635
257,-0.00330670503899455,0.01108986325562,-0.00218839035369456,-0.00811078771948814,-0.0213940087705851,0.00519745983183384
258,-0.00351339927874506,0.0155352205038071,-0.00347827817313373,-0.0107943955808878,-0.0261863227933645,0.00845313165336847
259,-0.00285520940087736,0.0169292762875557,-0.00540424371138215,-0.0126398131251335,-0.0273016691207886,0.00984807033091784
260,-0.00204029236920178,0.0141803976148367,-0.00778503622859716,-0.014442608691752,-0.0258824024349451,0.00509079545736313
261,-0.00146065407898277,0.00836205575615168,-0.00955935847014189,-0.0152180548757315,-0.0235654357820749,-0.00480842962861061
262,-0.00168304110411555,0.00177739735227078,-0.0104328161105514,-0.0149336494505405,-0.0225924849510193,-0.0165861938148737
263,-0.00242285779677331,-0.00359023897908628,-0.0105337062850595,-0.0137572968378663,-0.0234892126172781,-0.0269531402736902
264,-0.00254171737469733,-0.00661979895085096,-0.00981928128749132,-0.0101661933586001,-0.0235814563930035,-0.0318586155772209
265,-0.00254473695531487,-0.00787578243762255,-0.00881352182477713,-0.00561975175514817,-0.0215477887541056,-0.0300222188234329
266,-0.00271601276472211,-0.00743270153179765,-0.00784286018460989,-0.00374134792946279,-0.0189249161630869,-0.0233003795146942
267,-0.00240442575886846,-0.00471408199518919,-0.00826639123260975,-0.00636971974745393,-0.0179000981152058,-0.0151162063702941
268,-0.00187776261009276,-0.000578729552216828,-0.0111167244613171,-0.0119971260428429,-0.0195704717189074,-0.00871662050485611
269,-0.00109570100903511,0.00388052244670689,-0.014193874783814,-0.016112519428134,-0.0220927279442549,-0.00415595760568976
270,0.000185359502211213,0.00792002491652966,-0.0150564089417458,-0.0159071553498507,-0.0224197376519442,-6.37365337752271E-06
271,0.00118924083653837,0.0107288043946028,-0.0133653823286295,-0.0119085842743516,-0.0198558941483498,0.00476260390132666
272,0.00144683546386659,0.0118825286626816,-0.00934974756091833,-0.00561611820012331,-0.0155900893732905,0.0103748990222812
273,0.00141005241312087,0.0115121668204665,-0.00329467584379017,0.00180182722397149,-0.0103233195841312,0.0158522389829159
274,0.00125246483366936,0.0105880470946431,0.00321927899494767,0.00907574407756329,-0.00508323777467012,0.0203434266149998
275,0.000903165782801807,0.00960806850343943,0.00747530674561858,0.0132687231525779,-0.00177168077789247,0.0222107749432325
276,0.000733348191715777,0.00767092360183597,0.00811182800680399,0.0125712724402547,-0.00150693289469928,0.020166452974081
277,0.000862890447024256,0.00471772439777851,0.00583876948803663,0.00871534459292889,-0.00463577592745423,0.015755619853735
278,0.0014497657539323,0.00231068930588663,0.00232723308727145,0.00394777813926339,-0.00895404070615768,0.0103378025814891
279,0.00316879642196,0.000994551344774663,-0.000423992954893038,-0.000459002621937543,-0.00966963078826666,0.00395491207018495
280,0.00622375262901187,-0.000256485247518867,-0.000845888047479093,-0.00277842627838254,-0.00513681164011359,-0.00153389538172632
281,0.0091645335778594,-0.00107390817720443,0.00020152200886514,-0.00321090081706643,0.00024775744532235,-0.00463545555248857
282,0.0102548217400908,-0.000226068077608943,6.45334584987722E-05,-0.00479469681158662,0.00114871724508703,-0.00701897125691175
283,0.0100831286981702,0.00172872620169073,-0.00113193923607469,-0.00768759287893772,-0.00191741052549332,-0.00971692986786366
284,0.0104448748752475,0.00398119399324059,-0.00111734587699175,-0.00907301437109709,-0.00410072924569249,-0.0114971566945314
285,0.0116205625236034,0.00597642129287124,-0.000499686517287046,-0.0086619034409523,-0.00381113775074482,-0.0117476945742965
286,0.0120555348694324,0.00673395348712802,-0.00182770774699748,-0.00885402411222458,-0.00456056511029601,-0.0113933114334941
287,0.0116067063063383,0.00722720380872488,-0.00446128100156784,-0.0102086504921317,-0.00743160163983703,-0.010602262802422
288,0.0108893299475312,0.00787702668458223,-0.00676294462755322,-0.012110716663301,-0.0100273555144668,-0.00969921331852674
289,0.00908582005649805,0.00726189138367772,-0.00897623598575592,-0.0142877334728837,-0.0123411267995834,-0.00958402268588543
290,0.00691690156236291,0.00664264103397727,-0.0108412876725197,-0.0156266335397959,-0.0151929948478937,-0.00998462550342083
291,0.0058514024131,0.00722015649080276,-0.0121307792142034,-0.0159344989806414,-0.018393637612462,-0.011288651265204
292,0.00562512036412954,0.0069914530031383,-0.0128548741340637,-0.0160185247659683,-0.0217321012169123,-0.0142218619585037
293,0.00526459142565727,0.00539385108277202,-0.0130586177110672,-0.0164954904466867,-0.025833873078227,-0.0177208818495274
294,0.00479184649884701,0.00530580291524529,-0.0132802883163095,-0.0175770111382008,-0.0313303209841251,-0.0203073099255562
295,0.00507811084389687,0.00743637513369322,-0.0141724236309528,-0.0198183991014957,-0.0368368327617645,-0.0224742777645588
296,0.00599167728796601,0.00911173038184643,-0.0163865834474564,-0.023519940674305,-0.0417190678417683,-0.0244581457227468
297,0.00678840465843678,0.00956614688038826,-0.0198488496243954,-0.0277751758694649,-0.0472300164401531,-0.0255324766039848
298,0.00706480722874403,0.00919712986797094,-0.0243489015847445,-0.0326799638569355,-0.053721372038126,-0.0278954710811377
299,0.0067346403375268,0.00765505060553551,-0.0294260811060667,-0.0381035879254341,-0.0601469315588474,-0.0338851772248745
300,0.00651464331895113,0.00599383236840367,-0.0339739620685577,-0.0415783300995827,-0.0655426755547524,-0.0410787276923656
301,0.00758087448775768,0.00619078474119306,-0.0372635908424854,-0.0417164117097855,-0.0698288455605507,-0.0453398525714874
302,0.0093705840408802,0.00826778262853622,-0.0394732020795345,-0.0406669788062572,-0.0736598521471024,-0.0458468608558178
303,0.0102148214355111,0.0107878874987364,-0.0410218089818954,-0.040940273553133,-0.077639602124691,-0.0444113872945309
304,0.0097057968378067,0.0129731222987175,-0.0420457385480404,-0.0423806756734848,-0.0820942893624306,-0.0422673895955086
305,0.00826004613190889,0.0143352579325438,-0.0432526208460331,-0.0436137318611145,-0.0873881876468658,-0.0403533726930618
306,0.00688899261876941,0.0146433878690004,-0.0450887568295002,-0.0444581285119057,-0.0925586298108101,-0.0407225750386715
307,0.00668660085648298,0.0139797860756516,-0.0470703616738319,-0.0463291518390179,-0.0957721024751663,-0.0459699109196663
308,0.00818352866917849,0.0118080731481314,-0.0490325056016445,-0.0512132942676544,-0.0964055433869362,-0.0575263351202011
309,0.0107749756425619,0.00781888514757156,-0.0518646240234375,-0.0596776381134987,-0.0966673791408539,-0.0730797201395035
310,0.0123460693284869,0.00300169317051768,-0.0565029941499233,-0.0694198161363602,-0.10029298812151,-0.0870839729905128
311,0.0119229722768068,-0.00204567355103791,-0.0617912523448467,-0.0765737965703011,-0.10712107270956,-0.0957389920949936
312,0.0103535372763872,-0.00729513168334961,-0.065753385424614,-0.0791179984807968,-0.113842368125916,-0.100001856684685
313,0.00769954733550549,-0.0106289014220238,-0.0688594654202461,-0.079987570643425,-0.119854629039764,-0.10422495007515
314,0.00390375172719359,-0.0099275941029191,-0.0719381645321846,-0.0832177400588989,-0.125637531280518,-0.11147878319025
315,0.000182194344233721,-0.00663377530872822,-0.0736210346221924,-0.0883200541138649,-0.129302129149437,-0.120796032249928
316,-0.00182106345891953,-0.00298005063086748,-0.0727423280477524,-0.0926754474639893,-0.1289371997118,-0.128849506378174
317,-0.000968615466263145,-0.000636864162515849,-0.0707280114293098,-0.0956712141633034,-0.12530554831028,-0.133269563317299
318,0.00240923021920025,-0.00118827528785914,-0.0706958100199699,-0.0992535799741745,-0.121607683598995,-0.13527238368988
319,0.00748394103720784,-0.00362747511826456,-0.0722550824284554,-0.104219749569893,-0.118582032620907,-0.137802973389626
320,0.013095366768539,-0.00604797806590796,-0.071378268301487,-0.108245968818665,-0.114052504301071,-0.142235785722733
321,0.0167921353131533,-0.00820983108133078,-0.0676864683628082,-0.109658874571323,-0.109368622303009,-0.147633075714111
322,0.0169018860906363,-0.0103517984971404,-0.065417543053627,-0.10948558151722,-0.108164340257645,-0.152875512838364
323,0.0141069879755378,-0.0123200053349137,-0.0675214603543282,-0.109225690364838,-0.110803984105587,-0.15812873840332
324,0.0106790410354733,-0.013575010932982,-0.0726884454488754,-0.10916081815958,-0.11474970728159,-0.163454428315163
325,0.00921377539634705,-0.0135585246607661,-0.0773182138800621,-0.108809262514114,-0.117634832859039,-0.167719617486
326,0.0106861870735884,-0.0126607017591596,-0.0786142796278,-0.108046479523182,-0.118450455367565,-0.169879496097565
327,0.0130728054791689,-0.0124362083151937,-0.076799064874649,-0.107956774532795,-0.11824432015419,-0.16981828212738
328,0.0135727375745773,-0.0133890546858311,-0.0743663609027863,-0.110008269548416,-0.119266971945763,-0.166375339031219
329,0.0119303725659847,-0.0144722834229469,-0.0730651468038559,-0.114292651414871,-0.120879799127579,-0.159108400344849
330,0.00994461867958307,-0.0145796798169613,-0.0725214555859566,-0.118645273149014,-0.12032125890255,-0.151039198040962
331,0.00848974194377661,-0.0130392266437411,-0.0715071335434914,-0.119892835617065,-0.118215255439281,-0.144811734557152
332,0.00735767791047692,-0.0098889647051692,-0.0696800798177719,-0.116716928780079,-0.117328070104122,-0.139812096953392
333,0.00683869328349829,-0.00710179517045617,-0.0679352656006813,-0.110632047057152,-0.117614716291428,-0.135392710566521
334,0.00744261825457215,-0.00672969501465559,-0.066966325044632,-0.103569388389587,-0.116256460547447,-0.132832407951355
335,0.00917580630630255,-0.00694070616737008,-0.065476693212986,-0.0967453196644783,-0.110788360238075,-0.133081927895546
336,0.0110530555248261,-0.00622780155390501,-0.0618542060256004,-0.0914639011025429,-0.101544104516506,-0.134953618049622
337,0.0120560573413968,-0.00598981417715549,-0.0571454726159573,-0.0879778936505318,-0.0915329977869987,-0.135818406939507
338,0.0126933166757226,-0.00581344217061996,-0.0532124675810337,-0.0854578465223312,-0.0822070837020874,-0.133488833904266
339,0.0134416520595551,-0.00484996801242232,-0.0505046285688877,-0.0839098691940308,-0.0728751495480537,-0.127750292420387
340,0.0135488798841834,-0.00423117913305759,-0.0492404922842979,-0.0837128981947899,-0.0650338754057884,-0.120010688900948
341,0.0125771630555391,-0.00445618154481053,-0.0494994781911373,-0.0836181491613388,-0.0612658970057964,-0.111337207257748
342,0.01107232645154,-0.00448133004829288,-0.0503286048769951,-0.081133209168911,-0.0612468719482422,-0.101590268313885
343,0.0100572146475315,-0.00383724994026124,-0.050102636218071,-0.0754295960068703,-0.0615285485982895,-0.0907208397984505
344,0.00967688485980034,-0.00382755696773529,-0.0481290780007839,-0.0680347606539726,-0.060420535504818,-0.0803084820508957
345,0.00956675596535206,-0.005501679610461,-0.0451074540615082,-0.0604531168937683,-0.0595566779375076,-0.0727272257208824
346,0.0106387883424759,-0.00871659349650145,-0.0416019707918167,-0.0537915788590908,-0.0584373697638512,-0.069637805223465
347,0.0134047856554389,-0.0135025894269347,-0.0361653380095959,-0.0484205447137356,-0.0535196326673031,-0.0703577399253845
348,0.0153700709342957,-0.0199170541018248,-0.0290328655391932,-0.0442405194044113,-0.0442175790667534,-0.0718695670366287
349,0.0139090362936258,-0.0259712506085634,-0.0243109054863453,-0.0416299290955067,-0.0350714065134525,-0.0708120092749596
350,0.00970604550093412,-0.0282866507768631,-0.023676797747612,-0.0401632748544216,-0.0306852199137211,-0.0644767582416534
351,0.00500773778185248,-0.0262334682047367,-0.0259471945464611,-0.0391161292791367,-0.03052051179111,-0.0530898123979568
352,0.0022579946089536,-0.0213329568505287,-0.0293192937970161,-0.0373853929340839,-0.0297135040163994,-0.0388885214924812
353,0.00298092514276505,-0.0148056792095304,-0.030550854280591,-0.0332099348306656,-0.0252053309231997,-0.0222857315093279
354,0.00579975731670856,-0.00884191878139973,-0.0279689952731133,-0.0260374248027802,-0.0179751217365265,-0.00355017185211182
355,0.00721283676102757,-0.00492202490568161,-0.0242814123630524,-0.0188986733555794,-0.0110009051859379,0.012513785623014
356,0.00510216504335403,-0.00267844088375568,-0.0229201298207045,-0.0159772224724293,-0.00703375367447734,0.0188445802778006
357,0.00206657196395099,-0.00118501216638833,-0.0222576111555099,-0.0152636310085654,-0.00435910606756806,0.0156226167455316
358,0.00156513846013695,0.000630606024060398,-0.0193463191390038,-0.0127627793699503,0.00117696856614202,0.00967169832438231
359,0.00258352630771697,0.00229804124683142,-0.0153342178091407,-0.00966215040534735,0.00952596589922905,0.005543053150177
360,0.00267888163216412,0.00271897087804973,-0.0112618608400226,-0.00711855152621865,0.0185885522514582,0.00418909918516874
361,0.000876995269209147,0.00137719814665616,-0.00611517811194062,-0.00398252019658685,0.0277908742427826,0.00411914708092809
362,-0.00268248002976179,-0.00167064322158694,-0.000321258907206357,7.88488832768053E-05,0.0358404442667961,0.00403257505968213
363,-0.00670964736491442,-0.00536354212090373,0.00378443696536124,0.00428587198257446,0.0397155731916428,0.00591539079323411
364,-0.00874258019030094,-0.00815390516072512,0.00534593127667904,0.00757940206676722,0.0387539751827717,0.012301997281611
365,-0.00647227140143514,-0.00885860342532396,0.00661945156753063,0.0104459933936596,0.0375686436891556,0.0224610380828381
366,-0.00122856663074344,-0.00820774119347334,0.00910761300474405,0.0142202880233526,0.0408431515097618,0.0320506505668163
367,0.00332563905976713,-0.00748187629505992,0.0120984278619289,0.0193139724433422,0.0487910248339176,0.0382042117416859
368,0.00528679275885224,-0.00619453331455588,0.0150883626192808,0.0261935386806726,0.0580186694860458,0.0428178384900093
369,0.00445206044241786,-0.00441670464351773,0.0177996456623077,0.0341979004442692,0.0641452819108963,0.0473668351769447
370,0.0022772999946028,-0.00337817799299955,0.0208343025296927,0.0413705371320248,0.0665416046977043,0.0515056699514389
371,0.00065979000646621,-0.00339544378221035,0.0251120962202549,0.0465228147804737,0.0672862753272057,0.0558429062366486
372,-0.000884279143065214,-0.00503680808469653,0.0281293243169785,0.0483748018741608,0.0668199956417084,0.0594228282570839
373,-0.00258577545173466,-0.00749142374843359,0.0276978146284819,0.0478314086794853,0.0677206292748451,0.0616479553282261
374,-0.00313431792892516,-0.0072499755769968,0.0265225265175104,0.0487168990075588,0.0734769180417061,0.0646012499928474
375,-0.00291530997492373,-0.0034563085064292,0.0274214707314968,0.0519893392920494,0.0817984044551849,0.0684733390808105
376,-0.00296769058331847,0.000269428186584264,0.0307043064385653,0.0564444214105606,0.0880933776497841,0.0721172541379929
377,-0.00330260442569852,0.000383428850909695,0.0351955853402615,0.063036821782589,0.0908579453825951,0.0749519988894463
378,-0.00355782778933644,-0.00168469618074596,0.0385483354330063,0.0708383992314339,0.0914135202765465,0.074971541762352
379,-0.00434727454558015,-0.00243198219686747,0.0382338985800743,0.0741755589842796,0.0899517387151718,0.0702606067061424
380,-0.00616322038695216,-0.00152042089030147,0.0341150313615799,0.0702387541532516,0.0859200209379196,0.0625208467245102
381,-0.00683043990284204,-0.000279804458841681,0.0293875448405743,0.0624506436288357,0.0827270448207855,0.0555104799568653
382,-0.0047863507643342,-0.000907020934391767,0.0266517363488674,0.0553464815020561,0.084104411303997,0.0510644540190697
383,-0.0019841140601784,-0.00461258739233017,0.0261031500995159,0.0513236820697784,0.0892098024487495,0.0491017438471317
384,-0.000546967377886176,-0.00957557931542397,0.0275569763034582,0.0500817857682705,0.0952117294073105,0.0487929694354534
385,-0.000358326913556084,-0.0134627725929022,0.0304910391569138,0.0503052361309528,0.100000627338886,0.0495484843850136
386,-0.000768298923503608,-0.0152803584933281,0.0334600359201431,0.0512277260422707,0.102270059287548,0.051167007535696
387,-0.00141458609141409,-0.0148589126765728,0.0356898419559002,0.0525694638490677,0.102055445313454,0.0529629811644554
388,-0.00136939075309783,-0.0123917404562235,0.0372278764843941,0.0544415377080441,0.100726671516895,0.0549760609865189
389,-0.000118925483548082,-0.00932395271956921,0.038198247551918,0.0564922168850899,0.0999944657087326,0.057609785348177
390,0.00161639635916799,-0.00783937238156796,0.0394812971353531,0.0578357689082623,0.101417794823647,0.060194805264473
391,0.00303048617206514,-0.00864872988313437,0.0416313037276268,0.058454766869545,0.104644656181335,0.062306385487318
392,0.00347703136503696,-0.0110600059852004,0.0435645505785942,0.0588009469211102,0.106983333826065,0.0639536380767822
393,0.00301460898481309,-0.0137305399402976,0.0445128791034222,0.059932429343462,0.107543848454952,0.0647745579481125
394,0.00231021363288164,-0.0151776932179928,0.0449107214808464,0.0632224306464195,0.10758651047945,0.0648769438266754
395,0.00177378091029823,-0.0141718052327633,0.0455669946968555,0.0683001130819321,0.107774242758751,0.0653072819113731
396,0.00226621958427131,-0.0102189471945167,0.0477687157690525,0.0741177648305893,0.108912773430347,0.0667209103703499
397,0.00441572908312082,-0.00634067645296454,0.0519566908478737,0.0803823545575142,0.111686073243618,0.0689521282911301
398,0.00709441071376204,-0.00617000879719853,0.0560261979699135,0.0863205343484879,0.115564778447151,0.0717143341898918
399,0.00799422524869442,-0.00762898894026876,0.0570551156997681,0.0895743519067764,0.11874732375145,0.0737713798880577
400,0.00608117412775755,-0.00703979376703501,0.0549713745713234,0.0888636335730553,0.119620874524117,0.0743579789996147
401,0.00234526954591274,-0.00446032686159015,0.0525190159678459,0.0862383469939232,0.118656657636166,0.0751383453607559
402,-0.00215845042839646,-0.00164214195683599,0.0520527735352516,0.0840228497982025,0.116478614509106,0.0768711119890213
403,-0.00682013435289264,-6.42448358121328E-05,0.0537111945450306,0.0824047103524208,0.112592622637749,0.0771061629056931
404,-0.0103971054777503,-0.000262845773249865,0.0566845275461674,0.0811704471707344,0.109030857682228,0.0738505646586418
405,-0.011140238493681,-0.00191581493709236,0.0601821616292,0.0813553184270859,0.109603181481361,0.0683805048465729
406,-0.00883221160620451,-0.00468577025458217,0.0622324347496033,0.0828928574919701,0.113086894154549,0.0629139840602875
407,-0.00627115461975336,-0.00833925232291222,0.0616201609373093,0.0833437442779541,0.114238373935223,0.0586555935442448
408,-0.00593504682183266,-0.0117890750989318,0.0599238164722919,0.0815606117248535,0.111891403794289,0.0563346557319164
409,-0.00659591425210238,-0.0132417920976877,0.0590220429003239,0.0796852931380272,0.109251730144024,0.055284108966589
410,-0.00595995504409075,-0.0126544861122966,0.0592929869890213,0.0799766778945923,0.10862522572279,0.0535005480051041
411,-0.00434508733451366,-0.0119736678898335,0.059574868530035,0.0815964415669441,0.10975293815136,0.0508206151425838
412,-0.00308401719667017,-0.0116066783666611,0.0592169500887394,0.0830585211515427,0.111935377120972,0.050499252974987
413,-0.00229572621174157,-0.0105194272473454,0.0591351389884949,0.0840259119868279,0.114650644361973,0.0542993061244488
414,-0.00233218818902969,-0.00957474485039711,0.059073057025671,0.0837612524628639,0.115642741322517,0.0586675181984901
415,-0.00386485038325191,-0.0105736125260592,0.0579524114727974,0.081514298915863,0.112392991781235,0.0595761649310589
416,-0.006286914460361,-0.0128451380878687,0.0561982989311218,0.077547200024128,0.105558082461357,0.0575436390936375
417,-0.00922358315438032,-0.0140049066394567,0.0544734932482243,0.073029987514019,0.0978671610355377,0.0555895194411278
418,-0.0127718197181821,-0.0130420923233032,0.0526117533445358,0.0693578124046326,0.0913602039217949,0.0550517067313194
419,-0.0151917040348053,-0.0102183241397142,0.0507744885981083,0.0676334276795387,0.0877045318484306,0.0554067194461823
420,-0.0148821910843253,-0.00617306027561426,0.0497334599494934,0.0686417892575264,0.0873608291149139,0.0560057200491428
421,-0.0126941604539752,-0.00281946593895555,0.0499234534800053,0.0721891671419144,0.0885461717844009,0.056302186101675
422,-0.00998824089765549,-0.00257520284503698,0.0519445985555649,0.0777396634221077,0.0899404585361481,0.0566300824284554
423,-0.0073180515319109,-0.0045374259352684,0.0561985708773136,0.0841129571199417,0.0917579084634781,0.0571747273206711
424,-0.00580624211579561,-0.00534802814945579,0.0602468922734261,0.0872412174940109,0.0935530886054039,0.0555540323257446
425,-0.00604576431214809,-0.0039282632060349,0.0620816387236118,0.0855051279067993,0.0956387668848038,0.0514465793967247
426,-0.00730279833078384,-0.00199763220734894,0.0626877397298813,0.0826859325170517,0.0989669561386108,0.0486881509423256
427,-0.00852592475712299,-0.00111985940020531,0.0624394603073597,0.081449069082737,0.102175511419773,0.0503153651952744
428,-0.00798365008085966,-0.000833939004223794,0.0610774494707584,0.0809300914406776,0.103267587721348,0.0560821555554867
429,-0.00533913262188435,-0.00104871927760541,0.0593343898653984,0.0802429020404816,0.101201079785824,0.0621334500610828
430,-0.00215715332888067,-0.003088183933869,0.0583478510379791,0.0802183747291565,0.096464991569519,0.06349216401577
431,0.000433320907177404,-0.00686880946159363,0.058585811406374,0.0811307206749916,0.0919282212853432,0.0584144033491611
432,0.00150006345938891,-0.0105821024626493,0.0590232014656067,0.0811583772301674,0.090254083275795,0.0496057085692883
433,0.00127640424761921,-0.0124048218131065,0.0586614869534969,0.0783946886658669,0.0917433574795723,0.0421616435050964
434,0.00154600583482534,-0.0119254756718874,0.057931374758482,0.0731601715087891,0.094828873872757,0.0400976985692978
435,0.0025847558863461,-0.0107185449451208,0.0571140758693218,0.0672611817717552,0.0967749059200287,0.043335247784853
436,0.00295577058568597,-0.0107990000396967,0.0554169528186321,0.0619747005403042,0.0956102758646011,0.0474855974316597
437,0.00211576465517282,-0.0132989203557372,0.0522953271865845,0.0575556010007858,0.0922296121716499,0.0476275905966759
438,0.00146989442873746,-0.0170651786029339,0.0487383380532265,0.0554140992462635,0.0893051102757454,0.0445998981595039
439,0.00258893403224647,-0.0185424312949181,0.0461903586983681,0.0579127334058285,0.0888368412852287,0.0436418764293194
440,0.00487915333360434,-0.0164371244609356,0.04438341781497,0.0628056898713112,0.0907760262489319,0.0443683266639709
441,0.00646014884114265,-0.0137617215514183,0.0421503186225891,0.0646159946918488,0.0926468446850777,0.0415649712085724
442,0.00697136577218771,-0.0122987292706966,0.0406888984143734,0.0630803778767586,0.0931825041770935,0.0361909084022045
443,0.00701340287923813,-0.0105176474899054,0.0420521050691605,0.0619076639413834,0.0940240174531937,0.0343118160963058
444,0.00663119042292237,-0.00796816498041153,0.0453054383397102,0.0622656457126141,0.0955572426319122,0.0368729010224342
445,0.00597903039306402,-0.00695302337408066,0.0473775342106819,0.0628233253955841,0.0955929681658745,0.0388064868748188
446,0.00559058925136924,-0.00957940053194761,0.0467413924634457,0.0637156292796135,0.0926029458642006,0.0377517268061638
447,0.00610121432691813,-0.0131726749241352,0.0450875982642174,0.0663726776838303,0.0874728560447693,0.0364254079759121
448,0.00665012560784817,-0.0144465481862426,0.0434977151453495,0.068315327167511,0.0811540260910988,0.0347413569688797
449,0.0056942175142467,-0.015322252176702,0.0418128035962582,0.0662028566002846,0.0748228877782822,0.0309275146573782
450,0.00411424692720175,-0.0167525615543127,0.0415488444268703,0.0623297728598118,0.0716429650783539,0.0286888219416142
451,0.00353597733192146,-0.0167061947286129,0.0429032817482948,0.0597491040825844,0.0726356729865074,0.0307967215776443
452,0.00326033541932702,-0.0150410421192646,0.043412733823061,0.0573628507554531,0.0737641975283623,0.0333245769143105
453,0.00228670332580805,-0.0131497820839286,0.0428713783621788,0.0547490380704403,0.0711620002985001,0.0333222039043903
454,0.00115567760076374,-0.0121474536135793,0.043216660618782,0.0536492988467216,0.0651139095425606,0.0316047109663486
455,-0.000479530688608065,-0.0129772676154971,0.0433718673884869,0.0532764829695225,0.0574068874120712,0.0281403809785843
456,-0.00268230936489999,-0.0154680497944355,0.0414566285908222,0.0514851324260235,0.0504920557141304,0.0229343436658382
457,-0.00378942140378058,-0.0180135816335678,0.0388423502445221,0.0486821047961712,0.0468725599348545,0.0176059361547232
458,-0.00329895643517375,-0.019399544224143,0.0374200157821178,0.0474051237106323,0.0466796569526196,0.0140628702938557
459,-0.00189867219887674,-0.0197238512337208,0.037832822650671,0.0498109422624111,0.0486984439194202,0.0133333969861269
460,-0.000409126427257434,-0.0199203751981258,0.0402042903006077,0.0553064122796059,0.0508877746760845,0.0151774315163493
461,0.000221374633838423,-0.0200845766812563,0.043214462697506,0.0603666715323925,0.0510424450039864,0.0192467831075192
462,-0.00129794841632247,-0.0193239077925682,0.043427936732769,0.0604326352477074,0.0485947467386723,0.0245003923773766
463,-0.00504386750981212,-0.0169936139136553,0.0389784872531891,0.0532393008470535,0.0457571819424629,0.0282445084303617
464,-0.0075486283749342,-0.0133863408118486,0.0330916978418827,0.0416762866079807,0.0466783046722412,0.0279638562351465
465,-0.00601128628477454,-0.0104758702218533,0.0299203954637051,0.0312636829912663,0.0521770790219307,0.0234080385416746
466,-0.00257370597682893,-0.00962775200605392,0.0299589801579714,0.0255405958741903,0.0580834969878197,0.0174529831856489
467,0.000227343960432336,-0.00935208238661289,0.0318234637379646,0.0257506724447012,0.0602373443543911,0.0143995871767402
468,0.00339844147674739,-0.00864945165812969,0.0346308946609497,0.0314010195434093,0.0581872314214706,0.0154713913798332
469,0.00749656511470675,-0.00885860156267881,0.0371260792016983,0.038976427167654,0.053494781255722,0.0163220558315516
470,0.0104920957237482,-0.0104377968236804,0.0374083556234837,0.0427685640752316,0.0475360602140427,0.0114762727171183
471,0.0115526262670755,-0.0120031237602234,0.0354200527071953,0.0415546149015427,0.0423877276480198,0.00235333223827183
472,0.011777457781136,-0.0111889522522688,0.0336389914155006,0.0408242121338844,0.0396084636449814,-0.00280605512671173
473,0.0109461294487119,-0.00762188667431474,0.0329962074756622,0.0430868677794933,0.0379968769848347,0.000328484049532562
474,0.00840223394334316,-0.00454861670732498,0.0317934714257717,0.045425046235323,0.0357522927224636,0.00784299243241549
475,0.00545603642240167,-0.00340610323473811,0.0298285111784935,0.0467189364135265,0.032829612493515,0.0147759942337871
476,0.0029800885822624,-0.00288095162250102,0.0285327360033989,0.0476463474333286,0.0300867911428213,0.0187238175421953
477,0.00104074121918529,-0.0031051489058882,0.028148215264082,0.0474212281405926,0.0293463487178087,0.0183901377022266
478,0.000183477954124101,-0.0048683937638998,0.0272028129547834,0.0448861122131348,0.0318680293858051,0.015368128195405
479,0.000535909610334784,-0.00722387619316578,0.0248271226882935,0.0410900786519051,0.0358125828206539,0.0146521981805563
480,0.00234055053442717,-0.00786563940346241,0.022431829944253,0.0386036895215511,0.0386802405118942,0.0186943225562572
481,0.00497570773586631,-0.00562548078596592,0.0216132234781981,0.0384159572422504,0.0392590910196304,0.0238214880228043
482,0.00620993226766586,-0.0026828262489289,0.0225858259946108,0.0389159023761749,0.0366123616695404,0.0244906730949879
483,0.00469909980893135,-0.0024003149010241,0.024740232154727,0.0378931984305382,0.031023308634758,0.0193383973091841
484,0.00133947574067861,-0.00488170841708779,0.0268587972968817,0.0351293385028839,0.024692865088582,0.0115652307868004
485,-0.00233194278553128,-0.00819470267742872,0.0274251624941826,0.031138664111495,0.0193916391581297,0.00297937705181539
486,-0.00535220513120294,-0.0113538280129433,0.0266838259994984,0.0262819025665522,0.0167218800634146,-0.00690477155148983
487,-0.00724485609680414,-0.0136780552566051,0.0261321365833282,0.0220528282225132,0.0179507918655872,-0.0164773985743523
488,-0.00762532185763121,-0.0149342464283109,0.0254934746772051,0.0193941984325647,0.022020235657692,-0.0229887198656797
489,-0.00580416945740581,-0.0153039377182722,0.0239699091762304,0.0181747991591692,0.0268496237695217,-0.0246949698776007
490,-0.00255153723992407,-0.0159571524709463,0.0218864753842354,0.0186443049460649,0.0290440376847982,-0.0212786458432674
491,0.00016931991558522,-0.0180853586643934,0.0197784285992384,0.0215476639568806,0.0257234424352646,-0.0145555716007948
492,0.00109535094816238,-0.0196497738361359,0.0171144586056471,0.0255451146513224,0.0178025271743536,-0.00800763256847858
493,-1.39737585413968E-06,-0.0187938343733549,0.0127317160367966,0.027367141097784,0.00915383454412222,-0.00423944275826216
494,-0.00158444687258452,-0.0163315702229738,0.0079164020717144,0.026844210922718,0.00509940413758159,-0.00232516694813967
495,-0.00250063184648752,-0.0131465140730143,0.00520271901041269,0.0257623214274645,0.00732856104150414,-0.00102289358619601
496,-0.00300050270743668,-0.00974669121205807,0.00558906560763717,0.0252552069723606,0.0119799245148897,-0.000674957816954702
497,-0.00335956155322492,-0.00714145042002201,0.00806144438683987,0.0255194306373596,0.0145978229120374,-0.000218158806092106
498,-0.00384887820109725,-0.0062491912394762,0.0102892592549324,0.0254866573959589,0.0137043064460158,0.00268371379934251
499,-0.00422194832935929,-0.00621281331405044,0.0111825121566653,0.024393716827035,0.0106646884232759,0.00849760975688696
500,-0.00457460433244705,-0.00611104303970933,0.0106503870338202,0.0213978346437216,0.00703645311295986,0.0134766446426511
501,-0.00492786057293415,-0.00603660754859447,0.00943875592201948,0.0166329406201839,0.00457841018214822,0.0137897823005915
502,-0.00479318480938673,-0.00610805675387383,0.00894104782491922,0.0118063213303685,0.00467524491250515,0.00921779125928879
503,-0.00472907302901149,-0.00577453663572669,0.00959124509245157,0.00833507254719734,0.00636289501562715,0.00134364212863147
504,-0.00540237501263618,-0.00433057639747858,0.0111054871231318,0.00721608381718397,0.00819104537367821,-0.00691391946747899
505,-0.00642946548759937,-0.00344463996589184,0.012628311291337,0.00881824921816587,0.010635944083333,-0.0121890753507614
506,-0.00663567986339331,-0.003869408974424,0.0144115388393402,0.0137787731364369,0.0147888977080584,-0.0121335107833147
507,-0.00574175221845508,-0.00415086420252919,0.0172713529318571,0.0207409579306841,0.0181910488754511,-0.0086816567927599
508,-0.00476094940677285,-0.00508443638682365,0.0196193791925907,0.0243862066417933,0.0168101750314236,-0.00782596133649349
509,-0.00345334550365806,-0.00725632207468152,0.0196243710815907,0.0223333369940519,0.0115648377686739,-0.0113947298377752
510,-0.00114124407991767,-0.00907688401639462,0.017124567180872,0.0174280311912298,0.00659289630129933,-0.0158800911158323
511,0.00140808837022632,-0.0102681238204241,0.012929136864841,0.01300482545048,0.0039118230342865,-0.0173797234892845
512,0.00339943240396678,-0.010927309282124,0.00941971130669117,0.0117418644949794,0.00360460765659809,-0.0137295499444008
513,0.00411653518676758,-0.00922023877501488,0.00878671649843454,0.0133068794384599,0.00456811767071486,-0.00709597673267126
514,0.00284751667641103,-0.00536606973037124,0.0103018591180444,0.0148509414866567,0.00465842988342047,-0.00187194533646107
515,0.00116471061483026,-0.00204472802579403,0.0123715130612254,0.0166126415133476,0.00406264048069716,0.00102570245508105
516,0.0016368186334148,0.000676502240821719,0.0146501306444407,0.0199040845036507,0.00536219868808985,0.00285545038059354
517,0.00375192938372493,0.00343946367502213,0.0162231493741274,0.022827435284853,0.00860400591045618,0.00324031175114214
518,0.00524833099916577,0.00491878855973482,0.015714118257165,0.0225083976984024,0.0118256136775017,0.00126408378127962
519,0.00552723789587617,0.00449837185442448,0.0126174045726657,0.0187885705381632,0.013640976510942,-0.00195974251255393
520,0.00515336729586124,0.0030291962902993,0.0074362438172102,0.0139396535232663,0.0126662878319621,-0.00467414455488324
521,0.00501521537080407,0.00135771639179438,0.00292001734487712,0.0105937989428639,0.00979191996157169,-0.00639345729723573
522,0.00559522956609726,-0.000168613187270239,0.00133144913706928,0.00973387435078621,0.00732048787176609,-0.0074885948561132
523,0.00622387835755944,-0.000927088782191277,0.00141171517316252,0.00979220401495695,0.00568104302510619,-0.00890779122710228
524,0.00620463117957115,-0.000271575612714514,0.001283127698116,0.00953781325370073,0.0047470829449594,-0.0109342718496919
525,0.0056821471080184,0.00108839594759047,0.000629999616649002,0.00937710516154766,0.00447525968775153,-0.0125794522464275
526,0.0049728169105947,0.00203932053409517,-0.000438399030826986,0.00982133578509092,0.00380194000899792,-0.0130773317068815
527,0.00371920154429972,0.00240563345141709,-0.0016891552368179,0.011054334230721,0.00202660821378231,-0.0124230924993753
528,0.00213388819247484,0.00301140197552741,-0.00184157059993595,0.0127329081296921,0.000818305357825011,-0.0101970983669162
529,0.0012571313418448,0.00436201319098473,-0.000779063615482301,0.0131697217002511,0.00128900422714651,-0.00679746083915234
530,0.00140702992212027,0.00551172671839595,7.26893413229845E-05,0.0108552044257522,0.00254808203317225,-0.00438686460256577
531,0.0024533262476325,0.0053202542476356,0.000820779474452138,0.00716290809214115,0.00412611523643136,-0.00363684189505875
532,0.00417163828387856,0.00409665983170271,0.00226958328858018,0.00555000128224492,0.00592677807435393,-0.00169410614762455
533,0.00572026520967484,0.00306889344938099,0.00396434124559164,0.00729378685355186,0.00679489783942699,0.0032653568778187
534,0.00631620176136494,0.00236940290778875,0.00496481359004974,0.0100659243762493,0.00520494813099504,0.00802534725517035
535,0.00654927361756563,0.00169056933373213,0.00555385369807482,0.0131267141550779,0.00232657347805798,0.0094874044880271
536,0.00706606870517135,0.00201119855046272,0.00619924115017056,0.016914390027523,0.000820644607301801,0.00710144080221653
537,0.00685012759640813,0.00323784584179521,0.00540588842704892,0.017762279137969,0.00105707242619246,-0.000299152976367623
538,0.00568597530946136,0.00376064889132977,0.00285657425411046,0.0131666427478194,0.00209089741110802,-0.0109709585085511
539,0.00529861962422729,0.00367589294910431,0.000842339708469808,0.00607994571328163,0.00335545861162245,-0.0191863663494587
540,0.00580331543460488,0.00358166894875467,4.74035987281241E-05,-8.68286660988815E-05,0.00414101034402847,-0.0217166729271412
541,0.0056281853467226,0.00309635791927576,-0.000378081051167101,-0.00361514277756214,0.00357830943539739,-0.0198036059737206
542,0.0051355273462832,0.0022560462821275,-0.000591282325331122,-0.00388534041121602,0.00123017723672092,-0.0164580252021551
543,0.00520631484687328,0.00139798189047724,-0.00168751715682447,-0.00218240916728973,-0.00360598531551659,-0.0144207496196032
544,0.0054728128015995,0.000585437985137105,-0.00451434450224042,-0.00052540737669915,-0.0100978221744299,-0.0146628860384226
545,0.00675629777833819,0.000870479794684798,-0.00664230156689882,0.000834721606224775,-0.0135124698281288,-0.0156830735504627
546,0.00962285231798887,0.00343643315136433,-0.0060228924266994,0.00196548388339579,-0.011128194630146,-0.0157951302826405
547,0.0116407573223114,0.00657738512381911,-0.00478474469855428,0.00104785617440939,-0.00654071383178234,-0.0151809938251972
548,0.0109099401161075,0.00771466316655278,-0.00512222526594996,-0.00222862837836146,-0.00391429150477052,-0.0147591019049287
549,0.00910475477576256,0.00674218684434891,-0.00555477337911725,-0.00522682489827275,-0.00285806716419756,-0.0155015988275409
550,0.0088851610198617,0.00513955531641841,-0.00412514759227633,-0.00609804131090641,-0.00062091532163322,-0.0182199608534575
551,0.0109273176640272,0.0037901340983808,-0.00184997729957104,-0.00493938894942403,0.00284572248347104,-0.0224939845502377
552,0.0134164122864604,0.00244935881346464,-0.00110777129884809,-0.00263496488332748,0.0050043617375195,-0.0261238534003496
553,0.0143867274746299,0.00131859432440251,-0.00208894116804004,0.00120703759603202,0.00511647248640656,-0.0255670938640833
554,0.0134848710149527,0.000770709943026304,-0.00329607957974076,0.00660340720787644,0.00394591083750129,-0.0191928166896105
555,0.0105246221646667,-0.000495035259518772,-0.00430688448250294,0.0104225445538759,0.00131415680516511,-0.00933021865785122
556,0.00604559481143951,-0.00217066844925284,-0.00535071548074484,0.0100022042170167,-0.00255918642506003,0.000138893301482312
557,0.00238623493351042,-0.000988613115623593,-0.00610144017264247,0.00570912985131145,-0.0067541585303843,0.00487039377912879
558,0.00136513786856085,0.00287860911339521,-0.00557982735335827,0.000104842438304331,-0.0105138998478651,0.0022037026938051
559,0.00240693590603769,0.00554324360564351,-0.00377866835333407,-0.00430732732638717,-0.014053993858397,-0.00487418984994292
560,0.00394178973510861,0.00589805748313665,-0.00222078640945256,-0.00695745227858424,-0.0177754554897547,-0.00986256077885628
561,0.00563906924799085,0.0062499763444066,-0.00146721152123064,-0.00877835508435965,-0.0193074867129326,-0.0102868843823671
562,0.00722263799980283,0.00763868167996407,-0.00143676484003663,-0.0111764594912529,-0.0167640782892704,-0.00991649087518454
563,0.00765204522758722,0.0085010314360261,-0.00212841667234898,-0.0142293674871325,-0.0116607611998916,-0.0121008288115263
564,0.00683012511581182,0.00743051152676344,-0.00243298569694161,-0.0168026648461819,-0.00566799286752939,-0.0156398043036461
565,0.0059259319677949,0.00492324633523822,-0.00128487544134259,-0.0175175126641989,0.000627545290626585,-0.0175343379378319
566,0.00555353611707687,0.00180766335688531,-0.000199050773517229,-0.0162371620535851,0.00594860222190619,-0.0174693558365107
567,0.00526674231514335,-0.00126548740081489,-0.000923818850424141,-0.014415723271668,0.0094190388917923,-0.0169721730053425
568,0.00527208345010877,-0.00329365930519998,-0.00215789815410972,-0.0128888618201017,0.0126071507111192,-0.0162674356251955
569,0.00585537543520331,-0.00461262464523315,-0.00289678783155978,-0.0120693352073431,0.0151341259479523,-0.0160267278552055
570,0.00680786557495594,-0.00565184792503715,-0.00399400712922215,-0.011870832182467,0.0138603681698442,-0.0173126943409443
571,0.00831504445523024,-0.00565484166145325,-0.0054620411247015,-0.010996151715517,0.00897235423326492,-0.0199476834386587
572,0.00991651881486177,-0.00538524193689227,-0.00642700958997011,-0.00829133950173855,0.0032582120038569,-0.0229304991662502
573,0.0102001847699285,-0.00701281847432256,-0.0068439687602222,-0.00439581135287881,-0.00223347288556397,-0.0249622333794832
574,0.00868469104170799,-0.00943791586905718,-0.00802750419825315,-0.00290805706754327,-0.00760374777019024,-0.0262803956866264
575,0.00667246850207448,-0.00970098655670881,-0.0098842503502965,-0.00634555052965879,-0.0114074889570475,-0.0289382729679346
576,0.00550727406516671,-0.00867240503430367,-0.00990625377744436,-0.0115435179322958,-0.0116353128105402,-0.0332548543810844
577,0.00437266612425447,-0.00954428594559431,-0.00868453551083803,-0.0161862336099148,-0.00977564882487059,-0.0377596542239189
578,0.00226315180771053,-0.012737475335598,-0.00990903750061989,-0.0221281982958317,-0.00920904148370028,-0.0410945229232311
579,-0.000200170819880441,-0.0150529537349939,-0.0146541530266404,-0.0289968904107809,-0.0111022880300879,-0.0416135936975479
580,-0.00205763150006533,-0.0143820215016603,-0.0205294750630856,-0.0337257198989391,-0.0138759044930339,-0.0389283820986748
581,-0.00211335718631744,-0.0112463571131229,-0.0241028908640146,-0.034383237361908,-0.0152912838384509,-0.0339315012097359
582,1.03328638942912E-05,-0.00643842713907361,-0.0238769110292196,-0.0317369513213634,-0.015378775075078,-0.0277301818132401
583,0.00354656740091741,-0.0013119769282639,-0.0206566657871008,-0.0282596945762634,-0.0144993960857391,-0.0224368218332529
584,0.00753305479884148,0.00256872549653053,-0.0163003243505955,-0.0258626416325569,-0.0120324958115816,-0.0197465643286705
585,0.0102381967008114,0.00396481202915311,-0.0124119808897376,-0.0247133802622557,-0.0087481802329421,-0.0196130387485027
586,0.010155095718801,0.00245313555933535,-0.00884842593222857,-0.0232888087630272,-0.00609631650149822,-0.0208807196468115
587,0.0082299467176199,0.00049940898315981,-0.00482637993991375,-0.0199244767427444,-0.00471409223973751,-0.0207833480089903
588,0.00621391367167234,0.000514267303515226,-0.00186208507511765,-0.0160508304834366,-0.00574655551463366,-0.0181536097079515
589,0.00404748460277915,0.000942002516239882,-0.00318822427652776,-0.0155802825465798,-0.0110303359106183,-0.0165627673268318
590,0.00168370781466365,-0.000447509926743805,-0.00915302149951458,-0.0189765486866236,-0.0203115660697222,-0.0189730282872915
591,0.000191700630239211,-0.0031711992342025,-0.0165232941508293,-0.0225715339183807,-0.0292275547981262,-0.0238130558282137
592,0.00043041430762969,-0.0057443380355835,-0.0211064796894789,-0.0230588056147099,-0.0311103090643883,-0.0271116159856319
593,0.00214311899617314,-0.0084857065230608,-0.0205365512520075,-0.0185532364994287,-0.0245232954621315,-0.0258796997368336
594,0.00414850981906056,-0.0105799399316311,-0.016551436856389,-0.0104792257770896,-0.0157173536717892,-0.021445294842124
595,0.0051663601770997,-0.0102434596046805,-0.0130704352632165,-0.005496378056705,-0.0111104575917125,-0.0193002931773663
596,0.00434882240369916,-0.00948504544794559,-0.0122447349131107,-0.00805921852588654,-0.0121549656614661,-0.0226918384432793
597,0.00209338404238224,-0.0101500116288662,-0.0131738036870956,-0.0147757083177567,-0.015479083172977,-0.0290652420371771
598,-0.000999632757157087,-0.010927795432508,-0.0145012605935335,-0.0201511792838573,-0.0176771022379398,-0.0347879715263844
599,-0.00517726875841618,-0.0108988061547279,-0.0167951043695211,-0.0229152645915747,-0.0193975754082203,-0.0386232025921345
600,-0.0095047652721405,-0.00991896446794271,-0.0200000461190939,-0.0247120931744576,-0.0212758332490921,-0.0404079705476761
601,-0.0121977599337697,-0.0077980849891901,-0.0219997186213732,-0.0262824539095163,-0.0212710499763489,-0.040102880448103
602,-0.0128808813169599,-0.00553894741460681,-0.0217937957495451,-0.0272987857460976,-0.0184270851314068,-0.0383873805403709
603,-0.0117025384679437,-0.00403988314792514,-0.019175773486495,-0.0263393670320511,-0.0138698238879442,-0.0358423516154289
604,-0.00985340774059296,-0.00357218203134835,-0.0142819508910179,-0.0229174047708511,-0.00961685366928577,-0.0333540514111519
605,-0.0097152478992939,-0.00431700516492128,-0.0095216678455472,-0.0190164111554623,-0.00717886816710234,-0.0321817025542259
606,-0.0108115933835506,-0.0049876500852406,-0.00674629816785455,-0.0155329341068864,-0.00521952472627163,-0.0315016470849514
607,-0.0104893185198307,-0.00513271521776915,-0.00607261806726456,-0.0129826348274946,-0.00250476505607367,-0.0307419411838055
608,-0.00792703032493591,-0.00557975843548775,-0.0073137111030519,-0.0122519759461284,-0.000118870833830442,-0.0305733233690262
609,-0.00445818202570081,-0.00573192490264773,-0.00920845475047827,-0.011962253600359,0.000821109511889517,-0.029356237500906
610,-0.00259909592568874,-0.00514172110706568,-0.0109847206622362,-0.0116712199524045,-0.00124499259982258,-0.0249727759510279
611,-0.00296153943054378,-0.00340893608517945,-0.0123080387711525,-0.0124634904786944,-0.00628368742763996,-0.0177860073745251
612,-0.0040424233302474,-0.000425622391048819,-0.0123644946143031,-0.0138594778254628,-0.0115221226587892,-0.0103631187230349
613,-0.00619889562949538,0.00133286323398352,-0.0125168152153492,-0.0158758107572794,-0.0159131437540054,-0.00630048848688602
614,-0.0094389570876956,7.31918180463254E-06,-0.0137858437374234,-0.0178400594741106,-0.0186765100806952,-0.00653881067410111
615,-0.0119675192981958,-0.00433450983837247,-0.0142234684899449,-0.0158142354339361,-0.0186240300536156,-0.00817180518060923
616,-0.0140451909974217,-0.00937438197433949,-0.0138121265918016,-0.00939163751900196,-0.0183867961168289,-0.00895145535469055
617,-0.0166384819895029,-0.0106256175786257,-0.0147858140990138,-0.00490548228845,-0.0202514380216599,-0.00966836139559746
618,-0.0180760677903891,-0.00715753855183721,-0.0163760576397181,-0.00612085545435548,-0.0213330388069153,-0.0117146642878652
619,-0.016706544905901,-0.0020597402472049,-0.0162539184093475,-0.0106476759538054,-0.0189960021525621,-0.0151388803496957
620,-0.0136045664548874,0.00186367868445814,-0.0145225822925568,-0.0155740473419428,-0.0149077279493213,-0.0195343885570765
621,-0.0104436483234167,0.00414432119578123,-0.0119891176000237,-0.0190957672894001,-0.0113727897405624,-0.0237675849348307
622,-0.00826176349073648,0.00530412560328841,-0.0096198907122016,-0.0202926993370056,-0.00997999683022499,-0.0260186493396759
623,-0.00721787381917238,0.00547413621097803,-0.00868759211152792,-0.0193472243845463,-0.0117383748292923,-0.0252726916223764
624,-0.00688004726544023,0.00498237414285541,-0.00857296492904425,-0.0164431668817997,-0.0157409403473139,-0.0214931853115559
625,-0.0069645089097321,0.00363514386117458,-0.00796722155064344,-0.0123050101101398,-0.0198462568223476,-0.0167051982134581
626,-0.00673936121165752,0.00131979770958424,-0.00755267357453704,-0.00903069786727428,-0.022305691614747,-0.0141933187842369
627,-0.00588620826601982,-0.000960435252636671,-0.00852065905928612,-0.00849568191915751,-0.0224071182310581,-0.0145785575732589
628,-0.00510373106226325,-0.00220896047540009,-0.010043241083622,-0.0103693166747689,-0.0207118056714535,-0.0153093561530113
629,-0.00518066994845867,-0.00266740843653679,-0.0112938210368156,-0.0130485324189067,-0.0199277959764004,-0.0150248659774661
630,-0.00592520320788026,-0.00292380177415907,-0.0129935871809721,-0.0156622808426619,-0.0220964830368757,-0.0144860027357936
631,-0.00616134563460946,-0.00231387163512409,-0.0154662448912859,-0.0182405281811953,-0.0255306605249643,-0.0139516051858664
632,-0.0047797542065382,0.000432275381172076,-0.0171598978340626,-0.0202909857034683,-0.0267218202352524,-0.0135075114667416
633,-0.00208956422284245,0.00545565690845251,-0.0167006384581327,-0.0212117582559586,-0.0235610920935869,-0.013506923802197
634,-0.000511946913320571,0.0105332061648369,-0.0155150219798088,-0.0215049423277378,-0.0183620434254408,-0.0138652641326189
635,-0.00109067757148296,0.0113484570756555,-0.0144857754930854,-0.0205624811351299,-0.014738991856575,-0.0146430376917124
636,-0.00264564296230674,0.00656642252579331,-0.0129224639385939,-0.0173927526921034,-0.0137483859434724,-0.0166847500950098
637,-0.00523636071011424,0.000278491876088083,-0.0127747058868408,-0.0149701284244657,-0.0158126167953014,-0.0217134840786457
638,-0.00877867452800274,-0.00398645782843232,-0.0158543083816767,-0.0169620979577303,-0.0197052042931318,-0.0300210434943438
639,-0.0116945672780275,-0.00577592058107257,-0.0197745207697153,-0.021705312654376,-0.0220439452677965,-0.0378635786473751
640,-0.0129471244290471,-0.00525375222787261,-0.0212951079010963,-0.0249740146100521,-0.0208631232380867,-0.0410468690097332
641,-0.0126544451341033,-0.00320324511267245,-0.0197444036602974,-0.0253199487924576,-0.0175473615527153,-0.0398547612130642
642,-0.0114310588687658,-0.00220073480159044,-0.017072182148695,-0.0247290972620249,-0.0148141821846366,-0.0382120460271835
643,-0.00938618648797274,-0.00339052360504866,-0.0149128856137395,-0.0243103299289942,-0.0135800093412399,-0.0375462435185909
644,-0.00636886665597558,-0.00412676995620131,-0.0124174430966377,-0.0216149743646383,-0.013335750438273,-0.0341293662786484
645,-0.00349506759084761,-0.00273870420642197,-0.00947974994778633,-0.0161681734025478,-0.0150518966838717,-0.0253707338124514
646,-0.00244346051476896,-0.000521209265571088,-0.00842421222478151,-0.0121013978496194,-0.0196087304502726,-0.0149708138778806
647,-0.0034755221568048,0.000884093984495848,-0.0103826988488436,-0.0110501386225224,-0.02446991764009,-0.00879512075334787
648,-0.00508041074499488,0.000904885935597122,-0.0124800130724907,-0.00936014577746391,-0.0257770903408527,-0.0077780713327229
649,-0.005142901558429,0.000656341901049018,-0.0109694646671414,-0.00563869718462229,-0.022544352337718,-0.00864142552018166
650,-0.00323423696681857,0.00163111824076623,-0.00741264503449202,-0.00483749294653535,-0.018050990998745,-0.0102727515622973
651,-0.00140934472437948,0.00358513137325644,-0.00702810566872358,-0.0112234279513359,-0.0161574054509401,-0.0141776306554675
652,-0.000961301266215742,0.00563201121985912,-0.0106187537312508,-0.0209481287747622,-0.0165792740881443,-0.0191403701901436
653,-0.000659593322779983,0.00722631206735969,-0.0136074675247073,-0.0260256752371788,-0.0160322654992342,-0.0209853257983923
654,0.000651393318548799,0.00684358971193433,-0.0118703721091151,-0.0229968428611755,-0.0126439547166228,-0.0178318358957767
655,0.00241042557172477,0.00374479871243238,-0.00561592914164066,-0.0138620128855109,-0.00855254661291838,-0.0118960496038198
656,0.00326141249388456,0.000983102363534272,0.00076966779306531,-0.00465493462979794,-0.00878435559570789,-0.00803435035049915
657,0.00225885608233511,0.00167384510859847,0.00160209042951465,-0.00203012186102569,-0.0157490242272615,-0.0101602915674448
658,0.00112557946704328,0.00447838846594095,-0.00468292878940701,-0.00603603292256594,-0.0260901395231485,-0.0162152405828238
659,0.00261054118163884,0.00685575837269425,-0.0129410484805703,-0.0107622044160962,-0.0342811867594719,-0.0195545759052038
660,0.00383585342206061,0.00776271475479007,-0.0179174728691578,-0.0122378692030907,-0.0381711348891258,-0.0163376573473215
661,-0.000211836857488379,0.00707631139084697,-0.0193096753209829,-0.0115599660202861,-0.0395648367702961,-0.00859355833381414
662,-0.00794717855751514,0.00652734935283661,-0.0185945425182581,-0.010397819802165,-0.0400818586349487,-0.000288024777546525
663,-0.0148655073717237,0.00765114743262529,-0.0174463372677565,-0.0089581198990345,-0.040432695299387,0.00556067004799843
664,-0.0204069223254919,0.0086977556347847,-0.0175657868385315,-0.00817537307739258,-0.0411864668130875,0.00736595597118139
665,-0.0252870321273804,0.00847378466278315,-0.0183782167732716,-0.0093199135735631,-0.0407525822520256,0.00661040749400854
666,-0.0285163577646017,0.00841491017490625,-0.0180838145315647,-0.0121556920930743,-0.0376391150057316,0.00696489401161671
667,-0.0292438138276339,0.00829023122787476,-0.0166515503078699,-0.0156488660722971,-0.0341680832207203,0.00928803533315659
668,-0.0276052355766296,0.00690022576600313,-0.0155280930921435,-0.019546726718545,-0.0332371331751347,0.0105708912014961
669,-0.0245068855583668,0.005349425598979,-0.0152404764667153,-0.0228970404714346,-0.0345258787274361,0.00884206406772137
670,-0.0211745109409094,0.00473799742758274,-0.0157370697706938,-0.0246078837662935,-0.0361381024122238,0.00452256947755814
671,-0.017821129411459,0.00457692984491587,-0.0173117537051439,-0.0249737668782473,-0.0361447893083096,-0.000421248987549916
672,-0.0136286271736026,0.00511614233255386,-0.0187899507582188,-0.0236440785229206,-0.0324775017797947,-0.00268801487982273
673,-0.00924790091812611,0.00712355645373464,-0.0192049834877253,-0.020562581717968,-0.0260589774698019,-0.00105799490120262
674,-0.00693489052355289,0.00921889673918486,-0.0195038467645645,-0.0181606020778418,-0.0208330154418945,0.00241363910026848
675,-0.00693649146705866,0.00842321570962667,-0.0194341316819191,-0.0168739501386881,-0.018074544146657,0.00646263221278787
676,-0.00740543520078063,0.00473081646487117,-0.0179638117551804,-0.0135084297508001,-0.016161048784852,0.0108115691691637
677,-0.00800439715385437,0.00184831477236003,-0.0170072223991156,-0.00973631627857685,-0.0148562919348478,0.0126469004899263
678,-0.00850215740501881,0.00158459017984569,-0.0183479599654675,-0.0107929967343807,-0.0143820634111762,0.0101504055783153
679,-0.00715290335938334,0.00270480802282691,-0.0195930004119873,-0.0148255797103047,-0.0139456987380981,0.00627245614305139
680,-0.00423536635935307,0.00414568278938532,-0.0183287635445595,-0.0159955024719238,-0.0136230681091547,0.0043781902641058
681,-0.00192903785500675,0.00501546589657664,-0.0149443401023746,-0.0128253297880292,-0.0135329160839319,0.00507394410669804
682,-0.0012522938195616,0.00455649010837078,-0.0112199848517776,-0.00828500650823116,-0.0136456685140729,0.00733249448239803
683,-0.00175312894862145,0.00261388230137527,-0.00966197904199362,-0.0056006396189332,-0.0149059444665909,0.0089805219322443
684,-0.00240960321389139,-2.35756688198308E-05,-0.0110387811437249,-0.00401563756167889,-0.017584141343832,0.00805942341685295
685,-0.00322473049163818,-0.00191400339826941,-0.0140215884894133,-0.00161900790408254,-0.0215526465326548,0.0044377064332366
686,-0.00449611293151975,-0.00176487094722688,-0.0179655980318785,-0.00113829574547708,-0.0264495965093374,-0.00159710505977273
687,-0.00457289116457105,0.00263832719065249,-0.0222719330340624,-0.00662664091214538,-0.029758308082819,-0.00974688678979874
688,-0.00317910616286099,0.0109382681548595,-0.0251734759658575,-0.016691904515028,-0.029701940715313,-0.0176374446600676
689,-0.00261997734196484,0.0175890270620584,-0.0250649396330118,-0.0244487896561623,-0.0276341866701841,-0.0209100246429443
690,-0.00168013386428356,0.0184366684406996,-0.0215845014899969,-0.0233495868742466,-0.0250656772404909,-0.0164357274770737
691,0.00234103505499661,0.0139221204444766,-0.0163983199745417,-0.0138133224099875,-0.02260478772223,-0.00638030422851443
692,0.00521470932289958,0.00797834433615208,-0.0132162906229496,-0.00322118517942727,-0.0217916686087847,0.00164635188411921
693,0.00149264826904982,0.00620805472135544,-0.0133987441658974,0.00154940714128315,-0.0230337474495173,0.00283353240229189
694,-0.0059325504116714,0.0103114964440465,-0.013793658465147,-0.00176555733196437,-0.0231915377080441,0.000481885392218828
695,-0.0112499194219708,0.0161602105945349,-0.0120748328045011,-0.0113835651427507,-0.0194659400731325,-0.00101956480648369
696,-0.0133578693494201,0.0187324397265911,-0.00967712979763746,-0.0229862630367279,-0.0127587607130408,-0.0018599983304739
697,-0.0138332489877939,0.0180853120982647,-0.00875026360154152,-0.032635610550642,-0.00629797345027328,-0.0032340285833925
698,-0.0128783751279116,0.0183116905391216,-0.00904304068535566,-0.0373459309339523,-0.00235987338237464,-0.00358522497117519
699,-0.0102067301049829,0.0210574027150869,-0.00911025889217854,-0.0357734300196171,-0.001391755300574,-0.00176350714173168
700,-0.00672911759465933,0.0236078128218651,-0.00831075664609671,-0.0289585553109646,-0.00326388911344111,0.000120713862997945
701,-0.00339838955551386,0.0230352245271206,-0.00620090123265982,-0.0179917402565479,-0.00658372137695551,-1.8663613445824E-05
702,-0.000867870810907334,0.0188308954238892,-0.00343480450101197,-0.00525884376838803,-0.0096873939037323,-0.00243420922197402
703,0.00013566852430813,0.0118095111101866,-0.00219823117367923,0.00413846876472235,-0.0130476877093315,-0.00627595372498035
704,-0.000235293642617762,0.00423471909016371,-0.0035008592531085,0.00650033261626959,-0.0170232690870762,-0.0103567484766245
705,0.000145725469337776,0.000397598865674809,-0.00607985118404031,0.00270402664318681,-0.0197843089699745,-0.0143828652799129
706,0.00374861084856093,0.00252689118497074,-0.00814715679734945,-0.00378113752231002,-0.0198742337524891,-0.0175571702420712
707,0.00881941802799702,0.00637566717341542,-0.00862738955765963,-0.00938276294618845,-0.0178353507071733,-0.0163774210959673
708,0.0104924226179719,0.00857638847082853,-0.00783874001353979,-0.0109045514836907,-0.0159123577177525,-0.00853283703327179
709,0.00670920684933662,0.012262768112123,-0.00736582512035966,-0.00721206748858094,-0.0164043642580509,0.00246795965358615
710,-0.000381461257347837,0.0183852631598711,-0.00810983311384916,0.000360467762220651,-0.019291028380394,0.0119075328111649
711,-0.00694016134366393,0.0232932046055794,-0.00955597404390574,0.00875744130462408,-0.0229615326970816,0.0200607627630234
712,-0.0109030269086361,0.0243316143751144,-0.0111254574730992,0.0145727433264256,-0.0259456094354391,0.0290886163711548
713,-0.0124477166682482,0.0218047667294741,-0.0130347404628992,0.0149105293676257,-0.0275221839547157,0.0364349856972694
714,-0.0102073568850756,0.0189064368605614,-0.015207402408123,0.0071431789547205,-0.0271909665316343,0.036747470498085
715,-0.00329006928950548,0.0178610850125551,-0.0161406770348549,-0.00732022384181619,-0.0235705133527517,0.0282827746123075
716,0.00350806140340865,0.0164751186966896,-0.014590690843761,-0.0227936562150717,-0.0166249666363001,0.0134231531992555
717,0.0055695092305541,0.0122010204941034,-0.0108482483774424,-0.0343147143721581,-0.00873254984617233,-0.00274756783619523
718,0.00438563246279955,0.00575620122253895,-0.00626721465960145,-0.0394347235560417,-0.0022253708448261,-0.0143537679687142
719,0.00295789237134159,-0.00109576876275241,-0.0028881246689707,-0.0383842587471008,0.00143740477506071,-0.0195514783263206
720,0.00202156091108918,-0.00705320481210947,-0.00190281623508781,-0.0330752730369568,0.00187000713776797,-0.0206729955971241
721,0.000981071381829679,-0.0110037121921778,-0.00331316655501723,-0.0256135184317827,-0.000643406121525913,-0.0200167447328568
722,-0.000183983662282117,-0.0129300588741899,-0.0059156552888453,-0.0173935908824205,-0.00460835639387369,-0.0186007115989923
723,-0.000963795173447579,-0.0146449124440551,-0.00774362683296204,-0.00895855855196714,-0.00760324252769351,-0.0167924780398607
724,-0.00152366643305868,-0.0181130319833755,-0.0075286072678864,-0.000524581642821431,-0.00908120907843113,-0.0133006991818547
725,-0.00194538163486868,-0.0219581704586744,-0.0052823182195425,0.00648857327178121,-0.0102519914507866,-0.00671867141500115
726,-0.00208198162727058,-0.0217815805226564,-0.0037058056332171,0.00698875682428479,-0.0124431699514389,-0.000554022029973567
727,-0.00217584148049355,-0.016548028215766,-0.00552032189443707,-0.00155363860540092,-0.0157855432480574,0.000895661069080234
728,-0.00225662160664797,-0.0104065509513021,-0.00870859064161778,-0.012825720012188,-0.0188294164836407,-0.000441163836512715
729,-0.00209773215465248,-0.00671675382182002,-0.0100734382867813,-0.019593421369791,-0.0200654491782188,-0.00149037025403231
730,-0.00134231790434569,-0.00487813260406256,-0.010030041448772,-0.0203028935939074,-0.0188479647040367,-0.0024253826122731
731,-0.000201081566046923,-0.00353948841802776,-0.0102656939998269,-0.0174292661249638,-0.0164284557104111,-0.00411268277093768
732,-0.000502318143844604,-0.00370303657837212,-0.0116619067266583,-0.0155970556661487,-0.0147534245625138,-0.00739926658570766
733,-0.00260691531002522,-0.00595811568200588,-0.0132232336327434,-0.0170250479131937,-0.0122452164068818,-0.0114155197516084
734,-0.003049356630072,-0.00859634764492512,-0.0125174932181835,-0.0194922406226397,-0.00658713700249791,-0.0138027723878622
735,0.000667984480969608,-0.0107946628704667,-0.0100237419828773,-0.0201631616801023,-0.00143190158996731,-0.0142983756959438
736,0.00588188786059618,-0.0135229807347059,-0.00880500022321939,-0.0167647413909435,-0.00310379709117115,-0.0133670344948769
737,0.00911657605320215,-0.017035661265254,-0.00903408788144588,-0.00780782848596573,-0.0109532251954079,-0.009822653606534
738,0.0104541042819619,-0.0205014273524284,-0.00796118378639221,0.00444213254377246,-0.0169564094394445,-0.00269985198974609
739,0.0101682683452964,-0.0232668519020081,-0.00575972674414516,0.0131118148565292,-0.0168997030705214,0.00544002465903759
740,0.00736059108749032,-0.0228916984051466,-0.00531886890530586,0.0130240516737103,-0.0149633847177029,0.00966873858124018
741,0.00278616230934858,-0.0172378104180098,-0.00720672542229295,0.00559876160696149,-0.0153407566249371,0.00752381607890129
742,-0.000711790344212204,-0.00888411514461041,-0.00926727056503296,-0.00355065288022161,-0.0169315114617348,0.0016428807284683
743,-0.000798074237536639,-0.0024866983294487,-0.0096213323995471,-0.00889828521758318,-0.0170157384127378,-0.00271635642275214
744,0.00198620348237455,-0.000567372422665358,-0.00812707561999559,-0.00808837078511715,-0.0149999083951116,-0.00229300325736403
745,0.00581783801317215,-0.00063094578217715,-0.00577378273010254,-0.00342629151418805,-0.0122025152668357,0.00188778527081013
746,0.00891666579991579,0.000273705867584795,-0.00454221433028579,-0.000363139290129766,-0.011000607162714,0.00472084572538733
747,0.0103322044014931,0.000377596530597657,-0.00492050591856241,-0.00102244468871504,-0.0120630888268352,0.00243419059552252
748,0.0101991863921285,-0.00185589026659727,-0.00529203750193119,-0.00389304338023067,-0.0137281250208616,-0.00357211520895362
749,0.00846866145730019,-0.00489949295297265,-0.00519050750881433,-0.00808378867805004,-0.015039436519146,-0.00873163528740406
750,0.00617841212078929,-0.00636157765984535,-0.00485821533948183,-0.01171332038939,-0.0152841042727232,-0.00844200514256954
751,0.00545522291213274,-0.00537153799086809,-0.00402847537770867,-0.0127285020425916,-0.0133923226967454,-0.00276189344003797
752,0.0065260948613286,-0.00366629241034389,-0.00276743550784886,-0.0115168718621135,-0.00982699077576399,0.00248081865720451
753,0.00734532764181495,-0.0039738342165947,-0.00158647214993835,-0.00970233976840973,-0.0067282379604876,0.0013586807763204
754,0.00662763509899378,-0.00720747746527195,-0.000866141926962882,-0.00804720912128687,-0.00594996241852641,-0.00657807616516948
755,0.00535100465640426,-0.0110092833638191,-0.000632108189165592,-0.00502651045098901,-0.00798156019300222,-0.0154704339802265
756,0.00502769136801362,-0.0111840516328812,-0.000880157167557627,0.000566463684663177,-0.0114368079230189,-0.0181225948035717
757,0.00550914742052555,-0.00716549856588244,-0.00120846985373646,0.00812031049281359,-0.0128383412957191,-0.0132375909015536
758,0.00569610670208931,-0.00432683899998665,-0.00076337018981576,0.0168118122965097,-0.00997061841189861,-0.0058836773969233
759,0.00537667097523808,-0.00599382631480694,0.000313914963044226,0.024357421323657,-0.0057988609187305,-0.000564663088880479
760,0.0037772711366415,-0.00906494818627834,-0.000418660521972924,0.0248611811548471,-0.0066005177795887,0.00122814578935504
761,0.000899583043064922,-0.009253921918571,-0.0046523162163794,0.0137658938765526,-0.0139111317694187,0.000538414751645178
762,-0.000487127545056865,-0.00291998335160315,-0.00942120887339115,-0.00304269720800221,-0.0218869000673294,0.0020366779062897
763,0.000660173769574612,0.0117022767663002,-0.0112123228609562,-0.0151772890239954,-0.0252789910882711,0.00763116916641593
764,0.00245906645432115,0.0268708541989326,-0.0105821071192622,-0.020365122705698,-0.0239449851214886,0.0119794439524412
765,0.00344649353064597,0.0317047201097012,-0.00993874110281467,-0.0228540804237127,-0.0203258898109198,0.00970834400504828
766,0.00325749604962766,0.0260877199470997,-0.0104823848232627,-0.024482911452651,-0.0169180743396282,0.0015365487197414
767,0.00261780200526118,0.016413789242506,-0.0107066575437784,-0.0222868416458368,-0.0140608521178365,-0.00822509545832872
768,0.003669687313959,0.00795938353985548,-0.00703763030469418,-0.0142507422715425,-0.0094744311645627,-0.015973312780261
769,0.00712305353954434,0.00154116516932845,0.00148025120142847,-0.00423671770840883,-0.00247347028926015,-0.0191655922681093
770,0.0103343073278666,-0.00614950992166996,0.0108758239075542,0.00330605381168425,0.00407455582171679,-0.0139879286289215
771,0.0121465940028429,-0.0145223094150424,0.0159050021320581,0.0111699514091015,0.00721544725820422,0.0017864127876237
772,0.0161671042442322,-0.0192412044852972,0.015290305018425,0.0243692751973867,0.00672118738293648,0.0231842789798975
773,0.0229584369808435,-0.0180466752499342,0.0124712139368057,0.0377829670906067,0.00428910786285996,0.0405017696321011
774,0.0257550347596407,-0.00963770877569914,0.00973732583224773,0.0385863073170185,0.00130121584516019,0.0464388802647591
775,0.020725604146719,0.00460686534643173,0.00621946807950735,0.0232319738715887,-0.00192548171617091,0.0395950302481651
776,0.0118720792233944,0.0176018197089434,0.00221560732461512,0.00149326492100954,-0.00482373451814055,0.0235791876912117
777,0.00530844274908304,0.0226273592561483,0.000327767833368853,-0.0157876498997211,-0.00434259790927172,0.00429739570245147
778,0.00311282556504011,0.0194809976965189,0.00113213539589196,-0.0257727522403002,0.000145817670272663,-0.0146745909005404
779,0.00284639419987798,0.0117449164390564,0.00223842333070934,-0.030526353046298,0.00364668178372085,-0.0324499942362309
780,0.00196198304183781,0.00268018734641373,0.0021203700453043,-0.030710743740201,0.00245318654924631,-0.0469358339905739
781,-0.000508635421283543,-0.00520004099234939,0.00100784993264824,-0.0263287741690874,-0.00270218588411808,-0.0549126043915749
782,-0.00314425211399794,-0.00955779291689396,0.000516731583047658,-0.0194692779332399,-0.00848695449531078,-0.0547142662107944
783,-0.00416413228958845,-0.00990941375494003,0.00171351060271263,-0.0145860994234681,-0.0126050654798746,-0.0476820208132267
784,-0.00328799616545439,-0.00668791960924864,0.00375464931130409,-0.0140954488888383,-0.0151252718642354,-0.0358122028410435
785,-0.000499581976328045,-0.000476228888146579,0.00514458725228906,-0.0155157661065459,-0.0157902855426073,-0.0214706007391214
786,0.00329167419113219,0.00474812835454941,0.00484147481620312,-0.0162216350436211,-0.0143654681742191,-0.00966285075992346
787,0.00669292826205492,0.00582553539425135,0.00390678318217397,-0.0150238620117307,-0.0119293080642819,-0.00345993903465569
788,0.00848610885441303,0.00386067875660956,0.0038361067418009,-0.0108481673523784,-0.0100669655948877,-0.00130649097263813
789,0.00803539529442787,-9.12749383132905E-05,0.00455192290246487,-0.00406800583004951,-0.00903349928557873,-0.000828955846372992
790,0.00630117394030094,-0.00481812376528978,0.00640271184965968,0.00347301689907908,-0.00726312631741166,-0.000916940276511014
791,0.00509281875565648,-0.00783475581556559,0.00986130814999342,0.00988378096371889,-0.00422296533361077,-0.00183369091246277
792,0.0059463270008564,-0.0101856924593449,0.0131596988067031,0.0144624654203653,-0.00142089906148613,-0.00338305067270994
793,0.00861958973109722,-0.0138291558250785,0.0137243615463376,0.0168677810579538,-0.000205157601158135,-0.00443612365052104
794,0.0112899895757437,-0.0152854369953275,0.0108989775180817,0.0176087096333504,-0.00141381600406021,-0.00465342262759805
795,0.0131335519254208,-0.0123648606240749,0.00613175053149462,0.0193542931228876,-0.00458621000871062,-0.00428560329601169
796,0.0139361228793859,-0.00862604100257158,0.00144554709549993,0.021300908178091,-0.00799291022121906,-0.00337870628573
797,0.0124394195154309,-0.00751436129212379,-0.00252247950993478,0.0176471006125212,-0.0113162370398641,-0.00256051262840629
798,0.00848805904388428,-0.00941092055290937,-0.00583245512098074,0.0069189858622849,-0.0135871162638068,-0.0035400774795562
799,0.00481625879183412,-0.0124706560745835,-0.00809525325894356,-0.00568548636510968,-0.0131876124069095,-0.00749357789754868
800,0.00431008171290159,-0.013494661077857,-0.00879500899463892,-0.0144002456218004,-0.0107326228171587,-0.0126864090561867
801,0.00618050852790475,-0.0111296251416206,-0.00794213730841875,-0.016703424975276,-0.00742121785879135,-0.0152475386857986
802,0.00738168973475695,-0.00745840184390545,-0.00654965033754706,-0.0137239834293723,-0.00480580748990178,-0.0132075622677803
803,0.00708179688081145,-0.00420126551762223,-0.0052466238848865,-0.00811974238604307,-0.00428716465830803,-0.00813172571361065
804,0.00618500215932727,-0.00191934814210981,-0.00419199420139194,-0.00323177059181035,-0.00540714059025049,-0.00453883642330766
805,0.00534673687070608,-0.00225869915448129,-0.00337950349785388,-0.0014108307659626,-0.00641679391264915,-0.00667337188497186
806,0.00490302266553044,-0.00626060133799911,-0.00189345027320087,-0.00017303456843365,-0.00610948726534843,-0.0117957787588239
807,0.00488157849758863,-0.0116943381726742,0.00088689144467935,0.0037925592623651,-0.00476780580356717,-0.012585025280714
808,0.00519577506929636,-0.0162824876606464,0.00463987374678254,0.0105865336954594,-0.00386966252699494,-0.00631213327869773
809,0.00550040882080793,-0.0190537702292204,0.00833590235561132,0.0193101428449154,-0.00481307180598378,0.0036711860448122
810,0.00531338062137365,-0.0169234722852707,0.00970098841935396,0.0254951752722263,-0.00689061591401696,0.0107901571318507
811,0.0041086096316576,-0.0107972649857402,0.0072623542509973,0.0237824246287346,-0.0086428951472044,0.0105801224708557
812,0.00237902579829097,-0.0063158068805933,0.00315718608908355,0.0159840770065784,-0.00954941846430302,0.00560768507421017
813,0.00205777795054019,-0.00465692533180118,0.000878999009728432,0.0068171015009284,-0.00906733702868223,5.43382338946685E-05
814,0.00345579930581152,-0.00518072815611959,0.000783032097388059,-0.00321724801324308,-0.00742276152595878,-0.00680198101326823
815,0.00497020920738578,-0.00790327601134777,0.000651712529361248,-0.0134781058877707,-0.00636902637779713,-0.0151158021762967
816,0.00577087048441172,-0.0113934557884932,-0.00095924868946895,-0.0200589522719383,-0.00753408903256059,-0.0204643998295069
817,0.00583523930981755,-0.0138683626428247,-0.00354351080022752,-0.021128486841917,-0.0104712015017867,-0.0193572398275137
818,0.00588228553533554,-0.0126531347632408,-0.00474383588880301,-0.0177580267190933,-0.0121782822534442,-0.0124124009162188
819,0.00695051625370979,-0.00762063357979059,-0.00281978887505829,-0.0109397312626243,-0.0102674830704927,-0.00225764838978648
820,0.00981337763369083,-0.00430679367855191,0.000241997870034538,-0.00372606771998107,-0.00647430261597037,0.00726898526772857
821,0.0147676588967443,-0.00597295770421624,0.00164206535555422,3.99186574213672E-05,-0.00446311291307211,0.011389316059649
822,0.0187677014619112,-0.00994530878961086,0.00182761065661907,0.00138947134837508,-0.00482850382104516,0.00809221342206001
823,0.0181315205991268,-0.0139535395428538,0.00269597419537604,0.00437797140330076,-0.00477920519188046,0.000503238232340664
824,0.0141119239851832,-0.0163395497947931,0.00474488968029618,0.00939114764332771,-0.00302838580682874,-0.00613442063331604
825,0.0101612731814384,-0.0156328752636909,0.0066235619597137,0.0114642819389701,-0.00102883100043982,-0.010594685561955
826,0.00799867790192366,-0.0144154373556376,0.00704299565404654,0.00646509137004614,0.000457036017905921,-0.0159154292196035
827,0.0071593439206481,-0.0162745006382465,0.00698721082881093,-0.00288284965790808,0.00202528899535537,-0.0217213332653046
828,0.00683563202619553,-0.0201173983514309,0.00886054895818233,-0.00887432135641575,0.00491015240550041,-0.0224956255406141
829,0.00777508644387126,-0.0211259201169014,0.0124208321794868,-0.00681591406464577,0.00909480545669794,-0.0141095584258437
830,0.0101688653230667,-0.0174253918230534,0.0141281206160784,-0.000494687294121832,0.0111507503315806,-4.81191091239452E-05
831,0.0118389502167702,-0.0133288316428661,0.0115898922085762,0.00271907704882324,0.00751977041363716,0.00954839959740639
832,0.0104500986635685,-0.0127569511532784,0.00532616628333926,0.00072923261905089,-0.00152411183807999,0.00809947028756142
833,0.0069409292191267,-0.0141031993553042,-0.00162099278531969,-0.00167175463866442,-0.0114088794216514,-0.00102746416814625
834,0.00476313941180706,-0.0141563797369599,-0.00544935138896108,0.000184837961569428,-0.0161220543086529,-0.00953754503279924
835,0.00477822264656425,-0.0132501134648919,-0.00555107183754444,0.00528405327349901,-0.0143253579735756,-0.0123705547302961
836,0.00464654201641679,-0.013321228325367,-0.00414509326219559,0.00986738875508308,-0.0100914034992456,-0.00996763072907925
837,0.00338652497157454,-0.0131078530102968,-0.00204013893380761,0.011019547469914,-0.00638523558154702,-0.00514205591753125
838,0.00161406258121133,-0.0103369681164622,0.000546652474440634,0.00669203232973814,-0.00313404644839466,-0.00177606579381973
839,-0.000118307310913224,-0.00579466577619314,0.00209021451883018,-0.00266641541384161,0.000485821365145966,-0.00333977537229657
840,-0.000696581671945751,-0.00261710165068507,0.00213671824894845,-0.0132669825106859,0.00493676168844104,-0.00938155595213175
841,0.000127197796246037,-0.00259771593846381,0.00119939679279923,-0.0208906345069408,0.0083848275244236,-0.0155678391456604
842,0.00137716671451926,-0.00484627345576882,-0.00114836171269417,-0.0232552532106638,0.00844733510166407,-0.0178310461342335
843,0.00271017500199378,-0.00818970706313849,-0.00488380435854197,-0.0200789552181959,0.00639738887548447,-0.0154161937534809
844,0.00356269860640168,-0.0113811073824763,-0.00851341616362333,-0.0135584296658635,0.00450744526460767,-0.0106862746179104
845,0.00244551012292504,-0.0128688523545861,-0.010562414303422,-0.00756196863949299,0.00280002155341208,-0.00716360053047538
846,-0.000352799368556589,-0.0139035945758224,-0.0101962443441153,-0.00336507358588278,0.0017307837260887,-0.00636552087962627
847,-0.00255780760198832,-0.0170398484915495,-0.0084007391706109,0.000246682990109548,0.00152303266804665,-0.00812696944922209
848,-0.00243342015892267,-0.0203209649771452,-0.00676909321919084,0.00391235575079918,0.000888690585270524,-0.0116925509646535
849,-0.000183423529961146,-0.0205301064997911,-0.00571335619315505,0.00723537197336555,-0.0012504531769082,-0.0141893913969398
850,0.0018074280815199,-0.0189944840967655,-0.00656963139772415,0.00733477249741554,-0.00532899470999837,-0.0135418772697449
851,0.0020927966106683,-0.0172165557742119,-0.00961650256067514,0.00223393505439162,-0.00941019598394632,-0.00942341983318329
852,0.00143496296368539,-0.0136119816452265,-0.0127213075757027,-0.0050012762658298,-0.010966494679451,-0.00220049149356782
853,0.00099045829847455,-0.0082141263410449,-0.0138467298820615,-0.0102841714397073,-0.00942123215645552,0.00395448552444577
854,0.00160572200547904,-0.00366906076669693,-0.0120565900579095,-0.0125986691564322,-0.00535929342731833,0.00371328974142671
855,0.00247370800934732,-0.00128615577705204,-0.00890078954398632,-0.0140766026452184,-0.00117342255543917,-0.00366542558185756
856,0.00236929021775723,0.00059083680389449,-0.00659067463129759,-0.0155189037322998,0.000896906829439104,-0.0129928942769766
857,0.00160017190501094,0.00334450881928205,-0.00540976086631417,-0.0150263048708439,0.00107795628719032,-0.0178885031491518
858,0.00103849463630468,0.00520271901041269,-0.00445263041183352,-0.0124173201620579,0.00134778639767319,-0.0165963266044855
859,0.000482791801914573,0.00437335250899196,-0.0026466476265341,-0.00925247929990292,0.00241150474175811,-0.0108521487563849
860,-0.00109161983709782,0.000771035673096776,0.000188741483725607,-0.0069317352026701,0.0025642397813499,-0.00490529974922538
861,-0.00283651961944997,-0.00428876234218478,0.00363099621608853,-0.00512169813737273,0.00186471082270145,-0.0029617752879858
862,-0.00274973106570542,-0.00753836892545223,0.0076053855009377,-0.00151776219718158,0.0027388883754611,-0.00346430973149836
863,-0.00136238627601415,-0.0082019530236721,0.0107656298205256,0.00269204331561923,0.00571458972990513,-0.00310398335568607
864,-0.000890135590452701,-0.0091141602024436,0.0109900245442986,0.00374001380987465,0.00870154052972794,-0.00211937399581075
865,-0.00204643816687167,-0.0112538328394294,0.00904801208525896,0.00269034365192056,0.0102082705125213,-0.000546570809092373
866,-0.00371880293823779,-0.0132882008329034,0.00746980682015419,0.00345070497132838,0.0115022752434015,0.00243000220507383
867,-0.00526196323335171,-0.0145621411502361,0.00602268148213625,0.00516338227316737,0.0131012490019202,0.00467809522524476
868,-0.00685147661715746,-0.0153464647009969,0.00280773476697505,0.00367744965478778,0.012480060569942,0.00419606640934944
869,-0.0075813764706254,-0.015450737439096,-0.00136459700297564,-8.57424165587872E-05,0.00909219309687614,0.00349565339274704
870,-0.00675692688673735,-0.0144158089533448,-0.00471561821177602,-0.00210340297780931,0.00511326501145959,0.00497908750548959
871,-0.0046536629088223,-0.0122963506728411,-0.00655537843704224,-0.00183784868568182,0.00270377285778522,0.00700703170150518
872,-0.0023891874589026,-0.00962416548281908,-0.00669704517349601,-0.0013466477394104,0.00238267751410604,0.00677503319457173
873,-0.00179354194551706,-0.00746813602745533,-0.00606385059654713,-0.00217859516851604,0.00269939191639423,0.00316384457983077
874,-0.00240399618633091,-0.00653941789641976,-0.00535928225144744,-0.00446505332365632,0.00422125961631536,-0.00279382755979896
875,-0.00161582406144589,-0.00597362546250224,-0.00379478489048779,-0.00683900713920593,0.00847713742405176,-0.00816108845174313
876,0.00078847142867744,-0.0047239544801414,-0.0011458049993962,-0.00676573440432549,0.0128078227862716,-0.00971472635865211
877,0.00253125675953925,-0.00247870408929884,0.00125457788817585,-0.00287282909266651,0.014002863317728,-0.00614596251398325
878,0.00280232424847782,0.000536284642294049,0.00270830164663494,0.00349842081777751,0.0137951849028468,0.000940303783863783
879,0.00238382862880826,0.00291863852180541,0.00379654578864574,0.00971063040196896,0.015091160312295,0.00791332684457302
880,0.00202354742214084,0.00394499814137816,0.00532689411193132,0.0141145568341017,0.0176457408815622,0.0126992929726839
881,0.00176853593438864,0.00382573227398098,0.00701342429965734,0.016251627355814,0.0187506284564734,0.0151211470365524
882,0.00111124862451106,0.00266460957936943,0.00767519185319543,0.0168637353926897,0.0164307747036219,0.0150600140914321
883,0.000336413766490296,0.0016769350040704,0.00792095996439457,0.0188938118517399,0.0127936229109764,0.0142362685874105
884,-0.000701420358382165,0.00147985364310443,0.00871719233691692,0.023880572989583,0.00983144901692867,0.0149673037230968
885,-0.00205845641903579,-0.000302240310702473,0.00988924223929644,0.0285107884556055,0.00756697589531541,0.0167533680796623
886,-0.00187700125388801,-0.00472038146108389,0.011909025721252,0.0287133399397135,0.00787242408841848,0.0164672452956438
887,-0.000502915878314525,-0.00759216723963618,0.0127540919929743,0.0223575066775084,0.0101149911060929,0.010698820464313
888,-0.000427874329034239,-0.00499341636896133,0.00885771866887808,0.0102555304765701,0.0109091168269515,0.000289330695522949
889,-0.000887306698132306,0.00160730443894863,0.00177078321576118,-0.00196782383136451,0.00994284171611071,-0.0085973497480154
890,0.00214772904291749,0.00787737499922514,-0.00426343362778425,-0.0089578265324235,0.0084800822660327,-0.0104937665164471
891,0.00915595330297947,0.010352541692555,-0.00780483614653349,-0.0106758885085583,0.00665100570768118,-0.00582014676183462
892,0.0133341168984771,0.00799658428877592,-0.0096440315246582,-0.0103573147207499,0.00371211254969239,0.000990170054137707
893,0.00977180618792772,0.00265460764057934,-0.0103691918775439,-0.0109611814841628,0.000218870423850603,0.00516331754624844
894,0.00173731171526015,-0.00264870212413371,-0.00934648793190718,-0.0126059036701918,-0.00140166294295341,0.00409709336236119
895,-0.00594032183289528,-0.00677710678428411,-0.00672462210059166,-0.0135728269815445,-0.000803472066763788,-0.000466059282189235
896,-0.0110065788030624,-0.00995420478284359,-0.00375125044956803,-0.0128809055313468,0.00131029286421835,-0.00440629431977868
897,-0.0135909551754594,-0.0117621393874288,-0.00154527148697525,-0.0106132160872221,0.00412601418793201,-0.00492779212072492
898,-0.0151924751698971,-0.0124313281849027,-0.00102663715369999,-0.0080325910821557,0.0048229661770165,-0.00175082904752344
899,-0.0151604823768139,-0.0119946915656328,-0.00126811699010432,-0.00633672252297401,0.00389781570993364,0.00410501286387444
900,-0.0125826224684715,-0.00893459748476744,-0.00121492589823902,-0.00591294514015317,0.00437621353194118,0.010449156165123
901,-0.00898202229291201,-0.00330497045069933,-0.00106479588430375,-0.00680173095315695,0.0059729958884418,0.0137197878211737
902,-0.0059146536514163,0.00216576876118779,-0.000499437563121319,-0.00755785312503576,0.0072498214431107,0.0124039277434349
903,-0.00437849853187799,0.00473221065476537,0.00101363996509463,-0.00546087604016066,0.00877165794372559,0.00941228028386831
904,-0.00440575089305639,0.00358439423143864,0.00369418109767139,0.000462241936475039,0.0122051136568189,0.00848877150565386
905,-0.0037931886035949,6.19252159594907E-06,0.00760842906311154,0.00782393384724855,0.0183685515075922,0.0101542947813869
906,-0.000473470950964838,-0.00368466461077333,0.0122858826071024,0.0140763930976391,0.0258692428469658,0.0121365431696177
907,0.0042441114783287,-0.00535094644874334,0.0157804265618324,0.0177624505013227,0.0305089969187975,0.0111884772777557
908,0.00735661201179028,-0.00494559807702899,0.016413439065218,0.0167122688144445,0.0289415959268808,0.00544518372043967
909,0.00777561264112592,-0.00446041766554117,0.0147531842812896,0.0105966366827488,0.0229276195168495,-0.00354356411844492
910,0.00608795555308461,-0.00496238889172673,0.0110455472022295,0.00193201052024961,0.0160385500639677,-0.012056895531714
911,0.00339117995463312,-0.0055596181191504,0.00474651297554374,-0.00645188335329294,0.00905128382146358,-0.0162479132413864
912,0.00170884642284364,-0.00427246186882257,-0.00194160628598183,-0.0118953846395016,0.00293622864410281,-0.0142908841371536
913,0.0022001015022397,-0.000354376796167344,-0.0057781427167356,-0.0134108914062381,0.000253515638178214,-0.00872238911688328
914,0.00343795889057219,0.00419105915352702,-0.00640057865530252,-0.0117259239777923,0.000778886780608445,-0.00287143816240132
915,0.00397578068077564,0.00676922220736742,-0.00501369033008814,-0.00724370591342449,0.00259791477583349,0.00280024157837033
916,0.00431594951078296,0.006913673132658,-0.00285632652230561,-0.00115619576536119,0.00466743251308799,0.00901704840362072
917,0.00541209150105715,0.0058586373925209,-0.000850617827381939,0.00432374328374863,0.00601813569664955,0.0158715378493071
918,0.00759843923151493,0.00500742578878999,0.00159229687415063,0.00829317886382341,0.00758016249164939,0.021525364369154
919,0.00999304186552763,0.00443010590970516,0.00494784256443381,0.0106099862605333,0.010889015160501,0.0221794862300158
920,0.0114919496700168,0.00252615520730615,0.0082555515691638,0.0106548750773072,0.0149239106103778,0.0153937498107553
921,0.0121345231309533,-0.000665683706756681,0.0110390707850456,0.00953084882348776,0.0180802065879107,0.00395598402246833
922,0.0111632384359837,-0.00293242698535323,0.0130844945088029,0.00892005860805511,0.0198554396629334,-0.00599784543737769
923,0.00723174167796969,-0.00274876249022782,0.0135174924507737,0.00801602657884359,0.0197430904954672,-0.00990504771471024
924,0.00161385873798281,-0.000295530160656199,0.0119885746389627,0.00519216619431973,0.0174308568239212,-0.00780151784420013
925,-0.00160441035404801,0.00284649268724024,0.00974465906620026,0.00135224661789835,0.014667209237814,-0.00310155120678246
926,0.000224303526920266,0.00426119519397616,0.00871426705271006,1.82425337698078E-05,0.0139158181846142,0.000547652831301093
927,0.00494226813316345,0.0030875897500664,0.00865856558084488,0.00125195598229766,0.0147426221519709,-0.000646378146484494
928,0.00811773352324963,0.00159917771816254,0.00750327296555042,0.00113729329314083,0.013734363950789,-0.00733968708664179
929,0.0079214982688427,0.0026231708470732,0.00528147211298347,-0.000195311295101419,0.00909603573381901,-0.0128091340884566
930,0.00565339485183358,0.00593567872419953,0.00392571417614818,0.000725609948858619,0.00308934017084539,-0.00923088565468788
931,0.00269917817786336,0.00837614946067333,0.00412261486053467,0.00379573693498969,-0.00228177150711417,0.00299310241825879
932,-0.000152787921251729,0.00958902388811111,0.00528210308402777,0.00567568419501185,-0.0072478000074625,0.0168834291398525
933,-0.00150339165702462,0.0119855888187885,0.00651509547606111,0.00528752384707332,-0.0105094127357006,0.0263229589909315
934,-0.000128289902932011,0.0143701145425439,0.00727316178381443,0.00526287220418453,-0.00944985076785088,0.0280775669962168
935,0.00324025121517479,0.0142554249614477,0.00792575255036354,0.00773925986140966,-0.00454101758077741,0.0220394097268581
936,0.00651613576337695,0.0126336505636573,0.00831203255802393,0.0115182930603623,0.00140426715370268,0.0123589374125004
937,0.00883668195456266,0.0114116193726659,0.00881288759410381,0.01435755379498,0.00788989756256342,0.00422829110175371
938,0.0109739322215319,0.0112055316567421,0.0118903089314699,0.0161828529089689,0.015614515170455,-3.2507970900042E-05
939,0.0129732871428132,0.0119749382138252,0.0172566752880812,0.0173037629574537,0.0224617980420589,-0.00103138177655637
940,0.0131577244028449,0.0129573801532388,0.020163344219327,0.0156189203262329,0.0247062854468822,-0.00081022031372413
941,0.0102288713678718,0.0133406706154346,0.017145611345768,0.00940084550529718,0.0208457857370377,-0.00105952250305563
942,0.00616886001080275,0.0136982025578618,0.0105464998632669,0.00134142057504505,0.0143691198900342,-0.00117320998106152
943,0.00434566894546151,0.0150334555655718,0.0054534412920475,-0.003742347471416,0.0101093435660005,0.000737441296223551
944,0.0048818476498127,0.0164022240787745,0.00341906002722681,-0.00448509631678462,0.00804269406944513,0.0045908079482615
945,0.00524889957159758,0.0155763141810894,0.00291152135469019,-0.00179898447822779,0.00557224964722991,0.00895930267870426
946,0.00436042016372085,0.0119576314464211,0.00373519468121231,0.00475015118718147,0.00281592784449458,0.0138733051717281
947,0.00334889837540686,0.00824301782995462,0.00630423380061984,0.0141175845637918,0.00121099629905075,0.0197492204606533
948,0.00259663979522884,0.00733703188598156,0.00849351659417152,0.0198594890534878,7.99974077381194E-05,0.0236137565225363
949,0.00180369557347149,0.00915247015655041,0.00853357184678316,0.0173743534833193,-0.00117768661584705,0.022430807352066
950,0.00120845169294626,0.0121206743642688,0.00724532920867205,0.0107558881863952,-0.00201548566110432,0.0185034088790417
951,0.0011516495142132,0.0149358082562685,0.00589554058387876,0.00595502741634846,-0.00190426153130829,0.0156390760093927
952,0.00197931099683046,0.0166346225887537,0.00535206217318773,0.00554525852203369,-0.000977539923042059,0.0143093373626471
953,0.00306052411906421,0.015831409022212,0.00524235051125288,0.00756588112562895,-0.00131971889641136,0.0118079679086804
954,0.00332743325270712,0.0115194991230965,0.0048897685483098,0.00734925037249923,-0.00352403265424073,0.00630047777667642
955,0.00244146701879799,0.0055334372445941,0.00493392022326589,0.00451812334358692,-0.00532451318576932,0.000564319547265768
956,0.00115219177678227,0.00152053451165557,0.00580088561400771,0.00285920361056924,-0.00508040469139814,-0.00158798194024712
957,0.000820524117443711,0.000444227189291269,0.00644173845648766,0.00331837474368513,-0.00278896326199174,-0.000995178474113345
958,0.00108377449214458,0.000639577221591026,0.00591545086354017,0.00292622880078852,-0.000190880833542906,-0.00117664888966829
959,0.000972953683231026,0.00179576734080911,0.00489264680072665,0.00023783634242136,0.00144853559322655,-0.00281579466536641
960,0.000810985220596194,0.00457282923161983,0.00451783509925008,-0.00257910531945527,0.002168083563447,-0.00369458110071719
961,0.000767911842558533,0.00870778504759073,0.00509474659338593,-0.00367349525913596,0.00151075585745275,-0.00250804657116532
962,0.00104426790494472,0.013617567718029,0.00645606266334653,-0.00321393413469195,0.000483133335364982,0.000484271033201367
963,0.00147042516618967,0.0171330031007528,0.00779611337929964,-0.00165280455257744,0.000864565838128328,0.00397938163951039
964,0.000708774605300277,0.0157024227082729,0.00797333847731352,0.000218056578887627,0.00226333946920931,0.00548514164984226
965,-0.000870344636496156,0.00919266045093536,0.00781463179737329,0.00215516448952258,0.00421562837436795,0.00434020021930337
966,-0.00137504667509347,0.00166314525995404,0.00885889213532209,0.00534699065610766,0.00710673490539193,0.0029635108076036
967,-0.00111975683830678,-0.00271878065541387,0.0108636701479554,0.0105751603841782,0.0110623305663466,0.0047156591899693
968,-0.00103722198400646,-0.00126767507754266,0.0137341571971774,0.0170189253985882,0.0164449699223042,0.0118932835757732
