,AF3,AF4,Fp1,Fp2,AF7,AF8
0,0.000419817370129749,0.00419540097936988,-0.00151798082515597,-0.00301726278848946,-0.00855220109224319,-0.000349877343978733
1,-8.89710718183778E-05,0.00222208094783127,-0.00346307642757893,-0.00344752403907478,-0.0109756896272302,-0.00159143551718444
2,-0.000454055494628847,0.00103378226049244,-0.00616844138130546,-0.00430718390271068,-0.0124594019725919,-0.00351318321190774
3,-0.000710225489456207,0.000796771608293056,-0.00868267565965652,-0.00530655961483717,-0.0127039151266217,-0.00524451024830341
4,-0.00136455404572189,0.000914328440558165,-0.0104804961010814,-0.00639175903052092,-0.0121328523382545,-0.00645358162000775
5,-0.00163238705135882,0.00146326795220375,-0.0104443253949285,-0.00701686553657055,-0.0103835519403219,-0.0067241545766592
6,-0.00093226449098438,0.00189363735262305,-0.00803544279187918,-0.00667393626645207,-0.00751050654798746,-0.00559244165197015
7,-6.95033595548011E-05,0.0011967885075137,-0.00522150518372655,-0.0063092983327806,-0.00547211011871696,-0.00286615686491132
8,0.000706788909155875,-0.000286653637886047,-0.00409634131938219,-0.00728554697707295,-0.00470848008990288,0.000271206517936662
9,0.0014475843636319,-0.00139761599712074,-0.00399298779666424,-0.00911894533783197,-0.0032801057677716,0.0016490836860612
10,0.0021566366776824,-0.00134979980066419,-0.00361423194408417,-0.0106253009289503,-0.00095824955496937,-5.22669397469144E-05
11,0.00279676262289286,-0.000470835308078676,-0.00387323088943958,-0.0118928933516145,-0.000514503102749586,-0.00447771791368723
12,0.00304335379041731,0.000659885816276073,-0.00568049587309361,-0.0128284888342023,-0.00385690946131945,-0.00928164552897215
13,0.00327842403203249,0.00203392957337201,-0.00788234360516071,-0.0128851141780615,-0.00905669201165438,-0.0124952048063278
14,0.00433311425149441,0.00369590381160378,-0.00863252952694893,-0.0116961393505335,-0.0123085873201489,-0.0136141935363412
15,0.00563868368044496,0.00489639164879918,-0.0077843819744885,-0.00974483974277973,-0.0126153072342277,-0.0129559794440866
16,0.0059073050506413,0.00465339794754982,-0.00685239024460316,-0.00854153279215097,-0.0116742523387074,-0.0117319291457534
17,0.00493224104866385,0.00339844357222319,-0.00593864824622869,-0.00779684307053685,-0.0097817238420248,-0.0100340945646167
18,0.00303217279724777,0.00159732345491648,-0.00450312765315175,-0.00668510282412171,-0.00639313599094749,-0.00813330244272947
19,0.0013121945085004,-0.000933460658416152,-0.00370350806042552,-0.0063388254493475,-0.00264074071310461,-0.00779641792178154
20,0.00106299261096865,-0.00360789871774614,-0.00480244541540742,-0.00775812705978751,-0.0010325217153877,-0.0094005111604929
21,0.0021215588785708,-0.00564370211213827,-0.0070057213306427,-0.0101443510502577,-0.00217578443698585,-0.0114883538335562
22,0.00371522596105933,-0.00658086128532887,-0.00859218556433916,-0.0116322161629796,-0.00337856542319059,-0.0125523069873452
23,0.00484586413949728,-0.0066919201053679,-0.00976142380386591,-0.01173996925354,-0.003251395188272,-0.0125577608123422
24,0.00446172757074237,-0.00711621297523379,-0.0118771567940712,-0.0116794863715768,-0.00342517043463886,-0.012460227124393
25,0.00313977524638176,-0.00823674723505974,-0.0145809920504689,-0.0120943356305361,-0.00459695421159267,-0.0126872789114714
26,0.00210994575172663,-0.00960993394255638,-0.0166350323706865,-0.0127435317263007,-0.00602103443816304,-0.0135979680344462
27,0.001252734917216,-0.0113608529791236,-0.0177445709705353,-0.0133952246978879,-0.00693590566515923,-0.0155655518174171
28,0.000501866976264864,-0.0128921205177903,-0.0172252114862204,-0.0132959187030792,-0.00608721561729908,-0.0169870182871819
29,0.000426448503276333,-0.0124513935297728,-0.0142882596701384,-0.0116463312879205,-0.00332026812247932,-0.0155535209923983
30,0.000852893630508333,-0.010463485494256,-0.0101177208125591,-0.0096178138628602,-0.000800752255599946,-0.0126553997397423
31,0.000929351837839931,-0.00909533817321062,-0.00716430973261595,-0.00920885428786278,-0.000983656267635524,-0.0111716790124774
32,0.000529160955920815,-0.00876977667212486,-0.00682432344183326,-0.0104835852980614,-0.00394206028431654,-0.010797593742609
33,0.000148292892845348,-0.00909157283604145,-0.00860999338328838,-0.0123555604368448,-0.00748586468398571,-0.0104877520352602
34,8.36493782117032E-05,-0.00944659020751715,-0.010264664888382,-0.0129809454083443,-0.0091380262747407,-0.00963548291474581
35,0.000155160843860358,-0.00911727547645569,-0.0102106351405382,-0.011290967464447,-0.00830329116433859,-0.00773060601204634
36,-0.000169664621353149,-0.00866913422942162,-0.00962708797305822,-0.00938695669174194,-0.00650604721158743,-0.00585524411872029
37,-0.000798231340013444,-0.00888179708272219,-0.00951625127345324,-0.00940570794045925,-0.00384405348449945,-0.00537304626777768
38,-0.0011817883932963,-0.00982732512056828,-0.00907996855676174,-0.0107859708368778,0.000506082025822252,-0.00639824708923697
39,-0.00100888521410525,-0.0110994260758162,-0.00734675023704767,-0.0113594410941005,0.00540763139724731,-0.0078160623088479
40,-0.000282428052742034,-0.0119010023772717,-0.00384814222343266,-0.00924556981772184,0.00930409133434296,-0.00833844393491745
41,0.000498336623422801,-0.0114749697968364,0.000152626264025457,-0.00481632770970464,0.0102605540305376,-0.0074852560646832
42,0.00075369537808001,-0.00921467039734125,0.00142896128818393,-0.000748699239920825,0.00603917241096497,-0.00509161641821265
43,0.000728607934433967,-0.00515612028539181,-0.00171841320116073,-4.35214387835003E-05,-0.0021736603230238,-0.00186909607145935
44,0.000335095217451453,-0.00109841010998935,-0.00800939183682203,-0.00413014972582459,-0.0106493066996336,0.000185967117431574
45,-0.00142162188421935,0.00082783802645281,-0.0142792435362935,-0.0108620459213853,-0.0166188552975655,0.00105663295835257
46,-0.00469474261626601,0.000263868569163606,-0.017396355047822,-0.0155457891523838,-0.019380621612072,0.00350399292074144
47,-0.00838266685605049,-0.00100072321947664,-0.0169811975210905,-0.0156378988176584,-0.0203580260276794,0.00931607279926538
48,-0.0116197224706411,-0.000640627113170922,-0.016031589359045,-0.0137392664328218,-0.0221698936074972,0.0166784152388573
49,-0.0137972943484783,0.0022311550565064,-0.0172039270401001,-0.0135016767308116,-0.0262081231921911,0.0227264408022165
50,-0.0138871446251869,0.0065622185356915,-0.0191888995468616,-0.0148461814969778,-0.0301958881318569,0.0265630185604095
51,-0.0122791416943073,0.0107819074764848,-0.0193606838583946,-0.0154662569984794,-0.0317067764699459,0.0294086448848248
52,-0.0110060209408402,0.0141559606418014,-0.017656372860074,-0.0143607566133142,-0.032620370388031,0.032776515930891
53,-0.0110288439318538,0.0157803297042847,-0.0156365986913443,-0.013370887376368,-0.0349871590733528,0.0353528894484043
54,-0.0115144550800323,0.0160730108618736,-0.0139903128147125,-0.0138536961749196,-0.0377323292195797,0.0361500456929207
55,-0.0118873612955213,0.0171627476811409,-0.0138955861330032,-0.0154762174934149,-0.0410346761345863,0.0369455926120281
56,-0.0129467798396945,0.0192080698907375,-0.0166025571525097,-0.0179211273789406,-0.046121422201395,0.0390818379819393
57,-0.0156576819717884,0.0200657974928617,-0.0208165049552917,-0.0208206959068775,-0.0522053018212318,0.0417275056242943
58,-0.0189487356692553,0.0190435219556093,-0.0234862063080072,-0.023479126393795,-0.0570153184235096,0.0437068715691566
59,-0.0211418773978949,0.0175477173179388,-0.0228876434266567,-0.0252406615763903,-0.058512769639492,0.0452970415353775
60,-0.0218696855008602,0.0169516112655401,-0.0202084966003895,-0.0255732107907534,-0.0568534173071384,0.0471116378903389
61,-0.0209040325134993,0.0177619792521,-0.0170567687600851,-0.0227927416563034,-0.0538708567619324,0.0501414127647877
62,-0.0188341811299324,0.0192164909094572,-0.0141678182408214,-0.0165374390780926,-0.0515518113970757,0.0549389123916626
63,-0.0168506074696779,0.0204145051538944,-0.0121396584436297,-0.0103319650515914,-0.0504563897848129,0.0599741265177727
64,-0.0152934025973082,0.0213773585855961,-0.0115772392600775,-0.00803796947002411,-0.0496840998530388,0.0635250583291054
65,-0.0138614308089018,0.0225416794419289,-0.0125625785440207,-0.0101858070120215,-0.0485658198595047,0.0653753131628037
66,-0.0117761911824346,0.0242826733738184,-0.0134203275665641,-0.0140323648229241,-0.0461519844830036,0.0658381134271622
67,-0.00899600703269243,0.0258036367595196,-0.0125415977090597,-0.0169327612966299,-0.0414583534002304,0.064753532409668
68,-0.00726655032485724,0.0254737623035908,-0.0106779765337706,-0.0188499540090561,-0.0360631942749023,0.0621635690331459
69,-0.00804115738719702,0.0233846660703421,-0.00959961302578449,-0.0209889244288206,-0.0330662690103054,0.0586518719792366
70,-0.0105433836579323,0.0209749527275562,-0.0100957052782178,-0.0238619931042194,-0.0331844463944435,0.0543008707463741
71,-0.0124198039993644,0.0194244608283043,-0.0106877312064171,-0.0258156899362803,-0.0342293567955494,0.049914613366127
72,-0.0120999487116933,0.0186863634735346,-0.00975454319268465,-0.0257118865847588,-0.0339556820690632,0.046448539942503
73,-0.0102409487590194,0.0173223316669464,-0.008158172480762,-0.0254008881747723,-0.0316367484629154,0.0430744476616383
74,-0.00828344374895096,0.0151697881519794,-0.00701479054987431,-0.0258481986820698,-0.0279297418892384,0.0395606085658073
75,-0.00622927118092775,0.0135776558890939,-0.0053225108422339,-0.0257042273879051,-0.0235601905733347,0.0366101525723934
76,-0.00363440089859068,0.0129288947209716,-0.00194037379696965,-0.0236335806548595,-0.0185674000531435,0.0348068475723267
77,-0.00160491105634719,0.0127246389165521,0.00167174963280559,-0.0198161117732525,-0.0142830926924944,0.0345151498913765
78,-0.00148988387081772,0.012865929864347,0.00304765650071204,-0.0158098973333836,-0.012712437659502,0.0352443531155586
79,-0.00276502640917897,0.0136879933997989,0.00226110895164311,-0.0125219263136387,-0.0127350734546781,0.0367571115493774
80,-0.00369656342081726,0.0153881590813398,0.00144768587779254,-0.00975312106311321,-0.0118127055466175,0.0392133146524429
81,-0.0035613754298538,0.0178094245493412,0.00181412254460156,-0.00693445140495896,-0.00993969384580851,0.042735930532217
82,-0.00252468604594469,0.0197498016059399,0.00301273819059134,-0.00409753853455186,-0.00742694502696395,0.0464993230998516
83,-0.00115702534094453,0.0196455251425505,0.0040717045776546,-0.00250383955426514,-0.00420866068452597,0.0482147447764874
84,-0.000577589846216142,0.0179333947598934,0.00424395455047488,-0.00261994334869087,-0.00191350083332509,0.0473936982452869
85,-0.00121260597370565,0.0162604097276926,0.00358804943971336,-0.00357010099105537,-0.00210308795794845,0.0455684810876846
86,-0.0024017421528697,0.0152320973575115,0.0028000078164041,-0.00446757301688194,-0.00436722580343485,0.043689176440239
87,-0.00296630384400487,0.0150378243997693,0.00299345911480486,-0.00414229091256857,-0.00652485201135278,0.0426452644169331
88,-0.00234337872825563,0.015774741768837,0.00485346792265773,-0.00203224970027804,-0.00665959110483527,0.0425132066011429
89,-0.00191606092266738,0.0158637873828411,0.00692966766655445,-8.6008854850661E-05,-0.00561349559575319,0.0414084903895855
90,-0.00249650841578841,0.0139407478272915,0.00801494158804417,4.77375724585727E-05,-0.00399961462244391,0.0388304628431797
91,-0.00259825587272644,0.01172667555511,0.00927077140659094,-9.82387609838042E-06,-0.000564666814170778,0.0376009792089462
92,-0.00200586672872305,0.010513924062252,0.0105265034362674,0.000755190500058234,0.00288728135637939,0.0387915819883347
93,-0.00264112488366663,0.00893328990787268,0.0106434095650911,0.00125792180188,0.00327518256381154,0.0393109582364559
94,-0.00527901155874133,0.00717608025297523,0.0108327204361558,0.00161503278650343,0.00141463428735733,0.037056740373373
95,-0.00878831092268229,0.00659529911354184,0.0112980455160141,0.0016880672192201,-0.000918195757549256,0.032024472951889
96,-0.011090668849647,0.00726653821766377,0.0105028925463557,0.000746112782508135,-0.00326171121560037,0.0257512014359236
97,-0.0109869334846735,0.00905296858400106,0.00894860364496708,-0.000456789130112156,-0.00461141439154744,0.0221194326877594
98,-0.00948962941765785,0.0111870737746358,0.00799888744950294,-0.00167287967633456,-0.00307086110115051,0.0231763012707233
99,-0.0073736859485507,0.0132647762075067,0.00880256574600935,-0.00218098773621023,0.00248234625905752,0.0279371403157711
100,-0.00442365789785981,0.0157299228012562,0.0118616838008165,8.35672180983238E-05,0.0100721791386604,0.0343745946884155
101,-0.00148008181713521,0.0174124166369438,0.0148940579965711,0.0040531069971621,0.0157117322087288,0.038970835506916
102,-0.000210430123843253,0.0164906606078148,0.0148374084383249,0.0062104407697916,0.0171111505478621,0.0392064526677132
103,-0.00135398528072983,0.0130732944235206,0.0115712089464068,0.00583103206008673,0.014976354315877,0.0361791215837002
104,-0.00361948600038886,0.0089300787076354,0.00779758300632238,0.00504359789192677,0.0123173911124468,0.0322908274829388
105,-0.00479097105562687,0.00615811673924327,0.00632161647081375,0.00565408682450652,0.0119261080399156,0.0293549410998821
106,-0.00455185724422336,0.00575569784268737,0.00709751015529037,0.00745227886363864,0.0126338517293334,0.0285405870527029
107,-0.0039922334253788,0.0065130777657032,0.00749959284439683,0.0081955511122942,0.0115222046151757,0.0284889955073595
108,-0.00330675789155066,0.00641830684617162,0.0061603426001966,0.00636643031612039,0.0087193800136447,0.0264130309224129
109,-0.00220298324711621,0.00505611952394247,0.00458169309422374,0.00345766311511397,0.00639323983341455,0.0223429016768932
110,-0.000403153535444289,0.00313480827026069,0.00438322359696031,0.00201726122759283,0.00607316987589002,0.0181025061756372
111,0.00209331908263266,0.00121383531950414,0.00560855306684971,0.00351065816357732,0.00802802015095949,0.0148687260225415
112,0.00460469489917159,-0.000162009513587691,0.00798519514501095,0.00716524897143245,0.0117448242381215,0.0133472178131342
113,0.00583286490291357,-0.00052612810395658,0.0103025930002332,0.00991076789796352,0.0152755929157138,0.0136032300069928
114,0.00466243224218488,-4.46564308731467E-06,0.0102590182796121,0.00891781225800514,0.0158469527959824,0.0146275656297803
115,0.00219721137546003,5.99998638790566E-05,0.00738829001784325,0.00365159055218101,0.0139678092673421,0.0138089768588543
116,0.0011328614782542,-0.000836066785268486,0.00413014693185687,-0.00240571354515851,0.0129858534783125,0.0112307267263532
117,0.0026398163754493,-0.000791802362073213,0.00282550835981965,-0.00427458621561527,0.0137234451249242,0.0114317070692778
118,0.00566478725522757,0.00112888484727591,0.00291686900891364,-0.00186453014612198,0.0140965254977345,0.0153851667419076
119,0.00877041183412075,0.00387665466405451,0.00347434962168336,0.00181516376323998,0.0135371433570981,0.0193912424147129
120,0.011022343300283,0.00630165543407202,0.00495253317058086,0.00524712121114135,0.0132343815639615,0.0208953730762005
121,0.0119856437668204,0.00756911188364029,0.00665127579122782,0.0074796830303967,0.0133708100765944,0.0191591866314411
122,0.0118401264771819,0.00749191455543041,0.0072405100800097,0.00771121587604284,0.0136604215949774,0.0146298604086041
123,0.0109470011666417,0.00625966349616647,0.00690373778343201,0.00618634792044759,0.014325337484479,0.00867494847625494
124,0.0101220337674022,0.00419346056878567,0.00653906259685755,0.00404978543519974,0.0157464854419231,0.00275886314921081
125,0.0105748120695353,0.00278605939820409,0.00708512216806412,0.00336671271361411,0.0184344034641981,-0.00076129095396027
126,0.0121134743094444,0.00333229592069983,0.00903104338794947,0.00513442559167743,0.0221721399575472,-0.000134252724819817
127,0.0130701409652829,0.0051202536560595,0.0115284202620387,0.0076886247843504,0.0249665211886168,0.00339243630878627
128,0.0123519003391266,0.006195277441293,0.0131772439926863,0.00860023964196444,0.0254952814429998,0.0064499257132411
129,0.0103862807154655,0.00477849738672376,0.0132814524695277,0.00685527781024575,0.0252210609614849,0.00598997576162219
130,0.00853252317756414,0.00143371871672571,0.0124585907906294,0.0041829152032733,0.0258722100406885,0.00230272207409143
131,0.00747094955295324,-0.00190314278006554,0.0117939775809646,0.0027800016105175,0.0273435283452272,-0.00237580225802958
132,0.00694792298600078,-0.00414606090635061,0.0117542240768671,0.0029715218115598,0.0286562945693731,-0.00645836023613811
133,0.00678829103708267,-0.00478702830150723,0.0119950249791145,0.00442277919501066,0.0293007418513298,-0.00821400620043278
134,0.00671819364652038,-0.00406693853437901,0.0117766130715609,0.00638808123767376,0.028870576992631,-0.00661045499145985
135,0.00615538004785776,-0.00285234791226685,0.0112317688763142,0.00766477733850479,0.0273946933448315,-0.00272802100516856
136,0.00501439534127712,-0.0017767472891137,0.0116884959861636,0.00815695896744728,0.0270115379244089,0.00116904953029007
137,0.00390883674845099,-0.000759164744522423,0.0136958258226514,0.00924782827496529,0.0289414767175913,0.00394481653347611
138,0.003383819013834,0.000426158105256036,0.0152887478470802,0.0110361957922578,0.0302556995302439,0.00512890191748738
139,0.00317002064548433,0.000938699289690703,0.0140299936756492,0.0111834835261106,0.0280809588730335,0.00309294485487044
140,0.00312678841874003,7.66216107876971E-05,0.0110501684248447,0.00925036612898111,0.0240446981042624,-0.00225966353900731
141,0.00366747169755399,-0.0013970440486446,0.00956103671342134,0.00798751879483461,0.0217076260596514,-0.0080378595739603
142,0.00398346548900008,-0.00308500370010734,0.00939278397709131,0.00820658914744854,0.0211306568235159,-0.0122802462428808
143,0.00342593365348876,-0.00463858107104898,0.0083141578361392,0.00830833800137043,0.0200253520160913,-0.0146503504365683
144,0.00272358837537467,-0.0047222594730556,0.00611461931839585,0.00770692154765129,0.0179117918014526,-0.0141567988321185
145,0.00180728721898049,-0.00349543406628072,0.00395380519330502,0.00653855269774795,0.0159175507724285,-0.0109346229583025
146,0.00096909812418744,-0.00213500810787082,0.00345687079243362,0.00566323334351182,0.0159798618406057,-0.00640959059819579
147,0.00234274636022747,-0.00021451196516864,0.00629925727844238,0.00733603117987514,0.0197444725781679,-0.00100295513402671
148,0.0058074533008039,0.00238652271218598,0.0113677140325308,0.0119166811928153,0.0253308396786451,0.00454447930678725
149,0.00879132840782404,0.004264947026968,0.0158165488392115,0.017527237534523,0.0292478408664465,0.00909490510821342
150,0.0111478939652443,0.00507655180990696,0.0193820614367723,0.0237463861703873,0.0319152362644672,0.0126750655472279
151,0.0132224848493934,0.00513113103806973,0.0222635604441166,0.0295361429452896,0.0346704423427582,0.0146701941266656
152,0.0139126526191831,0.00431012408807874,0.023722006008029,0.0324936509132385,0.0367759987711906,0.0139294164255261
153,0.0136708775535226,0.00346498913131654,0.024925047531724,0.0328591912984848,0.0387470461428165,0.0113174309954047
154,0.0134740304201841,0.0038370646070689,0.0268809795379639,0.0325053632259369,0.0411631539463997,0.0096955755725503
155,0.0137012237682939,0.00612903153523803,0.0290034562349319,0.0329086557030678,0.04373973980546,0.0120193464681506
156,0.0144283436238766,0.0093866866081953,0.0305882766842842,0.0340671874582767,0.046172808855772,0.0175985228270292
157,0.0153664294630289,0.0114844469353557,0.0310445446521044,0.0343930795788765,0.0477153286337852,0.0220520868897438
158,0.0166321955621243,0.0122525906190276,0.0306616351008415,0.033803503960371,0.0483890920877457,0.0230182465165854
159,0.0179913807660341,0.0125084482133389,0.0296517163515091,0.0331552475690842,0.0479863211512566,0.0212893504649401
160,0.0188318192958832,0.01199487503618,0.0280112065374851,0.0322753414511681,0.0461933165788651,0.0177946109324694
161,0.0189314335584641,0.0106376446783543,0.02657725289464,0.0311234295368195,0.0442338325083256,0.0134157305583358
162,0.0191188529133797,0.00939948298037052,0.0259813256561756,0.0300222728401423,0.0438669882714748,0.00928276870399714
163,0.0198878217488527,0.00883155688643456,0.0258958581835032,0.0289939809590578,0.0448944382369518,0.00616769585758448
164,0.0205951239913702,0.00902262423187494,0.0263071339577436,0.0288772601634264,0.0457953251898289,0.00501639628782868
165,0.0209075659513474,0.0097619378939271,0.0272123701870441,0.0300302468240261,0.0466941669583321,0.00567714869976044
166,0.0200509503483772,0.00943313352763653,0.0267518851906061,0.0300850626081228,0.0471156574785709,0.00566457025706768
167,0.0173128731548786,0.00707159284502268,0.0234606545418501,0.0275154616683722,0.0449443869292736,0.00392612768337131
168,0.0136347468942404,0.00372098200023174,0.0186969190835953,0.0238854810595512,0.0406862832605839,0.0021234480664134
169,0.0111760953441262,0.00107143155764788,0.0150728933513165,0.0207878537476063,0.0374587662518024,0.00131750525906682
170,0.0110766524448991,0.000120540935313329,0.0137226246297359,0.0184903368353844,0.0360834822058678,0.00101580622140318
171,0.0123137701302767,0.000294088647933677,0.0138329099863768,0.0169128254055977,0.0351541601121426,3.30636248691007E-05
172,0.0130805401131511,-0.000170343046193011,0.0137567482888699,0.0150836370885372,0.0339714661240578,-0.00331546925008297
173,0.0120359184220433,-0.00247091986238956,0.0127330366522074,0.0119454311206937,0.0325664803385735,-0.00986732263118029
174,0.00929343421012163,-0.0055052237585187,0.0122535573318601,0.00912459474056959,0.0318191908299923,-0.0174113400280476
175,0.00655141705647111,-0.00744256610050797,0.0132398633286357,0.00863609649240971,0.0325569584965706,-0.0228982605040073
176,0.00553207146003842,-0.00863225851207972,0.014017254114151,0.00947470590472221,0.0337811857461929,-0.0265464130789042
177,0.00633486406877637,-0.0100455824285746,0.0137496395036578,0.0104044694453478,0.0338323377072811,-0.0289502292871475
178,0.00829964876174927,-0.0107914349064231,0.0137447388842702,0.011421718634665,0.0333080217242241,-0.0281694903969765
179,0.0103586902841926,-0.0107094217091799,0.0131954289972782,0.0109795499593019,0.0327266603708267,-0.0245261620730162
180,0.01154098007828,-0.0105293784290552,0.0108720446005464,0.00880337320268154,0.0310327205806971,-0.0200919304043055
181,0.0124177020043135,-0.00978038180619478,0.00862217787653208,0.00740904035046697,0.0283952951431274,-0.015261766500771
182,0.0129595045000315,-0.00861142482608557,0.00706285331398249,0.00697146775200963,0.0247443318367004,-0.011383649893105
183,0.0120327770709991,-0.00793432723730803,0.00472994334995747,0.00570495426654816,0.0194103252142668,-0.0100832879543304
184,0.0101922238245606,-0.00779857533052564,0.00195913319475949,0.00325920875184238,0.0142511371523142,-0.0108688082545996
185,0.0090137142688036,-0.00777609087526798,0.000413835310610011,0.000283302506431937,0.0122456606477499,-0.0126972543075681
186,0.00840206723660231,-0.00776930479332805,1.19825317597133E-05,-0.00270032114349306,0.0127295013517141,-0.0151755437254906
187,0.00742931198328733,-0.00796800851821899,-0.000460716779343784,-0.00471262680366635,0.0128139667212963,-0.017836844548583
188,0.00622565997764468,-0.00901609100401402,-0.000863040506374091,-0.00439956551417708,0.0124245658516884,-0.0201635044068098
189,0.00550661981105804,-0.0111539708450437,-5.13440318172798E-06,-0.00168131454847753,0.0134897027164698,-0.0217756945639849
190,0.0051246527582407,-0.0134618757292628,0.0020220810547471,0.00132906762883067,0.015949247404933,-0.022448442876339
191,0.00400184188038111,-0.0145792663097382,0.00339153036475182,0.00221518939360976,0.0172184556722641,-0.0220629200339317
192,0.00145752972457558,-0.0142320124432445,0.00244167889468372,0.00040823730523698,0.0152399390935898,-0.0209665726870298
193,-0.00149417808279395,-0.0134907700121403,-0.000184051124961115,-0.00295242364518344,0.0117679703980684,-0.0202451460063457
194,-0.00306755490601063,-0.0133392242714763,-0.00199244660325348,-0.00582205038517714,0.0102858431637287,-0.0208447743207216
195,-0.00297847646288574,-0.0144281461834908,-0.00201822584494948,-0.00695971492677927,0.0111215673387051,-0.0231901928782463
196,-0.00221794820390642,-0.0164251457899809,-0.00151656719390303,-0.00654323818162084,0.0126992957666516,-0.0264393221586943
197,-0.00217386451549828,-0.0177169889211655,-0.00184485944919288,-0.00543038686737418,0.0134914964437485,-0.0289080981165171
198,-0.00347772357054055,-0.0170057862997055,-0.00296701514162123,-0.00438977079465985,0.0121904443949461,-0.029598543420434
199,-0.00472555169835687,-0.0144266728311777,-0.00334617705084383,-0.00327821518294513,0.00988692510873079,-0.028287498280406
200,-0.00431769760325551,-0.01092613581568,-0.00189786416012794,-0.00186950585339218,0.00848307833075523,-0.0256503075361252
201,-0.00280702975578606,-0.0076871681958437,0.00021315153571777,-0.00106188608333468,0.00789501145482063,-0.023086279630661
202,-0.00220139394514263,-0.00607074610888958,0.000676272960845381,-0.00193993176799268,0.00716476421803236,-0.0212338101118803
203,-0.00299271615222096,-0.00669001508504152,-0.00118434661999345,-0.00421347143128514,0.00661575235426426,-0.0202485844492912
204,-0.00372652010992169,-0.00902123935520649,-0.00397445866838098,-0.00710435584187508,0.00753793586045504,-0.0213563442230225
205,-0.0048589794896543,-0.0124015556648374,-0.00706862518563867,-0.0105435717850924,0.00824651308357716,-0.0250808708369732
206,-0.00748198106884956,-0.015988165512681,-0.0102260513231158,-0.0133415283635259,0.00642613647505641,-0.0295368414372206
207,-0.00977567210793495,-0.0184902660548687,-0.0117828706279397,-0.0133047373965383,0.00408890238031745,-0.0325980894267559
208,-0.0103051932528615,-0.0194627922028303,-0.011152783408761,-0.0108759794384241,0.00327768549323082,-0.0340045504271984
209,-0.010312769562006,-0.0198233537375927,-0.00989886093884707,-0.00894239079207182,0.00270898593589664,-0.0346740745007992
210,-0.0107626197859645,-0.0204376894980669,-0.00931963324546814,-0.00911316741257906,0.00142171361949295,-0.0350592397153378
211,-0.0106541011482477,-0.020643375813961,-0.00949267391115427,-0.0101537993177772,0.00039469450712204,-0.0340898931026459
212,-0.00951473321765661,-0.0194342192262411,-0.0104291178286076,-0.0100906193256378,-0.000364615523722023,-0.0302499681711197
213,-0.00809689424932003,-0.017122358083725,-0.0117481760680676,-0.00837185699492693,-0.00157916347961873,-0.0245861858129501
214,-0.00705758761614561,-0.0147577011957765,-0.0128114959225059,-0.00585583923384547,-0.00327619165182114,-0.0197082329541445
215,-0.00651036901399493,-0.013194577768445,-0.0136227961629629,-0.00432485202327371,-0.00486142933368683,-0.0169086735695601
216,-0.00608829222619534,-0.0125736203044653,-0.0140906404703856,-0.0049432935193181,-0.00539640197530389,-0.0156954731792212
217,-0.00642236135900021,-0.012450011447072,-0.0141954738646746,-0.00688674347475171,-0.00542251486331224,-0.0141373807564378
218,-0.00832394883036613,-0.0124706141650677,-0.014240718446672,-0.00872835610061884,-0.00605052057653666,-0.0114905908703804
219,-0.010482843965292,-0.0125936521217227,-0.0141177596524358,-0.0103182289749384,-0.00676350248977542,-0.0097158532589674
220,-0.0107580702751875,-0.0124996304512024,-0.0130919879302382,-0.0113909672945738,-0.00612567737698555,-0.00981222093105316
221,-0.00935488007962704,-0.0119227059185505,-0.0109423343092203,-0.010724239051342,-0.00405514473095536,-0.0106395035982132
222,-0.00767828477546573,-0.0114276520907879,-0.00846482627093792,-0.00819644331932068,-0.00154355831909925,-0.0121050644665957
223,-0.00564497010782361,-0.0114234825596213,-0.00670843571424484,-0.00552831357344985,0.000574800535105169,-0.0143704144284129
224,-0.00314518250524998,-0.0119080794975162,-0.00618046242743731,-0.00445635383948684,0.00140284129884094,-0.0166873913258314
225,-0.00115316349547356,-0.012743953615427,-0.00641098944470286,-0.00472179986536503,0.000821570516563952,-0.0184108652174473
226,-8.27994517749175E-05,-0.0133947851136327,-0.00677384342998266,-0.00497893523424864,-0.000512672238983214,-0.018780579790473
227,0.000858049665112048,-0.0135433115065098,-0.00664425455033779,-0.00490221986547112,-0.00166242127306759,-0.0181612055748701
228,0.00217064865864813,-0.0133829601109028,-0.00555511843413115,-0.00496496446430683,-0.00197901437059045,-0.0182291828095913
229,0.00380244478583336,-0.0128606297075748,-0.00404904317110777,-0.00503323692828417,-0.00154484261292964,-0.0189146660268307
230,0.00486498279497027,-0.0122747952118516,-0.00359132257290185,-0.00487897638231516,-0.00131321011576802,-0.0192670505493879
231,0.00385569455102086,-0.0129470834508538,-0.0050932471640408,-0.00439404230564833,-0.00270237750373781,-0.0200039353221655
232,0.00134212058037519,-0.015056193806231,-0.0077396878041327,-0.00290891737677157,-0.0050095715560019,-0.0216205287724733
233,-0.000537918240297586,-0.0165537688881159,-0.0100016025826335,-0.000706561433617026,-0.0054483856074512,-0.0229572914540768
234,-0.00102129427250475,-0.0154683161526918,-0.0108222272247076,0.000604663509875536,-0.00303002633154392,-0.0223971903324127
235,-0.00130150036420673,-0.0121273379772902,-0.0105278743430972,-0.000291067903162912,-0.000350138667272404,-0.0199454501271248
236,-0.00261298753321171,-0.00857318472117186,-0.0102674728259444,-0.00312473857775331,-8.10868441476487E-05,-0.017153836786747
237,-0.00470385886728764,-0.00693361088633537,-0.0102833611890674,-0.0065202284604311,-0.00174274598248303,-0.0155854653567076
238,-0.00672475202009082,-0.00818816944956779,-0.0103292558342218,-0.00978110916912556,-0.00346363196149468,-0.0165126342326403
239,-0.00866083241999149,-0.0115868002176285,-0.0108889425173402,-0.0127350129187107,-0.00502671347931027,-0.0193848609924316
240,-0.0108546493574977,-0.0154682090505958,-0.0123645588755608,-0.0152430813759565,-0.00707624992355704,-0.0219444241374731
241,-0.0128250941634178,-0.0181380696594715,-0.0140788750723004,-0.0174423288553953,-0.00896304752677679,-0.023180678486824
242,-0.0136137288063765,-0.018836809322238,-0.015214616432786,-0.0194404926151037,-0.0099639305844903,-0.0233477912843227
243,-0.0126055218279362,-0.0185214672237635,-0.0153736099600792,-0.0211554598063231,-0.0100871995091438,-0.022877661511302
244,-0.0104350568726659,-0.0189923122525215,-0.0145273432135582,-0.0227685645222664,-0.00947032123804092,-0.0230741873383522
245,-0.0085341976955533,-0.020592674612999,-0.0129341864958405,-0.0244559329003096,-0.00792433135211468,-0.0248825196176767
246,-0.00806080549955368,-0.0226112641394138,-0.0116530954837799,-0.0262409653514624,-0.00596307218074799,-0.0281247887760401
247,-0.00914896745234728,-0.0253319591283798,-0.0123018277809024,-0.028111606836319,-0.00562269194051623,-0.0319416932761669
248,-0.00988422892987728,-0.0285579469054937,-0.0148768378421664,-0.0293559301644564,-0.0074758417904377,-0.0348918959498405
249,-0.00901053007692099,-0.0309547688812017,-0.0181896798312664,-0.0297152288258076,-0.0102510470896959,-0.0369253866374493
250,-0.00796890817582607,-0.0313064754009247,-0.0212436094880104,-0.029515914618969,-0.0130772357806563,-0.0384829118847847
251,-0.00864374917000532,-0.0302465818822384,-0.0240468606352806,-0.0293914545327425,-0.0159499309957027,-0.0398658961057663
252,-0.011046115309,-0.0299787130206823,-0.0273998994380236,-0.0305533446371555,-0.0191820822656155,-0.0424892865121365
253,-0.013539532199502,-0.0307308472692966,-0.0309621784836054,-0.0326592661440372,-0.0225325543433428,-0.0462322346866131
254,-0.014915743842721,-0.0310469120740891,-0.033540602773428,-0.0340804941952229,-0.0250770319253206,-0.0492023788392544
255,-0.0144774159416556,-0.0302709117531776,-0.0341021716594696,-0.0343645922839642,-0.0254000090062618,-0.0509551092982292
256,-0.0126852355897427,-0.029510285705328,-0.0329857170581818,-0.0350834205746651,-0.0236130747944117,-0.0532035678625107
257,-0.0115772867575288,-0.0304355937987566,-0.0317712016403675,-0.0371097512543201,-0.0219630654901266,-0.0565371215343475
258,-0.0128893917426467,-0.0331148281693459,-0.0316733494400978,-0.0393309704959393,-0.0227707028388977,-0.0589934997260571
259,-0.016184838488698,-0.0359840951859951,-0.0328530631959438,-0.0408978164196014,-0.0257198251783848,-0.0589456111192703
260,-0.0188816022127867,-0.0369619838893414,-0.0338657833635807,-0.0409692898392677,-0.0270605608820915,-0.0559473223984241
261,-0.0197443664073944,-0.0351145938038826,-0.033325556665659,-0.0388055108487606,-0.0249275118112564,-0.050082128494978
262,-0.0195283554494381,-0.0309531688690186,-0.0312859527766705,-0.0347942486405373,-0.0207957029342651,-0.0422077961266041
263,-0.0189701430499554,-0.0258974116295576,-0.0285988487303257,-0.030249934643507,-0.0158068705350161,-0.0339430533349514
264,-0.0184295959770679,-0.0215435903519392,-0.0259716399013996,-0.0259801652282476,-0.0110381273552775,-0.0264274962246418
265,-0.0168351996690035,-0.0179520472884178,-0.0226845890283585,-0.0211959779262543,-0.0068742330186069,-0.0195425394922495
266,-0.0132398130372167,-0.0144901564344764,-0.018095850944519,-0.0157477613538504,-0.00265362882055342,-0.0137597564607859
267,-0.00890716258436441,-0.0123779084533453,-0.0137722613289952,-0.011918512172997,0.00107782601844519,-0.0121184550225735
268,-0.00502851326018572,-0.0127648217603564,-0.0110202105715871,-0.0112461354583502,0.00369267188943923,-0.0160763468593359
269,-0.00228536431677639,-0.014527790248394,-0.00986114423722029,-0.0125768939033151,0.00472906650975347,-0.0215616244822741
270,-0.00148554611951113,-0.0157274417579174,-0.0103463474661112,-0.0143721336498857,0.00356188043951988,-0.0235309731215239
271,-0.00209346716292202,-0.0150564974173903,-0.0116695472970605,-0.0157796256244183,0.00165065983310342,-0.021618664264679
272,-0.00313749630004168,-0.0133918961510062,-0.0131049444898963,-0.0169564299285412,0.000996395712718368,-0.020171757787466
273,-0.00443578092381358,-0.0127385323867202,-0.0148500530049205,-0.0185921620577574,0.00174374028574675,-0.0229040905833244
274,-0.00567927630618215,-0.013570848852396,-0.0166946109384298,-0.0202290657907724,0.00285912211984396,-0.0293069817125797
275,-0.00662343483418226,-0.0150895863771439,-0.0184472184628248,-0.0207567345350981,0.00270244455896318,-0.0360971167683601
276,-0.00701648788526654,-0.0156031912192702,-0.0193119626492262,-0.0190968364477158,0.0011842391686514,-0.0392207093536854
277,-0.00646112440153956,-0.0142307812348008,-0.018307289108634,-0.015457252971828,0.000186325996764936,-0.0371878482401371
278,-0.00556065142154694,-0.0123381754383445,-0.0164376273751259,-0.0120058702304959,-2.41558664129116E-05,-0.0325573086738586
279,-0.00481763295829296,-0.0104121137410402,-0.0143210515379906,-0.00939137302339077,-0.000228029122808948,-0.0275105237960815
280,-0.00391544215381145,-0.00815748795866966,-0.0117875104770064,-0.00707299588248134,-0.000481456430861726,-0.0229236092418432
281,-0.00328549509868026,-0.00687153218314052,-0.0102960336953402,-0.00631896359845996,-0.00130727211944759,-0.0206163059920073
282,-0.00395146105438471,-0.0072462921962142,-0.0110381962731481,-0.00775716779753566,-0.00330046215094626,-0.0207090694457293
283,-0.00577102787792683,-0.00823888555169106,-0.0130042312666774,-0.00964142754673958,-0.00586115615442395,-0.0214168187230825
284,-0.00736809335649014,-0.00924961175769567,-0.0145977046340704,-0.010483056306839,-0.00786939077079296,-0.022355830296874
285,-0.00760911824181676,-0.0102387191727757,-0.0149874426424503,-0.0103659620508552,-0.00921590533107519,-0.0239432919770479
286,-0.0063011716119945,-0.0104706175625324,-0.014004360884428,-0.00974888261407614,-0.0104065835475922,-0.0258133355528116
287,-0.00433382112532854,-0.00953895598649979,-0.0124263186007738,-0.00874962657690048,-0.0118414117023349,-0.0272458344697952
288,-0.00298212026245892,-0.00805436354130507,-0.0116614056751132,-0.00751566095277667,-0.0138362916186452,-0.0278987120836973
289,-0.00257569621317089,-0.00669066142290831,-0.012253750115633,-0.006178870331496,-0.0157279148697853,-0.0272873118519783
290,-0.00249350117519498,-0.00578479887917638,-0.0134671283885837,-0.00493893539533019,-0.0159920211881399,-0.0246083699166775
291,-0.00191366032231599,-0.00527323642745614,-0.0142095517367125,-0.00438563385978341,-0.0138505855575204,-0.019986005499959
292,-0.00130029208958149,-0.00488987984135747,-0.0145985139533877,-0.00496143149212003,-0.01076814904809,-0.0141653046011925
293,-0.00162606849335134,-0.00425551692023873,-0.0154301021248102,-0.00632847612723708,-0.00847848784178495,-0.00820097513496876
294,-0.00180981867015362,-0.00285143312066793,-0.0160723011940718,-0.00763709982857108,-0.00675912667065859,-0.00374353164806962
295,-0.000796962936874479,-0.000730170402675867,-0.0157928541302681,-0.00825560837984085,-0.00581716280430555,-0.00151621678378433
296,0.00143166433554143,0.00128275481984019,-0.0144756371155381,-0.00769386207684875,-0.00537282135337591,-0.00107977795414627
297,0.00524363853037357,0.00264957523904741,-0.0118515584617853,-0.00558365462347865,-0.00328361336141825,-0.00164553651120514
298,0.0096784345805645,0.00408381363376975,-0.00878769438713789,-0.00274283927865326,0.000252884638030082,-0.00233327155001462
299,0.0125508168712258,0.00655792327597737,-0.00656478852033615,-0.000517573556862772,0.00249009300023317,-0.00269558047875762
300,0.0134638296440244,0.00992514099925756,-0.00475515890866518,0.00151587033178657,0.00269502936862409,-0.0022182441316545
301,0.0131086558103561,0.012962237931788,-0.00367938727140427,0.00407769996672869,0.00163035839796066,-0.000888503738678992
302,0.011567996814847,0.0147828804329038,-0.00417975382879376,0.00681390473619103,-8.04496739874594E-05,0.000553712714463472
303,0.00958915147930384,0.0157154370099306,-0.00440972764045,0.00945522915571928,-0.00128393538761884,0.00178428657818586
304,0.00788087025284767,0.0160351935774088,-0.00329673290252686,0.0111074633896351,-0.00189451687037945,0.00252875220030546
305,0.00583295710384846,0.0156973544508219,-0.00239398865960538,0.0109734470024705,-0.00273211277090013,0.00274425745010376
306,0.00286629446782172,0.0152651108801365,-0.00220991484820843,0.0102916266769171,-0.003216786775738,0.00345860538072884
307,-0.000442977237980813,0.0158881563693285,-0.00140354188624769,0.011454451829195,-0.00197643646970391,0.00597224431112409
308,-0.0034878624137491,0.0169611684978008,-0.000108463951619342,0.0142167378216982,0.000439858034951612,0.00879941135644913
309,-0.00637756288051605,0.0164939519017935,-2.77680737781338E-05,0.0160623360425234,0.001845593447797,0.00885846745222807
310,-0.00927355885505676,0.0149329220876098,-0.00147061771713197,0.0169273652136326,0.00128959107678384,0.00671705417335033
311,-0.0117175476625562,0.0138952471315861,-0.00333898840472102,0.0178469326347113,-5.93023250985425E-05,0.00517758680507541
312,-0.0136733893305063,0.0131044071167707,-0.00533613841980696,0.0175854489207268,-0.00147862883750349,0.00473803281784058
313,-0.0161616075783968,0.0116875935345888,-0.00791951548308134,0.0152626251801848,-0.00360772502608597,0.00418573524802923
314,-0.0188690647482872,0.01041813287884,-0.00967736914753914,0.0128475436940789,-0.00585412373766303,0.00339778373017907
315,-0.0201577935367823,0.011016552336514,-0.00820865295827389,0.0131565956398845,-0.00673963176086545,0.00408451305702329
316,-0.0198549460619688,0.0134957749396563,-0.00388155202381313,0.0159586220979691,-0.00626966031268239,0.00676875934004784
317,-0.0196096356958151,0.0157265849411488,-0.000141744938446209,0.0175269283354282,-0.00569941010326147,0.00856484286487103
318,-0.020507276058197,0.0167147610336542,0.000757425674237311,0.0165856145322323,-0.00517546897754073,0.00781252048909664
319,-0.0207619890570641,0.0184358693659306,0.00110042921733111,0.0167596843093634,-0.00247636088170111,0.00717247277498245
320,-0.0186472535133362,0.0219505410641432,0.0032768293749541,0.0201490949839354,0.00311673618853092,0.00860481802374125
321,-0.016059834510088,0.025051886215806,0.00557190086692572,0.0240261554718018,0.00832550320774317,0.0102980397641659
322,-0.0149761568754911,0.0258491300046444,0.00584430247545242,0.0252726264297962,0.0103593291714787,0.0102935805916786
323,-0.0150327822193503,0.0246159303933382,0.00396784860640764,0.0234896261245012,0.00912786554545164,0.00887991674244404
324,-0.0156445298343897,0.0223027970641851,0.000893331540282816,0.0205365940928459,0.00548990909010172,0.00765988696366549
325,-0.0163978654891253,0.0192439164966345,-0.00214374787174165,0.0181122813373804,0.00108649581670761,0.00709148123860359
326,-0.0160176064819098,0.0162734389305115,-0.00333649502135813,0.0172005109488964,-0.0011245853966102,0.00707276305183768
327,-0.0133715635165572,0.0149156991392374,-0.00120734551455826,0.0184606239199638,0.000807281001470983,0.00853843800723553
328,-0.00962382275611162,0.0145767293870449,0.00204102694988251,0.0198425184935331,0.00424001226201653,0.0103039238601923
329,-0.00719598820433021,0.0133954240009189,0.00254422542639077,0.0184340178966522,0.0047809649258852,0.0093952938914299
330,-0.00651272526010871,0.010889190249145,-0.000171184889040887,0.0143862962722778,0.00198253779672086,0.00492158764973283
331,-0.00568383885547519,0.00821750052273273,-0.00293446006253362,0.0108459154143929,-0.000868547591380775,-0.000738975359126925
332,-0.00339425215497613,0.00675047421827912,-0.00306079676374793,0.0104483375325799,-0.00118584383744746,-0.00476451404392719
333,-0.000186138437129557,0.00653460016474128,-0.00155689753592014,0.0120732262730598,0.00013730869977735,-0.00683285528793931
334,0.00299071823246777,0.00692784506827593,-0.000418472802266479,0.0130537962540984,0.00132105930242687,-0.00765058631077409
335,0.00548619404435158,0.00761322397738695,0.000236828200286254,0.0129121830686927,0.00219790427945554,-0.00737780751660466
336,0.00704575655981898,0.00842114072293043,0.00106211612001061,0.0137712033465505,0.0031222787220031,-0.00574915530160069
337,0.00772183295339346,0.0084600243717432,0.00201868591830134,0.0168265588581562,0.00425245612859726,-0.00336856674402952
338,0.00733929267153144,0.00724507449194789,0.00244284910149872,0.0199057906866074,0.00514983432367444,-0.00120312033686787
339,0.00567982066422701,0.00590419350191951,0.00170959427487105,0.0200214777141809,0.004828748293221,0.00054411607561633
340,0.00361669412814081,0.00585854426026344,0.00052094622515142,0.0169671215116978,0.00408089533448219,0.00169140833895653
341,0.00201925286091864,0.0069355103187263,-0.000224025730858557,0.0126343825832009,0.00367465242743492,0.00179093680344522
342,0.000344560103258118,0.00786781962960958,-0.00122335099149495,0.00843104626983404,0.00190767901949584,0.000959536992013454
343,-0.00156188663095236,0.00846519973129034,-0.00286020059138536,0.00579034723341465,-0.000968671578448266,0.000803176895715296
344,-0.00347044505178928,0.00883135292679071,-0.00461330031976104,0.00556705892086029,-0.0029266644269228,0.00218974240124226
345,-0.00493738427758217,0.00881282333284616,-0.00538945011794567,0.00713032949715853,-0.00334469485096633,0.00419822242110968
346,-0.00502661941573024,0.00844824593514204,-0.00473497295752168,0.00922330841422081,-0.00270852935500443,0.00568305281922221
347,-0.00413188012316823,0.0077248471789062,-0.00426275143399835,0.0103896604850888,-0.00305299297906458,0.0056131249293685
348,-0.00305642979219556,0.00701890652999282,-0.00520706363022327,0.00969046633690596,-0.00545798940584064,0.00366559415124357
349,-0.0013413701672107,0.00661284057423472,-0.00680901249870658,0.00745747098699212,-0.00795568153262138,0.00104051141534001
350,0.00167057965882123,0.00630412809550762,-0.00704028690233827,0.00570787163451314,-0.00790492445230484,-0.000190496735740453
351,0.0058424836024642,0.0058652157895267,-0.00411735847592354,0.00682638678699732,-0.00386805832386017,0.00135082227643579
352,0.00970765668898821,0.00481303641572595,0.00157665484584868,0.0110144009813666,0.00340300938114524,0.00495356321334839
353,0.0113539379090071,0.00327833113260567,0.00853160303086042,0.0170730631798506,0.011045360006392,0.00900530256330967
354,0.0101878941059113,0.00272183492779732,0.0143783614039421,0.0231706164777279,0.0148438727483153,0.0132729485630989
355,0.00727325351908803,0.00400009611621499,0.0152422674000263,0.0258509647101164,0.0115612503141165,0.0174525715410709
356,0.00480801705271006,0.00622195471078157,0.0098915034905076,0.0230806972831488,0.00288028991781175,0.0202256720513105
357,0.00427568424493074,0.00810100510716438,0.00159673788584769,0.0167251992970705,-0.00649125780910254,0.0211583226919174
358,0.00524940202012658,0.00960755813866854,-0.00558427115902305,0.0102460747584701,-0.0134418997913599,0.0214320477098227
359,0.00673463707789779,0.01178078353405,-0.00915245711803436,0.00638574082404375,-0.0165511015802622,0.0227504726499319
360,0.00769268441945314,0.0143944742158055,-0.00882515031844378,0.00591468065977097,-0.0164041593670845,0.0254038944840431
361,0.00760720763355494,0.0159001536667347,-0.00582002475857735,0.00755884405225515,-0.0148307299241424,0.0282951705157757
362,0.0069647990167141,0.0160853527486324,-0.00203139544464648,0.0092021320015192,-0.0133148934692144,0.0307366941124201
363,0.00556420441716909,0.0161015558987856,0.000110272208985407,0.00912406947463751,-0.0142927449196577,0.0331274680793285
364,0.00293825031258166,0.0172349158674479,-1.03647280411678E-05,0.00774640357121825,-0.0192390326410532,0.0370049774646759
365,0.000409641244914383,0.0204279702156782,-0.0003502493200358,0.00732951518148184,-0.0255085416138172,0.0435639545321465
366,-0.000560160086024553,0.024878203868866,0.000546332157682627,0.00865937583148479,-0.0296316016465425,0.0513989888131619
367,-0.00050746911438182,0.028984609991312,0.00184730975888669,0.0103990957140923,-0.0317937880754471,0.0586735010147095
368,-0.00113753729965538,0.0314721576869488,0.00218063173815608,0.0108362007886171,-0.0342318899929523,0.0646278262138367
369,-0.00316314748488367,0.0306642726063728,0.0013385076308623,0.00903639290481806,-0.0371107906103134,0.0674522072076797
370,-0.00520645268261433,0.0272051896899939,0.000355230382410809,0.00658797333016992,-0.0390345044434071,0.0670277625322342
371,-0.00618504919111729,0.0238732025027275,-0.000421492586610839,0.00540039455518126,-0.0400149114429951,0.0658745616674423
372,-0.00634392676874995,0.0216652452945709,-0.00148834579158574,0.00505190063267946,-0.0407180674374104,0.0653359144926071
373,-0.00622848840430379,0.0202649589627981,-0.00231872056610882,0.00532623520120978,-0.0414180941879749,0.0662132054567337
374,-0.00625554891303182,0.0196090657263994,-0.00193425349425524,0.00637303199619055,-0.0408961959183216,0.06898383051157
375,-0.00613521505147219,0.0199007298797369,-0.0003187861002516,0.00748551776632667,-0.0372490510344505,0.0725655406713486
376,-0.00653501646593213,0.020901657640934,0.00126426375936717,0.00793717987835407,-0.0324658825993538,0.0758057460188866
377,-0.00832728575915098,0.0217269565910101,0.00151714740786701,0.00686860969290137,-0.0295365545898676,0.077578641474247
378,-0.00978055596351624,0.0221630092710257,0.000589563394896686,0.00426991330459714,-0.0278687924146652,0.0771158337593079
379,-0.00890618655830622,0.0227349791675806,-0.000103133766970132,0.00164671160746366,-0.0259069353342056,0.0752090737223625
380,-0.00542514165863395,0.0243471134454012,0.00167103542480618,0.00124930450692773,-0.0219915825873613,0.0734633356332779
381,-0.000662747246678919,0.0272036250680685,0.00634752353653312,0.00395221076905727,-0.0158372968435287,0.0722831338644028
382,0.00357549963518977,0.030242582783103,0.0118056572973728,0.00852023903280497,-0.00948223099112511,0.0712530165910721
383,0.00668584788218141,0.0327391661703587,0.0164512656629086,0.0141294449567795,-0.0048238979652524,0.0713049471378326
384,0.00815062783658504,0.0340352579951286,0.0195851419121027,0.0205284804105759,-0.00364979193545878,0.0732008963823318
385,0.00777551764622331,0.03364147990942,0.0212942659854889,0.0271906610578299,-0.0056255804374814,0.07657790184021
386,0.00614506704732776,0.0316299200057983,0.0217833183705807,0.0315044485032558,-0.00785521417856216,0.0793066397309303
387,0.00330109777860343,0.0284009892493486,0.0207233037799597,0.0304509047418833,-0.00901954807341099,0.0787679627537727
388,1.28520441649016E-05,0.0256885215640068,0.0193721689283848,0.0260302387177944,-0.00916471052914858,0.0764443948864937
389,-0.00232721911743283,0.0242453701794147,0.0188935901969671,0.0215835962444544,-0.0085961977019906,0.0743387565016747
390,-0.00384339038282633,0.0227174330502748,0.0183258950710297,0.0178148373961449,-0.00809694826602936,0.0718494802713394
391,-0.00523753091692925,0.0205813702195883,0.0171211939305067,0.0153878973796964,-0.00723984697833657,0.0691670030355453
392,-0.00620227959007025,0.0186717789620161,0.0161494296044111,0.0148667991161346,-0.00455741863697767,0.0671131834387779
393,-0.00655837403610349,0.0171746294945478,0.015416456386447,0.0148599995300174,-0.000734073459170759,0.0641123950481415
394,-0.00741549488157034,0.0153051782399416,0.0140551002696157,0.0138258207589388,0.00134568766225129,0.0579134039580822
395,-0.00916090421378613,0.0134959993883967,0.0126986391842365,0.0122652417048812,0.000781700306106359,0.0502254143357277
396,-0.0112134637311101,0.0126251531764865,0.0118619874119759,0.0105472188442945,-0.00102217495441437,0.044136606156826
397,-0.0131967049092054,0.013123675249517,0.0116476248949766,0.00961897149682045,-0.00213275547139347,0.0419648885726929
398,-0.0141529757529497,0.0156748481094837,0.0133279832080007,0.0118332300335169,-0.000949590234085917,0.0456205531954765
399,-0.0134545126929879,0.019669821485877,0.0171963777393103,0.0172852799296379,0.00222246209159493,0.0534871742129326
400,-0.0121336989104748,0.0227616503834724,0.0212485603988171,0.022895310074091,0.00541656510904431,0.0606095008552074
401,-0.0112849771976471,0.0234311427921057,0.0234356094151735,0.0260825548321009,0.00723252724856138,0.0638237968087196
402,-0.0108172753825784,0.0222290121018887,0.0236141011118889,0.0271456521004438,0.00801509711891413,0.0639256983995438
403,-0.0101271895691752,0.0201849769800901,0.0229196362197399,0.0271717105060816,0.00861158780753613,0.0627315863966942
404,-0.00858743488788605,0.0181554183363914,0.0230733416974545,0.0268257278949022,0.00968600623309612,0.0614170245826244
405,-0.00640872353687882,0.0168044995516539,0.0249821878969669,0.0269298031926155,0.0117997583001852,0.0606852546334267
406,-0.00448780134320259,0.0162591654807329,0.0276814457029104,0.0281958673149347,0.0149734625592828,0.0609022676944733
407,-0.0030609059613198,0.0157746076583862,0.0295988488942385,0.0297512095421553,0.0185325965285301,0.0610508359968662
408,-0.00184628099668771,0.0141665572300553,0.0299273189157248,0.029524277895689,0.021311417222023,0.0586387515068054
409,-0.000744632969144732,0.0114335315302014,0.0290200300514698,0.0272702351212502,0.0222848895937204,0.053365595638752
410,0.00041977156070061,0.00899078696966171,0.0277509465813637,0.0250529162585735,0.021257171407342,0.0483026541769505
411,0.0021679368801415,0.0079380115494132,0.0269604176282883,0.0246652271598578,0.0195649191737175,0.0461991466581821
412,0.00440115807577968,0.00737340981140733,0.0268788821995258,0.0254319757223129,0.0187527313828468,0.0463647954165936
413,0.00575025007128716,0.00583972968161106,0.0268652811646461,0.0255188979208469,0.0186004843562841,0.0459742322564125
414,0.00543803535401821,0.00427821278572083,0.0266372784972191,0.0245064608752728,0.0190052390098572,0.04354352876544
415,0.00462562963366508,0.00450316676869988,0.0267453603446484,0.0228508561849594,0.0205062571913004,0.0394020453095436
416,0.00464294804260135,0.00658013625070453,0.0276403985917568,0.0216344445943832,0.0219665821641684,0.0352022014558315
417,0.00530917150899768,0.00934283807873726,0.0285295341163874,0.0219504628330469,0.0213030893355608,0.0328024066984653
418,0.00594764295965433,0.0114103881642222,0.0276430416852236,0.0225521549582481,0.0178173016756773,0.0322987847030163
419,0.00702333822846413,0.0124509250745177,0.0249539986252785,0.0217409394681454,0.0133784981444478,0.0327279083430767
420,0.00848774705082178,0.0128134433180094,0.0218534059822559,0.0197121500968933,0.0101551031693816,0.0328425914049149
421,0.00913643278181553,0.0124399466440082,0.0191945191472769,0.0178494565188885,0.00874453410506248,0.0321259088814259
422,0.00915982481092215,0.0115331225097179,0.017916601151228,0.0174652691930532,0.00960305333137512,0.0312247294932604
423,0.00888670515269041,0.0101975947618485,0.0182766281068325,0.0187016874551773,0.0120608424767852,0.0304199419915676
424,0.00707101542502642,0.0080853421241045,0.019544405862689,0.0210877079516649,0.0147026628255844,0.0296432711184025
425,0.00298930238932371,0.00548839569091797,0.0211149845272303,0.0236408542841673,0.017630361020565,0.0285610314458609
426,-0.0014830589061603,0.00374644878320396,0.0226212106645107,0.0250699408352375,0.0211915485560894,0.0264662653207779
427,-0.00302996672689915,0.0042573120445013,0.0235928352922201,0.0250686537474394,0.0244230479001999,0.0238761492073536
428,-0.00170141842681915,0.00631088716909289,0.0226578842848539,0.0234425123780966,0.0247975811362267,0.0222176499664783
429,-0.00040755927329883,0.00811314303427935,0.0191646032035351,0.0200836732983589,0.0212063863873482,0.0221925377845764
430,0.000208145705983043,0.00962594524025917,0.0151918241754174,0.0162169523537159,0.0166871324181557,0.0233621969819069
431,0.00110622029751539,0.0116965137422085,0.013355890288949,0.0134877385571599,0.0146809229627252,0.0246686674654484
432,0.00243751145899296,0.014253874309361,0.0140792159363627,0.0126152569428086,0.0159888602793217,0.0253726579248905
433,0.0030585597269237,0.0157867968082428,0.0152738504111767,0.0127391992136836,0.0184430703520775,0.0249843411147594
434,0.00171362422406673,0.0151059115305543,0.0148706063628197,0.0127918729558587,0.0187351461499929,0.0235711093991995
435,-0.00118859147187322,0.0128571158275008,0.0128877488896251,0.0123950429260731,0.0165507048368454,0.0208746194839478
436,-0.00422893650829792,0.0104708755388856,0.0107516627758741,0.0114721776917577,0.014366066083312,0.0164138693362474
437,-0.00629230448976159,0.00927471462637186,0.00948643684387207,0.0106981405988336,0.013298093341291,0.011812255717814
438,-0.0072410311549902,0.00963734276592731,0.00868053548038006,0.01025181543082,0.0119524905458093,0.00918950513005257
439,-0.00780757609754801,0.00963994767516851,0.00749075831845403,0.00854491256177425,0.00945980008691549,0.0073981792666018
440,-0.00828511640429497,0.00783021841198206,0.00588821619749069,0.00556307146325707,0.00699809892103076,0.00494325812906027
441,-0.00848366506397724,0.00578799704089761,0.00459228735417128,0.00391617137938738,0.00520985620096326,0.00390537641942501
442,-0.00860129110515118,0.00496804434806108,0.00402347417548299,0.00430891057476401,0.00302751874551177,0.00545568438246846
443,-0.0081569030880928,0.00543369213119149,0.00443647243082523,0.00543995620682836,0.000956540345214307,0.00729811564087868
444,-0.0061371005140245,0.00728750694543123,0.00591531535610557,0.00666458765044808,0.000908342131879181,0.00774925108999014
445,-0.00356910051777959,0.00998461060225964,0.00703474227339029,0.0076024211011827,0.00202967552468181,0.00807260908186436
446,-0.00237127463333309,0.0120897172018886,0.00676946388557553,0.00830437522381544,0.00268654595129192,0.0104016279801726
447,-0.00200378685258329,0.0126853827387095,0.00637813378125429,0.00898305326700211,0.00393272191286087,0.014192333444953
448,-0.00121079559903592,0.0118026556447148,0.00649024546146393,0.00905405171215534,0.00576200010254979,0.0166917368769646
449,-0.000148967461427674,0.0101087717339396,0.00637981528416276,0.00873760133981705,0.00654660537838936,0.0165468566119671
450,0.00072805117815733,0.00832273531705141,0.00544732296839356,0.00831044837832451,0.0063390270806849,0.014185675419867
451,0.000820391403976828,0.00664934702217579,0.00299121206626296,0.00681055011227727,0.004889658652246,0.010580905713141
452,-9.78965981630608E-05,0.00529213063418865,-0.000158165974426083,0.00517792347818613,0.00207549659535289,0.00734611786901951
453,-0.000839791493490338,0.00437376974150538,-0.0014507039450109,0.00579063035547733,0.000555312144570053,0.00525411125272512
454,0.000266219751210883,0.00318399956449866,1.62439609994181E-05,0.00822934787720442,0.00274562067352235,0.00283334730193019
455,0.00276360753923655,0.000617072393652052,0.00241826171986759,0.00967964809387922,0.00700998865067959,-0.00115047197323292
456,0.00412432057783008,-0.0032946621067822,0.00318712182343006,0.00832412578165531,0.00921196304261684,-0.00587107986211777
457,0.00408024108037353,-0.00658238120377064,0.00187256943900138,0.0051402160897851,0.00785636808723211,-0.00938900467008352
458,0.0039998865686357,-0.00804990064352751,-0.000249937904300168,0.00214297906495631,0.00461282674223185,-0.0106017496436834
459,0.00315308035351336,-0.00916542112827301,-0.00300849811173975,-0.000356721575371921,0.000539076689165086,-0.0107147833332419
460,0.00125386111903936,-0.0110312756150961,-0.0062709366902709,-0.00293667474761605,-0.00383673724718392,-0.0114266602322459
461,0.000530689198058099,-0.0124930422753096,-0.00802322756499052,-0.0045765838585794,-0.00664759892970324,-0.0123848048970103
462,0.00187384674791247,-0.0128737203776836,-0.00707709556445479,-0.00382753950543702,-0.0070544839836657,-0.0128158405423164
463,0.00338721601292491,-0.0132648320868611,-0.00524787092581391,-0.0015445495955646,-0.00678391894325614,-0.0136228958144784
464,0.00355633371509612,-0.0139493048191071,-0.00437066657468677,0.000204321375349537,-0.00682656886056066,-0.0154183423146605
465,0.00239634118042886,-0.014020093716681,-0.00454386789351702,3.52231800206937E-05,-0.00644264603033662,-0.0178435388952494
466,0.000475487264338881,-0.0135044511407614,-0.00557895703241229,-0.00248697423376143,-0.00559548288583755,-0.0207320991903543
467,-0.00113801867701113,-0.0129514234140515,-0.0072668194770813,-0.00664171297103167,-0.00529175298288465,-0.0231400299817324
468,-0.00134649407118559,-0.0124133117496967,-0.00921863690018654,-0.0109992502257228,-0.00604933733120561,-0.0242671631276608
469,0.000100935758382548,-0.0119897266849875,-0.0109795983880758,-0.0141471568495035,-0.00707481009885669,-0.0248126592487097
470,0.00232613598927855,-0.0117540806531906,-0.0123171890154481,-0.015327014029026,-0.00813494250178337,-0.0248744860291481
471,0.00411326717585325,-0.0114529402926564,-0.0131244156509638,-0.0145239690318704,-0.0100522311404347,-0.0230686981230974
472,0.00546550704166293,-0.0117708211764693,-0.013272819109261,-0.0125746857374907,-0.011527918279171,-0.0194783192127943
473,0.00695859873667359,-0.0138439107686281,-0.0128813460469246,-0.0106186652556062,-0.0101942429319024,-0.0159169211983681
474,0.00866885297000408,-0.016134200617671,-0.0113450586795807,-0.00839458033442497,-0.00627956539392471,-0.0126455603167415
475,0.00984312035143375,-0.0167917683720589,-0.00908881891518831,-0.00672389520332217,-0.00276309414766729,-0.0108813680708408
476,0.00945197883993387,-0.0167571902275085,-0.00815433077514172,-0.00757485954090953,-0.00177148880902678,-0.0130971139296889
477,0.00787480920553207,-0.0171062182635069,-0.00865029729902744,-0.00982395373284817,-0.00209231837652624,-0.0181457903236151
478,0.00708967028185725,-0.0169303864240646,-0.00890117418020964,-0.0106568112969399,-0.00156637188047171,-0.0224967338144779
479,0.00871312711387873,-0.014697315171361,-0.00772861996665597,-0.00878218654543161,0.000727011589333415,-0.0238411147147417
480,0.0111522134393454,-0.0114211160689592,-0.00606964575126767,-0.00541500188410282,0.00341695849783719,-0.0227798372507095
481,0.012288361787796,-0.00936988368630409,-0.00588317401707172,-0.00288009992800653,0.00450128735974431,-0.0219560414552689
482,0.0131511008366942,-0.00917325168848038,-0.00708379875868559,-0.00224146456457675,0.00433387979865074,-0.0232326854020357
483,0.0145754339173436,-0.0110740978270769,-0.00824899505823851,-0.00344593124464154,0.00375546375289559,-0.0268076602369547
484,0.0157230440527201,-0.0148002523928881,-0.0089510278776288,-0.00589512195438147,0.00248359376564622,-0.0315431393682957
485,0.0157090090215206,-0.0189390946179628,-0.0100185666233301,-0.00857126619666815,0.000166015699505806,-0.0352880284190178
486,0.0137621564790607,-0.022420659661293,-0.0120016606524587,-0.0109856147319078,-0.0027788036968559,-0.0367814265191555
487,0.00999931246042252,-0.0246976390480995,-0.0141796795651317,-0.013372621499002,-0.00497814361006022,-0.036889810115099
488,0.00654019415378571,-0.0250319559127092,-0.0151233272626996,-0.01490711979568,-0.00536426622420549,-0.0361099168658257
489,0.00580442603677511,-0.0235924739390612,-0.0145300924777985,-0.0141843650490046,-0.00446256157010794,-0.0340681597590446
490,0.00744527764618397,-0.0218811240047216,-0.0138923693448305,-0.0117554012686014,-0.00385019136592746,-0.0314667597413063
491,0.00956260692328215,-0.0209644567221403,-0.0140259331092238,-0.00939825177192688,-0.00388231058605015,-0.0296650510281324
492,0.0115849915891886,-0.0207453761249781,-0.0138550540432334,-0.00803695060312748,-0.0029664933681488,-0.0299528259783983
493,0.0135012101382017,-0.0206352472305298,-0.0124645251780748,-0.00737773301079869,-0.000349260633811355,-0.0323793962597847
494,0.014345770701766,-0.0200555641204119,-0.0103143872693181,-0.00622868817299604,0.0028827334754169,-0.0347372442483902
495,0.013707765378058,-0.0190109759569168,-0.0079284580424428,-0.00381830590777099,0.00635754596441984,-0.0354258753359318
496,0.0121394554153085,-0.0185963772237301,-0.00612439075484872,-0.0021100789308548,0.00963437184691429,-0.0359973162412643
497,0.0104527100920677,-0.0190511588007212,-0.00568915111944079,-0.00293730455450714,0.0111687881872058,-0.0374232493340969
498,0.00989410281181335,-0.0190582945942879,-0.00577275501564145,-0.00454578967764974,0.0107114668935537,-0.0380437485873699
499,0.0102499630302191,-0.0181671418249607,-0.00557433534413576,-0.00478425994515419,0.00890027172863483,-0.0363706573843956
500,0.0100911650806665,-0.0167957488447428,-0.00538541004061699,-0.00357700628228486,0.00624598748981953,-0.0316984690725803
501,0.00973641593009233,-0.0149969970807433,-0.00528268702328205,-0.00198779325000942,0.00417276844382286,-0.0248570516705513
502,0.0106494268402457,-0.0129310758784413,-0.00464660860598087,-0.00100188853684813,0.00404834421351552,-0.0188985019922256
503,0.0122433807700872,-0.0118914293125272,-0.00436862139031291,-0.00201519345864654,0.00482295081019402,-0.0170670170336962
504,0.0126794222742319,-0.0129652302712202,-0.0060847089625895,-0.00527328765019774,0.00526749761775136,-0.0198922362178564
505,0.0118067320436239,-0.0150466142222285,-0.0082080215215683,-0.00763546675443649,0.00630694534629583,-0.0239047724753618
506,0.0107983620837331,-0.0165930483490229,-0.00852159596979618,-0.00703448802232742,0.00822845194488764,-0.0257497206330299
507,0.0106544028967619,-0.017198134213686,-0.00741109857335687,-0.00473043881356716,0.00997249688953161,-0.0252772979438305
508,0.0117138344794512,-0.0171381197869778,-0.00588046619668603,-0.00233665457926691,0.0109281660988927,-0.0242003761231899
509,0.0141269508749247,-0.0169067047536373,-0.00407587410882115,-0.000820664106868207,0.0118771865963936,-0.0249320287257433
510,0.0177864246070385,-0.016453554853797,-0.00196688016876578,-0.000420267082517967,0.0140178082510829,-0.028459046036005
511,0.0215352550148964,-0.015498430468142,-4.31131666118745E-05,-0.000796728709246963,0.0168631002306938,-0.0333798266947269
512,0.0230241287499666,-0.0149392420426011,0.000668869877699763,-0.00119846209418029,0.0179888047277927,-0.0381446108222008
513,0.0209336001425982,-0.0159454550594091,-0.000466456112917513,-0.00047697575064376,0.0158729236572981,-0.0416105352342129
514,0.0171251017600298,-0.0179039146751165,-0.00272033340297639,0.00178708182647824,0.0125930896028876,-0.0427080020308495
515,0.0140636125579476,-0.0197448711842299,-0.00513711804524064,0.00388052151538432,0.011028528213501,-0.0425129868090153
516,0.0122604938223958,-0.0211899932473898,-0.00718308053910732,0.0033733353484422,0.0114590469747782,-0.0429768413305283
517,0.0116057572886348,-0.0215101148933172,-0.0081793675199151,0.000322678068187088,0.0128069138154387,-0.0434294305741787
518,0.012029692530632,-0.0197254959493876,-0.00810457859188318,-0.00280549773015082,0.0136371199041605,-0.0415458977222443
519,0.0131604038178921,-0.0161825511604548,-0.00732931448146701,-0.00420342618599534,0.0128758465871215,-0.0370561964809895
520,0.0150195062160492,-0.0122983483597636,-0.00544008240103722,-0.0039429203607142,0.0113580161705613,-0.03213070333004
521,0.0175089556723833,-0.00934554729610682,-0.00259656156413257,-0.00295876106247306,0.0101686222478747,-0.0283961780369282
522,0.0199156850576401,-0.00792007800191641,-2.63704569078982E-05,-0.00211513368412852,0.00938036479055882,-0.026019774377346
523,0.0212180111557245,-0.00807429011911154,0.00129217468202114,-0.00172408728394657,0.008667285554111,-0.0248994324356318
524,0.0206611305475235,-0.00998997036367655,0.00113727361895144,-0.00200141733512282,0.00753902364522219,-0.025385744869709
525,0.0188772492110729,-0.0130509370937943,0.000368698500096798,-0.00243605487048626,0.00656445464119315,-0.0268930457532406
526,0.0172311142086983,-0.0154731357470155,0.000104873637610581,-0.00170447770506144,0.00695765856653452,-0.0277972184121609
527,0.0168940611183643,-0.0162307694554329,0.000642917410004884,2.01621587621048E-05,0.00928848888725042,-0.0276888459920883
528,0.0180827938020229,-0.0164794363081455,0.00108152953907847,0.000664350518491119,0.0129078095778823,-0.0278078839182854
529,0.0193036645650864,-0.018623998388648,0.000534326361957937,-0.00120997230987996,0.0163319036364555,-0.0297180432826281
530,0.0198305174708366,-0.0223853811621666,0.00132018025033176,-0.00315634510479867,0.020338486880064,-0.0320425145328045
531,0.0199549663811922,-0.0249595884233713,0.00626130262389779,-0.00126906135119498,0.0259574670344591,-0.0319908745586872
532,0.0186044611036778,-0.0253211706876755,0.013175000436604,0.0044933008030057,0.0296303126960993,-0.0298798307776451
533,0.0158145725727081,-0.0234145168215036,0.017774036154151,0.0113379815593362,0.027465557679534,-0.0260650217533112
534,0.0135283526033163,-0.0193557608872652,0.0177807006984949,0.0152197666466236,0.0197387412190437,-0.0205086525529623
535,0.0121161583811045,-0.014868919737637,0.0123640662059188,0.0122090252116323,0.00873077008873224,-0.0160946995019913
536,0.0104421442374587,-0.0114617580547929,0.00327451853081584,0.00372174149379134,-0.00250180880539119,-0.0144523130729795
537,0.00791560020297766,-0.00902108754962683,-0.00455791596323252,-0.0037079849280417,-0.0109017482027411,-0.0125938626006246
538,0.00499919382855296,-0.00748521322384477,-0.00773115316405892,-0.00697864824905992,-0.0148686291649938,-0.00902635883539915
539,0.00290470873005688,-0.00735706510022283,-0.00700839562341571,-0.00859265122562647,-0.0146737415343523,-0.00646110298112035
540,0.00244168797507882,-0.0082175126299262,-0.0045596887357533,-0.0102898720651865,-0.0124111697077751,-0.00595904467627406
541,0.00264706579037011,-0.00896477792412043,-0.00235046516172588,-0.0112469969317317,-0.0111100971698761,-0.00529544334858656
542,0.00213126977905631,-0.00877364166080952,-0.00128210510592908,-0.0104361586272717,-0.0122558614239097,-0.00233095674775541
543,0.00116533099208027,-0.00734689785167575,-0.000735971378162503,-0.00797518622130156,-0.0143746472895145,0.00308853597380221
544,-1.3425762517727E-05,-0.00525140995159745,-0.000636014505289495,-0.00554760778322816,-0.0165157429873943,0.00943888444453478
545,-0.00192516250535846,-0.00323427515104413,-0.00115426036063582,-0.00498660281300545,-0.0193262882530689,0.0151025159284472
546,-0.00463124876841903,-0.00164151273202151,-0.00189138459973037,-0.00637301662936807,-0.0229479782283306,0.0194153692573309
547,-0.0075961546972394,-0.000408250431064516,-0.00346918776631355,-0.00901450682431459,-0.0275870114564896,0.0220251195132732
548,-0.00989337079226971,0.00148953520692885,-0.00628269743174315,-0.01215133164078,-0.0328755527734756,0.0235188584774733
549,-0.0106127941980958,0.00492350710555911,-0.00792463216930628,-0.0140103381127119,-0.0356721691787243,0.0259477123618126
550,-0.0100125493481755,0.00872412510216236,-0.00658783502876759,-0.0138087067753077,-0.034351047128439,0.0299880150705576
551,-0.0102821085602045,0.0105695053935051,-0.00525023834779859,-0.0133699662983418,-0.0337413549423218,0.0334325060248375
552,-0.0119804944843054,0.010350851342082,-0.0057987286709249,-0.0136601086705923,-0.0353981964290142,0.0352553427219391
553,-0.0135505720973015,0.0101258987560868,-0.0058373543433845,-0.0132714537903667,-0.0350888893008232,0.0381211340427399
554,-0.0144513845443726,0.0108391176909208,-0.00460786418989301,-0.0117906499654055,-0.0339849516749382,0.0440588817000389
555,-0.0142927588894963,0.0119895236566663,-0.0041866572573781,-0.0107160117477179,-0.0358386747539043,0.0512916930019856
556,-0.0128359319642186,0.0129655702039599,-0.00569898122921586,-0.0108808092772961,-0.0399638041853905,0.0567530728876591
557,-0.0104306219145656,0.0133643969893456,-0.00733921863138676,-0.0111482096835971,-0.0432725548744202,0.0590892657637596
558,-0.0081985630095005,0.0124136032536626,-0.00722694164142013,-0.0105793373659253,-0.0441523380577564,0.0583206601440907
559,-0.00750718731433153,0.00998979527503252,-0.00547082209959626,-0.0100105321034789,-0.0433410666882992,0.0549926422536373
560,-0.00842170137912035,0.00731730135157704,-0.00335611402988434,-0.0109940832480788,-0.0421372465789318,0.0500070415437222
561,-0.0104263331741095,0.00532025098800659,-0.00285045430064201,-0.0145865166559815,-0.0411242060363293,0.0440805926918983
562,-0.0132140442728996,0.00431105587631464,-0.00462864153087139,-0.0198481790721416,-0.0408644899725914,0.0383238196372986
563,-0.016291806474328,0.00466803321614861,-0.00741237681359053,-0.0242149047553539,-0.0419252142310143,0.034513995051384
564,-0.0187200009822845,0.00641001760959625,-0.00951982941478491,-0.0261149257421494,-0.0426749773323536,0.0330851003527641
565,-0.0198782607913017,0.00862779933959246,-0.0104444241151214,-0.0261043552309275,-0.0411412194371223,0.0325158722698689
566,-0.0197792630642653,0.0105227138847113,-0.0107097206637263,-0.0252126716077328,-0.0377715714275837,0.0323020704090595
567,-0.0190610941499472,0.0120471008121967,-0.010432954877615,-0.0232000071555376,-0.0337483435869217,0.0337900407612324
568,-0.0180453937500715,0.0136351147666574,-0.00929691549390554,-0.0193732269108295,-0.0293368045240641,0.0375718735158443
569,-0.0166578572243452,0.0152538595721126,-0.00773083185777068,-0.0147011931985617,-0.0249022077769041,0.0418292470276356
570,-0.0159571059048176,0.0154894525185227,-0.00728773465380073,-0.0116160195320845,-0.0219862200319767,0.0432340949773788
571,-0.0161386150866747,0.0136440526694059,-0.0083349933847785,-0.0107730776071548,-0.0207835733890533,0.0405198149383068
572,-0.0150273935869336,0.0111755430698395,-0.00849391147494316,-0.0104650296270847,-0.0185452401638031,0.036103829741478
573,-0.0118228523060679,0.00940835941582918,-0.00651192292571068,-0.00994975492358208,-0.0148534504696727,0.0322240889072418
574,-0.00909309834241867,0.00773356854915619,-0.00475422339513898,-0.0102962180972099,-0.0135809453204274,0.0282184556126595
575,-0.00876924674957991,0.0053785121999681,-0.00486433226615191,-0.0117741143330932,-0.0155964121222496,0.0233828853815794
576,-0.00954691786319017,0.00338456011377275,-0.00544326193630695,-0.0126811470836401,-0.0170946698635817,0.0191931035369635
577,-0.00911169126629829,0.00358494091778994,-0.0046504307538271,-0.0108324363827705,-0.0155159346759319,0.0181559883058071
578,-0.00674340454861522,0.00599953392520547,-0.00215150089934468,-0.00645130313932896,-0.0117777772247791,0.020737124606967
579,-0.00334690790623426,0.00870616547763348,0.00146007817238569,-0.00182299176231027,-0.00762420753017068,0.024291031062603
580,-0.000256354571320117,0.0101660257205367,0.00572370504960418,0.00187416293192655,-0.00344286300241947,0.0264731347560883
581,0.00154762482270598,0.0103386221453547,0.00981525704264641,0.00424792757257819,0.000408546096878126,0.0272000655531883
582,0.00194944732356817,0.0102559877559543,0.0123951574787498,0.00446241488680243,0.00305780535563827,0.0272838529199362
583,0.000802117225248367,0.0105947274714708,0.0124412924051285,0.00245528924278915,0.00394224794581532,0.0273703765124083
584,-0.0020354543812573,0.0110435280948877,0.0105449166148901,-5.47838390048128E-05,0.00303052179515362,0.0283162705600262
585,-0.00555389653891325,0.0108852693811059,0.00861408188939095,-0.00158038514200598,0.00059227179735899,0.0299862436950207
586,-0.00785194523632526,0.0103269750252366,0.00821435265243053,-0.00184619321953505,-0.00270036840811372,0.0312164928764105
587,-0.00767090637236834,0.0106626953929663,0.00956390239298344,-0.000770540907979012,-0.00520935608074069,0.0320819392800331
588,-0.00569744454696774,0.0122541058808565,0.0112537397071719,0.000936256314162165,-0.00571807520464063,0.0329226218163967
589,-0.00357887125574052,0.0141896139830351,0.0118939140811563,0.00230271206237376,-0.00416688155382872,0.0333164967596531
590,-0.00190728181041777,0.0158731024712324,0.0119005097076297,0.00400356575846672,-0.000489513564389199,0.0335306450724602
591,-0.000171552179381251,0.0178132615983486,0.0127110751345754,0.00781973171979189,0.00462482636794448,0.0349383652210236
592,0.00120287982281297,0.0195253249257803,0.0143843535333872,0.0131559520959854,0.00912032928317785,0.037024449557066
593,0.00119611422996968,0.018911100924015,0.0159242488443851,0.017063170671463,0.0118361879140139,0.0366437993943691
594,0.000280591455521062,0.0160988140851259,0.0173430144786835,0.0188009645789862,0.0135505003854632,0.0339160300791264
595,-0.000282946857623756,0.0137921301648021,0.0191921088844538,0.0203865766525269,0.0156853813678026,0.0328656174242496
596,-0.000202418596018106,0.012925642542541,0.0204540528357029,0.0219685304909945,0.0180038437247276,0.0333099700510502
597,0.000684429774992168,0.0128134852275252,0.0201865471899509,0.0218885242938995,0.0194390062242746,0.0315447300672531
598,0.00231778249144554,0.0129696540534496,0.0193431954830885,0.0199189875274897,0.0204164739698172,0.0268097650259733
599,0.00298851798288524,0.012556747533381,0.0178881790488958,0.0170324165374041,0.0203419271856546,0.0210923925042152
600,0.00157838477753103,0.0112942717969418,0.0153248347342014,0.0147986076772213,0.0178813003003597,0.0167685933411121
601,-0.00123844889458269,0.00924226734787226,0.0125530855730176,0.0135546363890171,0.0138743659481406,0.0139789339154959
602,-0.00384725327603519,0.00702196778729558,0.0109993554651737,0.0127926766872406,0.0105222733691335,0.0120665105059743
603,-0.00447504408657551,0.00562851969152689,0.0116101773455739,0.0133624859154224,0.00991787109524012,0.0114315440878272
604,-0.00387942302040756,0.00461995461955667,0.0131177958101034,0.0153250657021999,0.011702761054039,0.0115966480225325
605,-0.0044751213863492,0.00386785762384534,0.0137051567435265,0.0171049032360315,0.0136681403964758,0.0120691461488605
606,-0.00640838034451008,0.00443104980513453,0.0138471061363816,0.0176208261400461,0.015555813908577,0.013111780397594
607,-0.00800272449851036,0.00568011729046702,0.0139876306056976,0.0159165095537901,0.0178870316594839,0.0133741972967982
608,-0.00773562118411064,0.0061248023994267,0.0137102045118809,0.0124680567532778,0.0203532595187426,0.0118923271074891
609,-0.00585327297449112,0.00554341915994883,0.0133134191855788,0.00990336667746305,0.0223876126110554,0.00985867809504271
610,-0.00430744374170899,0.003719471860677,0.0125497514382005,0.00835242681205273,0.022621151059866,0.00628385087475181
611,-0.00340577680617571,0.00135027233045548,0.0110815474763513,0.00701718684285879,0.0210980121046305,0.000632092414889485
612,-0.00275770178996027,-0.00010766747436719,0.00917923916131258,0.00696454057469964,0.0193854756653309,-0.00408787606284022
613,-0.00336867826990783,-0.00060574000235647,0.00702081155031919,0.00769838551059365,0.0177689362317324,-0.00555606791749597
614,-0.00509426137432456,-0.000463709468021989,0.00543482694774866,0.00816550385206938,0.0165231786668301,-0.00330382538959384
615,-0.00659052329137921,-0.00023527312441729,0.00471955304965377,0.00806829798966646,0.0162369813770056,0.000353367126081139
616,-0.0074480539187789,-0.000702324730809778,0.00405288394540548,0.00712949596345425,0.0165494307875633,0.00151626951992512
617,-0.00785383302718401,-0.00179273809771985,0.00296971946954727,0.00595896225422621,0.0168772656470537,-0.00105733040254563
618,-0.00776292476803064,-0.00308236270211637,0.00147358642425388,0.00517517840489745,0.0173593144863844,-0.00578344380483031
619,-0.00700809340924025,-0.00396849494427443,0.000136637419927865,0.00483671389520168,0.0186172220855951,-0.010090165771544
620,-0.00604724418371916,-0.00427125301212072,-0.000633972289506346,0.0045732781291008,0.0201565381139517,-0.0128993866965175
621,-0.00496073858812451,-0.00360275665298104,-0.000688266765791923,0.00460004713386297,0.0207907259464264,-0.0141826765611768
622,-0.00325561780482531,-0.00168205378577113,-6.5405634813942E-05,0.0051267808303237,0.0198540203273296,-0.0140861161053181
623,-0.00213251588866115,-0.000497957284096628,1.42840790431364E-05,0.00461545819416642,0.0168789848685265,-0.0145335271954536
624,-0.00264079892076552,-0.00176569411996752,-0.000729618070181459,0.0026974338106811,0.0130703523755074,-0.0162868984043598
625,-0.00314958416856825,-0.00446662493050098,-0.000434559013228863,0.00158576853573322,0.0114583028480411,-0.0171498861163855
626,-0.00130405381787568,-0.00643737474456429,0.00216423417441547,0.00260209129191935,0.0138674164190888,-0.0162558611482382
627,0.00326304393820465,-0.00590909272432327,0.00649338541552424,0.00517684360966086,0.0192818939685822,-0.0146372700110078
628,0.00780165381729603,-0.00324694765731692,0.0105915516614914,0.00767295341938734,0.0238986387848854,-0.0131459450349212
629,0.00932861771434546,-0.000957520853262395,0.012419163249433,0.00779720861464739,0.0247781034559011,-0.0132464021444321
630,0.00754548562690616,-0.000166270358022302,0.011697500012815,0.00536628440022469,0.0227116867899895,-0.0153272328898311
631,0.00385750760324299,0.000531206023879349,0.0101186111569405,0.00318738166242838,0.0202629677951336,-0.0170981902629137
632,0.000532511272467673,0.00261006341315806,0.00988251995295286,0.00352345011197031,0.0198425501585007,-0.0164525508880615
633,-0.00112225080374628,0.00545451464131474,0.0107889883220196,0.00529827363789082,0.0208323150873184,-0.0140840690582991
634,-0.00178531743586063,0.00729217007756233,0.0109177054837346,0.00632491428405046,0.0203988291323185,-0.0120637323707342
635,-0.00190046045463532,0.00774457724764943,0.00975848361849785,0.00637703482061625,0.0177799090743065,-0.0113874645903707
636,-0.00079645897494629,0.0078395763412118,0.00833426602184772,0.00643978407606483,0.0137132406234741,-0.0119689106941223
637,0.00116465333849192,0.00733469799160957,0.00703863333910704,0.00626308284699917,0.00862184725701809,-0.0142363244667649
638,0.00248464057222009,0.00477287778630853,0.00474301353096962,0.00446026306599379,0.00425733951851726,-0.0188112631440163
639,0.00316935731098056,0.00110910483635962,0.00185248104389757,0.00205329083837569,0.00342128449119627,-0.0239096097648144
640,0.00352924503386021,-0.00146732875145972,8.82929525687359E-05,0.0016562077216804,0.00578408595174551,-0.0270831920206547
641,0.00301532330922782,-0.00298449234105647,-0.000370663445210084,0.00329512218013406,0.00896372552961111,-0.0285991877317429
642,0.00258217006921768,-0.00386382965371013,0.000858476967550814,0.0061707366257906,0.0129621587693691,-0.0289728585630655
643,0.00299187516793609,-0.00397647870704532,0.00348260207101703,0.0101859364658594,0.017809895798564,-0.027697404846549
644,0.00311423419043422,-0.00429597543552518,0.00505314022302628,0.0133059760555625,0.0217815022915602,-0.0265353824943304
645,0.00264852726832032,-0.00524538941681385,0.00473217573016882,0.0134491892531514,0.0242213271558285,-0.0272418092936277
646,0.00246446812525392,-0.00561488512903452,0.00389288458973169,0.0119074080139399,0.0253260787576437,-0.0283497050404549
647,0.00320846331305802,-0.00449354061856866,0.0037864912301302,0.0114065343514085,0.0251596104353666,-0.0279050394892693
648,0.00448420271277428,-0.002280238782987,0.00451217917725444,0.0125893820077181,0.0234137568622828,-0.0250929612666368
649,0.00528099481016397,-0.00036336449556984,0.00526182260364294,0.0134134944528341,0.0207253750413656,-0.0210981089621782
650,0.00532856909558177,0.000387831649277359,0.00565500697121024,0.0124333379790187,0.0195874385535717,-0.0178675465285778
651,0.00477113202214241,0.000734114670194685,0.00614044163376093,0.0113176107406616,0.0210465732961893,-0.0145817464217544
652,0.00445182714611292,0.00158692768309265,0.00736155174672604,0.011816787533462,0.0238223653286695,-0.00962068047374487
653,0.00546323461458087,0.00280215148814023,0.00895936973392963,0.013349050655961,0.0262130126357079,-0.00387056986801326
654,0.00688789086416364,0.00325279566459358,0.00933284126222134,0.0143078351393342,0.0265869088470936,-0.00101278454530984
655,0.0074745318852365,0.0023757538292557,0.00825105793774128,0.0140780694782734,0.0245392173528671,-0.0037240304518491
656,0.00697443075478077,0.000787524215411395,0.00726226205006242,0.0131845436990261,0.0210492257028818,-0.0101275900378823
657,0.00597243802621961,-0.000914677686523646,0.00735816499218345,0.0117901731282473,0.0178832542151213,-0.0171402618288994
658,0.00546863628551364,-0.00250688311643898,0.00795172527432442,0.0098144318908453,0.0158557500690222,-0.0230333246290684
659,0.00536087481305003,-0.00420664576813579,0.0075544617138803,0.00773009704425931,0.0139527190476656,-0.0274358578026295
660,0.00611603213474154,-0.00566536374390125,0.00630281073972583,0.00620824517682195,0.0127134211361408,-0.0312720350921154
661,0.00889931339770556,-0.00569807318970561,0.00615011435002089,0.00601319642737508,0.0136526925489306,-0.0341547504067421
662,0.0131969349458814,-0.00373582844622433,0.00786574557423592,0.00775617826730013,0.0166428182274103,-0.0342740267515183
663,0.0173821765929461,-0.000752147927414626,0.00994659494608641,0.0101714599877596,0.020793229341507,-0.0319531746208668
664,0.0202976744621992,0.00171752297319472,0.0106198936700821,0.0114677362143993,0.0237031951546669,-0.0290299952030182
665,0.0213278159499168,0.00269833533093333,0.00953090842813253,0.0117266038432717,0.0224307309836149,-0.0265506375581026
666,0.020781172439456,0.00230725482106209,0.00806070026010275,0.0124012660235167,0.017934812232852,-0.0243900641798973
667,0.0192984882742167,0.00160320929717273,0.00712689897045493,0.0142388716340065,0.013477168045938,-0.0216203425079584
668,0.0170972570776939,0.00106589240022004,0.00582666974514723,0.0157217886298895,0.0112822242081165,-0.0192299038171768
669,0.014257637783885,0.000423107849201187,0.00435637589544058,0.0155351776629686,0.0125906029716134,-0.0192113965749741
670,0.0106961289420724,-0.000481283728731796,0.00427484232932329,0.0144714200869203,0.0161896962672472,-0.0208909250795841
671,0.00668621202930808,-0.00160377402789891,0.00527664367109537,0.0140789831057191,0.0183573756366968,-0.0219160038977861
672,0.00273642898537219,-0.00300991325639188,0.00548752723261714,0.0151091972365975,0.0170844718813896,-0.0212427340447903
673,-0.000313761731376871,-0.00481238448992372,0.0042586768977344,0.0157438516616821,0.01425158418715,-0.0205619297921658
674,-0.00139709713403136,-0.00610304530709982,0.00252157682552934,0.0138860559090972,0.0121580120176077,-0.0217234939336777
675,-0.000885740446392447,-0.00598426815122366,0.00104669365100563,0.0102304480969906,0.0110593028366566,-0.0246174726635218
676,0.000420253461925313,-0.00482101459056139,0.000491154089104384,0.00669842027127743,0.0110064847394824,-0.0280406102538109
677,0.00194528140127659,-0.00352403917349875,0.000725643069017679,0.0037785186432302,0.0114598702639341,-0.0312784388661385
678,0.00274364603683352,-0.00279922899790108,-9.05706747289514E-06,0.000961765414103866,0.0106997834518552,-0.0345607772469521
679,0.00260545476339757,-0.00290014944039285,-0.00241316785104573,-0.00147459388244897,0.00884068943560123,-0.037773210555315
680,0.00178212625905871,-0.0044513326138258,-0.00527902133762836,-0.00321826082654297,0.00733781140297651,-0.040551844984293
681,0.00156909052748233,-0.00685118837282062,-0.0061429594643414,-0.00317053217440844,0.00814399402588606,-0.0418240018188953
682,0.00359407742507756,-0.00750968605279922,-0.00325573794543743,-0.000423956546001136,0.0133552141487598,-0.0407858453691006
683,0.00661783618852496,-0.00523621635511518,0.00163645262364298,0.00313669675961137,0.0209423415362835,-0.0384546294808388
684,0.0076341493986547,-0.00200540176592767,0.00503332540392876,0.00525373360142112,0.0249652154743671,-0.0362911373376846
685,0.00622726138681173,-6.34418684057891E-05,0.00560483708977699,0.00588141288608313,0.0226016435772181,-0.034801296889782
686,0.00476970477029681,0.000464499840745702,0.00457280967384577,0.00601678248494864,0.0173924043774605,-0.0338128618896008
687,0.00487023033201694,0.000690837798174471,0.00363056967034936,0.00652857078239322,0.0140693690627813,-0.0326816849410534
688,0.00594282848760486,0.00137364584952593,0.00337011204101145,0.0075547699816525,0.0132717974483967,-0.031114399433136
689,0.00688783917576075,0.00200406252406538,0.00290301418863237,0.00812981650233269,0.0131046865135431,-0.0305093619972467
690,0.00752764195203781,0.00178716552909464,0.00136759784072638,0.00740439537912607,0.0126619944348931,-0.0319409444928169
691,0.00736438948661089,7.47709564166144E-05,-0.00152100971899927,0.0051012565381825,0.0115389684215188,-0.0351104587316513
692,0.00613914942368865,-0.00290494621731341,-0.00504275457933545,0.00207759416662157,0.010158191435039,-0.0388997346162796
693,0.00503489375114441,-0.00542680686339736,-0.0075011495500803,-4.79910850117449E-05,0.00999345909804106,-0.0414056181907654
694,0.00460587395355105,-0.00644840206950903,-0.00820859055966139,-0.000911102339159697,0.0105630345642567,-0.041479229927063
695,0.00430567702278495,-0.00629641208797693,-0.00796654913574457,-0.00113561749458313,0.0100359283387661,-0.0395107604563236
696,0.00384002039209008,-0.00559485983103514,-0.00805364362895489,-0.00125434040091932,0.0076591488905251,-0.0374084450304508
697,0.00390531634911895,-0.0045404089614749,-0.00832836423069239,-0.00073613878339529,0.00443510804325342,-0.0372402891516685
698,0.00497507816180587,-0.00376799306832254,-0.00803211703896523,0.000393194757634774,0.00218931352719665,-0.0399856083095074
699,0.00607743440195918,-0.00428630644455552,-0.00759262219071388,0.00105205411091447,0.00174382433760911,-0.0443047694861889
700,0.00622301921248436,-0.0051222275942564,-0.00747313210740685,0.00198342045769095,0.00198127469047904,-0.0465384386479855
701,0.00507562188431621,-0.00486281979829073,-0.00821621529757977,0.00358091341331601,0.000831432524137199,-0.0453954041004181
702,0.00283699971623719,-0.00405193958431482,-0.0103610334917903,0.0040413667447865,-0.00201386795379221,-0.0431640073657036
703,0.000580483989324421,-0.00345343188382685,-0.0125993648543954,0.00312567828223109,-0.00447681732475758,-0.0416432060301304
704,-0.000519176363013685,-0.00299871223978698,-0.0127613404765725,0.00254886620678008,-0.00463919201865792,-0.0407182760536671
705,-0.000662201608065516,-0.00309757073409855,-0.0113244205713272,0.00193369353655726,-0.00358914863318205,-0.0402147807180882
706,-0.000332544062985107,-0.00356058962643147,-0.00975495297461748,0.000533988408278674,-0.00317979720421135,-0.0395254753530025
707,0.000949050125200301,-0.00325045804493129,-0.00781860668212175,-0.000385197374271229,-0.00322562060318887,-0.0375024452805519
708,0.00339673669077456,-0.0021683273371309,-0.00498088588938117,-9.37309087021276E-05,-0.00307596521452069,-0.0345292985439301
709,0.00621493346989155,-0.000982493162155151,-0.00125516718253493,0.0014567244797945,-0.00239780591800809,-0.0316451527178288
710,0.0076078581623733,-0.000697058509103954,0.00159319990780205,0.00364325125701725,-0.00164541357662529,-0.029608491808176
711,0.0069681010209024,-0.00191633286885917,0.00175554410088807,0.00543639156967402,-0.00100475910585374,-0.0285700373351574
712,0.00571762444451451,-0.00388397206552327,0.000201121438294649,0.00653355522081256,0.000770546030253172,-0.0276364479213953
713,0.00455805938690901,-0.00626855902373791,-0.00185842765495181,0.00654385378584266,0.0032359934411943,-0.0267456769943237
714,0.00361719261854887,-0.00916695687919855,-0.00389072997495532,0.00606278656050563,0.00422099139541388,-0.0262870341539383
715,0.00424135103821754,-0.0110232355073094,-0.00447624921798706,0.00718172965571284,0.00358455022796988,-0.0253437086939812
716,0.00632127886638045,-0.010789766907692,-0.00382918026298285,0.00946369767189026,0.00196847645565867,-0.024186696857214
717,0.0073824473656714,-0.0101317008957267,-0.00394483469426632,0.0097566619515419,-0.000455401721410453,-0.0250284858047962
718,0.00667064404115081,-0.0101218391209841,-0.00481292419135571,0.00721133127808571,-0.00227359053678811,-0.0279602352529764
719,0.00479019060730934,-0.0104875871911645,-0.00539954239502549,0.00364900170825422,-0.00278315669856966,-0.0307729784399271
720,0.00212348392233253,-0.0107047948986292,-0.00539709255099297,0.00120373663958162,-0.00249749002978206,-0.0313492082059383
721,-5.75446347284014E-06,-0.00976377725601196,-0.0045259683392942,0.000888388487510383,-0.00113838503602892,-0.0290841907262802
722,-0.000955350464209914,-0.00794059224426746,-0.00330702378414571,0.0013771551894024,0.000748440565075725,-0.0264413971453905
723,-0.000689411244820803,-0.00615142052993178,-0.00221938383765519,0.00147943256888539,0.00239664386026561,-0.0256524402648211
724,0.00185077881906182,-0.00401290925219655,-0.000226246993406676,0.00225596129894257,0.00514099095016718,-0.0257261004298925
725,0.00627805339172482,-0.00155512371566147,0.00333029613830149,0.00456366036087275,0.00942233111709356,-0.0252883695065975
726,0.00996331311762333,-0.000258109270362183,0.00697659235447645,0.00734688062220812,0.0134804751724005,-0.0245259962975979
727,0.0114205861464143,-0.000625029671937227,0.00927121192216873,0.00960684847086668,0.0166016984730959,-0.0239667538553476
728,0.0110452091321349,-0.00135617330670357,0.010686045512557,0.0116253709420562,0.0190817918628454,-0.0237689353525639
729,0.00915995519608259,-0.00197014259174466,0.011610253714025,0.0131447250023484,0.0206748396158218,-0.0246176701039076
730,0.00689982250332832,-0.0029293664265424,0.0116721419617534,0.0133803486824036,0.0212553646415472,-0.0264332517981529
731,0.00598070630803704,-0.004393404815346,0.0103611433878541,0.0119134495034814,0.0203382484614849,-0.0281377378851175
732,0.00654252944514155,-0.00631246110424399,0.00752826267853379,0.00903529394418001,0.0176611226052046,-0.0293630938977003
733,0.0081803360953927,-0.00710367597639561,0.00486023584380746,0.00719566131010652,0.0148678105324507,-0.0287590846419334
734,0.0102435760200024,-0.00578043237328529,0.0037812958471477,0.00782127492129803,0.012965795584023,-0.0258307810872793
735,0.0112884314730763,-0.00436790101230145,0.00368046504445374,0.0090191587805748,0.0108181014657021,-0.0231924373656511
736,0.0110749723389745,-0.00416445964947343,0.00451669795438647,0.00985548831522465,0.00866001937538385,-0.022237304598093
737,0.0108085116371512,-0.0038746977224946,0.00678798509761691,0.0111671919003129,0.0083406725898385,-0.0215394496917725
738,0.0119672426953912,-0.00137447624001652,0.0104867815971375,0.0138421338051558,0.0108426278457046,-0.019029526039958
739,0.0143749415874481,0.0025608038995415,0.0143861835822463,0.017018610611558,0.0154198436066508,-0.0157505106180906
740,0.0156116802245378,0.0039680958725512,0.016172019764781,0.0182109028100967,0.0197882913053036,-0.0150331920012832
741,0.0145845012739301,0.00167656841222197,0.0157277882099152,0.0175696350634098,0.0221083052456379,-0.0157615523785353
742,0.0124613521620631,-0.00147700787056237,0.0146328425034881,0.0171577874571085,0.0220540780574083,-0.0141249485313892
743,0.0108551438897848,-0.0024711221922189,0.0137212257832289,0.0172474849969149,0.0206691976636648,-0.00988309644162655
744,0.0101394560188055,-0.00128344679251313,0.0128298103809357,0.0163298007100821,0.0187674332410097,-0.00660269148647785
745,0.0102904485538602,-7.74837826611474E-05,0.0123504381626844,0.0138790756464005,0.0177726577967405,-0.00710125686600804
746,0.0117381839081645,-4.56661036878359E-05,0.0134502472355962,0.0113612087443471,0.0198823697865009,-0.0104862237349153
747,0.0134672122076154,-0.0010101106017828,0.0153497690334916,0.00981690920889378,0.023796696215868,-0.0143993329256773
748,0.0139053398743272,-0.00217672344297171,0.0162069257348776,0.00953695364296436,0.0254724584519863,-0.0166325494647026
749,0.0122074829414487,-0.00333044887520373,0.015185191296041,0.010490195825696,0.0223115719854832,-0.0165746305137873
750,0.00916918180882931,-0.00469151837751269,0.0131073091179132,0.0113717839121819,0.0161823369562626,-0.0167770627886057
751,0.00656876526772976,-0.00624629994854331,0.0116630140691996,0.0104224057868123,0.0112728718668222,-0.0198824536055326
752,0.0052673895843327,-0.00748035265132785,0.0115952556952834,0.00814921222627163,0.00955238007009029,-0.024286974221468
753,0.00575411412864923,-0.0068025067448616,0.0128943491727114,0.00775630306452513,0.00990125443786383,-0.0251766424626112
754,0.0076880194246769,-0.00409746030345559,0.0148294549435377,0.0102305673062801,0.00985345058143139,-0.0212738290429115
755,0.00946185179054737,-0.00173905701376498,0.0160382259637117,0.0124023472890258,0.009006860665977,-0.0167234241962433
756,0.0102263614535332,-0.00127350713592023,0.0165616385638714,0.0117485644295812,0.00959006976336241,-0.0153701966628432
757,0.0108741344884038,-0.00147964991629124,0.01802540384233,0.00973293837159872,0.0131061980500817,-0.0163559634238482
758,0.0115364640951157,-0.00046382678556256,0.0198215190321207,0.00933587644249201,0.0172230247408152,-0.0165393333882093
759,0.0118059264495969,0.00191795884165913,0.0205607805401087,0.0115358931943774,0.0198564864695072,-0.0146788228303194
760,0.0120984716340899,0.00445989659056067,0.021053209900856,0.0150831611827016,0.0218362417072058,-0.0110029019415379
761,0.0120497103780508,0.00586164044216275,0.0215418208390474,0.0181686040014029,0.0228099338710308,-0.00649904785677791
762,0.011887839064002,0.0058554015122354,0.0214484669268131,0.0198808219283819,0.0226551219820976,-0.00245683593675494
763,0.0119525017216802,0.00420089391991496,0.0196542423218489,0.0187799483537674,0.0219812076538801,-0.000429947569500655
764,0.0113376257941127,0.00135027174837887,0.0157898683100939,0.0147843137383461,0.0211162660270929,-0.000205758624360897
765,0.0102968690916896,-0.000776736182160676,0.0118486285209656,0.0108951525762677,0.0217739436775446,0.000619157333858311
766,0.00949706509709358,-0.00186957966070622,0.00900847744196653,0.00856120884418488,0.0238147620111704,0.00213328772224486
767,0.00893723499029875,-0.0024478321429342,0.00760251330211759,0.00801196973770857,0.0255887042731047,0.00347130768932402
768,0.00881473254412413,-0.00261559849604964,0.00862359348684549,0.00995687581598759,0.0277105737477541,0.00464418670162559
769,0.00921622011810541,-0.00322677474468946,0.011136076413095,0.0128893842920661,0.0301433652639389,0.00473472150042653
770,0.0101048406213522,-0.0039281714707613,0.0129188131541014,0.0147734228521585,0.0315758250653744,0.00364874908700585
771,0.0111091295257211,-0.00327718118205667,0.0134097104892135,0.0156988985836506,0.0320345424115658,0.00258705602027476
772,0.0111436070874333,-0.00157308555208147,0.0127994362264872,0.0161197669804096,0.0312408097088337,0.0022121611982584
773,0.00958710350096226,9.51881957007572E-05,0.0113537237048149,0.0164611060172319,0.0284512285143137,0.00315512204542756
774,0.00744662759825587,0.0012101074680686,0.00960494671016932,0.0166877638548613,0.0242605116218328,0.0050800908356905
775,0.00622263550758362,0.00157156481873244,0.00805617403239012,0.0155207980424166,0.0206596106290817,0.00582672469317913
776,0.00529241375625134,0.00103667692746967,0.00694419723004103,0.0124338734894991,0.0187985803931952,0.00372659065760672
777,0.0035007072146982,0.000106014027551282,0.00676559610292315,0.00928795151412487,0.0181137081235647,0.000265195587417111
778,0.00206586555577815,-0.000352597708115354,0.0077079888433218,0.00796952471137047,0.0185839924961329,-0.00230855820700526
779,0.00272513274103403,0.000166899990290403,0.0087761739268899,0.00860890466719866,0.0200307536870241,-0.00377590418793261
780,0.00460852729156613,0.00156608934048563,0.00889500882476568,0.00999007932841778,0.0199035573750734,-0.00473740044981241
781,0.00516144977882504,0.00249191024340689,0.00752141373232007,0.00978168472647667,0.0164171289652586,-0.00654643680900335
782,0.00428398046642542,0.00218788231723011,0.00549335731193423,0.00824065320193768,0.0119738494977355,-0.00944176129996777
783,0.00230813189409673,0.000147504397318698,0.00289907888509333,0.00726407347247005,0.00815244484692812,-0.0123851587995887
784,-0.00172708474565297,-0.00420490279793739,-0.00122619071044028,0.00597927253693342,0.00411247415468097,-0.0151336900889874
785,-0.00618715630844235,-0.00905026774853468,-0.00532415416091681,0.00285604852251709,0.00108453305438161,-0.0177751202136278
786,-0.00840442348271608,-0.0117688998579979,-0.00726029276847839,-0.00132023193873465,0.000459443457657471,-0.0196578204631805
787,-0.00848026480525732,-0.0119999265298247,-0.00730438996106386,-0.0045447195880115,0.00128042884171009,-0.0196735169738531
788,-0.00825764425098896,-0.0116233360022306,-0.00680683832615614,-0.00628393748775125,0.00202132202684879,-0.0180608313530684
789,-0.00896311085671186,-0.0126277152448893,-0.00652535445988178,-0.00739231100305915,0.00181176990736276,-0.0160512048751116
790,-0.0100461365655065,-0.0151140624657273,-0.0059419390745461,-0.00792012270539999,0.00171224470250309,-0.0137086724862456
791,-0.00973147619515657,-0.0173883568495512,-0.00371531932614744,-0.00710981758311391,0.00468147173523903,-0.0105644455179572
792,-0.00705349538475275,-0.0178382787853479,0.000998716568574309,-0.00432616472244263,0.012038042768836,-0.00691595766693354
793,-0.00342615880072117,-0.0164482351392508,0.00772281968966126,0.00118618435226381,0.0207445435225964,-0.00262504327110946
794,-0.00233435956761241,-0.0144794499501586,0.0132526969537139,0.00881559122353792,0.0242570284754038,0.00269732275046408
795,-0.00472605740651488,-0.0121902339160442,0.0135206179693341,0.0152192777022719,0.0186684373766184,0.00803255010396242
796,-0.00732211023569107,-0.00909409672021866,0.00831568147987127,0.0162730794399977,0.0077122887596488,0.0105998553335667
797,-0.00867068953812122,-0.00636135181412101,0.000564879854209721,0.0104598728939891,-0.00299132638610899,0.00844127312302589
798,-0.00963069312274456,-0.00456645106896758,-0.00612110458314419,0.00135436421260238,-0.0108788916841149,0.00412332033738494
799,-0.00994202867150307,-0.00234885886311531,-0.00887151807546616,-0.00552771659567952,-0.0147219076752663,0.00238878233358264
800,-0.0102975517511368,1.14735767056118E-05,-0.00842330139130354,-0.00853808503597975,-0.0158074088394642,0.00447460589930415
801,-0.0121312765404582,0.000830923265311867,-0.00755058554932475,-0.0093104112893343,-0.0170901417732239,0.00849342439323664
802,-0.0149481073021889,0.000323446933180094,-0.00744539266452193,-0.00913527794182301,-0.0196707919239998,0.0133133009076118
803,-0.0174736380577087,0.000135251873871312,-0.00814957264810801,-0.00809418503195047,-0.0228631403297186,0.0191810335963964
804,-0.0195245128124952,0.000991218374110758,-0.00912868790328503,-0.00584047101438046,-0.0252655502408743,0.0266111344099045
805,-0.0217411853373051,0.00237694685347378,-0.00946813076734543,-0.00293886545114219,-0.0263387467712164,0.0355277359485626
806,-0.0244730729609728,0.00407303171232343,-0.00910939928144217,-0.000744711665902287,-0.0273890253156424,0.0450519509613514
807,-0.0270838122814894,0.00657887198030949,-0.00859015621244907,0.000287457543890923,-0.0296466983854771,0.0535293184220791
808,-0.0287536662071943,0.00904915574938059,-0.00872062612324953,-0.000329939124640077,-0.0324050299823284,0.0582435801625252
809,-0.0289830006659031,0.00998158752918243,-0.00952092185616493,-0.00297431275248528,-0.0332266613841057,0.0584952235221863
810,-0.0279039386659861,0.0101700713858008,-0.00957562681287527,-0.00579017819836736,-0.0312781147658825,0.057967271655798
811,-0.0270934887230396,0.0110659832134843,-0.00825859233736992,-0.0070705353282392,-0.0290153566747904,0.0604235343635082
812,-0.0273718126118183,0.0127731887623668,-0.00591922411695123,-0.00700540142133832,-0.0281009208410978,0.0658586621284485
813,-0.0283522736281157,0.0145046329125762,-0.00364315952174366,-0.00662698410451412,-0.0288485065102577,0.071615919470787
814,-0.0303705912083387,0.0154173746705055,-0.00226318091154099,-0.00660451129078865,-0.0317468047142029,0.0760533884167671
815,-0.033035546541214,0.0160097107291222,-0.00039067113539204,-0.00564401876181364,-0.0358145236968994,0.0806521400809288
816,-0.0355941504240036,0.0170744154602289,0.00216753873974085,-0.00298144062981009,-0.0396926663815975,0.0866331830620766
817,-0.0386391915380955,0.0182886738330126,0.00225462880916893,-0.00184161728248,-0.0438191704452038,0.0919597446918488
818,-0.0424787290394306,0.0192319396883249,-0.00181153637822717,-0.0051453672349453,-0.0485228039324284,0.0944701954722404
819,-0.0456420332193375,0.0197901017963886,-0.00739132892340422,-0.0112994676455855,-0.0510618276894093,0.0942721739411354
820,-0.046884547919035,0.0199312493205071,-0.0113081494346261,-0.0174047239124775,-0.0493594966828823,0.0926920175552368
821,-0.0470170900225639,0.0205404199659824,-0.0125934416428208,-0.0208132527768612,-0.0457759238779545,0.0923793986439705
822,-0.0462820380926132,0.0232940260320902,-0.0103419693186879,-0.0187620799988508,-0.0418691076338291,0.0958245396614075
823,-0.0445034839212894,0.0277255307883024,-0.00455981167033315,-0.0120070101693273,-0.0372698940336704,0.101618647575378
824,-0.0431754998862743,0.0310696475207806,0.00149206479545683,-0.00545598566532135,-0.0334384962916374,0.105717189610004
825,-0.0428712107241154,0.0322532616555691,0.00496634654700756,-0.00241272570565343,-0.0310519244521856,0.106463856995106
826,-0.0421704649925232,0.03240130469203,0.00645919796079397,-0.00207273825071752,-0.0286162812262774,0.105059899389744
827,-0.0401199236512184,0.0324734225869179,0.00777824921533465,-0.00216902350075543,-0.0255264881998301,0.103259697556496
828,-0.0375051274895668,0.0324615500867367,0.00970941223204136,-0.00142217439133674,-0.0226021651178598,0.102064438164234
829,-0.0359391644597054,0.0320184715092182,0.0117029529064894,0.000306608446408063,-0.0212998203933239,0.101329281926155
830,-0.0363973788917065,0.0310667250305414,0.0129138743504882,0.00230752164497972,-0.0227437037974596,0.0999915599822998
831,-0.0380543768405914,0.0295441970229149,0.0132371326908469,0.00263590202666819,-0.0254214368760586,0.0964725092053413
832,-0.0391187146306038,0.0275621190667152,0.0125668402761221,0.000138359842821956,-0.0264076348394156,0.0904973074793816
833,-0.0398475006222725,0.025465615093708,0.0103952549397945,-0.0035844761878252,-0.0253449007868767,0.0838128104805946
834,-0.0412606112658978,0.0237625166773796,0.00748374173417687,-0.00599966151639819,-0.0235715787857771,0.0789471343159676
835,-0.0417778082191944,0.0228214506059885,0.00530160311609507,-0.00675246026366949,-0.0220290310680866,0.077370785176754
836,-0.0397913902997971,0.0220612492412329,0.00373289454728365,-0.00706868851557374,-0.0218747481703758,0.0782538428902626
837,-0.0358271785080433,0.0214830823242664,0.00266420212574303,-0.0064684571698308,-0.0231051091104746,0.0806694403290749
838,-0.0310461036860943,0.0217436868697405,0.00283068255521357,-0.00460883928462863,-0.0235070120543242,0.0833050683140755
839,-0.0269545633345842,0.0219928249716759,0.00352110713720322,-0.00388105702586472,-0.0222435779869556,0.0830893889069557
840,-0.0247951205819845,0.0214105788618326,0.00326457433402538,-0.00565626565366983,-0.0213203094899654,0.0795489475131035
841,-0.0241136979311705,0.0208022203296423,0.00187915039714426,-0.00830164458602667,-0.021485798060894,0.0753454566001892
842,-0.0235325787216425,0.0208128392696381,-0.000287632166873664,-0.0102343643084168,-0.0216925293207169,0.0718411579728127
843,-0.0227215830236673,0.0203090272843838,-0.0028169178403914,-0.0110121974721551,-0.0214789006859064,0.0683770924806595
844,-0.0218935590237379,0.0182273760437965,-0.00449790945276618,-0.00996215827763081,-0.0200976599007845,0.064296692609787
845,-0.0209599696099758,0.0154742952436209,-0.00434019835665822,-0.00738181592896581,-0.0170880015939474,0.0597012378275394
846,-0.020980279892683,0.0130814276635647,-0.00333710014820099,-0.00603147549554706,-0.0147658959031105,0.0547889471054077
847,-0.0224579572677612,0.011667862534523,-0.00320385163649917,-0.007901381701231,-0.0143069988116622,0.0501420050859451
848,-0.0237794667482376,0.0116226822137833,-0.00380080216564238,-0.0114484159275889,-0.0128969568759203,0.0468466617166996
849,-0.0238972250372171,0.0121230576187372,-0.00374910165555775,-0.0141005171462893,-0.00936282891780138,0.045241616666317
850,-0.0227557308971882,0.0124196168035269,-0.00251042726449668,-0.0151434224098921,-0.00564809422940016,0.0442731752991676
851,-0.0212119817733765,0.012147706001997,-0.00136110302992165,-0.0157456342130899,-0.00400245375931263,0.0417522564530373
852,-0.0203139595687389,0.0111189410090446,-0.00134742259979248,-0.0167352817952633,-0.00459640240296721,0.0369107462465763
853,-0.0196418892592192,0.00989834684878588,-0.00169819395523518,-0.0175566934049129,-0.00494162878021598,0.0318460650742054
854,-0.0188801884651184,0.00855486374348402,-0.0014201138401404,-0.0177440047264099,-0.00308437622152269,0.0283353459089994
855,-0.0191247295588255,0.00627041887491941,-0.000856300408486277,-0.0175619106739759,-0.000447098689619452,0.0261080637574196
856,-0.0213990025222301,0.00323912012390792,-0.00205861125141382,-0.0174849405884743,-0.000925821717828512,0.0241740364581347
857,-0.0247854422777891,0.00201390846632421,-0.00590382469817996,-0.0172364786267281,-0.00562818441540003,0.0228888001292944
858,-0.0268681067973375,0.0046702092513442,-0.0102463169023395,-0.0161885563284159,-0.0112871443852782,0.0239215902984142
859,-0.026355654001236,0.00912703201174736,-0.0130115570500493,-0.0150823500007391,-0.0147006325423718,0.0266885701566935
860,-0.0247082207351923,0.0115253673866391,-0.0146474940702319,-0.0151150254532695,-0.0160944312810898,0.0283906664699316
861,-0.0240912362933159,0.0107202520594001,-0.0161839537322521,-0.0157706774771214,-0.0172296557575464,0.0279206149280071
862,-0.0250285696238279,0.00764804426580668,-0.0175653006881475,-0.0162186678498983,-0.0185311064124107,0.0255984775722027
863,-0.0263642221689224,0.00376693811267614,-0.0180496256798506,-0.0164292696863413,-0.0188473705202341,0.0223049204796553
864,-0.027181638404727,0.000603922933805734,-0.0172537323087454,-0.0165320839732885,-0.0170153100043535,0.0196916311979294
865,-0.0282649863511324,-0.00180234643630683,-0.0166051425039768,-0.0173832625150681,-0.0145708313211799,0.0178159959614277
866,-0.0291481576859951,-0.00312418676912785,-0.0164095405489206,-0.0185022857040167,-0.0131554640829563,0.0162303205579519
867,-0.0287155099213123,-0.00326490914449096,-0.0158471874892712,-0.0188974887132645,-0.0120640732347965,0.0144152157008648
868,-0.0278668273240328,-0.0045764809474349,-0.0157425012439489,-0.0198168698698282,-0.0105612566694617,0.0100248660892248
869,-0.0268430151045322,-0.00775429932400584,-0.0156838651746511,-0.0215347055345774,-0.00867402460426092,0.00279503990896046
870,-0.0263472460210323,-0.0112819718196988,-0.0151942223310471,-0.0234905350953341,-0.00779251661151648,-0.00457716407254338
871,-0.0278214048594236,-0.0137482192367315,-0.0156885292381048,-0.02534094825387,-0.00878799241036177,-0.00937102921307087
872,-0.0294689536094666,-0.014199536293745,-0.017250781878829,-0.025696849450469,-0.0100292917340994,-0.0105076190084219
873,-0.0285110529512167,-0.0137791968882084,-0.0181885529309511,-0.0244788099080324,-0.0101383421570063,-0.0100580276921391
874,-0.0253590550273657,-0.0143936676904559,-0.0178615413606167,-0.0230983346700668,-0.00990631151944399,-0.0103503726422787
875,-0.0226235296577215,-0.016421215608716,-0.0181332919746637,-0.0238179787993431,-0.0115084489807487,-0.0115760453045368
876,-0.0216284580528736,-0.0185812525451183,-0.0204024966806173,-0.0281015373766422,-0.0155929764732718,-0.0128112183883786
877,-0.0215229019522667,-0.0194737873971462,-0.0230465475469828,-0.0338011085987091,-0.0193433333188295,-0.0132940895855427
878,-0.0211176611483097,-0.0193016137927771,-0.0241630766540766,-0.0382555462419987,-0.0197965484112501,-0.0140633657574654
879,-0.0206029266119003,-0.0190034843981266,-0.024183688685298,-0.0412284359335899,-0.0180962700396776,-0.0167718809098005
880,-0.0216368194669485,-0.0196103937923908,-0.0250282343477011,-0.0441189967095852,-0.0182512942701578,-0.0220970623195171
881,-0.0251701641827822,-0.0217106752097607,-0.027900330722332,-0.048095416277647,-0.0218697171658278,-0.0290945861488581
882,-0.0294067021459341,-0.0239140670746565,-0.0317629538476467,-0.0520126670598984,-0.0262470133602619,-0.0343522131443024
883,-0.03223966807127,-0.0248473323881626,-0.0348621755838394,-0.0541427992284298,-0.0281933713704348,-0.0353686809539795
884,-0.0335107259452343,-0.0250412188470364,-0.0362004898488522,-0.0541715435683727,-0.026799350976944,-0.0330214723944664
885,-0.0327170416712761,-0.0239672530442476,-0.0343930944800377,-0.0505377650260925,-0.022426899522543,-0.0278930738568306
886,-0.0296861417591572,-0.0202605649828911,-0.0286338236182928,-0.041174303740263,-0.0165111944079399,-0.019994430243969
887,-0.0265482645481825,-0.0156194344162941,-0.0213509723544121,-0.0289991535246372,-0.0113830156624317,-0.0123718129470944
888,-0.0246517155319452,-0.0124928690493107,-0.0156040834262967,-0.0191797986626625,-0.00791754107922316,-0.00751147419214249
889,-0.0227656308561563,-0.0101525606587529,-0.0113153997808695,-0.0126419803127646,-0.00484132254496217,-0.00363252311944962
890,-0.0205238237977028,-0.00784425251185894,-0.00814170483499765,-0.00883572828024626,-0.00159984733909369,3.73818074876908E-05
891,-0.0194071382284164,-0.00670342007651925,-0.00710852537304163,-0.00843528099358082,0.000810919562354684,0.00112263043411076
892,-0.0194833409041166,-0.00646570790559053,-0.00742854364216328,-0.0100239673629403,0.0022300782147795,-0.000400530232582241
893,-0.0195899866521358,-0.00577154895290732,-0.00690818764269352,-0.0104354415088892,0.00259862700477242,-0.00195886055007577
894,-0.0192772522568703,-0.00445883488282561,-0.00477362331002951,-0.00810336228460073,0.00161658029537648,-0.00251108361408114
895,-0.0184755697846413,-0.00306225218810141,-0.00157740013673902,-0.00402319617569447,0.000832654244732112,-0.00260624988004565
896,-0.0176757629960775,-0.00219827494584024,0.00155840045772493,-0.000411498709581792,0.00149198097642511,-0.00277509423904121
897,-0.0176437795162201,-0.00135917926672846,0.00328223430551589,0.00230005639605224,0.00254914537072182,-0.00197442504577339
898,-0.0185988862067461,0.000411315908422694,0.00300129130482674,0.00461863912642002,0.00279981805942953,0.000679720949847251
899,-0.0202444866299629,0.00253524770960212,0.00130802916828543,0.00592135870829225,0.00219849357381463,0.00383337470702827
900,-0.0222125854343176,0.00410193996503949,-0.0007115199114196,0.00637999037280679,0.000833493773825467,0.00627499632537365
901,-0.0240048076957464,0.00442718248814344,-0.002274687634781,0.00618302030488849,-0.000794318679254502,0.00687502790242434
902,-0.0243480578064919,0.003362508257851,-0.00243654428049922,0.00521224457770586,-0.00076582859037444,0.00449342653155327
903,-0.0227632839232683,0.00174310151487589,-0.000780343252699822,0.00475734518840909,0.00162888935301453,0.000101833109511063
904,-0.020740507170558,0.00023994997900445,0.00115218479186296,0.00501067517325282,0.00445970520377159,-0.0044533577747643
905,-0.0197431612759829,-0.000374467024812475,0.00172646471764892,0.00449715415015817,0.00593777140602469,-0.00751902675256133
906,-0.0196319594979286,0.000937923265155405,0.000979052274487913,0.00321077951230109,0.00606939848512411,-0.00764099135994911
907,-0.0190116744488478,0.00411424366757274,0.000497542205266654,0.00276672025211155,0.00656423578038812,-0.00547526404261589
908,-0.0173140540719032,0.00752899190410972,0.00182911078445613,0.00428431294858456,0.00833803880959749,-0.0037139558698982
909,-0.0156314633786678,0.00931635405868292,0.00440623378381133,0.00732422200962901,0.00996575318276882,-0.00381591846235096
910,-0.0145134422928095,0.00905876886099577,0.00644319457933307,0.0097751822322607,0.0103871906176209,-0.00544780353084207
911,-0.0137479063123465,0.00801806803792715,0.00651337765157223,0.00905712321400642,0.00941101368516684,-0.00779539812356234
912,-0.0136407660320401,0.00746759073808789,0.0045424927957356,0.00494452007114887,0.00822372268885374,-0.00974713359028101
913,-0.0144327478483319,0.00745823513716459,0.00254388572648168,0.000607211899477988,0.00923938769847155,-0.0104665383696556
914,-0.0152274360880256,0.00804293714463711,0.00273299776017666,-0.000409220898291096,0.0126278279349208,-0.00921380799263716
915,-0.0145216519013047,0.00935075618326664,0.00472310185432434,0.0022425155621022,0.0162050407379866,-0.00555490283295512
916,-0.0121095990762115,0.0105304820463061,0.0065305270254612,0.00580620020627975,0.0174996946007013,-0.00055355706717819
917,-0.00905391853302717,0.0109665626659989,0.00741465436294675,0.00761173479259014,0.0159384049475193,0.00356260873377323
918,-0.00635125860571861,0.0107182422652841,0.00739739602431655,0.00692697940394282,0.0137555068358779,0.00457167951390147
919,-0.00431787827983499,0.0100219799205661,0.00668159918859601,0.00473010633140802,0.0134708052501082,0.00202591554261744
920,-0.00336536322720349,0.00903826486319304,0.00600354699417949,0.00253693200647831,0.0149909760802984,-0.00241140346042812
921,-0.0040319743566215,0.00758833857253194,0.00559002719819546,0.0013743081362918,0.0162489078938961,-0.00689700618386269
922,-0.00544115761294961,0.00586862489581108,0.00500260759145021,0.0014884261181578,0.0162751488387585,-0.0103780385106802
923,-0.00645822379738092,0.00447967182844877,0.00393215147778392,0.00223025912418962,0.0154045103117824,-0.0125560816377401
924,-0.00662913639098406,0.00387983093969524,0.0028446945361793,0.00320717389695346,0.0140589391812682,-0.0132672442123294
925,-0.00597157748416066,0.00390090560540557,0.00226364959962666,0.00445550633594394,0.0123807890340686,-0.012736689299345
926,-0.00569810951128602,0.00355567433871329,0.00165716942865402,0.00538785429671407,0.00997643545269966,-0.0126428436487913
927,-0.00667328480631113,0.00158735970035195,0.000604882661718875,0.00486688176169991,0.00754176685586572,-0.0154915051534772
928,-0.00800968054682016,-0.00258091720752418,-0.000591871503274888,0.00223480304703116,0.00669261487200856,-0.0221510399132967
929,-0.0082892868667841,-0.00737950392067432,-0.00168286776170135,-0.000937757431529462,0.00779217481613159,-0.029629809781909
930,-0.00657047145068645,-0.0103649711236358,-0.00191629363689572,-0.00229175388813019,0.0107612060382962,-0.0341645479202271
931,-0.0032877626363188,-0.0113390758633614,-0.00048493841313757,-0.00207280507311225,0.0149577269330621,-0.035601232200861
932,0.000186525823664851,-0.0107657331973314,0.00259707728400826,-0.000938884739298373,0.0185860805213451,-0.0344225540757179
933,0.00285393907688558,-0.00830967538058758,0.00626472616568208,0.00154841353651136,0.0200606286525726,-0.0298927575349808
934,0.00343375350348651,-0.00526616023853421,0.00785987451672554,0.00424388237297535,0.0183190628886223,-0.0235573947429657
935,0.00143745774403214,-0.00345754623413086,0.00617101090028882,0.00577328028157353,0.0139608047902584,-0.017846193164587
936,-0.000630218419246376,-0.00242003542371094,0.00393474008888006,0.00676228199154139,0.00975505262613297,-0.0130522064864635
937,0.00014477563672699,-0.00115372228901833,0.00414194213226438,0.00851830281317234,0.0079570971429348,-0.00939621403813362
938,0.00229232106357813,-0.000903022359125316,0.00557391904294491,0.0102596189826727,0.00766965048387647,-0.00882642436772585
939,0.00178569403942674,-0.0031462567858398,0.00472475541755557,0.0094680292531848,0.00592515105381608,-0.0126758525148034
940,-0.00161477376241237,-0.00633870391175151,0.00146327225957066,0.00579063547775149,0.00320602604188025,-0.0194366704672575
941,-0.00450498331338167,-0.00783302169293165,-0.00143169471994042,0.00116403657011688,0.00362854660488665,-0.0266359969973564
942,-0.00492941169068217,-0.00691978679969907,-0.00188346533104777,-0.00277042272500694,0.00808644481003284,-0.0329451411962509
943,-0.00380018120631576,-0.00463717989623547,0.000152015665662475,-0.00538288010284305,0.0129994349554181,-0.03776865452528
944,-0.00244469987228513,-0.00229614856652915,0.00228582601994276,-0.00701067456975579,0.0151981813833117,-0.040329497307539
945,-0.00131134642288089,-0.000806960393674672,0.00240553007461131,-0.00820061750710011,0.0146345226094127,-0.0399979278445244
946,-0.000115085014840588,-0.000360460195224732,0.00145437254104763,-0.00809777714312077,0.0130149247124791,-0.0368469655513763
947,0.00213899882510304,-0.000240058157942258,0.00172789779026061,-0.00538524426519871,0.0121579421684146,-0.0319610610604286
948,0.00515779899433255,-0.00057745206868276,0.00314162857830524,-0.00168262131046504,0.012098123319447,-0.0282854568213224
949,0.00709572341293097,-0.0024016248062253,0.00358834723010659,-0.000194433174328879,0.0112840151414275,-0.0282625872641802
950,0.00727266212925315,-0.00519190961495042,0.00276434258557856,-0.00104401435237378,0.00983163900673389,-0.0306030157953501
951,0.00647643720731139,-0.00749691762030125,0.00185316021088511,-0.00245686760172248,0.00903517846018076,-0.0323524326086044
952,0.00547897117212415,-0.00861989893019199,0.000933757750317454,-0.00386588927358389,0.00859584286808968,-0.0320857837796211
953,0.00444345688447356,-0.00854835566133261,-0.000525044277310371,-0.00507284933701158,0.00775103224441409,-0.030253829434514
954,0.00320682930760086,-0.00842081941664219,-0.00236498028971255,-0.00552498130127788,0.00688270246610045,-0.0284233968704939
955,0.00225027417764068,-0.00943755451589823,-0.00350008555687964,-0.00476452428847551,0.00635787425562739,-0.027484342455864
956,0.00246757548302412,-0.0107593890279531,-0.00245552393607795,-0.00279912515543401,0.00652771349996328,-0.0273278709501028
957,0.00331661384552717,-0.010769366286695,0.00101911835372448,-0.0003231440205127,0.00763193890452385,-0.0286085307598114
958,0.00367506640031934,-0.00933113787323236,0.00517093855887651,0.00180973042733967,0.00956037268042564,-0.0314635783433914
959,0.00458711152896285,-0.00739694712683558,0.00859872344881296,0.00377002405002713,0.0126116583123803,-0.0336566381156445
960,0.00748601043596864,-0.00537107372656465,0.0109391203150153,0.00622195471078157,0.0158291198313236,-0.0329564996063709
961,0.0104814963415265,-0.00345140718854964,0.0103818057104945,0.00805680081248283,0.0161725245416164,-0.0296124070882797
962,0.0107021685689688,-0.00246624788269401,0.00584287708625197,0.00746893836185336,0.0124533837661147,-0.0252601411193609
963,0.00804700050503016,-0.00326097593642771,-0.00026949163293466,0.00452316040173173,0.00708585325628519,-0.0220144428312778
964,0.00422239117324352,-0.00545998616144061,-0.00506110535934567,0.00130498956423253,0.00276766996830702,-0.0219195727258921
965,0.00139083794783801,-0.00749485287815332,-0.00757973222061992,0.000490655307658017,0.000723164936061949,-0.025029968470335
966,0.000996030517853796,-0.0087808920070529,-0.00815556570887566,0.00204439810477197,0.000751485698856413,-0.0298383664339781
967,0.00236406363546848,-0.0093276547268033,-0.00786087941378355,0.00335158943198621,0.00144854967948049,-0.033748347312212
968,0.00408550165593624,-0.00853423494845629,-0.00753879360854626,0.0036302488297224,0.00245924573391676,-0.0335399396717548
969,0.00578721519559622,-0.00695454003289342,-0.00687614502385259,0.00416841730475426,0.00481176096946001,-0.0289244577288628
