,AF3,AF4,Fp1,Fp2,AF7,AF8
0,-0.00487966788932681,0.00141060119494796,0.000601823208853602,-0.000252790108788759,0.00118845293764025,0.00782066117972136
1,-0.00496066687628627,0.00128635601140559,-0.00167534116189927,-0.00313201663084328,-0.000942269980441779,0.00561498338356614
2,-0.00527396332472563,0.00081489939475432,-0.00447206245735288,-0.00597581407055259,-0.00346898660063744,0.00263513182289898
3,-0.00496229622513056,0.000164789758855477,-0.00689699873328209,-0.00844287313520908,-0.00479333475232124,-0.00124097731895745
4,-0.00343093415722251,-0.000477735709864646,-0.00830578245222569,-0.0102711440995336,-0.00435673026368022,-0.00522479182109237
5,-0.00162996363360435,-0.00111488963011652,-0.00919453334063292,-0.0115297548472881,-0.00377418752759695,-0.00806256197392941
6,-0.000645913300104439,-0.00168576289433986,-0.00993154756724834,-0.0124141993001103,-0.00412688311189413,-0.00933100190013647
7,-0.000585816917009652,-0.00209157238714397,-0.0104517443105578,-0.0132105862721801,-0.00520057044923306,-0.00963772088289261
8,-0.000934850424528122,-0.00248252600431442,-0.0105400010943413,-0.0140903098508716,-0.00647150306031108,-0.00990334432572126
9,-0.00147098221350461,-0.00304159848019481,-0.0105715421959758,-0.0153604988008738,-0.00807928014546633,-0.0111928312107921
10,-0.00230503710918128,-0.00351132592186332,-0.0114581007510424,-0.0172545984387398,-0.0106494938954711,-0.0137024596333504
11,-0.00278826290741563,-0.0030867091845721,-0.0131250796839595,-0.0191237814724445,-0.0136201316490769,-0.0160050932317972
12,-0.00265379808843136,-0.00146380020305514,-0.0153288692235947,-0.0203155893832445,-0.0166734755039215,-0.0168373007327318
13,-0.00292183994315565,0.000452150707133114,-0.0181626174598932,-0.0209258273243904,-0.0204702652990818,-0.0165782161056995
14,-0.00400590151548386,0.00173207011539489,-0.0209505800157785,-0.0210893321782351,-0.0247623641043901,-0.0161576140671968
15,-0.00490792701020837,0.00265948381274939,-0.022439943626523,-0.0205930452793837,-0.0281228963285685,-0.0157480873167515
16,-0.00478811003267765,0.003602139884606,-0.0220093801617622,-0.0196840334683657,-0.0292224269360304,-0.0159208122640848
17,-0.0041806073859334,0.00412084255367517,-0.0209351293742657,-0.0191139690577984,-0.0290682706981897,-0.0175369866192341
18,-0.00379023002460599,0.00417092349380255,-0.020894818007946,-0.0189966894686222,-0.0298470109701157,-0.0199356954544783
19,-0.00369659974239767,0.00404677679762244,-0.0220183655619621,-0.0190196614712477,-0.0319748520851135,-0.0220278985798359
20,-0.00410706596449018,0.00371341127902269,-0.0235608629882336,-0.0188473965972662,-0.0345095917582512,-0.0234338324517012
21,-0.00493078725412488,0.00318443891592324,-0.0245891753584147,-0.0184698905795813,-0.0362379811704159,-0.0245490353554487
22,-0.00568587239831686,0.00263192318379879,-0.0249496567994356,-0.0187292471528053,-0.0368137881159782,-0.0260487180203199
23,-0.00646132742986083,0.00222730054520071,-0.0256132520735264,-0.0200889762490988,-0.0373342037200928,-0.0276825688779354
24,-0.00756048457697034,0.00208774721249938,-0.0269970130175352,-0.0219459366053343,-0.0386740453541279,-0.028895191848278
25,-0.00898073706775904,0.00254525383934379,-0.0287235211580992,-0.0232799369841814,-0.0410363860428333,-0.0290265008807182
26,-0.010676053352654,0.0038446846883744,-0.0306116510182619,-0.0230943560600281,-0.0446745492517948,-0.0275045335292816
27,-0.0123371118679643,0.00545278145000339,-0.0328965373337269,-0.0219226516783237,-0.0494961962103844,-0.0255321152508259
28,-0.0133496001362801,0.00660423701629043,-0.0363928265869617,-0.0223721638321877,-0.054821603000164,-0.0254689119756222
29,-0.0134585183113813,0.00698453513905406,-0.0414288602769375,-0.0261566154658794,-0.059689424932003,-0.0283491238951683
30,-0.0131025090813637,0.00651105819270015,-0.046877209097147,-0.0322210527956486,-0.0636303126811981,-0.0335272662341595
31,-0.0124604059383273,0.00542813120409846,-0.0509630478918552,-0.0382452122867107,-0.0662966892123222,-0.0396054834127426
32,-0.0111933033913374,0.00451201340183616,-0.0527219623327255,-0.0425017140805721,-0.0673184022307396,-0.044832356274128
33,-0.00941138155758381,0.00422426825389266,-0.0528440736234188,-0.0452226288616657,-0.0672325268387794,-0.0488292500376701
34,-0.00751173542812467,0.00460101617500186,-0.0527835376560688,-0.0472432784736156,-0.0669456943869591,-0.0519027709960938
35,-0.0062224599532783,0.00574382999911904,-0.0535278618335724,-0.0477524027228355,-0.0676110982894897,-0.0526886433362961
36,-0.00614390801638365,0.00723785767331719,-0.0548118390142918,-0.0462606847286224,-0.0695722475647926,-0.0508530028164387
37,-0.00686656404286623,0.00838863011449575,-0.0561492294073105,-0.0446888692677021,-0.0719659551978111,-0.0486273542046547
38,-0.00784512795507908,0.0089070238173008,-0.0579978190362453,-0.0450893938541412,-0.0746889859437943,-0.0479736775159836
39,-0.00852837879210711,0.00872237049043179,-0.0602870769798756,-0.0472095645964146,-0.0773641318082809,-0.0493081510066986
40,-0.00811710301786661,0.00790816824883223,-0.0618513412773609,-0.0496671795845032,-0.0785019844770432,-0.0519046485424042
41,-0.0064540421590209,0.00678775832056999,-0.0619685649871826,-0.0516742616891861,-0.0775948241353035,-0.054461345076561
42,-0.00443680118769407,0.00576168205589056,-0.0616513341665268,-0.0533813610672951,-0.0762798115611076,-0.0565758310258389
43,-0.00277232518419623,0.00512309139594436,-0.0621718913316727,-0.0554001219570637,-0.0762947201728821,-0.0592113137245178
44,-0.00102920108474791,0.00490718986839056,-0.0631752163171768,-0.0577511712908745,-0.0768549591302872,-0.0626451969146729
45,0.000830195844173431,0.00475973729044199,-0.0642112195491791,-0.0599120892584324,-0.0767000690102577,-0.0657325834035873
46,0.00175725226290524,0.00480371853336692,-0.0656513497233391,-0.0608925186097622,-0.0769899934530258,-0.0665798410773277
47,0.00122318288777024,0.00587198324501514,-0.0673983618617058,-0.0597860142588615,-0.079137459397316,-0.0642290636897087
48,-0.000306580011965707,0.00778401782736182,-0.068953737616539,-0.0576130300760269,-0.0823996812105179,-0.0610624924302101
49,-0.00209000217728317,0.00915442407131195,-0.0700575485825539,-0.0563686862587929,-0.0848502218723297,-0.0600883699953556
50,-0.00332673033699393,0.00917722843587399,-0.0708468109369278,-0.0569372624158859,-0.0854321867227554,-0.0616115890443325
51,-0.00342461979016662,0.0082189105451107,-0.0721323266625404,-0.059733796864748,-0.0852414295077324,-0.0650431886315346
52,-0.00262169353663921,0.00705363834276795,-0.0745688527822495,-0.0648308619856834,-0.0859866812825203,-0.0697653666138649
53,-0.00176291214302182,0.00599775835871696,-0.0777930691838264,-0.071063295006752,-0.0879510641098022,-0.0747091919183731
54,-0.00101958948653191,0.00520339841023088,-0.0807546675205231,-0.0763465017080307,-0.0898400321602821,-0.0789724588394165
55,-0.00030139324371703,0.00516387773677707,-0.0822818130254745,-0.0787253230810165,-0.090447373688221,-0.0814292430877686
56,-0.0001189367758343,0.00600517122074962,-0.0824615657329559,-0.0780597850680351,-0.090683288872242,-0.0812612846493721
57,-0.000504478346556425,0.00738994730636477,-0.0830667987465858,-0.0761326551437378,-0.0924902856349945,-0.0791424661874771
58,-0.000946579850278795,0.00921069737523794,-0.0850722268223763,-0.0741605162620544,-0.0962686911225319,-0.0759800598025322
59,-0.00116237881593406,0.0112291891127825,-0.0873402431607246,-0.072106160223484,-0.100358456373215,-0.0723223611712456
60,-0.000791369646321982,0.0125066507607698,-0.0881410017609596,-0.0705001875758171,-0.102070391178131,-0.0698046311736107
61,0.000309656112222001,0.0122982393950224,-0.0869840607047081,-0.0707348063588142,-0.100102640688419,-0.070621594786644
62,0.00181511091068387,0.011198116466403,-0.0851691365242004,-0.0730542689561844,-0.0961603969335556,-0.0747334435582161
63,0.00341763510368764,0.0106057301163673,-0.0845601037144661,-0.075887531042099,-0.0930516943335533,-0.0789487436413765
64,0.00460305204614997,0.0113706709817052,-0.086264505982399,-0.0778671726584435,-0.0928861871361732,-0.0802609324455261
65,0.00495243305340409,0.0131303975358605,-0.0897832810878754,-0.0787660181522369,-0.0957274064421654,-0.0790544599294662
66,0.0045988648198545,0.0145544223487377,-0.0932934880256653,-0.0788594111800194,-0.0989393442869186,-0.0775837972760201
67,0.00352130644023418,0.0150984423235059,-0.0954284965991974,-0.0779769122600555,-0.100554689764977,-0.0762185230851173
68,0.00162402668502182,0.0158508457243443,-0.0957528725266457,-0.0753132775425911,-0.101059503853321,-0.0732898190617561
69,-0.000614899909123778,0.0172615591436625,-0.094578817486763,-0.0716516003012657,-0.101125232875347,-0.0692172572016716
70,-0.00204002531245351,0.0173677392303944,-0.093168281018734,-0.0703325346112251,-0.100353807210922,-0.0693208575248718
71,-0.00162694207392633,0.0146158160641789,-0.0927931740880013,-0.0737044140696526,-0.0983673930168152,-0.0779311284422874
72,0.000150011561345309,0.0111227296292782,-0.093783900141716,-0.0799343958497047,-0.0960491821169853,-0.0898338407278061
73,0.00199573859572411,0.00961101613938808,-0.0951792076230049,-0.0849538967013359,-0.0940783247351646,-0.0962849333882332
74,0.00314782722853124,0.0102416975423694,-0.0954423323273659,-0.0858865529298782,-0.092141292989254,-0.0946426242589951
75,0.0033358393702656,0.0118404617533088,-0.0944018065929413,-0.0829551741480827,-0.0906776562333107,-0.0880061388015747
76,0.00267268344759941,0.0126724150031805,-0.0938385650515556,-0.0791783854365349,-0.0914536863565445,-0.0836456418037415
77,0.00192814914043993,0.0119661493226886,-0.0948078632354736,-0.0767059400677681,-0.0946711301803589,-0.0853452086448669
78,0.00154230883345008,0.0109719792380929,-0.0956763252615929,-0.0746787264943123,-0.0974791795015335,-0.0867186188697815
79,0.00062125304248184,0.0110504440963268,-0.0951305404305458,-0.071228101849556,-0.098590686917305,-0.0801112353801727
80,-0.00164986145682633,0.0136240404099226,-0.0946840792894363,-0.0664977952837944,-0.100359901785851,-0.0656047835946083
81,-0.0045170639641583,0.0192301906645298,-0.0960816815495491,-0.0639005973935127,-0.104085765779018,-0.05070910602808
82,-0.00583990477025509,0.0240469221025705,-0.098478302359581,-0.0672561451792717,-0.106141306459904,-0.0456668026745319
83,-0.00444198772311211,0.0239821095019579,-0.0993711277842522,-0.0749621093273163,-0.102494612336159,-0.0532140210270882
84,-0.000966224237345159,0.019745696336031,-0.0968651100993156,-0.0812255665659904,-0.0934630259871483,-0.0676506385207176
85,0.00291400915011764,0.0147685511037707,-0.091687835752964,-0.0828227996826172,-0.0826814621686935,-0.0809918940067291
86,0.00387163460254669,0.0133506571874022,-0.0875977948307991,-0.0790360420942307,-0.0768429413437843,-0.082033708691597
87,0.000581209431402385,0.0164519045501947,-0.0870922282338142,-0.0715655982494354,-0.0790135115385056,-0.068972148001194
88,-0.00401785084977746,0.0201042480766773,-0.0874083265662193,-0.0631957426667213,-0.0835325419902802,-0.0524805411696434
89,-0.0075814719311893,0.0218209642916918,-0.084940105676651,-0.0542505718767643,-0.0852756947278976,-0.0372439846396446
90,-0.0104042245075107,0.0233754049986601,-0.0811608284711838,-0.046464379876852,-0.0858028829097748,-0.0232630502432585
91,-0.0123472651466727,0.026114234700799,-0.07912627607584,-0.0434163734316826,-0.0869945734739304,-0.014707813039422
92,-0.0119830938056111,0.0278683882206678,-0.0785000845789909,-0.0456108301877975,-0.0864368826150894,-0.0149722564965487
93,-0.00950642954558134,0.0274346265941858,-0.0774420723319054,-0.0494688786566257,-0.0822658315300941,-0.0201902035623789
94,-0.00713152252137661,0.0265042912214994,-0.0756001248955727,-0.0508180819451809,-0.0769777074456215,-0.0231044497340918
95,-0.00629550917074084,0.0261027067899704,-0.0741828307509422,-0.0489039905369282,-0.0740993246436119,-0.0217856205999851
96,-0.00642036739736795,0.0257971417158842,-0.0739448517560959,-0.0458732359111309,-0.0741984248161316,-0.0199056547135115
97,-0.00607346463948488,0.0246130302548409,-0.0737897902727127,-0.0438848622143269,-0.0747674554586411,-0.021259592846036
98,-0.00458591571077704,0.0222789607942104,-0.0719386786222458,-0.0428982339799404,-0.0729629769921303,-0.0254561472684145
99,-0.0028768596239388,0.0198060646653175,-0.0681012645363808,-0.0413374938070774,-0.0687219500541687,-0.028481749817729
100,-0.00252150744199753,0.0180204473435879,-0.0636054873466492,-0.0388309806585312,-0.064332477748394,-0.0276269316673279
101,-0.0039284760132432,0.0166130792349577,-0.0597933158278465,-0.0366510972380638,-0.0610332190990448,-0.0243693068623543
102,-0.00567633891478181,0.0151082966476679,-0.0566297359764576,-0.0357035882771015,-0.0577203445136547,-0.0218534171581268
103,-0.00612353021278977,0.0136163244023919,-0.0531645752489567,-0.0356611236929893,-0.0528875552117825,-0.0216403752565384
104,-0.00587115250527859,0.0119930636137724,-0.0497006066143513,-0.0357418656349182,-0.0474167503416538,-0.0232719015330076
105,-0.00649223756045103,0.0102464081719518,-0.0474884770810604,-0.0350777618587017,-0.0437322184443474,-0.024818854406476
106,-0.00774244964122772,0.00963858142495155,-0.046970073133707,-0.0335937961935997,-0.0428659170866013,-0.024494206532836
107,-0.00855168513953686,0.0112157175317407,-0.0479108095169067,-0.0324558615684509,-0.0444132536649704,-0.0220866687595844
108,-0.00900236982852221,0.0139247719198465,-0.0494039244949818,-0.032365869730711,-0.0468742474913597,-0.0184231139719486
109,-0.00963590480387211,0.0156536661088467,-0.0494230501353741,-0.0322176665067673,-0.0475031994283199,-0.0140678538009524
110,-0.0104196686297655,0.0155993988737464,-0.0467085503041744,-0.0307034831494093,-0.0448942817747593,-0.00923290103673935
111,-0.0109152533113956,0.0143126267939806,-0.0425459258258343,-0.0286863502115011,-0.0403506867587566,-0.00532618118450046
112,-0.0106287598609924,0.0121416822075844,-0.0392398126423359,-0.0287594348192215,-0.0353512689471245,-0.00509620225057006
113,-0.00957131758332253,0.0098446412011981,-0.0377939082682133,-0.0311159566044807,-0.0308014564216137,-0.00820744968950748
114,-0.00854288693517447,0.00870524439960718,-0.0376259684562683,-0.032645083963871,-0.0279235783964396,-0.0105363233014941
115,-0.00838963780552149,0.00869199354201555,-0.0377484858036041,-0.0315740928053856,-0.027124959975481,-0.00967324618250132
116,-0.00922986026853323,0.00912587437778711,-0.0375525504350662,-0.0287674553692341,-0.0276246499270201,-0.00579026155173779
117,-0.0109852086752653,0.00986751168966293,-0.0369467027485371,-0.0252120532095432,-0.0290372334420681,0.000599417951889336
118,-0.0130518060177565,0.0108759868890047,-0.035431083291769,-0.0212674271315336,-0.0302997305989265,0.00796960294246674
119,-0.0139976320788264,0.0121853686869144,-0.0324190966784954,-0.017764288932085,-0.0292695239186287,0.0136778438463807
120,-0.013414072804153,0.013253909535706,-0.0286231245845556,-0.0159789770841599,-0.0257133506238461,0.0158736929297447
121,-0.0119543466717005,0.0128892175853252,-0.0243426021188498,-0.0155525077134371,-0.0205989181995392,0.0149010559543967
122,-0.0102269658818841,0.0109275355935097,-0.0189928021281958,-0.0146060446277261,-0.0143881039693952,0.0131630534306169
123,-0.00881299283355474,0.00834260787814856,-0.0127569530159235,-0.0121585046872497,-0.00773142604157329,0.0131624052301049
124,-0.00817386712878942,0.00624037347733974,-0.00692598940804601,-0.00872457679361105,-0.00202855258248746,0.0158216636627913
125,-0.00808926858007908,0.00548277189955115,-0.00300428527407348,-0.00569443497806787,0.00152198737487197,0.0203466787934303
126,-0.00751048000529408,0.00606871116906405,-0.000296637852443382,-0.00382550247013569,0.00432139215990901,0.0248966887593269
127,-0.00598720973357558,0.00702552543953061,0.00291483476758003,-0.0027171028777957,0.00842585787177086,0.0277990940958261
128,-0.00414838083088398,0.00779156526550651,0.00649402616545558,-0.00162568420637399,0.0131160793825984,0.0290436558425426
129,-0.00279320636764169,0.00827031210064888,0.00988629646599293,0.000173498512594961,0.0169799756258726,0.0297522451728582
130,-0.00228975457139313,0.00804192945361137,0.0133273536339402,0.00278431316837668,0.0200663506984711,0.0306055769324303
131,-0.00255947816185653,0.0071170162409544,0.0167134944349527,0.00573541177436709,0.0224011484533548,0.0320837236940861
132,-0.00347152072936296,0.00617188820615411,0.0193380936980248,0.00861062575131655,0.0234050340950489,0.0346986018121243
133,-0.00480656046420336,0.00545504922047257,0.0208098366856575,0.0106226420029998,0.0234134346246719,0.0377231612801552
134,-0.00618444569408894,0.00451487489044666,0.021844232454896,0.0111956503242254,0.0241389609873295,0.0399016961455345
135,-0.00722614862024784,0.00340692466124892,0.0238209217786789,0.0116745494306087,0.0270182397216558,0.0420805886387825
136,-0.00781054748222232,0.00269019091501832,0.0276594627648592,0.0141108091920614,0.0319079793989658,0.0458405017852783
137,-0.00806064065545797,0.00215115700848401,0.0331674627959728,0.0186873190104961,0.0376721508800983,0.0505602769553661
138,-0.00807882845401764,0.00133644789457321,0.0387031175196171,0.0236820466816425,0.042744118720293,0.0541785731911659
139,-0.00799779780209064,0.000640599930193275,0.0420628190040588,0.0271119140088558,0.0457437373697758,0.055439218878746
140,-0.00795688200742006,0.000371615693438798,0.0425755567848682,0.0279846787452698,0.0469522252678871,0.054591279476881
141,-0.00794225372374058,0.000291105272481218,0.0415543057024479,0.0270892456173897,0.0478240288794041,0.0534115172922611
142,-0.0077095627784729,0.000669450382702053,0.0409163646399975,0.0264762509614229,0.0494518280029297,0.054333109408617
143,-0.00708668865263462,0.00214041979052126,0.041698332875967,0.0275482777506113,0.0519312061369419,0.0581935979425907
144,-0.0064012766815722,0.00455049425363541,0.0438457615673542,0.0303421150892973,0.0545760840177536,0.0638697072863579
145,-0.00599513156339526,0.00666260067373514,0.0469714850187302,0.0335779301822186,0.0572398714721203,0.0690314918756485
146,-0.00578677514567971,0.00735012022778392,0.0501650013029575,0.0353483930230141,0.059956569224596,0.071416012942791
147,-0.00558194890618324,0.00662547396495938,0.0527571365237236,0.0353722833096981,0.0624688155949116,0.0709885954856873
148,-0.00518874451518059,0.00499458471313119,0.0552337542176247,0.0348601453006268,0.065259225666523,0.0692451670765877
149,-0.00452971225604415,0.00299184978939593,0.0575836449861526,0.0342404395341873,0.0683915317058563,0.0675404444336891
150,-0.00413681613281369,0.00105531245935708,0.0585956200957298,0.0330526567995548,0.0703353136777878,0.0666703060269356
151,-0.00434081954881549,-0.000409933825721964,0.057945042848587,0.0311760362237692,0.0702292025089264,0.0664905235171318
152,-0.00448465021327138,-0.000801962334662676,0.0566123425960541,0.0290525946766138,0.0692359134554863,0.0665954872965813
153,-0.00419620797038078,6.04831002419814E-05,0.0555259622633457,0.0275860521942377,0.0686183422803879,0.0673565864562988
154,-0.00383128761313856,0.00147216964978725,0.0554769411683083,0.0274919494986534,0.0688338354229927,0.0687470659613609
155,-0.00341935153119266,0.00245096650905907,0.0571490190923214,0.0283203423023224,0.0705779194831848,0.0694358572363853
156,-0.00263436557725072,0.00249916687607765,0.0601635985076427,0.0290485788136721,0.0741764903068542,0.0685552135109901
157,-0.00140941073186696,0.00160951260477304,0.0629799962043762,0.0290649831295013,0.0783673748373985,0.0668665319681168
158,5.93021504755598E-05,0.000271905504632741,0.0648747384548187,0.0288980156183243,0.0817421227693558,0.0663099363446236
159,0.00121222750749439,-0.000869845564011484,0.0661192834377289,0.0294948108494282,0.0838958323001862,0.0682487189769745
160,0.00155082438141108,-0.00168453890364617,0.0662822425365448,0.0302597768604755,0.0847243294119835,0.0714375376701355
161,0.00157427787780762,-0.00220518908463418,0.0652223452925682,0.0299299042671919,0.0847914069890976,0.0735610201954842
162,0.00202812650240958,-0.00238951412029564,0.0642508789896965,0.0285785049200058,0.0854012221097946,0.0741566047072411
163,0.00229439209215343,-0.00246131978929043,0.0643225908279419,0.0273615531623363,0.0864218696951866,0.0748712792992592
164,0.00141279282979667,-0.00259359437040985,0.0650986507534981,0.0273628178983927,0.0865695253014565,0.0771591886878014
165,1.12066500150831E-05,-0.00242925528436899,0.0661213248968124,0.0288058277219534,0.0861598923802376,0.0805115476250649
166,-0.00062342215096578,-0.00152681372128427,0.0671786889433861,0.0310978293418884,0.086295060813427,0.0840288400650024
167,-0.000246630923356861,-0.000192372390301898,0.0683024004101753,0.0335948057472706,0.0870518088340759,0.0874667093157768
168,0.000749352911952883,0.000990962027572095,0.0701638609170914,0.0363939069211483,0.0884876400232315,0.0906770452857018
169,0.00201635085977614,0.00179621588904411,0.0728504806756973,0.0395852774381638,0.0904043763875961,0.0932021662592888
170,0.00288119446486235,0.00196362449787557,0.0747343599796295,0.0417763069272041,0.0913306102156639,0.0938971266150475
171,0.00282981735654175,0.00147407106123865,0.0744412019848824,0.0416428782045841,0.0904984921216965,0.0920397192239761
172,0.00231584836728871,0.000681539182551205,0.0728533864021301,0.0401179678738117,0.0892459899187088,0.0885315835475922
173,0.00224782107397914,-0.000146773556480184,0.0723890736699104,0.0393149927258492,0.0897676274180412,0.0853440314531326
174,0.00270404131151736,-0.000609613431151956,0.0745785757899284,0.0409066900610924,0.0927910357713699,0.0845427811145782
175,0.00290243374183774,-0.00047735235420987,0.0784938931465149,0.0448906905949116,0.0965670794248581,0.0865645706653595
176,0.00256856507621706,-0.000251310208113864,0.0817451626062393,0.049045518040657,0.0990282669663429,0.0891320556402206
177,0.00229676254093647,-0.000528761942405254,0.0828340128064156,0.050897266715765,0.0997037291526794,0.0894208326935768
178,0.00246683484874666,-0.00118624826427549,0.0819035097956657,0.0499261245131493,0.0988575220108032,0.0869376510381699
179,0.00290492922067642,-0.00162062025628984,0.0802334770560265,0.0480857342481613,0.0971076563000679,0.083961233496666
180,0.00362091488204896,-0.00161963526625186,0.0797182992100716,0.0478944033384323,0.0959671139717102,0.0826886743307114
181,0.00475322734564543,-0.0017139381961897,0.0810378193855286,0.0494099669158459,0.096749447286129,0.0823239237070084
182,0.00626770406961441,-0.00250351848080754,0.0828036442399025,0.0505080670118332,0.0990361049771309,0.0809833332896233
183,0.00769213493913412,-0.00365307251922786,0.0831321775913239,0.0500393807888031,0.100482575595379,0.079251267015934
184,0.00823316629976034,-0.00436423625797033,0.0815985277295113,0.0486806929111481,0.0994336381554604,0.0788086950778961
185,0.00791217852383852,-0.00457375636324286,0.0794297605752945,0.0470324866473675,0.0970553904771805,0.0791547447443008
186,0.00730738369747996,-0.00479242205619812,0.0776186659932137,0.0450687929987907,0.0951481610536575,0.0786374062299728
187,0.00655617984011769,-0.00517064845189452,0.0764638558030128,0.0433399192988873,0.0943797454237938,0.0771495476365089
188,0.00583001924678683,-0.00530030205845833,0.0764115154743195,0.0428323484957218,0.0947440788149834,0.0758840441703796
189,0.00530706578865647,-0.0049526016227901,0.0771117806434631,0.0434955544769764,0.0951599627733231,0.0755570828914642
190,0.00487634493038058,-0.00443692598491907,0.0773296803236008,0.0442870929837227,0.0944669842720032,0.0757277384400368
191,0.00472035491839051,-0.00417731050401926,0.0766228139400482,0.0444341823458672,0.093288779258728,0.0753987729549408
192,0.00501194316893816,-0.00420618522912264,0.0753379315137863,0.0438093952834606,0.092449314892292,0.0741298198699951
193,0.00566183403134346,-0.00401172088459134,0.0738474801182747,0.0429689586162567,0.0916461423039436,0.0726533234119415
194,0.00650386139750481,-0.00311232823878527,0.0725084692239761,0.0426812507212162,0.0902991816401482,0.071815624833107
195,0.00704556284472346,-0.00169131497386843,0.0712751820683479,0.0427445508539677,0.0878696441650391,0.0711395666003227
196,0.00700436579063535,-0.000100359487987589,0.0699290335178375,0.0425627790391445,0.0846675187349319,0.0701766684651375
197,0.00652845110744238,0.00130594742950052,0.0687389373779297,0.0422820597887039,0.0818454921245575,0.0695266276597977
198,0.00583280995488167,0.00185220956336707,0.0682646110653877,0.0423266217112541,0.0801884904503822,0.0691309869289398
199,0.00510541442781687,0.00134120893198997,0.0685880109667778,0.0427280813455582,0.0796048566699028,0.0683726295828819
200,0.00425927573814988,0.000565125257708132,0.069011926651001,0.0430776514112949,0.0791962668299675,0.0675806850194931
201,0.00323356292210519,0.000431294756708667,0.0687045976519585,0.0431151837110519,0.0780743882060051,0.0677125602960587
202,0.00217438535764813,0.000794689811300486,0.0671396255493164,0.0431049913167953,0.0758943259716034,0.0691008865833282
203,0.00148454506415874,0.00085728126578033,0.0647484287619591,0.0431662201881409,0.0734612941741943,0.070611372590065
204,0.00179611053317785,0.000183833413757384,0.0628492757678032,0.0427980311214924,0.0727049261331558,0.0702733993530273
205,0.00292134121991694,-0.00133508478756994,0.0620731487870216,0.0415823943912983,0.0741870477795601,0.0674476027488709
206,0.00384032959118485,-0.00346059445291758,0.062141627073288,0.0399491786956787,0.0765796825289726,0.0635094195604324
207,0.00383989186957479,-0.00567899411544204,0.0625954195857048,0.0386104099452496,0.0786639004945755,0.0599857233464718
208,0.00285346759483218,-0.00735461851581931,0.0628156960010529,0.0378023758530617,0.0794551372528076,0.0576382167637348
209,0.00107882986776531,-0.0080943638458848,0.0620411932468414,0.0373953022062778,0.0780200809240341,0.0565827786922455
210,-0.00115224183537066,-0.00841506011784077,0.0599499307572842,0.0370328426361084,0.074410043656826,0.05587999522686
211,-0.0031756788957864,-0.00895043835043907,0.0572364889085293,0.0364780873060226,0.0698805600404739,0.0545945875346661
212,-0.00438380893319845,-0.009637082926929,0.0551948472857475,0.0359820351004601,0.0662450790405273,0.0529378280043602
213,-0.00477751530706882,-0.0102730179205537,0.0545040033757687,0.0360004976391792,0.0645383521914482,0.0516667403280735
214,-0.00472746090963483,-0.0110094910487533,0.0547230616211891,0.03648716583848,0.0643729269504547,0.051016990095377
215,-0.00412805192172527,-0.0119520546868443,0.0554552935063839,0.0370673835277557,0.0652401298284531,0.0503183715045452
216,-0.00277408608235419,-0.0124067151919007,0.0564136989414692,0.0375856906175613,0.0666068866848946,0.049286738038063
217,-0.00102737406268716,-0.0115398271009326,0.0570299290120602,0.0381299667060375,0.06764055788517,0.0485480986535549
218,0.000569453346543014,-0.00964243244379759,0.0573045797646046,0.0390057563781738,0.0680196434259415,0.0484707728028297
219,0.00165656954050064,-0.00747744087129831,0.0573695227503777,0.0402625501155853,0.0676523298025131,0.0489619411528111
220,0.00232495181262493,-0.00554348668083549,0.0570776164531708,0.0413153544068336,0.0666884630918503,0.0495513416826725
221,0.00285083311609924,-0.00446411361917853,0.0563579648733139,0.0412649102509022,0.0658029913902283,0.0491727776825428
222,0.00324079184792936,-0.00451623555272818,0.0553030930459499,0.0399239547550678,0.0654909387230873,0.0471316017210484
223,0.00324744964018464,-0.00529714440926909,0.0541290193796158,0.0380634777247906,0.0652516260743141,0.0442288778722286
224,0.00286722066812217,-0.00635784352198243,0.0528052970767021,0.0363942235708237,0.0642899423837662,0.0419315285980701
225,0.00244340836070478,-0.0073200399056077,0.0511332005262375,0.0350986011326313,0.0625535249710083,0.0408670045435429
226,0.00213737459853292,-0.0076589691452682,0.0492641925811768,0.0343106351792812,0.0601320788264275,0.0410259887576103
227,0.00179300247691572,-0.00715136621147394,0.047186940908432,0.0339739322662354,0.056843213737011,0.0420406050980091
228,0.00130196334794164,-0.00636425986886024,0.0446523427963257,0.033329863101244,0.0531350895762444,0.0424840338528156
229,0.000982882338576019,-0.0061810533516109,0.0421618334949017,0.0317530892789364,0.0503524839878082,0.0408022105693817
230,0.00115751475095749,-0.0068871583789587,0.0403620526194572,0.0293362736701965,0.0491810515522957,0.0368733629584312
231,0.00156602938659489,-0.00781740806996822,0.0392108000814915,0.0268339104950428,0.0487953089177608,0.0322757475078106
232,0.00157178938388824,-0.00813125167042017,0.0379764176905155,0.0250874310731888,0.0477490872144699,0.0294513441622257
233,0.000809245393611491,-0.0078384056687355,0.0359174348413944,0.0240144692361355,0.0454174354672432,0.0291894022375345
234,-0.000280661857686937,-0.0073862811550498,0.0335903987288475,0.0231715906411409,0.042775746434927,0.0299575291574001
235,-0.000896044075489044,-0.0071790823712945,0.0321378745138645,0.02213448099792,0.0411221571266651,0.0296468380838633
236,-0.000778895628172904,-0.00763483624905348,0.0317070074379444,0.0205539353191853,0.0404908657073975,0.0269326698035002
237,-0.00032644288148731,-0.00837577786296606,0.0317905656993389,0.0191063098609447,0.0399970151484013,0.0230315085500479
238,-0.000163762146257795,-0.00837631989270449,0.0317972972989082,0.0187188591808081,0.0389022268354893,0.0207110662013292
239,-0.00036677741445601,-0.00738420803099871,0.0314491391181946,0.0192893519997597,0.0373993888497353,0.0206579361110926
240,-0.000485569704324007,-0.00634913006797433,0.0309163462370634,0.0199436377733946,0.0361655727028847,0.0211989153176546
241,-0.000415164890000597,-0.0060197333805263,0.030345793813467,0.020204758271575,0.0352686420083046,0.0213506314903498
242,-0.000341198989190161,-0.00591403199359775,0.0302151385694742,0.0209428165107965,0.0347998328506947,0.0219470970332623
243,-0.000134801826789044,-0.00546318665146828,0.0310147553682327,0.0228064395487309,0.0354521498084068,0.0235068462789059
244,0.000406655890401453,-0.00498972600325942,0.0321551077067852,0.0244718957692385,0.0371553786098957,0.0246409066021442
245,0.000967854401096702,-0.00494894850999117,0.0321669802069664,0.0242915283888578,0.0383463501930237,0.0238843187689781
246,0.00115726981312037,-0.00512931915000081,0.0303361788392067,0.0225094370543957,0.0379478111863136,0.0219796411693096
247,0.000998986302874982,-0.0051751178689301,0.0276298429816961,0.0205089673399925,0.0364724956452847,0.0205501429736614
248,0.000601980369538069,-0.00502840103581548,0.0254354625940323,0.0191094167530537,0.0346298813819885,0.020188245922327
249,6.07436377322301E-05,-0.00489417696371675,0.0243646875023842,0.0183504372835159,0.0330293960869312,0.0202998481690884
250,-0.000491222948767245,-0.00510192336514592,0.0240762177854776,0.0179043766111135,0.0321635827422142,0.0200129561126232
251,-0.00107666954863817,-0.00565377855673432,0.0237393453717232,0.0174411181360483,0.0315886177122593,0.0191705916076899
252,-0.00158235465642065,-0.0058669694699347,0.0230532716959715,0.0172116402536631,0.0305600557476282,0.0183832608163357
253,-0.00175507029052824,-0.00522023299708962,0.0223579704761505,0.0176654811948538,0.0292487200349569,0.0181939769536257
254,-0.00152082485146821,-0.00412914529442787,0.0222191102802753,0.0185173321515322,0.028483297675848,0.0182790961116552
255,-0.000871071300935,-0.00314822955988348,0.0228301342576742,0.019048273563385,0.0285678151994944,0.0178891699761152
256,-0.000138582166982815,-0.00258818548172712,0.0233376044780016,0.0185150988399982,0.0288553796708584,0.0162747502326965
257,-1.3357974239625E-05,-0.00242911069653928,0.0227490160614252,0.0166949424892664,0.0284152533859015,0.0133244143798947
258,-0.000535760598722845,-0.00223028450272977,0.0213705748319626,0.0145215755328536,0.02717493660748,0.0103128794580698
259,-0.00110275822225958,-0.00179664662573487,0.0201770272105932,0.0130398599430919,0.0257504321634769,0.00870554894208908
260,-0.00167110038455576,-0.00168055377434939,0.0192894600331783,0.0119112739339471,0.0244689527899027,0.00829076208174229
261,-0.00278314994648099,-0.0023250225931406,0.01803869754076,0.010167938657105,0.0230072624981403,0.00789102539420128
262,-0.00457123015075922,-0.00330017949454486,0.0159605368971825,0.00767635414376855,0.0207716654986143,0.00715378811582923
263,-0.00653395196422935,-0.00413039559498429,0.0133360922336578,0.00505466898903251,0.0180286001414061,0.00646742573007941
264,-0.00820275954902172,-0.00476108584553003,0.0108931120485067,0.00329359155148268,0.0157862659543753,0.00646480824798346
265,-0.00945830065757036,-0.00525880558416247,0.00896736234426498,0.0028232061304152,0.0144979748874903,0.00739218201488256
266,-0.0104027446359396,-0.00585387367755175,0.00712628662586212,0.00267477054148912,0.0135660078376532,0.00824941042810678
267,-0.0109213506802917,-0.00658390577882528,0.00532265519723296,0.00193806539755315,0.0126465270295739,0.00776705611497164
268,-0.0110728545114398,-0.00724907824769616,0.0041998727247119,0.00101364904548973,0.0118341268971562,0.00616127531975508
269,-0.0114077441394329,-0.00770063372328877,0.00363204698078334,0.000744703691452742,0.0105407340452075,0.00490485830232501
270,-0.011823751963675,-0.00757076498121023,0.00299884122796357,0.00132848066277802,0.00853840727359056,0.00500256102532148
271,-0.0117605281993747,-0.0068323565647006,0.00220808968879282,0.00225845095701516,0.00644165556877851,0.00591468065977097
272,-0.0112731605768204,-0.00584028847515583,0.00145831936970353,0.00286441366188228,0.00472444389015436,0.00627524266019464
273,-0.010832185856998,-0.00485518388450146,0.000647094508167356,0.00261703226715326,0.0033824173733592,0.0051078898832202
274,-0.0105723794549704,-0.0042592640966177,-0.000339587102644145,0.00150929996743798,0.00228267326019704,0.00240428908728063
275,-0.0103012202307582,-0.00401249388232827,-0.00113200780469924,0.000221477792365476,0.00135342415887862,-0.000823090842459351
276,-0.00999055057764053,-0.00375265930779278,-0.00126690696924925,-0.000384330051019788,0.000642150698695332,-0.0032860201317817
277,-0.00976533442735672,-0.00361887807957828,-0.000904551008716226,-0.000245555682340637,0.00022180141240824,-0.00439478596672416
278,-0.00974334310740232,-0.00374077050946653,-0.000824798073153943,-1.21821694847313E-05,-0.000324634747812524,-0.00432876078411937
279,-0.00979450903832912,-0.00381733314134181,-0.00114597391802818,0.000308492832118645,-0.00106711708940566,-0.00364210503175855
280,-0.00947947148233652,-0.00356323574669659,-0.00140280509367585,0.000943518767599016,-0.00138515059370548,-0.00323726935312152
281,-0.00868977606296539,-0.00296057178638875,-0.00184597680345178,0.00153504230547696,-0.00139011640567333,-0.00376825942657888
282,-0.00777557771652937,-0.00222756899893284,-0.00275682983919978,0.00181446957867593,-0.00173261587042362,-0.00499864667654037
283,-0.00702018151059747,-0.00162016577087343,-0.0038510886952281,0.00189627963118255,-0.00271511264145374,-0.00627044122666121
284,-0.00662462413311005,-0.00126066303346306,-0.0052670300938189,0.00165554438717663,-0.00458740582689643,-0.00738222524523735
285,-0.00685947714373469,-0.00121237244457006,-0.0073119755834341,0.000563798355869949,-0.00754342321306467,-0.00870161224156618
286,-0.00763906119391322,-0.00127568712923676,-0.00969350803643465,-0.0013869769172743,-0.0111298346891999,-0.010149440728128
287,-0.00834215153008699,-0.000904478598386049,-0.0119447419419885,-0.00320713431574404,-0.0145311467349529,-0.0110250096768141
288,-0.00860076956450939,3.45463522535283E-05,-0.0140626942738891,-0.00418986147269607,-0.0177456252276897,-0.0115465531125665
289,-0.00828264933079481,0.00113081559538841,-0.0163793060928583,-0.00542984064668417,-0.0208875257521868,-0.0128389224410057
290,-0.00727730477228761,0.00182917423080653,-0.0188560634851456,-0.00820375140756369,-0.0233916528522968,-0.0152290286496282
291,-0.00582214258611202,0.00175850954838097,-0.0208459887653589,-0.0116292526945472,-0.0249223075807095,-0.017825398594141
292,-0.00426720781251788,0.0013412965927273,-0.0219817794859409,-0.0140602476894856,-0.0258882604539394,-0.01946060359478
293,-0.0027809024322778,0.00149700045585632,-0.022554486989975,-0.0147689841687679,-0.027019651606679,-0.0198585614562035
294,-0.00177939713466913,0.00260286615230143,-0.023489149287343,-0.014184876345098,-0.0290785674005747,-0.0197271555662155
295,-0.00205363053828478,0.00391580257564783,-0.0255160219967365,-0.013617885299027,-0.0325388163328171,-0.0201598107814789
296,-0.00294843362644315,0.00468977726995945,-0.0274379663169384,-0.0140391709282994,-0.0359988734126091,-0.0217784885317087
297,-0.00290453294292092,0.00543944025412202,-0.0284949913620949,-0.0154016390442848,-0.0383173041045666,-0.023790892213583
298,-0.00223863939754665,0.0065741753205657,-0.0300435367971659,-0.0171864945441484,-0.0410142131149769,-0.0252440478652716
299,-0.00201727310195565,0.00754344975575805,-0.0322956815361977,-0.0187764167785645,-0.0447164252400398,-0.0265851430594921
300,-0.00237937341444194,0.0078737149015069,-0.0342626608908176,-0.0197627600282431,-0.0486096814274788,-0.0289142355322838
301,-0.00304624834097922,0.0077445819042623,-0.0365938358008862,-0.021050313487649,-0.052924994379282,-0.0323853529989719
302,-0.00383795774541795,0.00765200471505523,-0.0403487384319305,-0.0235021039843559,-0.0581901110708714,-0.035790678113699
303,-0.00485505489632487,0.00776458811014891,-0.0446626432240009,-0.0263114608824253,-0.0637091770768166,-0.038116130977869
304,-0.00594260031357408,0.00815771333873272,-0.0477696657180786,-0.0284710433334112,-0.0681644231081009,-0.0394828766584396
305,-0.00705976923927665,0.00879844278097153,-0.0493255481123924,-0.0299441888928413,-0.0720274969935417,-0.0406539402902126
306,-0.00829856470227242,0.00955619849264622,-0.050810694694519,-0.0312946327030659,-0.0764635875821114,-0.0419740527868271
307,-0.00901656039059162,0.0105445655062795,-0.053251601755619,-0.0328063257038593,-0.080591544508934,-0.0432739593088627
308,-0.00861376896500587,0.0112010622397065,-0.0556096918880939,-0.034690260887146,-0.0825242847204208,-0.0458233430981636
309,-0.00723414961248636,0.0104616759344935,-0.0557969510555267,-0.0365891568362713,-0.0810426324605942,-0.050857774913311
310,-0.00576323689892888,0.00851434841752052,-0.0531449392437935,-0.0366392470896244,-0.0773101896047592,-0.0561697892844677
311,-0.00531025556847453,0.00664934888482094,-0.0499343425035477,-0.0346172824501991,-0.0752334669232368,-0.0591031759977341
312,-0.00650269724428654,0.00590005051344633,-0.0500441528856754,-0.0333538912236691,-0.0790140107274055,-0.0598514452576637
313,-0.00917812623083591,0.00656192284077406,-0.0560187995433807,-0.0354028344154358,-0.0900605767965317,-0.0601155571639538
314,-0.0120952231809497,0.00814972538501024,-0.0666163563728333,-0.0411868207156658,-0.105037048459053,-0.0616938732564449
315,-0.0139733524993062,0.00972752645611763,-0.0777088925242424,-0.049262672662735,-0.118851616978645,-0.065496452152729
316,-0.0146621465682983,0.0104928435757756,-0.085856594145298,-0.0575899183750153,-0.128915205597878,-0.0711739361286163
317,-0.0149657279253006,0.0107360389083624,-0.0906440541148186,-0.0644646883010864,-0.136044844985008,-0.07650426030159
318,-0.0156483184546232,0.0113727683201432,-0.0933198407292366,-0.0686682611703873,-0.141831457614899,-0.078746423125267
319,-0.016295338049531,0.0125096878036857,-0.0936311334371567,-0.0697123259305954,-0.145389407873154,-0.0776750892400742
320,-0.0163045655936003,0.0136439045891166,-0.0913045853376389,-0.0684246197342873,-0.14607410132885,-0.0750660374760628
321,-0.0163691826164722,0.0141641087830067,-0.0886770263314247,-0.0671496912837029,-0.146316215395927,-0.072870060801506
322,-0.017101239413023,0.0141168357804418,-0.087959811091423,-0.0674739629030228,-0.148279666900635,-0.0717206224799156
323,-0.0178536958992481,0.0143550764769316,-0.0882829502224922,-0.0683900788426399,-0.151137724518776,-0.0704723224043846
324,-0.018362432718277,0.0153373889625072,-0.0881686806678772,-0.0683360323309898,-0.153993204236031,-0.0680815055966377
325,-0.0192773062735796,0.0168415885418653,-0.0886444449424744,-0.0679262354969978,-0.158009007573128,-0.0653536319732666
326,-0.020499162375927,0.0184005592018366,-0.0915884375572205,-0.0696328952908516,-0.163863152265549,-0.064590647816658
327,-0.0214515328407288,0.0197093356400728,-0.0968499034643173,-0.0739786475896835,-0.170696899294853,-0.0658548176288605
328,-0.0221373811364174,0.0205623023211956,-0.101559281349182,-0.0778250768780708,-0.176123782992363,-0.0657668560743332
329,-0.0223857071250677,0.0206482242792845,-0.102075830101967,-0.0780613124370575,-0.176668137311935,-0.0624646730720997
330,-0.0217523798346519,0.0201587844640017,-0.097268246114254,-0.0742362514138222,-0.171457499265671,-0.0569011606276035
331,-0.0206375848501921,0.0194069836288691,-0.0898018330335617,-0.0683748051524162,-0.163934960961342,-0.0506787672638893
332,-0.0200912430882454,0.0182051435112953,-0.0837740749120712,-0.0639215186238289,-0.158340394496918,-0.0462357699871063
333,-0.0203791651874781,0.0171161219477654,-0.0815494805574417,-0.0629802793264389,-0.156402215361595,-0.0451200567185879
334,-0.0208560340106487,0.0174990724772215,-0.0827459841966629,-0.0643491446971893,-0.157169595360756,-0.0454897992312908
335,-0.0211956705898046,0.0194134116172791,-0.084494337439537,-0.0647153481841087,-0.157742291688919,-0.0437137596309185
336,-0.0216610170900822,0.0213854480534792,-0.0835036784410477,-0.0615804269909859,-0.155358403921127,-0.0379708483815193
337,-0.0225620623677969,0.0223475117236376,-0.0791032761335373,-0.055134791880846,-0.150172591209412,-0.0294144693762064
338,-0.0236751604825258,0.0222647488117218,-0.0730975493788719,-0.0480580069124699,-0.14394499361515,-0.0215060207992792
339,-0.0240908525884151,0.0210206545889378,-0.0671298578381538,-0.0438372306525707,-0.136809006333351,-0.0184333957731724
340,-0.0231858342885971,0.0185708776116371,-0.0614763721823692,-0.0432826280593872,-0.128021001815796,-0.0208136029541492
341,-0.0215712022036314,0.0161131732165813,-0.0564243979752064,-0.0436098873615265,-0.118938162922859,-0.0242450293153524
342,-0.0205735396593809,0.0148802325129509,-0.0537605695426464,-0.043141070753336,-0.112692788243294,-0.0252924971282482
343,-0.0204816274344921,0.01467489823699,-0.0550105199217796,-0.0432187728583813,-0.110578946769238,-0.0250466521829367
344,-0.020396750420332,0.0148490136489272,-0.0590357817709446,-0.0446659959852695,-0.111012890934944,-0.0251472108066082
345,-0.0197813827544451,0.0152907771989703,-0.0623575486242771,-0.0456845983862877,-0.111016601324081,-0.0245398078113794
346,-0.0189294498413801,0.0155179491266608,-0.0615177750587463,-0.0437679477035999,-0.107514724135399,-0.0212769489735365
347,-0.0178557224571705,0.0146352350711823,-0.0554254874587059,-0.0383413508534431,-0.0991548523306847,-0.0155876846984029
348,-0.016092935577035,0.0127461245283484,-0.045877680182457,-0.0308710560202599,-0.0874678492546082,-0.00957141816616058
349,-0.013963189907372,0.0105651076883078,-0.0363197177648544,-0.0235435739159584,-0.0760653540492058,-0.00478753261268139
350,-0.0122076012194157,0.00873774196952581,-0.0292794816195965,-0.0179521273821592,-0.0675456970930099,-0.00164220773149282
351,-0.0108384499326348,0.0077905859798193,-0.0251684356480837,-0.0148611189797521,-0.0617180727422237,-0.00026034060283564
352,-0.00956574827432632,0.00781749188899994,-0.0240582749247551,-0.0146932657808065,-0.0583019256591797,-0.000657810538541526
353,-0.00859659165143967,0.00835468433797359,-0.026269756257534,-0.0172075647860765,-0.0578565634787083,-0.00247358996421099
354,-0.00828855577856302,0.00871200952678919,-0.0301770139485598,-0.0206321347504854,-0.0589444935321808,-0.004467171151191
355,-0.00821839179843664,0.00838460959494114,-0.0321633033454418,-0.0221937838941813,-0.0581373311579227,-0.00513188727200031
356,-0.00741498684510589,0.00730984564870596,-0.0301431827247143,-0.0207357835024595,-0.0533281452953815,-0.00437341025099158
357,-0.00578488875180483,0.00594139331951737,-0.0255721397697926,-0.0176984071731567,-0.0458758398890495,-0.0031746244058013
358,-0.00424727331846952,0.00495481863617897,-0.0208408869802952,-0.0145637765526772,-0.0387806482613087,-0.0018302978714928
359,-0.00360541488043964,0.00453213835135102,-0.0169526226818562,-0.011656173504889,-0.0337237678468227,0.000115259390440769
360,-0.00404489459469914,0.0039498177357018,-0.014605525881052,-0.0096846166998148,-0.0307838004082441,0.0022410387173295
361,-0.00496771465986967,0.00289036985486746,-0.0141600323840976,-0.00912350602447987,-0.0291309040039778,0.00375017430633307
362,-0.00537106255069375,0.00209353119134903,-0.0145531594753265,-0.00909049063920975,-0.0274641253054142,0.00474406266584992
363,-0.0049471971578896,0.00200962484814227,-0.0145945893600583,-0.00899367686361074,-0.0250893533229828,0.00507751246914268
364,-0.00411074422299862,0.00239037862047553,-0.0140190906822681,-0.00891882460564375,-0.022341275587678,0.0044009555131197
365,-0.00305316224694252,0.00315270712599158,-0.0127748157829046,-0.00817128457129002,-0.0197115838527679,0.00390787469223142
366,-0.00190248724538833,0.00415030401200056,-0.0108862314373255,-0.00590967852622271,-0.0174611136317253,0.00533511117100716
367,-0.00106200890149921,0.0047183851711452,-0.00829552207142115,-0.00235237134620547,-0.0152785088866949,0.00877760630100966
368,-0.000751534476876259,0.00423860969021916,-0.00505766505375504,0.00130397104658186,-0.0123700276017189,0.012700317427516
369,-0.000665676081553102,0.002747543156147,-0.00146952678915113,0.00399308325722814,-0.00829398445785046,0.0154049107804894
370,-0.000256369210546836,0.000885177636519074,0.00204628030769527,0.00554972141981125,-0.00340684084221721,0.0160029027611017
371,0.000537394837010652,-0.000766070850659162,0.00444980571046472,0.00597373954951763,0.00111138704232872,0.0145442429929972
372,0.00142243748996407,-0.00182522204704583,0.00505162961781025,0.00565924355760217,0.00428180862218142,0.0122005986049771
373,0.00202788109891117,-0.00235463096760213,0.00449911551550031,0.005515166092664,0.00619584461674094,0.0105260023847222
374,0.00215222663246095,-0.00271707493811846,0.00446188682690263,0.00620290311053395,0.007689009886235,0.0107315685600042
375,0.00234044529497623,-0.00258970563299954,0.00607062410563231,0.00794312357902527,0.00958255026489496,0.0132798738777637
376,0.00299987033940852,-0.00173208070918918,0.00852891709655523,0.0100942067801952,0.0118650244548917,0.0166850034147501
377,0.00373110268265009,-0.000960344972554594,0.0106763709336519,0.0117319077253342,0.0141922701150179,0.0186389312148094
378,0.00432553980499506,-0.000947737891692668,0.012750974856317,0.0129271531477571,0.01707105897367,0.0186668988317251
379,0.00522836251184344,-0.00135544803924859,0.0155498692765832,0.0143117383122444,0.0211623627692461,0.0179634094238281
380,0.00666423328220844,-0.00154463190119714,0.0186491254717112,0.0158665925264359,0.0257861521095037,0.0173793975263834
381,0.00801894720643759,-0.00138282484840602,0.0207722317427397,0.0173099990934134,0.0293717104941607,0.0171806775033474
382,0.00868419092148542,-0.0010314139071852,0.0216739904135466,0.0189512558281422,0.031186955049634,0.0180620327591896
383,0.00877075083553791,-0.000532975303940475,0.0221968218684196,0.0210140254348516,0.0318959914147854,0.0202062912285328
384,0.00866515096276999,6.81234159856103E-05,0.0232080798596144,0.0233298577368259,0.032796137034893,0.022825613617897
385,0.00845322851091623,0.000530448916833848,0.0247272308915854,0.025523666292429,0.0344041250646114,0.0253063719719648
386,0.00804809760302305,0.000619475729763508,0.0260386560112238,0.0268583409488201,0.036183413118124,0.0270703937858343
387,0.00737807294353843,0.000350360263837501,0.0267048254609108,0.0267580561339855,0.0375655442476273,0.0272723883390427
388,0.00629474781453609,-0.00022286239254754,0.0264813248068094,0.0253852810710669,0.0380892157554626,0.0258681289851666
389,0.00491382787004113,-0.000917053781449795,0.0251310057938099,0.0235472526401281,0.0375042371451855,0.0242447108030319
390,0.00335327303037047,-0.00183343654498458,0.022998508065939,0.0219202097505331,0.0360962748527527,0.023329759016633
391,0.00197351747192442,-0.00318479933775961,0.0211947169154882,0.0208807419985533,0.0349613204598427,0.0227202847599983
392,0.00167788635008037,-0.0046024820767343,0.0206567849963903,0.0204940959811211,0.0354241356253624,0.0218793898820877
393,0.00264470744878054,-0.00582627579569817,0.0214295294135809,0.0204842705279589,0.0376725941896439,0.02057178132236
394,0.00419854186475277,-0.00675229914486408,0.0231149680912495,0.0210041906684637,0.0407701209187508,0.0193703975528479
395,0.00568264070898294,-0.00731981359422207,0.0248268786817789,0.0219323057681322,0.043261181563139,0.0189989432692528
396,0.00697993114590645,-0.00757535034790635,0.0257705319672823,0.0223611071705818,0.044359989464283,0.0190754644572735
397,0.00807341560721397,-0.00746827851980925,0.0258410889655352,0.0217435620725155,0.0444357395172119,0.0188201181590557
398,0.00841500703245401,-0.0072452942840755,0.025215782225132,0.02069759555161,0.0438959412276745,0.0184449385851622
399,0.00787509232759476,-0.00727575225755572,0.0245692059397697,0.0206355843693018,0.0432301945984364,0.0189974009990692
400,0.00705404672771692,-0.00783042330294847,0.024365209043026,0.021766260266304,0.0430905558168888,0.0203444864600897
401,0.00628681341186166,-0.00915367808192968,0.0243920497596264,0.0227753091603518,0.0437612645328045,0.0210281629115343
402,0.00580203253775835,-0.0109010888263583,0.0248078498989344,0.0231225043535233,0.045259140431881,0.020673843100667
403,0.00603840872645378,-0.0121068526059389,0.0259199980646372,0.023393927142024,0.047298863530159,0.0201279856264591
404,0.00679911393672228,-0.0123292645439506,0.0271839220076799,0.023597102612257,0.0491586402058601,0.0195800419896841
405,0.00748041970655322,-0.0118039641529322,0.0277489647269249,0.0233457759022713,0.0501740165054798,0.0188228767365217
406,0.00791559275239706,-0.0107279494404793,0.0276266448199749,0.0228447243571281,0.0504476204514503,0.0183929074555635
407,0.00791274011135101,-0.00946869514882565,0.0272876713424921,0.0223728809505701,0.0501599945127964,0.0188946556299925
408,0.00710708508267999,-0.00855434685945511,0.0269988030195236,0.0222565811127424,0.0491828098893166,0.0202724561095238
409,0.00593790551647544,-0.00818848237395287,0.0271859299391508,0.0228662304580212,0.0482873283326626,0.022178003564477
410,0.00522754807025194,-0.00825641397386789,0.0279401950538158,0.0236957985907793,0.0483835376799107,0.0239200461655855
411,0.00513280276209116,-0.00863653514534235,0.0286647938191891,0.0238501355051994,0.0493745021522045,0.0243636500090361
412,0.00545739242807031,-0.0092503447085619,0.0289898794144392,0.0233549103140831,0.0507947579026222,0.0232504829764366
413,0.00570853799581528,-0.00981504842638969,0.0287558455020189,0.0227916315197945,0.0516632609069347,0.0216084532439709
414,0.00520146731287241,-0.0100833009928465,0.0276746172457933,0.0224498230963945,0.0509257763624191,0.0203940030187368
415,0.00396172516047955,-0.0100041516125202,0.02590012550354,0.022381279617548,0.0489524006843567,0.0199954491108656
416,0.00265400251373649,-0.00962601881474257,0.0239511709660292,0.0222965087741613,0.0469297058880329,0.0200361497700214
417,0.0014528373721987,-0.00949058122932911,0.0220453683286905,0.0216060243546963,0.0453702919185162,0.0194436032325029
418,0.000448282196884975,-0.00997757352888584,0.0204043406993151,0.0202110521495342,0.0445189215242863,0.0178301613777876
419,0.000143109762575477,-0.0106805982068181,0.0193297117948532,0.0183932036161423,0.0445001348853111,0.0158703625202179
420,0.000816353713162243,-0.0110808415338397,0.0190349146723747,0.0166076850146055,0.0453139021992683,0.0142949428409338
421,0.00230745668523014,-0.0109921079128981,0.0197840146720409,0.0155449463054538,0.0470478646457195,0.0131462253630161
422,0.00381121248938143,-0.0107271960005164,0.0209626723080873,0.0150801120325923,0.048772070556879,0.0118918884545565
423,0.00464579090476036,-0.0105077568441629,0.021643279120326,0.0147436372935772,0.0494210235774517,0.010679611004889
424,0.00482314638793468,-0.010156599804759,0.0218752771615982,0.0145790483802557,0.0490902848541737,0.0102640744298697
425,0.00453037116676569,-0.0097987437620759,0.0221261419355869,0.0146996416151524,0.0484766215085983,0.0109454579651356
426,0.00397248892113566,-0.00974514987319708,0.0228182580322027,0.0152883492410183,0.0484445355832577,0.0125193176791072
427,0.00336976954713464,-0.0100318649783731,0.0238646529614925,0.0162817295640707,0.0491801612079144,0.0141530940309167
428,0.00294238259084523,-0.0104878498241305,0.0246087294071913,0.0171112101525068,0.0501646474003792,0.0148293552920222
429,0.00298983440734446,-0.0106986928731203,0.0249390304088593,0.0172856468707323,0.0511502847075462,0.0142579572275281
430,0.0035772284027189,-0.0103490892797709,0.0252209343016148,0.0169799104332924,0.0520959720015526,0.0128802508115768
431,0.00410317536443472,-0.00970309786498547,0.0251630749553442,0.01663520000875,0.0527468360960484,0.0116200726479292
432,0.004159533418715,-0.0092051150277257,0.0243758000433445,0.0164225846529007,0.0528639443218708,0.0112615982070565
433,0.00420869560912251,-0.00923373829573393,0.0233171861618757,0.0164565350860357,0.0527341552078724,0.0114509779959917
434,0.00485589494928718,-0.0100098978728056,0.0228863507509232,0.016672445461154,0.0531124584376812,0.0111592495813966
435,0.00607461109757423,-0.0112871518358588,0.0236017741262913,0.0167735125869513,0.0542415678501129,0.00990161672234535
436,0.00711108511313796,-0.0126814944669604,0.0245526526123285,0.0163013357669115,0.0552489645779133,0.00784444808959961
437,0.00757664861157537,-0.0136898746713996,0.0241425279527903,0.0149793261662126,0.0548900477588177,0.00580081110820174
438,0.00781808886677027,-0.0138122215867043,0.0224065650254488,0.0135606778785586,0.0530693642795086,0.00517563754692674
439,0.00802227668464184,-0.0129955438897014,0.0208644531667233,0.0130552081391215,0.051215797662735,0.00657437741756439
440,0.00824489630758762,-0.0116955656558275,0.0206016786396503,0.0134931551292539,0.050511933863163,0.00880000926554203
441,0.00844369828701019,-0.0108558470383286,0.0212891679257154,0.0143268508836627,0.0505768917500973,0.00998291932046413
442,0.00827788840979338,-0.01103435177356,0.0218733567744493,0.0149732157588005,0.0504900701344013,0.00933793466538191
443,0.00778425903990865,-0.012000466696918,0.0219063218683004,0.0149158937856555,0.0501230284571648,0.00734001956880093
444,0.00760219292715192,-0.0132858920842409,0.0217278208583593,0.0140907531604171,0.0499050803482533,0.00489428360015154
445,0.00788688287138939,-0.0143599445000291,0.0214976072311401,0.0129033960402012,0.0496600531041622,0.00276479450985789
446,0.00787874311208725,-0.0148343117907643,0.0205518137663603,0.0116021409630775,0.0484416224062443,0.00128339184448123
447,0.00703120371326804,-0.0146221788600087,0.0183084271848202,0.0103593105450273,0.0457262061536312,0.000733915891032666
448,0.00580263789743185,-0.0138042001053691,0.0152898440137506,0.00973351672291756,0.0423346310853958,0.00140767672564834
449,0.00472736265510321,-0.0130718136206269,0.0124722644686699,0.00961712747812271,0.0396793223917484,0.00254355720244348
450,0.00394729617983103,-0.0131197897717357,0.0109820375218987,0.00944248028099537,0.0388947278261185,0.00313239987008274
451,0.00367104099132121,-0.013360227458179,0.0116280522197485,0.00965571124106646,0.0402597486972809,0.00350869982503355
452,0.00394696183502674,-0.0127370376139879,0.0135324457660317,0.0106477094814181,0.0423233322799206,0.00443471316248178
453,0.00446940818801522,-0.0111694568768144,0.0150342211127281,0.0118385916575789,0.043151643127203,0.00586524605751038
454,0.00474322400987148,-0.00957303680479527,0.0154429329559207,0.0127021372318268,0.0423261187970638,0.00726439664140344
455,0.00472876941785216,-0.00852279830724001,0.0152717176824808,0.0135018136352301,0.041101235896349,0.0084768682718277
456,0.00448295986279845,-0.00802616309374571,0.0149345230311155,0.0143228517845273,0.0405801646411419,0.00924196559935808
457,0.00363437458872795,-0.00822440814226866,0.0141341257840395,0.0145491575822234,0.0405134409666061,0.00895712152123451
458,0.00234507373534143,-0.00901639554649591,0.0129540655761957,0.0139535339549184,0.0403124839067459,0.00753999035805464
459,0.00144228362478316,-0.00974832940846682,0.0121073201298714,0.0129943126812577,0.0399301797151566,0.00559743493795395
460,0.00134778418578207,-0.00977721717208624,0.0121367042884231,0.0123144090175629,0.0399084463715553,0.00406733714044094
461,0.0016142608365044,-0.00926996394991875,0.0128503479063511,0.0120562799274921,0.040387962013483,0.00338630098849535
462,0.00168404541909695,-0.00921034254133701,0.0137472990900278,0.0115792118012905,0.040734738111496,0.00300804479047656
463,0.00178054429125041,-0.010073896497488,0.0147085655480623,0.0106924148276448,0.0409316346049309,0.00234841974452138
464,0.00251344265416265,-0.0109086912125349,0.0156960487365723,0.0100304065272212,0.0413513220846653,0.00159008242189884
465,0.00368822319433093,-0.0105835245922208,0.0159104149788618,0.00958305224776268,0.0412312224507332,0.000948162050917745
466,0.00471663428470492,-0.00875524710863829,0.0151039958000183,0.00938185583800077,0.0400381088256836,0.000994329922832549
467,0.00567056518048048,-0.00600184546783566,0.014739410020411,0.0102861514315009,0.0390225052833557,0.00241616019047797
468,0.00644376780837774,-0.00399945862591267,0.0152878705412149,0.011678259819746,0.0389237590134144,0.00390338781289756
469,0.00632628425955772,-0.00415414199233055,0.0152300000190735,0.0112793296575546,0.0388080701231956,0.00325591233558953
470,0.00520443264394999,-0.00603018281981349,0.0136595405638218,0.00834297481924295,0.0380839183926582,0.000395644397940487
471,0.00383333885110915,-0.00772608537226915,0.0114447697997093,0.00508160749450326,0.0370854251086712,-0.00222253822721541
472,0.00311215640977025,-0.00801324658095837,0.0099719176068902,0.00403708266094327,0.0362820997834206,-0.00241399835795164
473,0.00333722657524049,-0.00729497754946351,0.00972678419202566,0.00517127383500338,0.0359480418264866,-0.000526709656696767
474,0.00409478414803743,-0.006185551173985,0.0101861376315355,0.00689363619312644,0.0358148775994778,0.0019902007188648
475,0.00485894689336419,-0.00507499184459448,0.0106894196942449,0.00841557420790195,0.0352985411882401,0.0042144781909883
476,0.00533714238554239,-0.00431351643055677,0.0112439077347517,0.00980406533926725,0.0344139076769352,0.00567541597411036
477,0.00560717890039086,-0.00364584987983108,0.0120211290195584,0.0109712108969688,0.0336325764656067,0.00634496565908194
478,0.00581758981570601,-0.00264086900278926,0.0127514628693461,0.011937509290874,0.0330739170312881,0.00669570313766599
479,0.00579826068133116,-0.00138276303187013,0.013043936342001,0.0130520649254322,0.032175462692976,0.00726627511903644
480,0.00523792253807187,-0.000350464280927554,0.0125658167526126,0.0139564257115126,0.0302422475069761,0.00795833300799131
481,0.0042529902420938,0.000329814065480605,0.0113361608237028,0.0139475353062153,0.0275633800774813,0.00833362340927124
482,0.00317636271938682,0.00106958218384534,0.00966049544513226,0.0129980528727174,0.0249118935316801,0.0085373418405652
483,0.00200861343182623,0.00205077906139195,0.00784135051071644,0.0114563880488276,0.0225923340767622,0.00875768065452576
484,0.000772934989072382,0.00310076377354562,0.00617805821821094,0.00979794841259718,0.0207618121057749,0.00868573784828186
485,-0.000233541024499573,0.00397234782576561,0.00510468892753124,0.00881832931190729,0.019826440140605,0.00819783564656973
486,-0.00076344539411366,0.004291329998523,0.00483792554587126,0.00884833838790655,0.0197435542941093,0.00736715318635106
487,-0.000828290882054716,0.00393172539770603,0.00465746223926544,0.00884238258004189,0.0195349361747503,0.00591489346697927
488,-0.00036192117840983,0.00363408867269754,0.00400191266089678,0.00813720095902681,0.0187046546489,0.00401906576007605
489,0.000811375270131975,0.00442382972687483,0.0035993738565594,0.00774651113897562,0.0180063266307116,0.00286483648233116
490,0.00254843034781516,0.00610251538455486,0.00429019751027226,0.00823558215051889,0.0184930916875601,0.00264593702740967
491,0.00430335849523544,0.00722976541146636,0.00581190222874284,0.0087936595082283,0.0202245507389307,0.0022308484185487
492,0.00538729364052415,0.00721913715824485,0.00682027079164982,0.00873004086315632,0.0216405279934406,0.00162712298333645
493,0.00550471339374781,0.00692483223974705,0.00609246222302318,0.00805092044174671,0.0210837591439486,0.00170228153001517
494,0.00503452820703387,0.00686528859660029,0.00401671323925257,0.00714871939271688,0.0189142450690269,0.00236312975175679
495,0.00434034178033471,0.00638390006497502,0.00178518192842603,0.00600917637348175,0.0166414808481932,0.00229890760965645
496,0.00372734642587602,0.00514723733067513,0.000347162160323933,0.00456926180049777,0.0152575252577662,0.000712442386429757
497,0.00361645477823913,0.00397986499592662,0.000218868124647997,0.0036196387372911,0.0148235214874148,-0.00128153851255775
498,0.00344330188818276,0.00321085285395384,0.000154870431288145,0.0030135284177959,0.0139060579240322,-0.00289004109799862
499,0.00252382690086961,0.00244622747413814,-0.00134811725001782,0.00162456149701029,0.0115326112136245,-0.00452032033354044
500,0.00141396874096245,0.00145714543759823,-0.00347622740082443,-0.000349896174157038,0.00918527878820896,-0.00615324126556516
501,0.000877723505254835,0.000169445862411521,-0.00449636019766331,-0.00184082647319883,0.00855472031980753,-0.00721991714090109
502,0.00111496832687408,-0.00107319850940257,-0.00395828578621149,-0.00253431312739849,0.00935208797454834,-0.00743701960891485
503,0.00180414575152099,-0.00168128579389304,-0.0030839336104691,-0.00291722058318555,0.0101287439465523,-0.00702511891722679
504,0.00255376612767577,-0.00128411152400076,-0.00289398129098117,-0.00297961011528969,0.0102180521935225,-0.00596183119341731
505,0.00313983042724431,-3.62650680472143E-05,-0.00289491354487836,-0.00219783466309309,0.00989025086164474,-0.00408147368580103
506,0.00337321637198329,0.0013780512381345,-0.00246676942333579,-0.000867755734361708,0.00958133861422539,-0.00177734217140824
507,0.0032660742290318,0.0022858006414026,-0.00170512893237174,5.3455114539247E-05,0.00997909624129534,-8.71245792950504E-05
508,0.00265836110338569,0.00234699645079672,-0.00141496432479471,-0.000185221477295272,0.0106191290542483,-8.09324264992028E-05
509,0.0015186199452728,0.0017574104713276,-0.00249059009365737,-0.00167347211390734,0.00981490965932608,-0.00187773362267762
510,0.000483315932797268,0.00114742736332119,-0.00445961020886898,-0.00353240640833974,0.00739802001044154,-0.00446497881785035
511,-0.000146507562021725,0.000850389711558819,-0.00614646077156067,-0.00462447851896286,0.00473037408664823,-0.0063934032805264
512,-0.000622246181592345,0.000621341110672802,-0.00725231552496552,-0.00478815613314509,0.00279210810549557,-0.00714264204725623
513,-0.00110511481761932,0.000107795916846953,-0.00818776991218328,-0.00477186543866992,0.00140279636252671,-0.0074986107647419
514,-0.00155190529767424,-0.000751935469452292,-0.00912551674991846,-0.00522863632068038,4.41993943240959E-05,-0.00832120049744844
515,-0.00168111769016832,-0.0017653884133324,-0.00994335487484932,-0.00630536675453186,-0.00122544332407415,-0.0098816491663456
516,-0.00136900879442692,-0.00262875133194029,-0.0107028586789966,-0.00769693125039339,-0.00236738356761634,-0.0117860874161124
517,-0.000886851048562676,-0.00309836841188371,-0.0113489693030715,-0.00877367984503508,-0.00352640822529793,-0.0133687816560268
518,-0.000587207032367587,-0.00337683875113726,-0.0115983132272959,-0.0093073807656765,-0.00472075026482344,-0.0148077281191945
519,-0.000568042101804167,-0.00356982229277492,-0.0113924788311124,-0.00956957321614027,-0.00603116117417812,-0.0163525603711605
520,-0.000755328277591616,-0.00340128713287413,-0.0116069735959172,-0.00989614054560661,-0.0079672671854496,-0.0173764526844025
521,-0.00126198749057949,-0.00311962375417352,-0.0133610237389803,-0.010660937987268,-0.0109683303162456,-0.017763240262866
522,-0.00202348129823804,-0.00291803455911577,-0.0158380307257175,-0.011396387591958,-0.0143395820632577,-0.0178164858371019
523,-0.00274555897340178,-0.00239956472069025,-0.0172092709690332,-0.0110907917842269,-0.01737105473876,-0.0173564851284027
524,-0.00338216801173985,-0.0013970093568787,-0.0174090377986431,-0.00999814085662365,-0.0201993733644485,-0.0162586960941553
525,-0.00382861797697842,-5.36002735316288E-05,-0.017453333362937,-0.00901745166629553,-0.0226140357553959,-0.0148196313530207
526,-0.00404316140338779,0.0012019929708913,-0.017129261046648,-0.0079625528305769,-0.0243476610630751,-0.0137046873569489
527,-0.00446468032896519,0.00154512363951653,-0.0159387793391943,-0.00641415361315012,-0.0254408270120621,-0.0138434991240501
528,-0.00542347319424152,0.000847811286803335,-0.0154499216005206,-0.00522936601191759,-0.0262494124472141,-0.01543044205755
529,-0.00642801402136683,0.00024726809351705,-0.017174931243062,-0.00520740589126945,-0.0273641776293516,-0.0168689675629139
530,-0.00664213020354509,0.000318856618832797,-0.0201056469231844,-0.0063238674774766,-0.0284418817609549,-0.0174795035272837
531,-0.00602413760498166,0.000310893374262378,-0.0230099037289619,-0.00861828587949276,-0.0290383864194155,-0.0185919068753719
532,-0.00525138853117824,-7.69940743339248E-05,-0.0258394200354815,-0.0112883318215609,-0.0301431957632303,-0.0198855344206095
533,-0.00501127913594246,-0.000356312346411869,-0.0287497546523809,-0.0131921516731381,-0.0332333706319332,-0.0200714096426964
534,-0.00557378027588129,-0.000151543586980551,-0.0316252186894417,-0.0141588160768151,-0.0386299379169941,-0.0194583609700203
535,-0.00673836376518011,0.000282794324448332,-0.0343329422175884,-0.0148192690685391,-0.0453028231859207,-0.0194768849760294
536,-0.00781765766441822,0.000327110348735005,-0.0366678722202778,-0.0160317365080118,-0.0513730309903622,-0.0216436721384525
537,-0.00827097520232201,0.000136976945213974,-0.0382216796278954,-0.0175970233976841,-0.0557748451828957,-0.0254868343472481
538,-0.00866075232625008,4.68357211502735E-05,-0.0391533970832825,-0.0189206916838884,-0.0593042857944965,-0.0289137177169323
539,-0.00938943773508072,0.000200317561393604,-0.0396800860762596,-0.0196769405156374,-0.0628029555082321,-0.0307399686425924
540,-0.0103411106392741,0.00093920377548784,-0.0402423366904259,-0.0200290028005838,-0.0669665634632111,-0.0314883217215538
541,-0.0116588827222586,0.00216931151226163,-0.0424887090921402,-0.0214224178344011,-0.0726969316601753,-0.0326643064618111
542,-0.0131435906514525,0.00377033744007349,-0.0467418543994427,-0.0238999016582966,-0.0792760848999023,-0.0344701148569584
543,-0.0141917271539569,0.00570739945396781,-0.0507265068590641,-0.0257423985749483,-0.0844736471772194,-0.0361205972731113
544,-0.0147402007132769,0.00739256851375103,-0.0532529093325138,-0.0271121133118868,-0.0875844582915306,-0.0375494249165058
545,-0.0154150323942304,0.00832398701459169,-0.0555510483682156,-0.0290899537503719,-0.0901857390999794,-0.0384916625916958
546,-0.0162859037518501,0.00866458471864462,-0.0583920925855637,-0.031164126470685,-0.0934257954359055,-0.0384970270097256
547,-0.0169509891420603,0.00846941117197275,-0.0610392317175865,-0.0322718285024166,-0.0967443361878395,-0.0381319187581539
548,-0.0173509437590837,0.00739198410883546,-0.0621804147958755,-0.0322315134108067,-0.0986936017870903,-0.0387924499809742
549,-0.0174268111586571,0.00546686397865415,-0.0613052435219288,-0.0320585854351521,-0.0987798720598221,-0.0413897596299648
550,-0.0166858490556479,0.00344913708977401,-0.0596338734030724,-0.033100601285696,-0.0981968343257904,-0.0458807311952114
551,-0.0147297913208604,0.00219392776489258,-0.0592435747385025,-0.0361770950257778,-0.0982066616415977,-0.0520985350012779
552,-0.0122436238452792,0.00190379132982343,-0.0616279281675816,-0.0412387140095234,-0.0996453464031219,-0.0592528358101845
553,-0.0104802614077926,0.00234263110905886,-0.0662882998585701,-0.046532467007637,-0.102937109768391,-0.0650109425187111
554,-0.0100107276812196,0.00301402248442173,-0.070845440030098,-0.0497986637055874,-0.106966383755207,-0.0678113475441933
555,-0.0104326494038105,0.0032558657694608,-0.0735406652092934,-0.051130685955286,-0.109922163188457,-0.0690432190895081
556,-0.0109462980180979,0.00281864008866251,-0.0747313424944878,-0.0526950433850288,-0.111342772841454,-0.0710374265909195
557,-0.0111700817942619,0.00195968500338495,-0.0757677927613258,-0.0556923821568489,-0.112076111137867,-0.0743818730115891
558,-0.0111481640487909,0.00143784924875945,-0.0771761909127235,-0.0588505044579506,-0.112914018332958,-0.0774339735507965
559,-0.0110134640708566,0.00186577055137604,-0.0782294273376465,-0.0600755177438259,-0.113644018769264,-0.078029491007328
560,-0.0110171074047685,0.00268386886455119,-0.0785953477025032,-0.0594589374959469,-0.113718532025814,-0.0763311684131622
561,-0.0111390110105276,0.00299078435637057,-0.0791903659701347,-0.0592831373214722,-0.113350376486778,-0.0747990235686302
562,-0.0109070679172874,0.00276408204808831,-0.0803862437605858,-0.060897458344698,-0.112798757851124,-0.0750708654522896
563,-0.0101448120549321,0.00228368188254535,-0.0811652466654778,-0.0634370893239975,-0.111762136220932,-0.0768632739782333
564,-0.00962529797106981,0.00126948242541403,-0.0811467468738556,-0.0655356198549271,-0.110693581402302,-0.0791842415928841
565,-0.0101266372948885,-0.000160058174515143,-0.0812877863645554,-0.0665738210082054,-0.110743500292301,-0.0806772485375404
566,-0.0110418098047376,-0.000883819186128676,-0.0822551101446152,-0.0667003989219666,-0.11182889342308,-0.080581858754158
567,-0.0113002797588706,-0.000539665343239903,-0.0838154032826424,-0.066605344414711,-0.112702138721943,-0.0798397958278656
568,-0.0108184004202485,2.1234483938315E-05,-0.0851751714944839,-0.0667122378945351,-0.112435437738895,-0.0796270295977592
569,-0.00972495321184397,0.000409561296692118,-0.0851380825042725,-0.066746674478054,-0.110419049859047,-0.0800626426935196
570,-0.00807637348771095,0.000510662968736142,-0.0830278843641281,-0.0664294436573982,-0.106308810412884,-0.0810683891177177
571,-0.0066508655436337,-8.71314405230805E-05,-0.0798073261976242,-0.0659084916114807,-0.101061716675758,-0.0824026837944984
572,-0.006050746422261,-0.000985491671599448,-0.0772539973258972,-0.0651079714298248,-0.096533015370369,-0.0826994255185127
573,-0.00625952007248998,-0.00153184810187668,-0.0763136595487595,-0.0638486444950104,-0.0938355401158333,-0.0807548761367798
574,-0.00688015576452017,-0.00181853631511331,-0.0761416852474213,-0.0623552575707436,-0.092150017619133,-0.0771998912096024
575,-0.00702188117429614,-0.00225925305858254,-0.0747369155287743,-0.0608272440731525,-0.0891976952552795,-0.0737053826451302
576,-0.00632499856874347,-0.00342610571533442,-0.0713486596941948,-0.0595251731574535,-0.0838360413908958,-0.0716021507978439
577,-0.00529567105695605,-0.00547736370936036,-0.0672563761472702,-0.0589758791029453,-0.0772540718317032,-0.071191318333149
578,-0.0044612493366003,-0.00765322148799896,-0.0639863014221191,-0.0589861534535885,-0.0712956860661507,-0.0713742151856422
579,-0.00415954319760203,-0.00919313915073872,-0.0620715320110321,-0.0585940331220627,-0.0668693855404854,-0.0704374462366104
580,-0.00455506797879934,-0.0100779971107841,-0.0611330233514309,-0.0572943203151226,-0.0637301728129387,-0.0676315650343895
581,-0.00543566141277552,-0.0105095747858286,-0.0605991929769516,-0.055448230355978,-0.0612441077828407,-0.0638642683625221
582,-0.00628969352692366,-0.0102900136262178,-0.060053925961256,-0.0534826591610909,-0.0589232742786407,-0.0604306161403656
583,-0.00650159874930978,-0.00926311872899532,-0.0584674850106239,-0.0511524118483067,-0.0555194467306137,-0.0576361641287804
584,-0.00585196819156408,-0.00803393591195345,-0.0547533109784126,-0.0480257272720337,-0.0497045293450356,-0.0549580939114094
585,-0.00484825018793345,-0.00716434838250279,-0.0492888912558556,-0.0440259873867035,-0.0424048602581024,-0.0517045855522156
586,-0.00398674653843045,-0.00654874695464969,-0.0437053889036179,-0.0398680940270424,-0.0358763560652733,-0.0481694526970387
587,-0.00318896514363587,-0.00616262713447213,-0.039303794503212,-0.03672906011343,-0.030814103782177,-0.0455017052590847
588,-0.00218551070429385,-0.00617821561172605,-0.0360356755554676,-0.034801609814167,-0.0262686852365732,-0.0439674369990826
589,-0.0011615352705121,-0.00662534544244409,-0.0331340841948986,-0.0330761857330799,-0.0216020308434963,-0.0425144955515862
590,-0.000599816674366593,-0.00736255710944533,-0.030280489474535,-0.030791275203228,-0.0170600581914186,-0.0403589978814125
591,-0.000456003966974095,-0.00789923407137394,-0.0279384404420853,-0.028242465108633,-0.0132857821881771,-0.0376788899302483
592,-0.000315038894768804,-0.0077527011744678,-0.0265612676739693,-0.0260977298021317,-0.0107650170102715,-0.0346457064151764
593,-8.2143182225991E-05,-0.00720317661762238,-0.0256008561700583,-0.0246545467525721,-0.00892497040331364,-0.0315170511603355
594,0.000218207555008121,-0.00683869607746601,-0.0238943360745907,-0.0234761256724596,-0.00665213959291577,-0.0286110825836658
595,0.000627501867711544,-0.0066793174482882,-0.0211088545620441,-0.0218812357634306,-0.00385440536774695,-0.0256792120635509
596,0.00132563500665128,-0.00653281062841415,-0.0177251566201448,-0.0200677048414946,-0.000917458964977413,-0.0229731518775225
597,0.00197825464420021,-0.00670517096295953,-0.0148646263405681,-0.0190878789871931,0.00127990101464093,-0.0216333288699389
598,0.00187085883226246,-0.00722367875277996,-0.0135427108034492,-0.0190217830240726,0.00184788333717734,-0.0213314965367317
599,0.00127371493726969,-0.00760401366278529,-0.0130000123754144,-0.0187156815081835,0.00209522270597517,-0.0204466097056866
600,0.000451357627753168,-0.00779551360756159,-0.0122136566787958,-0.0176176559180021,0.00338137056678534,-0.0186840780079365
601,-0.000548565411008894,-0.00757489306852221,-0.0111021474003792,-0.0155787793919444,0.00520114693790674,-0.0162406507879496
602,-0.00100594409741461,-0.00662153447046876,-0.00950602348893881,-0.0127494595944881,0.00715829199180007,-0.0131954988464713
603,-0.000650309317279607,-0.00553116761147976,-0.00712841330096126,-0.00993446074426174,0.00940985139459372,-0.0102645801380277
604,-0.000158761569764465,-0.00506494520232081,-0.00400100462138653,-0.00748987961560488,0.0117811039090157,-0.00758647033944726
605,0.000199359230464324,-0.00509541528299451,-0.000486520119011402,-0.00520548364147544,0.0142493210732937,-0.0048158778809011
606,0.000581881438847631,-0.0053607732988894,0.00274182599969208,-0.00344486185349524,0.0167512912303209,-0.00266918749548495
607,0.000656911637634039,-0.00624561123549938,0.00485533569008112,-0.00300152855925262,0.0186731815338135,-0.00219272682443261
608,0.000304752320516855,-0.00770607404410839,0.00559195410460234,-0.00367713836021721,0.0198463071137667,-0.00312711531296372
609,-4.93434199597687E-05,-0.00852790847420692,0.00550023093819618,-0.00441368063911796,0.0205907989293337,-0.0040358230471611
610,-7.97387328930199E-05,-0.00794294755905867,0.00538140302523971,-0.00449177529662848,0.0213371571153402,-0.00383450509980321
611,0.000239703193074092,-0.00674145435914397,0.00574833061546087,-0.00378200318664312,0.0225683394819498,-0.00249352026730776
612,0.000817583757452667,-0.00572677049785852,0.00660012383013964,-0.00247198296710849,0.0242531578987837,-0.000251877267146483
613,0.00162962160538882,-0.00490130763500929,0.00773723144084215,-0.000941454956773669,0.0262251887470484,0.00250317552126944
614,0.00274906400591135,-0.00391481630504131,0.00938656087964773,0.000818265310954303,0.0287983939051628,0.00568205304443836
615,0.00361050851643085,-0.00299579952843487,0.0111094675958157,0.00248437072150409,0.0312666147947311,0.00875493325293064
616,0.00324274646118283,-0.00327440910041332,0.0115657038986683,0.00279757985845208,0.0320547185838223,0.00994310062378645
617,0.00197524065151811,-0.00490803783759475,0.0109680546447635,0.00164335628505796,0.031543105840683,0.00891191512346268
618,0.00100401591043919,-0.00691171735525131,0.0107258390635252,0.000271482160314918,0.0313086211681366,0.0072246971540153
619,0.000544808688573539,-0.00868087261915207,0.0110907005146146,-0.000332128198351711,0.0315381996333599,0.00637677125632763
620,0.000174137108842842,-0.00986772961914539,0.0115501722320914,0.000160110139404424,0.0315860658884048,0.00702473195269704
621,5.62443092348985E-05,-0.0101924408227205,0.0120399389415979,0.00136430445127189,0.031520664691925,0.00858244765549898
622,0.000585358822718263,-0.00975852832198143,0.0126336021348834,0.00237679597921669,0.031716488301754,0.00985851604491472
623,0.0014111150521785,-0.00906643457710743,0.0127237644046545,0.00202285591512918,0.0318104960024357,0.00995741970837116
624,0.00162769516464323,-0.00860127620398998,0.0114947520196438,-0.000115839648060501,0.0310154724866152,0.00893175043165684
625,0.00105253409128636,-0.008365198969841,0.00956395827233791,-0.00268921605311334,0.0294471085071564,0.00772194983437657
626,0.000263683905359358,-0.00820427481085062,0.00838348735123873,-0.00427275989204645,0.0281924139708281,0.00686993822455406
627,-0.000438410992501304,-0.00799119751900434,0.00848311651498079,-0.0045880856923759,0.027813071385026,0.00671953707933426
628,-0.00130547012668103,-0.00765997497364879,0.00951792486011982,-0.00381351611576974,0.0278079155832529,0.00773543165996671
629,-0.00248344358988106,-0.00752670597285032,0.0106360260397196,-0.00263303867541254,0.0276369471102953,0.00923693645745516
630,-0.00334434537217021,-0.00795002747327089,0.0111634014174342,-0.00210781232453883,0.0276634190231562,0.00988590531051159
631,-0.00318568362854421,-0.00867897737771273,0.0112803457304835,-0.00259411660954356,0.0284633096307516,0.00960361678153276
632,-0.00208317441865802,-0.00921927485615015,0.0117245875298977,-0.00323901744559407,0.0302194692194462,0.00945242121815681
633,-0.000596059020608664,-0.00958958640694618,0.0129792643710971,-0.00300794932991266,0.0328275561332703,0.0101640578359365
634,0.0010393348056823,-0.00991563685238361,0.0151733718812466,-0.00169463886413723,0.0362705998122692,0.0116506377235055
635,0.00261368742212653,-0.0103290379047394,0.0178622398525476,-1.27278224226757E-06,0.040185634046793,0.0131655335426331
636,0.00338694057427347,-0.0110194915905595,0.0193767957389355,0.00117187027353793,0.0427518449723721,0.0140731586143374
637,0.003036477137357,-0.0118340849876404,0.0188118610531092,0.00146106351166964,0.0429240353405476,0.0141297299414873
638,0.00234257616102695,-0.0125998267903924,0.017525490373373,0.000943497172556818,0.0421836748719215,0.0132734226062894
639,0.00216130912303925,-0.0131654068827629,0.0171127412468195,0.000238307053223252,0.0420741699635983,0.0123818535357714
640,0.00232562213204801,-0.0133761372417212,0.0177539028227329,0.000131912529468536,0.0425932630896568,0.0124518321827054
641,0.00266223726794124,-0.0130108846351504,0.0189652424305677,0.000986113911494613,0.0434691272675991,0.0135727915912867
642,0.00352183845825493,-0.0119260419160128,0.020372286438942,0.00258592166937888,0.0447437986731529,0.0154678868129849
643,0.00442422647029161,-0.0104528022930026,0.0212321691215038,0.00378179806284606,0.0455933474004269,0.0173269007354975
644,0.00489115482196212,-0.00875922292470932,0.0212833341211081,0.00377775658853352,0.0453139133751392,0.0183680430054665
645,0.00527437077835202,-0.00706135528162122,0.0213319044560194,0.00333676789887249,0.0446532145142555,0.0186960157006979
646,0.00544109148904681,-0.00615938985720277,0.0218053720891476,0.00351176201365888,0.0443614199757576,0.018836036324501
647,0.00503689330071211,-0.00662914104759693,0.0223703291267157,0.00435469439253211,0.0443966016173363,0.0190165899693966
648,0.00433556316420436,-0.00827599037438631,0.0226766373962164,0.00521453376859427,0.0445563718676567,0.0189746841788292
649,0.00380850792862475,-0.0103292670100927,0.0228268299251795,0.00576868467032909,0.0447925925254822,0.0186293981969357
650,0.00346455234102905,-0.012034653685987,0.0232056975364685,0.00628193933516741,0.0450720526278019,0.018556397408247
651,0.00337190949358046,-0.0129085732623935,0.0241582300513983,0.00719343032687902,0.0457676015794277,0.0194345712661743
652,0.00388094084337354,-0.0128698535263538,0.0255688074976206,0.00874052848666906,0.0471801869571209,0.0211164020001888
653,0.00468823779374361,-0.012362552806735,0.0267753377556801,0.0107208676636219,0.0487978868186474,0.0225396249443293
654,0.00511961057782173,-0.0117863053455949,0.0274072010070086,0.012605837546289,0.0502401515841484,0.0230536814779043
655,0.00506255030632019,-0.0113671384751797,0.0276725459843874,0.0139469550922513,0.0512640401721001,0.0228631589561701
656,0.00485008675605059,-0.0113649470731616,0.0279158726334572,0.0144787942990661,0.0514557622373104,0.0219400189816952
657,0.00473036849871278,-0.011563248001039,0.0283194687217474,0.0143952844664454,0.0510742552578449,0.0205276813358068
658,0.00466363457962871,-0.0115636959671974,0.0286616999655962,0.0140872495248914,0.0507294721901417,0.0193194262683392
659,0.00441999826580286,-0.0115372855216265,0.0286187641322613,0.0132804000750184,0.0506535246968269,0.018279055133462
660,0.0041728368960321,-0.0115118948742747,0.0285114087164402,0.0121043613180518,0.0509385019540787,0.0176029857248068
661,0.00430109957233071,-0.0110448217019439,0.0286854114383459,0.0112733617424965,0.0513964705169201,0.0177709367126226
662,0.00433435244485736,-0.0102431206032634,0.0286042261868715,0.01066221203655,0.0512596257030964,0.0183448251336813
663,0.0037462601903826,-0.00984510499984026,0.0280060097575188,0.0101836677640677,0.0502613000571728,0.0188683215528727
664,0.00317200063727796,-0.0100621692836285,0.0277825426310301,0.0104462150484324,0.0495045483112335,0.0193260814994574
665,0.00328938895836473,-0.0104025546461344,0.028291143476963,0.0113771250471473,0.0496151894330978,0.0194559060037136
666,0.00396839762106538,-0.0104052172973752,0.0287331994622946,0.0122844120487571,0.049898624420166,0.0189967583864927
667,0.00462372740730643,-0.010103321634233,0.0285592805594206,0.0129984049126506,0.0497150793671608,0.0183826237916946
668,0.00456601334735751,-0.00977673195302486,0.0278796162456274,0.0137276193127036,0.0488472990691662,0.0185134410858154
669,0.00358867202885449,-0.00947330705821514,0.0272360220551491,0.0146341472864151,0.0475196801126003,0.0197515934705734
670,0.00208637351170182,-0.00902941636741161,0.0270783696323633,0.015808267518878,0.0462810397148132,0.021386407315731
671,0.000604414497502148,-0.00835868716239929,0.0269330535084009,0.0166668724268675,0.0452510975301266,0.0221296362578869
672,-0.000267126451944932,-0.00744282361119986,0.026351211592555,0.0165273230522871,0.044552106410265,0.0215551052242517
673,-9.89383333944716E-05,-0.00624114135280252,0.0260211862623692,0.0161215309053659,0.0447836555540562,0.0207530315965414
674,0.000551579694729298,-0.00549059081822634,0.0260688811540604,0.0160339958965778,0.0455194562673569,0.0203097406774759
675,0.000878660765010864,-0.00603684922680259,0.0258028022944927,0.0158671159297228,0.0456774793565273,0.0198116470128298
676,0.00125095818657428,-0.00724248820915818,0.0256787370890379,0.0159702133387327,0.0454723313450813,0.0193706247955561
677,0.00226478697732091,-0.00803073775023222,0.0264699906110764,0.0167842898517847,0.0455506481230259,0.0192590206861496
678,0.00337062054313719,-0.00840163882821798,0.0274981744587421,0.0177399553358555,0.0454786978662014,0.0194596890360117
679,0.00384580460377038,-0.00884071923792362,0.0278850365430117,0.0182212367653847,0.0448298677802086,0.0199047829955816
680,0.00397444888949394,-0.00921123847365379,0.027982035651803,0.0183267779648304,0.0443699881434441,0.0206701904535294
681,0.00421233056113124,-0.00906782690435648,0.0283636730164289,0.018364941701293,0.044822596013546,0.0216636266559362
682,0.0044142659753561,-0.00852098315954208,0.0287502091377974,0.018134968355298,0.0455516837537289,0.0221458598971367
683,0.00436298921704292,-0.00788420625030994,0.0287313312292099,0.0173529274761677,0.0456278845667839,0.0216367430984974
684,0.00405823485925794,-0.00724839558824897,0.0285647660493851,0.0163779631257057,0.045174241065979,0.0207035150378942
685,0.00340840499848127,-0.0070253205485642,0.0284165255725384,0.0156287625432014,0.0446311980485916,0.019887413829565
686,0.00248564989306033,-0.00744415307417512,0.0282292012125254,0.015136725269258,0.0441463738679886,0.0191798415035009
687,0.00162303587421775,-0.0079173045232892,0.0279743317514658,0.0149076161906123,0.0435534454882145,0.0190299581736326
688,0.00101619842462242,-0.00809313729405403,0.0275545474141836,0.0149326054379344,0.0425670221447945,0.0197735838592052
689,0.000798234192188829,-0.00815236661583185,0.0273333340883255,0.0151561833918095,0.0416643060743809,0.0207201484590769
690,0.000974512891843915,-0.00798435416072607,0.0274869650602341,0.0153500745072961,0.0412481725215912,0.0211388878524303
691,0.00125767453573644,-0.00741268042474985,0.027287045493722,0.0151583291590214,0.040764044970274,0.0209459979087114
692,0.00138986541423947,-0.00660073012113571,0.026395047083497,0.0148346377536654,0.0398765206336975,0.0206240545958281
693,0.00161483325064182,-0.00564402295276523,0.0255606956779957,0.0150359058752656,0.0389463119208813,0.0207292716950178
694,0.00218178983777761,-0.00473126815631986,0.0250445306301117,0.0154104884713888,0.0381620302796364,0.0206385124474764
695,0.00285568018443882,-0.00434332340955734,0.0240292809903622,0.0146328862756491,0.0372860282659531,0.0188265759497881
696,0.00355946156196296,-0.00459860870614648,0.0223714802414179,0.0123103158548474,0.0364373400807381,0.0150715643540025
697,0.00421376246958971,-0.00507415411993861,0.0209978278726339,0.00975571293383837,0.0357972830533981,0.0113037368282676
698,0.00448498642072082,-0.00540934689342976,0.0204014964401722,0.00847732834517956,0.0349579118192196,0.00968485325574875
699,0.00409739324823022,-0.00575879821553826,0.0197645742446184,0.0083535173907876,0.0332161858677864,0.0100091742351651
700,0.00335348583757877,-0.00635598041117191,0.0183323994278908,0.00809713825583458,0.0306883044540882,0.0103208459913731
701,0.00302552781067789,-0.00706635043025017,0.0165410898625851,0.00714922090992332,0.0283899493515491,0.00948350317776203
702,0.003164665075019,-0.00751301180571318,0.0149122215807438,0.00624633068218827,0.0265969913452864,0.00826957076787949
703,0.00314234010875225,-0.00759884528815746,0.0138060785830021,0.00635236361995339,0.0250969249755144,0.00814421940594912
704,0.00268570007756352,-0.00778278755024076,0.0134982857853174,0.00725292693823576,0.0240356381982565,0.00893178395926952
705,0.00232088495977223,-0.00794746540486813,0.0135103948414326,0.00781388953328133,0.0234016478061676,0.00921451859176159
706,0.00251075974665582,-0.00732507603242993,0.0129144610837102,0.00740261422470212,0.0225884765386581,0.00851896405220032
707,0.0025935210287571,-0.00607502739876509,0.0114167714491487,0.00643738592043519,0.0208970885723829,0.00755683006718755
708,0.00177350058220327,-0.00504046445712447,0.00966889876872301,0.0058007687330246,0.0184055510908365,0.00721076456829906
709,0.000491146754939109,-0.00449917512014508,0.0084319831803441,0.0057490523904562,0.0159424245357513,0.00771639076992869
710,-0.000262930523604155,-0.00413471041247249,0.00802279356867075,0.00565180461853743,0.0144243780523539,0.00834280252456665
711,-0.000332705327309668,-0.00384899484924972,0.00819514784961939,0.00507387658581138,0.0136387618258595,0.00819308962672949
712,-0.000375235016690567,-0.00382622261531651,0.00820542685687542,0.00417530536651611,0.0122760962694883,0.00725412461906672
713,-0.000643193838186562,-0.00371940294280648,0.00752237066626549,0.0029756692238152,0.0100221782922745,0.00623825658112764
714,-0.000680245575495064,-0.00318317720666528,0.00643898267298937,0.00127140991389751,0.00813432224094868,0.00526283076032996
715,-7.99460831331089E-05,-0.00234297686256468,0.0056191491894424,-0.000683250837028027,0.00760701252147555,0.00391861377283931
716,0.00104931730311364,-0.00138727994635701,0.00521480711176991,-0.00218454981222749,0.00794912967830896,0.00238557578995824
717,0.00204144255258143,-0.000602466228883713,0.0047069420106709,-0.00280420971103013,0.00795444473624229,0.00116992159746587
718,0.00216680159792304,-0.000258740765275434,0.00335757713764906,-0.00280405255034566,0.0068216104991734,0.000414239097153768
719,0.00145246705505997,-0.000279114668956026,0.00126364163588732,-0.00240493332967162,0.00475343596190214,0.000208826459129341
720,0.000447035010438412,-0.000276631966698915,-0.00089015084085986,-0.00165660993661731,0.00223258091136813,0.000773016770835966
721,-0.000474828819278628,5.10833342559636E-05,-0.00299789314158261,-0.00134760187938809,-0.000708697421941906,0.00148166774306446
722,-0.00117666507139802,0.000767305959016085,-0.00485689705237746,-0.00182624964509159,-0.00372656108811498,0.00136466161347926
723,-0.00152148935012519,0.00167356338351965,-0.00578664289787412,-0.00231200619600713,-0.00615303125232458,0.000382417551008984
724,-0.00116497627459466,0.00235834950581193,-0.00553019577637315,-0.00264697335660458,-0.00723384786397219,-0.00130506639834493
725,-0.000375174306100234,0.00249850167892873,-0.00507151102647185,-0.00337747158482671,-0.0071060792542994,-0.00324020790867507
726,-0.000114387534267735,0.00239126058295369,-0.00607761181890965,-0.0047704097814858,-0.00770600419491529,-0.00406010588631034
727,-0.000397164141759276,0.00264086457900703,-0.00855004508048296,-0.00661459937691689,-0.0100308740511537,-0.00350960809737444
728,-0.000385166291380301,0.00332752126269042,-0.010779139585793,-0.00805851072072983,-0.0129554839804769,-0.00249852240085602
729,-0.000233548547839746,0.00396346906200051,-0.0122933005914092,-0.00887603871524334,-0.0159711726009846,-0.0016636629588902
730,-0.000629930524155498,0.00397056806832552,-0.0136673338711262,-0.0095299044623971,-0.0190185587853193,-0.00148317776620388
731,-0.001398662221618,0.00350517057813704,-0.0145085165277123,-0.00960257742553949,-0.0214884672313929,-0.00154015619773418
732,-0.00221281801350415,0.00324781355448067,-0.0144442236050963,-0.00847491342574358,-0.0234322138130665,-0.000982301076874137
733,-0.00270261475816369,0.00330394390039146,-0.0134448893368244,-0.00633394299075007,-0.0245216451585293,-1.49425504787359E-05
734,-0.00231698807328939,0.00315063144080341,-0.0112469429150224,-0.00412860931828618,-0.0240136776119471,6.95385460858233E-06
735,-0.00146755087189376,0.00254081375896931,-0.00893686432391405,-0.00320991431362927,-0.0233423840254545,-0.00236967881210148
736,-0.000896444253157824,0.0023323365021497,-0.00897260848432779,-0.00425304193049669,-0.0250837076455355,-0.0068939384073019
737,-0.000755925197154284,0.00329492706805468,-0.0128822736442089,-0.00739949522539973,-0.0302556697279215,-0.0120968902483583
738,-0.00122781470417976,0.00456702290102839,-0.0198178477585316,-0.0125547032803297,-0.0376109294593334,-0.0171001255512238
739,-0.00226149358786643,0.00528221344575286,-0.026706401258707,-0.0177605878561735,-0.0443596728146076,-0.0207757353782654
740,-0.00352627877146006,0.00563699239864945,-0.0313222222030163,-0.0208605397492647,-0.048998024314642,-0.0223969053477049
741,-0.00490747531875968,0.00577187957242131,-0.0346637815237045,-0.0225639790296555,-0.0525361075997353,-0.0235996879637241
742,-0.00603618379682302,0.00588536448776722,-0.0382765457034111,-0.0242854729294777,-0.0560993365943432,-0.0256064012646675
743,-0.00659196311607957,0.00626555597409606,-0.041804987937212,-0.0256321243941784,-0.0595446936786175,-0.0270041972398758
744,-0.00658872677013278,0.00678472360596061,-0.0439031161367893,-0.0259259697049856,-0.0617195628583431,-0.0270328894257545
745,-0.00593520142138004,0.00756336096674204,-0.0439394377171993,-0.0256991796195507,-0.0616962313652039,-0.0268326457589865
746,-0.00495087681338191,0.00889402441680431,-0.0429251082241535,-0.0257864575833082,-0.0605988949537277,-0.0270132329314947
747,-0.00407709460705519,0.0102839171886444,-0.0423469617962837,-0.0265397001057863,-0.0603292137384415,-0.0277801509946585
748,-0.00333135575056076,0.010989616625011,-0.042975228279829,-0.0279898084700108,-0.0613766387104988,-0.0292231217026711
749,-0.00304945232346654,0.0112095130607486,-0.0453580915927887,-0.0296199768781662,-0.0638678595423698,-0.0302673149853945
750,-0.00365704693831503,0.0118500608950853,-0.049776878207922,-0.03108817525208,-0.0683662444353104,-0.0303146541118622
751,-0.00473551452159882,0.0131402751430869,-0.0556222200393677,-0.033386368304491,-0.0742880254983902,-0.0308149494230747
752,-0.00520910555496812,0.0144123006612062,-0.0612205415964127,-0.0372213609516621,-0.0793086737394333,-0.0329453349113464
753,-0.00469393748790026,0.0150459967553616,-0.0649342611432076,-0.041569858789444,-0.0818573012948036,-0.0357757024466991
754,-0.00410156836733222,0.0146773550659418,-0.0667569488286972,-0.0453356541693211,-0.0828209966421127,-0.0383384637534618
755,-0.0037609797436744,0.0135969873517752,-0.0673946589231491,-0.0484618432819843,-0.0830395668745041,-0.0410644747316837
756,-0.00323238107375801,0.0126242032274604,-0.0675970613956451,-0.0512571036815643,-0.0828733518719673,-0.044380497187376
757,-0.00281633180566132,0.0121016353368759,-0.068389467895031,-0.0535843409597874,-0.0837866067886353,-0.0473664999008179
758,-0.00283104297704995,0.0118971914052963,-0.0700120702385902,-0.0550644360482693,-0.086449570953846,-0.0489006377756596
759,-0.00307363225147128,0.0118998782709241,-0.0718107968568802,-0.0557341650128365,-0.0895886421203613,-0.0490424260497093
760,-0.00328967138193548,0.0123260924592614,-0.0729815810918808,-0.0556744560599327,-0.091617725789547,-0.0482445992529392
761,-0.00355306547135115,0.0132816145196557,-0.0738042220473289,-0.0553576722741127,-0.0926003083586693,-0.0471197739243507
762,-0.00390699459239841,0.0145362075418234,-0.0749084129929543,-0.0553180836141109,-0.0934275686740875,-0.0461019985377789
763,-0.0039010641630739,0.0157794822007418,-0.0755041018128395,-0.054950188845396,-0.0936293676495552,-0.0450517646968365
764,-0.00329031865112484,0.0166403390467167,-0.0748506784439087,-0.0537915341556072,-0.0926883518695831,-0.0440926812589169
765,-0.00228790356777608,0.0169928763061762,-0.0731901898980141,-0.0522840321063995,-0.0912449210882187,-0.0434934571385384
766,-0.00128455471713096,0.0167997255921364,-0.0711509883403778,-0.0510874316096306,-0.0898718237876892,-0.0437126941978931
767,-0.000526649295352399,0.0161422733217478,-0.0695560500025749,-0.0506690070033073,-0.0887314826250076,-0.045054417103529
768,0.000150839652633294,0.0153699805960059,-0.0685048252344131,-0.0508248470723629,-0.0875292643904686,-0.0468858778476715
769,0.000857984006870538,0.0147459208965302,-0.0671344175934792,-0.0506532825529575,-0.0855917558073998,-0.0480603538453579
770,0.00108978617936373,0.0143915135413408,-0.0652056336402893,-0.0491622351109982,-0.0834352225065231,-0.0473382622003555
771,0.000214243031223305,0.0142870852723718,-0.0636529847979546,-0.0464818477630615,-0.0824359282851219,-0.0445084124803543
772,-0.001376235159114,0.0142216868698597,-0.0629514530301094,-0.043981421738863,-0.082243375480175,-0.0412253625690937
773,-0.00259015406481922,0.0139195332303643,-0.0625343695282936,-0.0427156016230583,-0.0811881795525551,-0.0393725447356701
774,-0.00291618914343417,0.0135991321876645,-0.061585009098053,-0.0421389080584049,-0.0786670744419098,-0.038749672472477
775,-0.00261112628504634,0.013814739882946,-0.0595477782189846,-0.0410010069608688,-0.0752637833356857,-0.0378707572817802
776,-0.00209792191162705,0.0144691113382578,-0.0569255650043488,-0.0394563712179661,-0.0717135295271873,-0.0365454666316509
777,-0.0018201875500381,0.0147954560816288,-0.0551873780786991,-0.0386747010052204,-0.0686310306191444,-0.035363707691431
778,-0.0020598815754056,0.0145931541919708,-0.0547331757843494,-0.0384076274931431,-0.0662596672773361,-0.0335848294198513
779,-0.00238677347078919,0.0143006322905421,-0.054047554731369,-0.0372601747512817,-0.0638779997825623,-0.0305673889815807
780,-0.00204952107742429,0.0138087989762425,-0.0516399070620537,-0.0351781398057938,-0.0601422525942326,-0.0278336405754089
781,-0.0010391412070021,0.0128656374290586,-0.0482249110937119,-0.0336245112121105,-0.0552921779453754,-0.026965044438839
782,0.000242252790485509,0.0122264865785837,-0.04570047929883,-0.0330206528306007,-0.0513847023248672,-0.0268976613879204
783,0.00153742893598974,0.0128616811707616,-0.0445740781724453,-0.0317710340023041,-0.0495369359850883,-0.0250047910958529
784,0.00232365517877042,0.0141464844346046,-0.0439301319420338,-0.0288745164871216,-0.0488317087292671,-0.020617863163352
785,0.00248784106224775,0.0144367460161448,-0.0424803905189037,-0.0252826102077961,-0.0471665561199188,-0.0160084050148726
786,0.00268400181084871,0.0130963670089841,-0.0393295250833035,-0.0221696943044662,-0.0430901497602463,-0.0133007122203708
787,0.00343015440739691,0.011094719171524,-0.0345372185111046,-0.0192542709410191,-0.0370619595050812,-0.01181910187006
788,0.0045515950769186,0.00989577453583479,-0.0291165262460709,-0.015441907569766,-0.0306577403098345,-0.00956217013299465
789,0.00511228479444981,0.0099151199683547,-0.0245504397898912,-0.0109055330976844,-0.0257181357592344,-0.00610786210745573
790,0.00447676191106439,0.0105783892795444,-0.0217260923236609,-0.00716885598376393,-0.0231128893792629,-0.00278909993357956
791,0.00311954342760146,0.011319381184876,-0.0201328173279762,-0.00479382742196321,-0.0218189619481564,-0.000276146049145609
792,0.00176337105222046,0.0117053501307964,-0.0185200609266758,-0.00295831775292754,-0.0202795080840588,0.00212305202148855
793,0.000844667723868042,0.0114191668108106,-0.0159651301801205,-0.00123195932246745,-0.0174259431660175,0.00475210230797529
794,0.000535968691110611,0.0104590775445104,-0.0124507024884224,0.000255126127740368,-0.0131713962182403,0.0072587844915688
795,0.000738082511816174,0.00913707073777914,-0.00919523742049932,0.00125034968368709,-0.00882591586560011,0.00893429759889841
796,0.00096018542535603,0.00771011924371123,-0.00745873944833875,0.00157662539277226,-0.00551532441750169,0.00909169856458902
797,0.000640800397377461,0.00627522589638829,-0.0068818717263639,0.00182899332139641,-0.00287726591341197,0.00824759248644114
798,-0.000151772808749229,0.00502087408676744,-0.00575795769691467,0.00335953827016056,0.000234788254601881,0.0080608781427145
799,-0.00109130737837404,0.00398124055936933,-0.00286183482967317,0.00690083578228951,0.00451978296041489,0.00973748322576284
800,-0.0021285698749125,0.00325855216942728,0.000951446010731161,0.0109891183674335,0.00887780170887709,0.0126256570219994
801,-0.00330133526585996,0.0032201090361923,0.00326790940016508,0.0134179592132568,0.0106150768697262,0.0150628732517362
802,-0.00430440623313189,0.00418616505339742,0.00281526148319244,0.0141133302822709,0.00875441264361143,0.0168108530342579
803,-0.0046576033346355,0.00591210182756186,0.00127469538711011,0.0144621962681413,0.00604171911254525,0.0186257492750883
804,-0.00450844503939152,0.00720377080142498,0.00134636601433158,0.0153795359656215,0.0055047944188118,0.0206133481115103
805,-0.00427744491025805,0.00705621112138033,0.00391917582601309,0.0169085934758186,0.00759078841656446,0.0220981016755104
806,-0.00396251678466797,0.00559576228260994,0.00774580938741565,0.0183297693729401,0.0111361397430301,0.022210031747818
807,-0.0037382934242487,0.00346407387405634,0.011034962721169,0.0190678667277098,0.014545826241374,0.0212778951972723
808,-0.00379686080850661,0.00147272751200944,0.0132842697203159,0.0196334756910801,0.0174203272908926,0.0209187604486942
809,-0.00390412961132824,5.60888802283444E-05,0.0151584930717945,0.020778801292181,0.0208116862922907,0.0219432916492224
810,-0.00388065935112536,-0.00124661182053387,0.0173025485128164,0.0223739743232727,0.0252912882715464,0.0234005339443684
811,-0.00373241095803678,-0.0027781524695456,0.0197781175374985,0.0239920746535063,0.0299007277935743,0.0244211349636316
812,-0.00361231341958046,-0.00409837113693357,0.0219547376036644,0.0255440287292004,0.0330524817109108,0.0252448264509439
813,-0.00355089805088937,-0.00457526464015245,0.023132337257266,0.0268358252942562,0.034312654286623,0.0263453461229801
814,-0.00303220981732011,-0.00411670375615358,0.0238612554967403,0.027861637994647,0.0350526049733162,0.0280059147626162
815,-0.00171246216632426,-0.00342206936329603,0.0253855306655169,0.0288949906826019,0.0367023311555386,0.0298341121524572
816,-0.000114471156848595,-0.00354654039256275,0.0274844150990248,0.0293088257312775,0.0391824506223202,0.0302891153842211
817,0.00134934834204614,-0.00471242237836123,0.0291022434830666,0.0284501407295465,0.0418057255446911,0.028548127040267
818,0.00264871795661747,-0.00596607150509954,0.0299936477094889,0.0272516738623381,0.0440526902675629,0.0263237711042166
819,0.00353872496634722,-0.0066823735833168,0.0307942293584347,0.0270658172667027,0.0459789149463177,0.0254448708146811
820,0.00368126668035984,-0.00724272197112441,0.0318191535770893,0.0278537943959236,0.0477233603596687,0.025634715333581
821,0.00294816237874329,-0.00769360642880201,0.0325020588934422,0.0287879426032305,0.04863615706563,0.0263746902346611
822,0.00170686596538872,-0.00756727997213602,0.0327221378684044,0.029541777446866,0.0485496930778027,0.0277438871562481
823,0.00041852323920466,-0.00691318605095148,0.0327282212674618,0.0300048962235451,0.0479851178824902,0.029306922107935
824,-0.00059380749007687,-0.00617854529991746,0.0326487310230732,0.0300448164343834,0.0474915504455566,0.0302737783640623
825,-0.00107989821117371,-0.00588668463751674,0.0325188748538494,0.0295270849019289,0.0474004708230495,0.0300301853567362
826,-0.00133086764253676,-0.00625302223488688,0.0321376100182533,0.028540350496769,0.0471602529287338,0.0285923648625612
827,-0.00187986216042191,-0.00708817271515727,0.0314713902771473,0.0275621246546507,0.0459358692169189,0.0267992168664932
828,-0.00307692075148225,-0.0081033343449235,0.0301689654588699,0.0268591232597828,0.0433576889336109,0.0259469468146563
829,-0.00491858134046197,-0.00890858750790358,0.0280051119625568,0.0266676098108292,0.0399520993232727,0.0269551519304514
830,-0.00659198593348265,-0.00945290643721819,0.0260988976806402,0.0270905178040266,0.0374526605010033,0.0289014484733343
831,-0.00706377299502492,-0.00983619689941406,0.0257173366844654,0.027654068544507,0.0372686125338078,0.0300156883895397
832,-0.00615466339513659,-0.00964042264968157,0.0269955545663834,0.0283115934580565,0.0391752310097218,0.0302722882479429
833,-0.00478678802028298,-0.00870796386152506,0.0291508715599775,0.0294150728732347,0.0419504195451736,0.0306856203824282
834,-0.00422900076955557,-0.00746729131788015,0.031106336042285,0.0309830885380507,0.0443131662905216,0.0318859368562698
835,-0.00465245777741075,-0.00629677763208747,0.0324732847511768,0.032845851033926,0.0459045022726059,0.0338112153112888
836,-0.00519677484408021,-0.00542756728827953,0.0335502177476883,0.0344251096248627,0.0471452586352825,0.0353298112750053
837,-0.00542295258492231,-0.00508611742407084,0.0342277772724628,0.0348327457904816,0.048018541187048,0.0351459868252277
838,-0.00523060187697411,-0.00515913544222713,0.0343639776110649,0.0340479165315628,0.048439871519804,0.0335969366133213
839,-0.00458277156576514,-0.00521864136680961,0.0342177674174309,0.0329174436628819,0.048613928258419,0.032217375934124
840,-0.0041490332223475,-0.00535382702946663,0.0339525677263737,0.0320505239069462,0.0485594235360622,0.0317706204950809
841,-0.00449071452021599,-0.00573530280962586,0.0338075384497643,0.0317387506365776,0.0483131371438503,0.0322885662317276
842,-0.0052031590603292,-0.00629529356956482,0.0338820368051529,0.031674187630415,0.0479600541293621,0.0329346098005772
843,-0.00567135168239474,-0.00708104530349374,0.0342038199305534,0.0313353687524796,0.0478442385792732,0.0326016433537006
844,-0.00575649319216609,-0.00782131403684616,0.0348293110728264,0.0309926569461823,0.0483579412102699,0.0318085812032223
845,-0.00565188657492399,-0.00781907234340906,0.035493116825819,0.0312625132501125,0.0491001158952713,0.0316473841667175
846,-0.00538705475628376,-0.00687970733270049,0.0360104255378246,0.0320578515529633,0.0494148582220078,0.0319249331951141
847,-0.00493782805278897,-0.00582707300782204,0.0362935848534107,0.0324216187000275,0.0491442494094372,0.0315810590982437
848,-0.00454285647720099,-0.00515640759840608,0.0361988618969917,0.0319142043590546,0.0482891052961349,0.030430169776082
849,-0.00444716587662697,-0.00449877278879285,0.0361020714044571,0.0312293395400047,0.0471163839101791,0.0293836407363415
850,-0.0047391033731401,-0.00398750929161906,0.036485705524683,0.0307216010987759,0.0464027523994446,0.0287067983299494
851,-0.00515696220099926,-0.00417694449424744,0.0371923595666885,0.0299539212137461,0.0467946417629719,0.0278297234326601
852,-0.00529447477310896,-0.00493377167731524,0.0377935506403446,0.0286580622196198,0.0481119938194752,0.026658171787858
853,-0.0050827618688345,-0.00567802600562572,0.0381542146205902,0.0271745473146439,0.0497404225170612,0.0256974250078201
854,-0.00459148921072483,-0.0062318560667336,0.0384903326630592,0.026150168851018,0.0513153895735741,0.0253346525132656
855,-0.00399214634671807,-0.00674848165363073,0.0388537459075451,0.0260628946125507,0.0525458827614784,0.0256059374660254
856,-0.00350597081705928,-0.00724418880417943,0.0390252470970154,0.0266225673258305,0.0532659515738487,0.0261097643524408
857,-0.00313218566589057,-0.00794040784239769,0.0387556925415993,0.0267920792102814,0.0534276030957699,0.0260790083557367
858,-0.00294662616215646,-0.00916750449687243,0.0379629656672478,0.0261397920548916,0.0528472103178501,0.0252503473311663
859,-0.00301155331544578,-0.0106681119650602,0.03697819262743,0.0250218193978071,0.0517411753535271,0.0239795166999102
860,-0.0033683821093291,-0.0118941590189934,0.0358052439987659,0.0237557962536812,0.0503008440136909,0.0226193685084581
861,-0.0039854608476162,-0.0122316060587764,0.0343084335327148,0.0228865873068571,0.0484020859003067,0.021715696901083
862,-0.00427039014175534,-0.0111092925071716,0.0332820564508438,0.0231799744069576,0.0465409308671951,0.0218842104077339
863,-0.00407616980373859,-0.00912832096219063,0.0332978442311287,0.0246284790337086,0.0452958196401596,0.0230059567838907
864,-0.00383050693199039,-0.00767940888181329,0.0340390056371689,0.0263178180903196,0.0448491908609867,0.0240414794534445
865,-0.00369963934645057,-0.00737904710695148,0.0348669476807117,0.0270686913281679,0.044823944568634,0.0239229314029217
866,-0.00393035542219877,-0.00815714616328478,0.0348733142018318,0.0261090379208326,0.0442892573773861,0.0223243366926908
867,-0.00423450348898768,-0.00930243544280529,0.0341354943811893,0.0244816970080137,0.0433675087988377,0.0203035790473223
868,-0.00406718254089355,-0.00992005784064531,0.0335884280502796,0.0238865986466408,0.0427902266383171,0.019367603585124
869,-0.00398716330528259,-0.0101654017344117,0.0332056730985641,0.0240004509687424,0.0420968160033226,0.0193510763347149
870,-0.00430476805195212,-0.0103158429265022,0.0327594056725502,0.0237786546349525,0.0409065373241901,0.0192812159657478
871,-0.00431794160977006,-0.0101350359618664,0.0324811935424805,0.0230929665267468,0.0396942943334579,0.0187112130224705
872,-0.00384642835706472,-0.00963198952376843,0.032196294516325,0.0221631340682507,0.0384368263185024,0.0176545009016991
873,-0.00322723528370261,-0.00887185521423817,0.0315259732306004,0.0213074963539839,0.0369264557957649,0.0166452936828136
874,-0.00265511102043092,-0.00808161497116089,0.0303613971918821,0.020736888051033,0.0353330224752426,0.016274020075798
875,-0.00202281749807298,-0.00780326034873724,0.0291622057557106,0.0204005129635334,0.034177154302597,0.0162918493151665
876,-0.00106938183307648,-0.00826324056833982,0.0286193210631609,0.0203635282814503,0.0340662077069283,0.0160593166947365
877,-1.16663968583453E-05,-0.00910204648971558,0.028706906363368,0.0208610221743584,0.03450633212924,0.0157866254448891
878,0.000461475108750165,-0.0101117566227913,0.0286545678973198,0.0213960371911526,0.0344385616481304,0.0156369432806969
879,-0.000113315523776691,-0.0116948410868645,0.0275460481643677,0.0207751858979464,0.0335682667791843,0.0151529517024755
880,-0.00126337818801403,-0.0137663865461946,0.0252462141215801,0.0188059508800507,0.0320750214159489,0.0143851572647691
881,-0.0019963476806879,-0.0152912447229028,0.022982494905591,0.0168415736407042,0.0305018164217472,0.0137332230806351
882,-0.00183777324855328,-0.0153327863663435,0.0221898090094328,0.0164384972304106,0.0294983219355345,0.0136243505403399
883,-0.00120445399079472,-0.0140526369214058,0.0228015966713429,0.017822029069066,0.0288225803524256,0.0143515253439546
884,-0.000668811786454171,-0.0126439342275262,0.0236322395503521,0.0197140816599131,0.0280116982758045,0.0151713835075498
885,-0.000322940642945468,-0.0120407529175282,0.0239552389830351,0.0208992417901754,0.0272453371435404,0.0151915065944195
886,-0.000105698542029131,-0.0122216790914536,0.0238150339573622,0.0210200734436512,0.0267486795783043,0.014344111084938
887,0.000209498102776706,-0.0129977772012353,0.0236128158867359,0.0200344305485487,0.0267381779849529,0.0123783750459552
888,0.00059533619787544,-0.014448881149292,0.0233888905495405,0.0181618928909302,0.0269281603395939,0.00925244297832251
889,0.000601482053752989,-0.0162552017718554,0.0225563254207373,0.0158585570752621,0.0262758173048496,0.00602936511859298
890,0.00033042865106836,-0.0173519924283028,0.0211007259786129,0.0138776665553451,0.0246434435248375,0.00415226025506854
891,7.11225293343887E-05,-0.0171148143708706,0.019720247015357,0.0130472704768181,0.0228366162627935,0.00444405106827617
892,-0.000330255774315447,-0.0163033548742533,0.0191217437386513,0.0134009383618832,0.0216253772377968,0.00626849196851254
893,-0.000905464636161923,-0.0160513650625944,0.0198060087859631,0.0141584826633334,0.0218762569129467,0.00783676467835903
894,-0.00158760941121727,-0.0164884086698294,0.0215403456240892,0.0148099726065993,0.0234963521361351,0.00849637947976589
895,-0.00243567326106131,-0.0166702568531036,0.023438511416316,0.0156585909426212,0.025037057697773,0.0096738850697875
896,-0.00348863587714732,-0.0160192623734474,0.0246645119041204,0.0169929172843695,0.0255362391471863,0.0128493588417768
897,-0.00472258124500513,-0.014942835085094,0.0250711459666491,0.0185970813035965,0.0252281054854393,0.0178675409406424
898,-0.0059641357511282,-0.0138736926019192,0.025086535140872,0.0199453216046095,0.0246808249503374,0.0225702412426472
899,-0.007128631696105,-0.0131594240665436,0.0248529259115458,0.0202353373169899,0.0240005515515804,0.0245652813464403
900,-0.0083187036216259,-0.0130954142659903,0.0241527706384659,0.0191258229315281,0.022991145029664,0.0238604862242937
901,-0.00946073792874813,-0.0135253071784973,0.0231511145830154,0.017390625551343,0.0219958107918501,0.0219029560685158
902,-0.00999824982136488,-0.0139267100021243,0.022754579782486,0.0162397194653749,0.0218455232679844,0.0196606013923883
903,-0.00965524185448885,-0.0139330867677927,0.0233315490186214,0.015982236713171,0.0223014708608389,0.0176655724644661
904,-0.00941495411098003,-0.0137662477791309,0.0234730336815119,0.0157037638127804,0.021475687623024,0.0162222292274237
905,-0.0102207474410534,-0.0137910498306155,0.0220860373228788,0.0148960184305906,0.0186345186084509,0.0156435444951057
906,-0.0115623865276575,-0.0141359362751246,0.0202200505882502,0.0140329357236624,0.0156657062470913,0.0159309003502131
907,-0.0123537965118885,-0.0147360982373357,0.0191910695284605,0.0132725853472948,0.0144454138353467,0.0162786021828651
908,-0.0122886653989553,-0.0154435662552714,0.0188051648437977,0.0121780084446073,0.0145820835605264,0.0158091653138399
909,-0.0117710446938872,-0.0158407613635063,0.0181999672204256,0.0103816194459796,0.0145704429596663,0.0145167456939816
910,-0.0109405806288123,-0.0150840459391475,0.01750148832798,0.00848986115306616,0.014201981946826,0.0135729452595115
911,-0.0094102555885911,-0.0126670468598604,0.0178259685635567,0.00797838810831308,0.0145429335534573,0.0143349133431911
912,-0.00726403947919607,-0.00938677228987217,0.0194102805107832,0.0091677512973547,0.0160571299493313,0.0164054799824953
913,-0.00549308955669403,-0.00678139878436923,0.0210286434739828,0.0107323434203863,0.01805161498487,0.0180156677961349
914,-0.00471008289605379,-0.00538802100345492,0.0217289049178362,0.0116446437314153,0.0197326894849539,0.018360598012805
915,-0.00449763704091311,-0.00473274756222963,0.021701168268919,0.0119199231266975,0.0207810699939728,0.0177364517003298
916,-0.00431315042078495,-0.00441006012260914,0.0213374383747578,0.0116869267076254,0.0210556089878082,0.0165521800518036
917,-0.0042190495878458,-0.0043696197681129,0.0206971243023872,0.0108104329556227,0.0205035731196404,0.0153184626251459
918,-0.0041513554751873,-0.00456118769943714,0.020041685551405,0.00940540432929993,0.0196724440902472,0.0142921460792422
919,-0.00357884680852294,-0.00480167055502534,0.0197135582566261,0.00808039773255587,0.0192620195448399,0.0133809875696898
920,-0.00261260801926255,-0.00490395585075021,0.0194662865251303,0.00754735432565212,0.01890436001122,0.0130171598866582
921,-0.0017759739421308,-0.00439074309542775,0.0190791729837656,0.00821755919605494,0.0178694613277912,0.0142544778063893
922,-0.00136041722726077,-0.00320977927185595,0.0184965115040541,0.00958452746272087,0.0162664540112019,0.0169434510171413
923,-0.00147511553950608,-0.00217498280107975,0.0174062848091125,0.0102420821785927,0.0147865507751703,0.0190117284655571
924,-0.00181088212411851,-0.00177219021134079,0.0160968396812677,0.00966774672269821,0.0142778176814318,0.0190280228853226
925,-0.00207560230046511,-0.00144879729487002,0.0153325144201517,0.00904708076268435,0.0150061529129744,0.0180613175034523
926,-0.00254430412314832,-0.000438530056271702,0.015108373016119,0.00931683462113142,0.0157590564340353,0.0177496541291475
927,-0.00355872581712902,0.00109392765443772,0.0147107681259513,0.00990971550345421,0.015170537866652,0.0179589875042439
928,-0.00477677397429943,0.0026296500582248,0.0139240948483348,0.0102746384218335,0.013685317710042,0.0179689340293407
929,-0.00571047235280275,0.00397528940811753,0.0132032632827759,0.0106309885159135,0.0125731956213713,0.017917275428772
930,-0.00646072765812278,0.00464434735476971,0.0126885203644633,0.0108477165922523,0.0122428797185421,0.0179699901491404
931,-0.00679904595017433,0.00468901405110955,0.0124861551448703,0.0107361823320389,0.0126915471628308,0.0183035470545292
932,-0.00609137071296573,0.00500117987394333,0.0129461316391826,0.010597906075418,0.0139136733487248,0.0191425010561943
933,-0.00434086984023452,0.00572036812081933,0.0139230890199542,0.0105597246438265,0.0156102078035474,0.0202057864516974
934,-0.00215241615660489,0.00642384216189384,0.0149406464770436,0.0106888962909579,0.0171570274978876,0.0211740210652351
935,-0.000623426109086722,0.00683521572500467,0.0153435533866286,0.010858153924346,0.0174534246325493,0.0218110699206591
936,-0.00025156102492474,0.00709803402423859,0.0147356288507581,0.0107749719172716,0.0160865429788828,0.0219807289540768
937,-0.000253946811426431,0.00763465650379658,0.0136190624907613,0.0104936314746737,0.0142552629113197,0.0215926971286535
938,-0.000169027072843164,0.00834923610091209,0.0125352824106812,0.00988090224564075,0.0129212532192469,0.0204647034406662
939,-0.000293038960080594,0.00898931734263897,0.0117710158228874,0.00917231943458319,0.012052146717906,0.0192339830100536
940,-0.000806995260063559,0.00939726736396551,0.0117207327857614,0.00911549665033817,0.011684755794704,0.0187627039849758
941,-0.00154087401460856,0.00928365439176559,0.0119416955858469,0.0092369494959712,0.0114559419453144,0.0185064673423767
942,-0.00242783641442657,0.00842721201479435,0.011001517996192,0.00826888624578714,0.0102728195488453,0.0172920729964972
943,-0.00345518440008163,0.00727170472964644,0.00875124987214804,0.00641644606366754,0.00810837838798761,0.0154935484752059
944,-0.00419951090589166,0.00665801297873259,0.00702670309692621,0.00532435532659292,0.00653277011588216,0.0147682745009661
945,-0.00448278337717056,0.00655652955174446,0.00674664275720716,0.00557889370247722,0.0062917317263782,0.0154589274898171
946,-0.00443929154425859,0.00653310539200902,0.00705910241231322,0.00609257677569985,0.00687360158190131,0.0163486450910568
947,-0.00399951264262199,0.00673507014289498,0.00709991622716188,0.0061508403159678,0.00756874214857817,0.0168172437697649
948,-0.00346105732023716,0.00729577196761966,0.0063734445720911,0.00591257587075233,0.00747933192178607,0.017193928360939
949,-0.00326792430132627,0.00800392497330904,0.00519022950902581,0.00564581295475364,0.00661338027566671,0.0177368335425854
950,-0.00327219185419381,0.00867515988647938,0.00471443822607398,0.00554485665634274,0.00612171506509185,0.0182932130992413
951,-0.00335712125524879,0.00917681958526373,0.00541301863268018,0.0054383734241128,0.00649523269385099,0.0183787513524294
952,-0.00365659897215664,0.00920931063592434,0.00645138090476394,0.00495025422424078,0.00697279116138816,0.0176416970789433
953,-0.00413775164633989,0.00842422898858786,0.00690823839977384,0.00402610842138529,0.00672728708013892,0.0163573659956455
954,-0.00463397894054651,0.0071630640886724,0.00667986227199435,0.00321630039252341,0.00558718061074615,0.0154985748231411
955,-0.00491380738094449,0.00615994911640882,0.00598674546927214,0.0031191052403301,0.00405627721920609,0.0154710570350289
956,-0.0047164591960609,0.00539640756323934,0.00522397737950087,0.0034872000105679,0.00301848910748959,0.0152886966243386
957,-0.00401554023846984,0.00447818636894226,0.00470560789108276,0.00353320362046361,0.00271217548288405,0.0140297012403607
958,-0.00291233696043491,0.003790442366153,0.00433547096326947,0.00304061244241893,0.00272884173318744,0.0122402273118496
959,-0.00159184506628662,0.0037977728061378,0.00404855795204639,0.00257134716957808,0.00304731563664973,0.011186228133738
960,-0.000746614707168192,0.00396726839244366,0.00360256899148226,0.0024951787199825,0.00350329210050404,0.0112560279667377
961,-0.000764550582971424,0.0037187619600445,0.00280709424987435,0.00263463356532156,0.00364845874719322,0.0115789938718081
962,-0.00101112679112703,0.00330979004502296,0.00248340493999422,0.00310835335403681,0.00419296603649855,0.011163704097271
963,-0.000830615463200957,0.00350905279628932,0.00365194375626743,0.0047065238468349,0.00575063517317176,0.0107272854074836
964,-0.000503547431435436,0.00481994030997157,0.00563681125640869,0.0073777181096375,0.00711792893707752,0.0117561984807253
965,-0.000675401359330863,0.00649533281102777,0.00679406058043242,0.00942123215645552,0.00723284250125289,0.0136544555425644
966,-0.00135841057635844,0.0072696921415627,0.0068573341704905,0.00974025391042233,0.00654489547014236,0.0147684793919325
967,-0.00244612246751785,0.00680410163477063,0.00647024950012565,0.00876074936240911,0.00573407765477896,0.0144571550190449
968,-0.00417116796597838,0.00558676477521658,0.00565226748585701,0.00728024588897824,0.00449434528127313,0.0131705570966005
969,-0.00608624285086989,0.00450616329908371,0.00447195814922452,0.00614826008677483,0.00256480206735432,0.0122302565723658
970,-0.00742708705365658,0.00394645659253001,0.00328120333142579,0.00532535323873162,0.000725104182492942,0.0116757331416011
971,-0.00823370739817619,0.00362212280742824,0.00191446777898818,0.0040781325660646,-0.000718879804480821,0.010420860722661
972,-0.00883129891008139,0.00350999599322677,0.000453666434623301,0.00269285403192043,-0.00210666772909462,0.00903032440692186
973,-0.00931779947131872,0.00361690321005881,-0.00038951460737735,0.0020430744625628,-0.00296525214798748,0.0084919324144721
974,-0.00947236362844706,0.00396354729309678,-0.000203683041036129,0.00244054361246526,-0.00246200733818114,0.00868693087249994
975,-0.00889376923441887,0.00492360675707459,0.000999113777652383,0.00373588176444173,-0.000628674577455968,0.00951446127146482
976,-0.00789278000593185,0.00615888414904475,0.00254378700628877,0.00512932380661368,0.00136103318072855,0.0105483457446098
