,AF3,AF4,Fp1,Fp2,AF7,AF8
0,0.0135615505278111,-0.0158211179077625,-0.0270237270742655,-0.00547404028475285,-0.0700365453958511,-0.0473868511617184
1,0.0126435328274965,-0.0227512661367655,-0.0286164861172438,-0.00489906035363674,-0.0704275965690613,-0.0488603450357914
2,0.0102890050038695,-0.019188180565834,-0.0218665935099125,0.00163361337035894,-0.0744407773017883,-0.0417271554470062
3,0.00938546471297741,-0.00361125939525664,-0.00940154772251844,0.0119178825989366,-0.0744175314903259,-0.0265315882861614
4,0.0102254990488291,0.013263993896544,0.00204942910932004,0.0219699889421463,-0.0673345327377319,-0.0100683802738786
5,0.0112128034234047,0.0221404321491718,0.00558430794626474,0.0268777515739203,-0.0612202435731888,-0.00220409431494772
6,0.00726898014545441,0.019946463406086,-0.00396920694038272,0.0197440907359123,-0.0678861662745476,-0.0112420516088605
7,0.000956642732489854,0.0101913772523403,-0.0220439601689577,0.000847448478452861,-0.0850536525249481,-0.0355313867330551
8,0.0013968605780974,0.000875873432960361,-0.0378021188080311,-0.0201587732881308,-0.0977514237165451,-0.0599270015954971
9,0.00771891698241234,-0.00423227017745376,-0.0477245822548866,-0.0347347669303417,-0.0974244028329849,-0.0676871836185455
10,0.0165781900286675,-0.00434955023229122,-0.0493652448058128,-0.0347079448401928,-0.0842615216970444,-0.0548561215400696
11,0.0272928345948458,-0.00169871549587697,-0.0392503887414932,-0.0191760566085577,-0.0629395395517349,-0.0334131121635437
12,0.0346723347902298,0.00333901285193861,-0.0230737291276455,-0.00225292332470417,-0.0426796860992908,-0.0175206642597914
13,0.0354591943323612,0.0140353012830019,-0.0097754830494523,0.00557954329997301,-0.0296423584222794,-0.0138893062248826
14,0.0335250198841095,0.021347276866436,-0.000791687518358231,0.00763724977150559,-0.0218263790011406,-0.0257586073130369
15,0.0376428216695786,0.0119898756965995,0.00554925156757236,0.00854036211967468,-0.0155742196366191,-0.0504729151725769
16,0.0528790690004826,-0.0116697801277041,0.00477121537551284,0.00761000439524651,-0.0113586038351059,-0.0769155845046043
17,0.067444734275341,-0.0372679270803928,-0.011468512006104,-0.00043055324931629,-0.0145445521920919,-0.0973231494426727
18,0.0661345347762108,-0.0520929507911205,-0.0387173965573311,-0.0150326434522867,-0.0279786065220833,-0.107689887285233
19,0.0492397174239159,-0.0511574223637581,-0.0595714002847672,-0.0241902582347393,-0.0460901409387589,-0.0956628024578094
20,0.0238966140896082,-0.041166290640831,-0.0662334710359573,-0.0216652620583773,-0.0619388297200203,-0.0611708164215088
21,-0.000311144278384745,-0.0318999327719212,-0.062587134540081,-0.0131554352119565,-0.0699852928519249,-0.0357201993465424
22,-0.0114298462867737,-0.0295904818922281,-0.0529190450906754,-0.00498243840411305,-0.0653105825185776,-0.0474388562142849
23,-0.00370266567915678,-0.0350946746766567,-0.0417676120996475,0.000551496283151209,-0.047918763011694,-0.0883359462022781
24,0.0177234634757042,-0.0406100153923035,-0.0325996689498425,0.00464087864384055,-0.0241374131292105,-0.129693076014519
25,0.0370982214808464,-0.0379140563309193,-0.0278589706867933,0.00735551584511995,-0.00352216139435768,-0.153015866875649
26,0.0434187464416027,-0.0292017105966806,-0.0288596842437983,0.00803759880363941,0.00824160408228636,-0.155956044793129
27,0.0424372665584087,-0.0203543324023485,-0.0307647734880447,0.0104062017053366,0.0145610058680177,-0.139761969447136
28,0.0408966727554798,-0.0166394449770451,-0.0301071833819151,0.0135432109236717,0.0192912220954895,-0.109777569770813
29,0.0393917709589005,-0.0206026360392571,-0.0303317308425903,0.0106504540890455,0.0209042597562075,-0.0835275501012802
30,0.0384666547179222,-0.0259227231144905,-0.0340104140341282,0.00130188628099859,0.0194530636072159,-0.0835436433553696
31,0.0353476740419865,-0.029201976954937,-0.0416082069277763,-0.0105005735531449,0.0163197834044695,-0.114131160080433
32,0.0291175805032253,-0.0350219830870628,-0.0489705502986908,-0.0183839462697506,0.0138273732736707,-0.152739733457565
33,0.0232758410274982,-0.044751912355423,-0.0496085993945599,-0.0173503328114748,0.0153688061982393,-0.175587713718414
34,0.0198813732713461,-0.0584192238748074,-0.0450818501412869,-0.0126652205362916,0.0197521280497313,-0.181957110762596
35,0.021287776529789,-0.0731066688895226,-0.0409894920885563,-0.0117872385308146,0.0233708508312702,-0.182738274335861
36,0.024695347994566,-0.0789628326892853,-0.0414273887872696,-0.0160966850817204,0.023092046380043,-0.182600542902946
37,0.0249397065490484,-0.0725861787796021,-0.0466521345078945,-0.0210549756884575,0.0194813925772905,-0.179604426026344
38,0.0273202210664749,-0.0617753490805626,-0.0505847185850143,-0.0193313583731651,0.0199647396802902,-0.169134810566902
39,0.0365495346486568,-0.0571907572448254,-0.0485633164644241,-0.00982107315212488,0.0301283188164234,-0.151238277554512
40,0.0466981828212738,-0.0626218765974045,-0.0422936975955963,0.00252761505544186,0.0454576946794987,-0.131960213184357
41,0.0511792376637459,-0.0689161047339439,-0.0354656502604485,0.0130979819223285,0.0573809705674648,-0.119342595338821
42,0.0492222160100937,-0.0703890174627304,-0.0305795203894377,0.0191694032400846,0.0634611696004868,-0.120931647717953
43,0.0467595793306828,-0.0723802149295807,-0.0266498513519764,0.0234200153499842,0.0670404583215714,-0.134864524006844
44,0.0504704602062702,-0.0775288715958595,-0.0204674322158098,0.0294874291867018,0.0712573826313019,-0.152096852660179
45,0.0580375529825687,-0.0823764652013779,-0.0129103027284145,0.0334718525409698,0.0745081305503845,-0.167691826820374
46,0.0627186000347137,-0.0829215571284294,-0.00711671356111765,0.031828261911869,0.0737079530954361,-0.17954882979393
47,0.0605910904705524,-0.0801532566547394,-0.00581171736121178,0.0259105898439884,0.0689242109656334,-0.186088979244232
48,0.0511677302420139,-0.077452264726162,-0.011961349286139,0.0167155526578426,0.0601278878748417,-0.187619939446449
49,0.0396685115993023,-0.0744258314371109,-0.0219327211380005,0.00980057939887047,0.0497606545686722,-0.180523127317429
50,0.030541205778718,-0.0671205073595047,-0.0304650031030178,0.00984025467187166,0.0415571331977844,-0.157120555639267
51,0.0233350656926632,-0.054731585085392,-0.0394379161298275,0.0106988018378615,0.0338343754410744,-0.123620457947254
52,0.0206964798271656,-0.04470594227314,-0.0473772473633289,0.00768733024597168,0.0275401752442122,-0.105243384838104
53,0.0254690907895565,-0.0430431291460991,-0.0486922897398472,0.00326070818118751,0.0287139508873224,-0.117615081369877
54,0.0365080013871193,-0.0471813268959522,-0.0439883321523666,0.00176620401907712,0.0380319654941559,-0.148732677102089
55,0.0503716059029102,-0.0547874644398689,-0.0377054959535599,0.0071444776840508,0.0495747178792953,-0.175974056124687
56,0.0578216910362244,-0.0681183114647865,-0.0346784740686417,0.0146567197516561,0.0550535917282104,-0.186864539980888
57,0.0537829287350178,-0.0841439664363861,-0.0378398187458515,0.0145248612388968,0.0508285090327263,-0.182446613907814
58,0.0428242012858391,-0.0927386209368706,-0.0472325645387173,0.00313570047728717,0.0402722917497158,-0.174692139029503
59,0.0283504202961922,-0.0888389050960541,-0.0609573982656002,-0.0160280168056488,0.0254247635602951,-0.176200479269028
60,0.0173850040882826,-0.0733000710606575,-0.0683997273445129,-0.0290835406631231,0.0117428423836827,-0.177161350846291
61,0.0176199059933424,-0.0526750534772873,-0.0582490786910057,-0.0233945474028587,0.00945083796977997,-0.162126630544662
62,0.026095062494278,-0.039724413305521,-0.0334197469055653,-0.00319871422834694,0.0193525142967701,-0.139403954148293
63,0.0374141745269299,-0.0395718365907669,-0.0036724281962961,0.0215002093464136,0.0351698622107506,-0.121014855802059
64,0.0460829138755798,-0.0467185713350773,0.0205782148987055,0.0415231287479401,0.0497397668659687,-0.10907057672739
65,0.0481303185224533,-0.0530095435678959,0.0321784019470215,0.0505565069615841,0.0571448132395744,-0.102067202329636
66,0.0466498844325542,-0.0535477325320244,0.0325390547513962,0.0524048581719399,0.057318489998579,-0.0933319553732872
67,0.0428095906972885,-0.0501381121575832,0.0228511784225702,0.0498987771570683,0.0499781630933285,-0.0824845358729362
68,0.0369624309241772,-0.0439222417771816,0.0048838509246707,0.0397311337292194,0.0357288643717766,-0.0814565718173981
69,0.0321576930582523,-0.0368699058890343,-0.0139968125149608,0.0222465507686138,0.0215082801878452,-0.0961233973503113
70,0.0283902697265148,-0.0345507375895977,-0.0301904883235693,0.00117086188402027,0.0114505793899298,-0.118232361972332
71,0.0264931507408619,-0.0352885387837887,-0.041899673640728,-0.0180160421878099,0.00480795372277498,-0.137736365199089
72,0.0265840906649828,-0.0377298146486282,-0.0439215078949928,-0.0282258838415146,0.0021658877376467,-0.149742767214775
73,0.027379808947444,-0.0456980094313622,-0.0348930135369301,-0.0237220264971256,0.00463627930730581,-0.148038789629936
74,0.0319511331617832,-0.0540363341569901,-0.0178770218044519,-0.00347614800557494,0.0119802989065647,-0.128467708826065
75,0.0386756956577301,-0.0558784641325474,-0.000558514322619885,0.0219827871769667,0.0188614428043365,-0.103807754814625
76,0.0409649275243282,-0.0521997734904289,0.00779239227995276,0.0389270447194576,0.0175919532775879,-0.0873556360602379
77,0.039357990026474,-0.0456102900207043,0.00825378205627203,0.0478695891797543,0.00929299369454384,-0.0704795569181442
78,0.0359128341078758,-0.039736021310091,0.00703946128487587,0.0562879629433155,0.000456860871054232,-0.0484096109867096
79,0.03044568374753,-0.0352069437503815,0.00650042714551091,0.064134381711483,-0.00470657227560878,-0.0347083359956741
80,0.0248124711215496,-0.0292718280106783,0.0080716060474515,0.0653348118066788,-0.0037745067384094,-0.03920728713274
81,0.0184866171330214,-0.0251982379704714,0.00998087134212255,0.0552820451557636,-3.58019315171987E-05,-0.0600393451750278
82,0.0121671035885811,-0.0245568081736565,0.00881796050816774,0.0383536145091057,0.000644796702545136,-0.0838844701647758
83,0.008463972248137,-0.0228823367506266,0.0027874456718564,0.0216944124549627,-0.00404788414016366,-0.0972851365804672
84,0.0058036488480866,-0.0226370990276337,-0.0105457911267877,0.00475673656910658,-0.0146008059382439,-0.103681847453117
85,0.00613936549052596,-0.0267237946391106,-0.0267898663878441,-0.00984898954629898,-0.0253455899655819,-0.108110539615154
86,0.01160285808146,-0.0304099041968584,-0.0374774411320686,-0.0160430148243904,-0.0290629211813211,-0.105066820979118
87,0.0171639658510685,-0.0308743342757225,-0.0418218970298767,-0.0146261276677251,-0.0277300886809826,-0.0946546494960785
88,0.0169317293912172,-0.0283136479556561,-0.0425690039992332,-0.00763251166790724,-0.0275907143950462,-0.0831685662269592
89,0.00781699642539024,-0.0254621095955372,-0.0406950861215591,0.00306284055113792,-0.0312023311853409,-0.0694215074181557
90,-0.00385426636785269,-0.024570906534791,-0.0353538654744625,0.0144024528563023,-0.0347173139452934,-0.0516063831746578
91,-0.00742925051599741,-0.0185702852904797,-0.026813980191946,0.0227529965341091,-0.0328123494982719,-0.0401289165019989
92,-0.00341148721054196,-0.00551220122724772,-0.0200219862163067,0.0226796362549067,-0.0271625146269798,-0.0461836159229279
93,0.00419896980747581,0.000262434245087206,-0.0168650727719069,0.0160685498267412,-0.0227013397961855,-0.0601727366447449
94,0.0145278256386518,-0.0147975832223892,-0.0120402052998543,0.0137117998674512,-0.0201488006860018,-0.0631548762321472
95,0.022141445428133,-0.0470410026609898,-0.00338604650460184,0.0203991960734129,-0.0184701886028051,-0.0606181398034096
96,0.02084094658494,-0.0764128491282463,0.00318672205321491,0.0291967857629061,-0.0195559784770012,-0.0721658170223236
97,0.0104376534000039,-0.0864161252975464,0.0012976547004655,0.0305460914969444,-0.0257495027035475,-0.0936517491936684
98,-0.00296330312266946,-0.0723021849989891,-0.00996688008308411,0.0208228584378958,-0.0364405177533627,-0.0992786660790443
99,-0.0107271317392588,-0.0311482064425945,-0.027365704998374,0.00096014270093292,-0.0490418337285519,-0.076783761382103
100,-0.00947080738842487,0.0198378246277571,-0.0457952208817005,-0.0250818580389023,-0.0582473650574684,-0.0462833419442177
101,-0.00130458700004965,0.0420499853789806,-0.0571736022830009,-0.0447465926408768,-0.0557555481791496,-0.0323236510157585
102,0.0117285335436463,0.0259690787643194,-0.0548754595220089,-0.0443809814751148,-0.0396771244704723,-0.0324232243001461
103,0.0235976744443178,-0.00631072465330362,-0.0433031134307384,-0.0288264490664005,-0.0236139483749866,-0.0369503498077393
104,0.0251649878919125,-0.0365253910422325,-0.0291657131165266,-0.0121526466682553,-0.021592216566205,-0.0457271263003349
105,0.0155307147651911,-0.0574218295514584,-0.0139931216835976,0.000920307007618248,-0.0306080225855112,-0.0541682802140713
106,0.00294997193850577,-0.0689870119094849,-0.000902058440260589,0.01003741286695,-0.0396261587738991,-0.0554460100829601
107,-0.00168120162561536,-0.0614457651972771,0.00992479734122753,0.0194119848310947,-0.0413784272968769,-0.0434815250337124
108,0.00369860930368304,-0.032038502395153,0.018807414919138,0.0344314649701118,-0.0362121425569057,-0.0202900171279907
109,0.0109138721600175,-0.0108612282201648,0.0201132986694574,0.0470279455184937,-0.0303076338022947,-0.00411637965589762
110,0.0168310068547726,-0.0133771197870374,0.013972632586956,0.0459712892770767,-0.0244737043976784,-0.00514239398762584
111,0.0220163185149431,-0.0127142202109098,0.00212998036295176,0.0306309312582016,-0.0194163508713245,-0.0162953045219183
112,0.0238978359848261,0.00801169313490391,-0.0174479875713587,0.0081768874078989,-0.0221095848828554,-0.0279003772884607
113,0.0213256012648344,0.0258815959095955,-0.0347910597920418,-0.00790012255311012,-0.0309219378978014,-0.0332031771540642
114,0.014961950480938,0.0175698306411505,-0.0368702374398708,-0.00921578612178564,-0.0382108241319656,-0.0313759744167328
115,0.00650804257020354,-0.00943392235785723,-0.0237905625253916,0.00162525160703808,-0.042318981140852,-0.0239906013011932
116,-0.00352136022411287,-0.035235907882452,-0.0024223024956882,0.0210107434540987,-0.0446205921471119,-0.00956999603658915
117,-0.0170301143079996,-0.0495314598083496,0.0176331978291273,0.0424144044518471,-0.0474917590618134,0.0102974008768797
118,-0.0302679501473904,-0.0513447783887386,0.0299382992088795,0.0550817660987377,-0.050990242511034,0.0242299679666758
119,-0.034693717956543,-0.0426798164844513,0.0369464755058289,0.0550851486623287,-0.0488884225487709,0.0214983504265547
120,-0.0282533597201109,-0.0216266810894012,0.0405342578887939,0.0470228865742683,-0.0379066877067089,0.00836602132767439
121,-0.014162422157824,0.0118410317227244,0.0400196574628353,0.0389443039894104,-0.0218662638217211,0.00678014056757092
122,0.00337340030819178,0.0419620610773563,0.0373251996934414,0.0356618650257587,-0.00500633753836155,0.031232550740242
123,0.0187184233218431,0.0517004057765007,0.03379887342453,0.0337148942053318,0.00704635446891189,0.067130483686924
124,0.0279081929475069,0.0422716066241264,0.0296863690018654,0.0295916758477688,0.00916881486773491,0.0856245905160904
125,0.028170220553875,0.0222998261451721,0.0220138430595398,0.0230639427900314,-3.92885995097458E-05,0.0763022750616074
126,0.0201223567128181,-0.00128645659424365,0.00832722336053848,0.0162038821727037,-0.0185403227806091,0.0513499714434147
127,0.00906098075211048,-0.0188887733966112,-0.00534357130527496,0.0146133210510015,-0.0393222495913506,0.0261292587965727
128,-0.00193037500139326,-0.028097964823246,-0.0129988873377442,0.0197798684239388,-0.0542947128415108,0.00742647424340248
129,-0.00812346953898668,-0.0322925932705402,-0.0131829679012299,0.0289117116481066,-0.0566414073109627,-0.00226862658746541
130,-0.00303271040320396,-0.0289794187992811,-0.00715900491923094,0.0378144606947899,-0.0446140244603157,-0.00230576796457171
131,0.0105489818379283,-0.0215668529272079,-0.00162151653785259,0.0401775278151035,-0.0269261840730906,0.0016572285676375
132,0.0254537649452686,-0.0163395311683416,0.00010516753536649,0.0366533659398556,-0.0127477943897247,0.00435918010771275
133,0.0347762815654278,-0.0122491717338562,-0.000367475935490802,0.0323379300534725,-0.00584860658273101,0.00682415580376983
134,0.0328286029398441,-0.00974383112043142,-0.00456341588869691,0.0270517095923424,-0.00884960498660803,0.0118149230256677
135,0.0251118615269661,-0.00945419631898403,-0.0114501239731908,0.0212165042757988,-0.0182672161608934,0.0213964078575373
136,0.0196320451796055,-0.00958984438329935,-0.018358375877142,0.0163891073316336,-0.0277663264423609,0.0327825471758842
137,0.0151081746444106,-0.00627251109108329,-0.0252033025026321,0.0118004931136966,-0.0358725525438786,0.0427085012197495
138,0.00902265124022961,0.00584176788106561,-0.0287711378186941,0.00887860916554928,-0.0415900573134422,0.0557261295616627
139,0.000390027387766168,0.0231549143791199,-0.0275304410606623,0.00657526636496186,-0.0460893847048283,0.0694239884614944
140,-0.0105502922087908,0.0370317995548248,-0.0268983710557222,-0.00156063470058143,-0.055046945810318,0.0699006989598274
141,-0.0221701133996248,0.0414079464972019,-0.0318398289382458,-0.0160584319382906,-0.0701548308134079,0.0542816445231438
142,-0.034080483019352,0.0320307537913322,-0.0407055094838142,-0.02851234190166,-0.0852225124835968,0.0314866229891777
143,-0.0403509773313999,0.0132147967815399,-0.0431119501590729,-0.0269458070397377,-0.0899961888790131,0.0123480204492807
144,-0.0332644507288933,-0.00475539220497012,-0.030354093760252,-0.00648950692266226,-0.0789085924625397,0.00761019205674529
145,-0.0158387869596481,-0.0140098761767149,-0.00931802857667208,0.0207563973963261,-0.0577673204243183,0.0175533052533865
146,0.0016868666280061,-0.0091412365436554,0.00626463210210204,0.0386804789304733,-0.0378760322928429,0.0325146876275539
147,0.0112199457362294,0.011253478936851,0.00836872775107622,0.0387192070484161,-0.0263629052788019,0.0434070974588394
148,0.0124445492401719,0.0342100039124489,-0.00369303766638041,0.0200195778161287,-0.0244659259915352,0.0441934987902641
149,0.010919370688498,0.0380674414336681,-0.020757595077157,-0.00271822907961905,-0.0291326250880957,0.0365022569894791
150,0.0085224462673068,0.0184944048523903,-0.0318416468799114,-0.0112097458913922,-0.0359176844358444,0.0291370395570993
151,0.00449591921642423,-0.00755380559712648,-0.034548282623291,-0.00531769590452313,-0.0420320332050323,0.0268673710525036
152,0.00287848967127502,-0.0230064783245325,-0.0308592170476913,0.00487744016572833,-0.0453085154294968,0.0282388683408499
153,0.00542114116251469,-0.0261003337800503,-0.0250284858047962,0.0121394488960505,-0.0458550490438938,0.0308401715010405
154,0.00754494126886129,-0.0222392790019512,-0.0213411524891853,0.0145109426230192,-0.045188881456852,0.0346553660929203
155,0.00659324508160353,-0.013752949424088,-0.0195494387298822,0.0148432375863194,-0.0424903817474842,0.0406855382025242
156,0.00284408475272357,-0.00321613415144384,-0.0198481716215611,0.0143053736537695,-0.038735706359148,0.0492580533027649
157,-0.00221896241419017,0.0107105365023017,-0.0232624355703592,0.011576084420085,-0.0375925116240978,0.0661230683326721
158,-0.00947416387498379,0.0286081582307816,-0.0299714542925358,0.00513148261234164,-0.0426241122186184,0.0878034010529518
159,-0.021560138091445,0.0402224995195866,-0.0406938754022121,-0.00518903508782387,-0.0554391406476498,0.0938546285033226
160,-0.0316551700234413,0.0425036586821079,-0.0505195558071136,-0.0134805301204324,-0.0696724131703377,0.0849624201655388
161,-0.0315366871654987,0.0439050309360027,-0.054106317460537,-0.0163889322429895,-0.0763217881321907,0.0781209841370583
162,-0.0240639708936214,0.0447806529700756,-0.0540682189166546,-0.0165293198078871,-0.0746605098247528,0.0695915818214417
163,-0.0156105495989323,0.039116095751524,-0.0534980222582817,-0.0134356450289488,-0.0689088627696037,0.051403135061264
164,-0.00925141759216785,0.023906359449029,-0.0525025501847267,-0.00866793096065521,-0.0608410835266113,0.0299966502934694
165,-0.00280687096528709,0.0023881949018687,-0.0489373840391636,-0.00438651721924543,-0.0483605749905109,0.0174052212387323
166,0.00453263102099299,-0.0169731806963682,-0.0434521175920963,-0.000297687452984974,-0.0340532697737217,0.0154173821210861
167,0.0073708021081984,-0.0277431923896074,-0.043431218713522,-0.00155457528308034,-0.0285412594676018,0.01323167886585
168,0.00577151402831078,-0.0273564234375954,-0.0484042502939701,-0.00826478842645884,-0.0346311256289482,0.0113889770582318
169,0.00395108852535486,-0.0210685841739178,-0.0491369664669037,-0.0113608594983816,-0.0431880280375481,0.0192819647490978
170,0.00194450945127755,-0.0189623422920704,-0.0437661856412888,-0.0081204567104578,-0.0470031648874283,0.0325268357992172
171,0.000970338529441506,-0.0200271215289831,-0.0369197390973568,-0.00243457732722163,-0.0458576269447804,0.0421862676739693
172,0.000439779279986396,-0.0150173958390951,-0.0337668173015118,0.00165921938605607,-0.0445615947246552,0.0465984828770161
173,-0.00436106789857149,-0.00302284932695329,-0.0373704507946968,0.000384144223062322,-0.0489634685218334,0.044593121856451
174,-0.0121393967419863,0.0108114238828421,-0.0433936268091202,-0.00437898840755224,-0.0571867525577545,0.0392045900225639
175,-0.0179669726639986,0.0236344859004021,-0.0474562123417854,-0.00799555331468582,-0.0633669048547745,0.0455918088555336
176,-0.0167516078799963,0.0328763760626316,-0.0496227853000164,-0.00820435117930174,-0.0650307536125183,0.0740700662136078
177,-0.00516804168000817,0.0390528813004494,-0.0468755625188351,-0.00366030214354396,-0.0608304664492607,0.106671705842018
178,0.00709695229306817,0.0416639558970928,-0.0400756746530533,0.000170166749740019,-0.0545814707875252,0.1128034517169
179,0.00857842527329922,0.0367865636944771,-0.0350721925497055,-0.00102141604293138,-0.0516866855323315,0.0898878872394562
180,0.000641325954347849,0.0251727104187012,-0.0336915366351604,-0.00145243562292308,-0.0515965335071087,0.0629657953977585
181,-0.00983704160898924,0.00934968795627356,-0.0360347554087639,0.00135370809584856,-0.052267037332058,0.048859030008316
182,-0.014976522885263,-0.00560799427330494,-0.0387823544442654,0.0049704248085618,-0.0515872053802013,0.0450194142758846
183,-0.0131718832999468,-0.0146085619926453,-0.0375013090670109,0.00752624263986945,-0.0493585728108883,0.0408979207277298
184,-0.0120117450132966,-0.0196887645870447,-0.0342420265078545,0.00632559973746538,-0.0494241267442703,0.0282690785825253
185,-0.0131818819791079,-0.0175507627427578,-0.032661397010088,0.0035612522624433,-0.0521982982754707,0.014154776930809
186,-0.01374720223248,-0.00114622164983302,-0.0381901413202286,-8.49236676003784E-05,-0.0565681159496307,0.0130938701331615
187,-0.0161987915635109,0.0191059075295925,-0.0578394792973995,-0.0117643652483821,-0.066554494202137,0.0224797111004591
188,-0.0210422333329916,0.0290375873446465,-0.0878460332751274,-0.0327771194279194,-0.0831612721085548,0.0332532823085785
189,-0.0267948303371668,0.0352895148098469,-0.115819193422794,-0.0555474460124969,-0.100159518420696,0.04989904910326
190,-0.0319020450115204,0.0472796484827995,-0.12848986685276,-0.0670290142297745,-0.106541082262993,0.0705618411302567
191,-0.0302686952054501,0.0587619282305241,-0.115298517048359,-0.0551778562366962,-0.0924787893891335,0.0802588611841202
192,-0.019109083339572,0.0590397454798222,-0.0811793059110641,-0.0262012220919132,-0.064332515001297,0.0756596997380257
193,-0.00301867048256099,0.0432542264461517,-0.0442919842898846,0.00218279240652919,-0.0406445935368538,0.0647560656070709
194,0.0111718280240893,0.0149334007874131,-0.0205982513725758,0.0198910087347031,-0.0332899317145348,0.0550553612411022
195,0.0191321205347776,-0.0159026049077511,-0.0157226361334324,0.0251432321965694,-0.0416577942669392,0.0508146956562996
196,0.0221160873770714,-0.0389265231788158,-0.0219266433268785,0.0223677884787321,-0.0547539629042149,0.0504741556942463
197,0.0212114825844765,-0.0490509532392025,-0.0289392005652189,0.0181857217103243,-0.0622054487466812,0.0512919723987579
198,0.0159262903034687,-0.0454204641282558,-0.0348847657442093,0.0147611042484641,-0.0647807717323303,0.0510958395898342
199,0.00995118543505669,-0.0280994977802038,-0.0400935858488083,0.0113089112564921,-0.0678540542721748,0.0492016151547432
200,0.00722354184836149,-0.00247009424492717,-0.0435544215142727,0.00762342335656285,-0.0733024552464485,0.0518527589738369
201,0.00694540049880743,0.0221126601099968,-0.0458467081189156,0.00620088586583734,-0.0803785547614098,0.0638831257820129
202,0.00571676203981042,0.0435109473764896,-0.0481209196150303,0.00569584313780069,-0.0871596336364746,0.0817516148090363
203,-0.000481957977171987,0.0663284361362457,-0.0557997561991215,-0.00587831903249025,-0.0958193242549896,0.0992035269737244
204,-0.00876034423708916,0.0857765227556229,-0.0716765448451042,-0.0293423980474472,-0.108286187052727,0.106411702930927
205,-0.00798167940229177,0.0860414952039719,-0.0844976082444191,-0.0446899645030499,-0.11391781270504,0.0957320109009743
206,0.00319213420152664,0.0635304227471352,-0.0810728371143341,-0.0402819477021694,-0.103459365665913,0.0711503773927689
207,0.0137365693226457,0.0368728749454021,-0.0572424456477165,-0.0207758545875549,-0.0818686261773109,0.0460370182991028
208,0.0155208641663194,0.0187168009579182,-0.0241200495511293,0.00304438127204776,-0.0601456835865974,0.0307982508093119
209,0.00808825064450502,0.00241783726960421,-0.00150980334728956,0.0205809194594622,-0.0475386679172516,0.0262152086943388
210,-0.0032001780346036,-0.0114529663696885,0.00548623455688357,0.0312582701444626,-0.0446544326841831,0.0354773253202438
211,-0.0146984430029988,-0.0153282517567277,0.00159514171537012,0.0365102849900723,-0.048740703612566,0.0606468357145786
212,-0.0246182512491941,-0.0102937798947096,-0.0105931581929326,0.0335940830409527,-0.059293370693922,0.0883524641394615
213,-0.0265227444469929,-0.000617355923168361,-0.0238808449357748,0.02625996991992,-0.0708661079406738,0.103173039853573
214,-0.0189896691590548,0.00804031360894442,-0.0318922884762287,0.0206415019929409,-0.0776803493499756,0.101336196064949
215,-0.00640002964064479,0.0132767595350742,-0.0357260555028915,0.0161825381219387,-0.0799034684896469,0.0878864452242851
216,0.00737516768276691,0.0204877685755491,-0.037817507982254,0.00895867869257927,-0.0791891813278198,0.072784885764122
217,0.0137677062302828,0.0297386571764946,-0.0433854572474957,-0.00738993007689714,-0.0796790346503258,0.0582409352064133
218,0.00668323040008545,0.0349319614470005,-0.0547788701951504,-0.0312865376472473,-0.0848681926727295,0.0407146140933037
219,-0.00983884464949369,0.0362537801265717,-0.0621334873139858,-0.0463684014976025,-0.0890496969223022,0.0274047404527664
220,-0.0250220261514187,0.0378537625074387,-0.0586062632501125,-0.0437633469700813,-0.0838517248630524,0.0282953437417746
221,-0.0277937836945057,0.039709385484457,-0.049486305564642,-0.0308420266956091,-0.0705157071352005,0.0442108809947968
222,-0.0195536259561777,0.0382957123219967,-0.0404148586094379,-0.0150934597477317,-0.0587639063596725,0.0725297778844833
223,-0.0120575511828065,0.0400212779641151,-0.0334955602884293,0.000898314989171922,-0.0578717179596424,0.108420237898827
224,-0.0105181541293859,0.0554724745452404,-0.0291437096893787,0.0158588606864214,-0.0667234510183334,0.138060167431831
225,-0.0139832384884357,0.0743828192353249,-0.0274609960615635,0.027123112231493,-0.0759153813123703,0.144052073359489
226,-0.0198768507689238,0.0787535309791565,-0.0275144912302494,0.0316704586148262,-0.0802553445100784,0.122176542878151
227,-0.0231090970337391,0.0688068196177483,-0.0254389252513647,0.0294681675732136,-0.0792966708540916,0.087497390806675
228,-0.0223682038486004,0.049792505800724,-0.0210609082132578,0.021534901112318,-0.0742982402443886,0.0577873587608337
229,-0.0188387893140316,0.0236820615828037,-0.0169682726264,0.01168108638376,-0.0676012262701988,0.040580041706562
230,-0.0134991798549891,-0.00094839750090614,-0.0142190000042319,0.00412525795400143,-0.061989214271307,0.0371381193399429
231,-0.0103976679965854,-0.0179568026214838,-0.0158340726047754,-0.0022617862559855,-0.0613731555640697,0.0435735955834389
232,-0.00942068640142679,-0.0260567832738161,-0.019997850060463,-0.00629029516130686,-0.0635957717895508,0.0530586801469326
233,-0.0063498136587441,-0.0248157754540443,-0.021884748712182,-0.00856857467442751,-0.0626615583896637,0.0591900944709778
234,-0.00533953215926886,-0.0182646252214909,-0.0269474182277918,-0.0202755313366652,-0.0629555061459541,0.0586951039731503
235,-0.012833796441555,-0.00615234160795808,-0.0395900867879391,-0.0437792986631393,-0.0703495293855667,0.0562424249947071
236,-0.0269422736018896,0.0101479571312666,-0.0541891790926456,-0.0643889084458351,-0.0799714624881744,0.058753602206707
237,-0.0379942432045937,0.0211824160069227,-0.0650641769170761,-0.0685074105858803,-0.0854706987738609,0.0692109391093254
238,-0.0349412113428116,0.0261978544294834,-0.0665704309940338,-0.0526382029056549,-0.0832570940256119,0.0896743759512901
239,-0.0222149528563023,0.0302273072302341,-0.0558053441345692,-0.0258656572550535,-0.0731643959879875,0.114602088928223
240,-0.0126323914155364,0.0327532254159451,-0.0344008207321167,-0.00236094743013382,-0.0571039766073227,0.130501255393028
241,-0.00755431735888124,0.02961709164083,-0.0083756260573864,0.0104392170906067,-0.0359100326895714,0.127609968185425
242,-0.00649066362529993,0.0154864648357034,0.00574177224189043,0.00832592509686947,-0.0163260083645582,0.0975390821695328
243,-0.00820379611104727,-0.00803969241678715,0.00133719178847969,-0.00545465713366866,-0.00495714042335749,0.045777402818203
244,-0.00754983443766832,-0.0294124931097031,-0.007385213393718,-0.020191352814436,-0.00136980670504272,0.0011445899726823
245,-0.00782151147723198,-0.0389425903558731,-0.0125074796378613,-0.0318655259907246,-0.00823009293526411,-0.0139456382021308
246,-0.0128018036484718,-0.0312143806368113,-0.0188445802778006,-0.0409259907901287,-0.0277206283062696,-0.00102735415566713
247,-0.0188608672469854,-0.00484026642516255,-0.0300490688532591,-0.0498135164380074,-0.0530324876308441,0.0230480395257473
248,-0.0207742918282747,0.026296703144908,-0.0433946587145329,-0.0592444576323032,-0.0734066441655159,0.0416975431144238
249,-0.0127574913203716,0.0441983677446842,-0.049075860530138,-0.058013092726469,-0.079540841281414,0.0554124005138874
250,-0.00284501165151596,0.0456519313156605,-0.044124536216259,-0.0420104898512363,-0.0743688195943832,0.068841241300106
251,-0.00670044822618365,0.0353086292743683,-0.0372537225484848,-0.024009196087718,-0.0719136446714401,0.0771421119570732
252,-0.0200182963162661,0.0200590901076794,-0.032231330871582,-0.0113236578181386,-0.0767270624637604,0.0862624943256378
253,-0.0318244770169258,0.0103998873382807,-0.0277915503829718,-0.00429166853427887,-0.082133024930954,0.104507356882095
254,-0.0398759692907333,0.0119382562115788,-0.0225232541561127,-0.00317734060809016,-0.0792731419205666,0.116309471428394
255,-0.0439984239637852,0.0173386558890343,-0.0149371307343245,-0.00461056968197227,-0.0648389458656311,0.105693086981773
256,-0.0454800501465797,0.0151112293824553,-0.00827391166239977,-0.0048507247120142,-0.0477728098630905,0.081860825419426
257,-0.0418742671608925,0.00709933182224631,-0.00237112725153565,-0.000410298409406096,-0.0344806425273418,0.0636498853564262
258,-0.0293773431330919,0.000926139939110726,0.00884441379457712,0.00830523390322924,-0.0217747874557972,0.0558885000646114
259,-0.0101782092824578,-0.00507815089076757,0.0241730231791735,0.013924234546721,-0.0117124198004603,0.0495307072997093
260,0.0115422606468201,-0.0101933442056179,0.0359604172408581,0.0149400746449828,-0.00977834966033697,0.0453154034912586
261,0.026542641222477,-0.00718503212556243,0.0378200262784958,0.0142388343811035,-0.0159843005239964,0.052023109048605
262,0.0251016598194838,0.00611439719796181,0.0282405186444521,0.00807424541562796,-0.0258287899196148,0.0636436492204666
263,0.0142027111724019,0.0239737723022699,0.0103755509480834,-0.00843651313334703,-0.0332582592964172,0.067225955426693
264,0.00602930830791593,0.0368285998702049,-0.013749523088336,-0.0351647213101387,-0.0395462363958359,0.0586479604244232
265,-0.00247673224657774,0.0367097333073616,-0.0416922233998775,-0.064390517771244,-0.054973941296339,0.0390608943998814
266,-0.0192609447985888,0.0200342312455177,-0.0673718526959419,-0.0845392718911171,-0.0821427330374718,0.0137793887406588
267,-0.040206890553236,-0.00554198445752263,-0.0808428972959518,-0.0860607028007507,-0.103955939412117,-0.00273281382396817
268,-0.0499614700675011,-0.0201708190143108,-0.071543887257576,-0.062686488032341,-0.0981766134500504,0.00404338166117668
269,-0.039852362126112,-0.0144796269014478,-0.0406647324562073,-0.0217349100857973,-0.0632030218839645,0.0362887643277645
270,-0.0172262862324715,0.00224021635949612,-0.00375245232135057,0.0168336350470781,-0.0199474729597569,0.0845481157302856
271,0.00448349304497242,0.0224163997918367,0.0226288586854935,0.0402428321540356,0.00982228107750416,0.130369424819946
272,0.0128941098228097,0.0401024222373962,0.0311877280473709,0.0466676093637943,0.0171993914991617,0.150916233658791
273,0.00868447218090296,0.0452906936407089,0.0256005357950926,0.0394927226006985,0.00796287320554256,0.13537073135376
274,0.00643599778413773,0.0349965989589691,0.0145312128588557,0.0267901252955198,-0.0040644658729434,0.0952997654676437
275,0.0086451405659318,0.0135879367589951,0.00210451381281018,0.0132111124694347,-0.0124032646417618,0.0508430451154709
276,0.00603104894980788,-0.00707579962909222,-0.00920319464057684,-0.000282474036794156,-0.0186184495687485,0.0185564216226339
277,-0.00046092679258436,-0.0124254003167152,-0.01163593493402,-0.00628537544980645,-0.0199710726737976,0.0113020809367299
278,-0.00483978446573019,-0.000668826629407704,-0.00242722267284989,-0.000739405979402363,-0.0124118868261576,0.0298501364886761
279,-0.00591207994148135,0.0171985253691673,0.0117879183962941,0.00926015991717577,0.00099426822271198,0.0590832233428955
280,-0.00365754100494087,0.0252370275557041,0.028338922187686,0.0187933314591646,0.0146963121369481,0.0825549438595772
281,6.73217655275948E-05,0.0173266120254993,0.0444824174046516,0.0239374432712793,0.0216121152043343,0.0922492891550064
282,0.00472649000585079,0.00796271488070488,0.0510257557034492,0.0200117994099855,0.0165723748505116,0.087021216750145
283,0.0120127042755485,0.00729714427143335,0.0417248457670212,0.00904172752052546,0.00417062547057867,0.0703695565462112
284,0.0194726511836052,0.0081060603260994,0.0180070679634809,-0.00466560339555144,-0.00893644895404577,0.050531517714262
285,0.0264990031719208,0.00873503461480141,-0.00729564158245921,-0.0145800895988941,-0.018504373729229,0.039024718105793
286,0.0335468500852585,0.0106922565028071,-0.0202121082693338,-0.0154903065413237,-0.0206656623631716,0.0367822349071503
287,0.0359106138348579,0.0102810896933079,-0.020364610478282,-0.010801637545228,-0.0164871737360954,0.0341632887721062
288,0.0298467129468918,0.0103963427245617,-0.0163359548896551,-0.00689015816897154,-0.0133949974551797,0.0343510247766972
289,0.0135856326669455,0.0149428779259324,-0.0203510150313377,-0.0114640686661005,-0.0205573346465826,0.0448635257780552
290,-0.00636952463537455,0.0189832262694836,-0.0365392565727234,-0.0286411847919226,-0.0358898900449276,0.0514464415609837
291,-0.01481126062572,0.0166285093873739,-0.0533530339598656,-0.0503532327711582,-0.044194545596838,0.0409705974161625
292,-0.0093072596937418,0.00901556294411421,-0.0596035905182362,-0.0627179741859436,-0.0401550754904747,0.0282795894891024
293,0.00173973490018398,0.00133619888219982,-0.0503534749150276,-0.0562500543892384,-0.0310692563652992,0.0284778587520123
294,0.0132931228727102,-0.00346602406352758,-0.0259880293160677,-0.0366524718701839,-0.0208169985562563,0.0314503200352192
295,0.0227465070784092,-0.00491149490699172,0.00319832190871239,-0.0193777158856392,-0.0113064218312502,0.0250524431467056
296,0.0277609843760729,-0.00293512735515833,0.0232660751789808,-0.0107908621430397,-0.00750234443694353,0.0173322930932045
297,0.0225206632167101,0.00204404024407268,0.0258122179657221,-0.00969251897186041,-0.0139024863019586,0.0202801451086998
298,0.00680118799209595,0.00977809447795153,0.0158295668661594,-0.00988551694899797,-0.0263636074960232,0.0315536744892597
299,-0.00635694898664951,0.0191423967480659,0.00871707033365965,-0.000613621261436492,-0.0315558351576328,0.0437705367803574
300,-0.00609560217708349,0.0267398711293936,0.0123047353699803,0.0171683877706528,-0.021177401766181,0.0550766289234161
301,0.00746617093682289,0.0301405917853117,0.021874962374568,0.0315028354525566,-0.00136059557553381,0.0676788091659546
302,0.0276371985673904,0.0304192379117012,0.0308736097067595,0.0375596582889557,0.0153560470789671,0.0873920768499374
303,0.0438586696982384,0.0268669091165066,0.0347232297062874,0.037679098546505,0.0199046172201633,0.107941262423992
304,0.0486286915838718,0.0189614556729794,0.0311215631663799,0.0346498526632786,0.0121326958760619,0.109552830457687
305,0.0419100783765316,0.0158051867038012,0.0204886086285114,0.0275801550596952,0.00148711178917438,0.0919473096728325
306,0.0289001800119877,0.0271254573017359,0.00427275942638516,0.00914748385548592,-0.00324082304723561,0.0700275003910065
307,0.0185933988541365,0.0431804656982422,-0.00900086853653193,-0.0172826815396547,0.000632725073955953,0.0497426427900791
308,0.0137122822925448,0.0434773936867714,-0.0102557661011815,-0.0337873362004757,0.00947974063456059,0.0370308868587017
309,0.0070192227140069,0.0302261300384998,-0.00440133595839143,-0.0330928079783916,0.0134299919009209,0.0376520492136478
310,-0.00515607930719852,0.0224896222352982,-0.00170072633773088,-0.0254912935197353,0.00641546724364161,0.0392127893865108
311,-0.017421992495656,0.0173663571476936,-0.00838849600404501,-0.0243925079703331,-0.00970288086682558,0.0215135402977467
312,-0.021073367446661,-0.00137810711748898,-0.0224730689078569,-0.0302847027778625,-0.0287630893290043,-0.0133459065109491
313,-0.0143472533673048,-0.0283536501228809,-0.0326503105461597,-0.0327736213803291,-0.0432321093976498,-0.0442471653223038
314,-0.00400505028665066,-0.045564491301775,-0.0305057130753994,-0.0266055595129728,-0.0481115765869617,-0.0539604686200619
315,0.00648920144885778,-0.0447811596095562,-0.0163037553429604,-0.0128617687150836,-0.0417637526988983,-0.0374113656580448
316,0.0173164121806622,-0.028458783403039,0.00111383676994592,0.00244386517442763,-0.0283923447132111,-0.00016795725969132
317,0.0248977914452553,-0.00377677287906408,0.00950152706354856,0.0102323219180107,-0.0161294341087341,0.0444633215665817
318,0.027264803647995,0.0213805232197046,0.00823591090738773,0.0102348197251558,-0.00762071134522557,0.0765919759869576
319,0.0276298858225346,0.0367730855941772,0.00698492443189025,0.00768896192312241,-0.000924599356949329,0.0810095444321632
320,0.0283780191093683,0.0348294861614704,0.013577388599515,0.00427246699109674,0.00333773414604366,0.0611699149012566
321,0.0306162089109421,0.0200046133249998,0.0282393358647823,0.00243848422542214,0.00433175358921289,0.0366898849606514
322,0.0322025269269943,0.00495361443608999,0.0367743670940399,0.00113955780398101,5.87795111641753E-05,0.0208115130662918
323,0.0282739866524935,0.00430571148172021,0.0260896049439907,-0.00240445300005376,-0.0124355787411332,0.00988026149570942
324,0.0194523390382528,0.0189611278474331,0.00371110392734408,-0.00362767628394067,-0.0284401569515467,0.00284825055859983
325,0.00672513619065285,0.024346087127924,-0.019223814830184,-0.0064762239344418,-0.0388838760554791,-0.00131304515525699
326,-0.00717392051592469,0.00311858183704317,-0.0348806045949459,-0.0199365764856339,-0.0350270457565784,-0.0124181248247623
327,-0.0121684931218624,-0.0305933970957994,-0.0318830534815788,-0.0328570231795311,-0.0135235236957669,-0.0285115260630846
328,-0.00610467698425055,-0.0539131239056587,-0.0110345734283328,-0.0293129365891218,0.0134266931563616,-0.0356322638690472
329,0.00350196240469813,-0.0568837560713291,0.0153369093313813,-0.00821106322109699,0.0310810599476099,-0.0264513585716486
330,0.011701344512403,-0.0428124740719795,0.0404373817145824,0.0234409216791391,0.0385221131145954,-0.00310898595489562
331,0.0193158350884914,-0.02125184237957,0.059349536895752,0.052950419485569,0.0406954847276211,0.0269712619483471
332,0.0307087879627943,-0.00176238396670669,0.0707004740834236,0.0706505328416824,0.0450992062687874,0.0586087964475155
333,0.0419519878923893,0.0101592056453228,0.0784173160791397,0.0760363265872002,0.0559542588889599,0.0886008813977242
334,0.0440699383616447,0.0184111688286066,0.0791049674153328,0.069290429353714,0.0621359124779701,0.108469799160957
335,0.0391007997095585,0.0328151993453503,0.0680807307362556,0.0537411347031593,0.0541121773421764,0.111263491213322
336,0.0326511971652508,0.0537184849381447,0.0467879101634026,0.0348943956196308,0.0372527167201042,0.0955837815999985
337,0.0278498828411102,0.0713469311594963,0.0207008700817823,0.0157345030456781,0.0196385458111763,0.0642537847161293
338,0.0270919352769852,0.0728878974914551,-0.00174453877843916,-0.000163036747835577,0.00620025070384145,0.0242923870682716
339,0.0282089840620756,0.0514720864593983,-0.0182542093098164,-0.0119243822991848,-0.00165998877491802,-0.0162194408476353
340,0.0294518601149321,0.0248789377510548,-0.0282265711575747,-0.0191576778888702,-0.00563825154677033,-0.0442559011280537
341,0.0278695821762085,0.0225075334310532,-0.0285010617226362,-0.0222438629716635,-0.00977933127433062,-0.0479322299361229
342,0.0193070080131292,0.0445964075624943,-0.0242733675986528,-0.0249876361340284,-0.0182924568653107,-0.0309218876063824
343,0.00998192839324474,0.0661929920315742,-0.0202735066413879,-0.0223458334803581,-0.0279842708259821,-0.00263038068078458
344,0.00776367681100965,0.0679233893752098,-0.013329260982573,-0.00923434738069773,-0.0330047532916069,0.0283143632113934
345,0.0112373055890203,0.0454693548381329,-0.00366988289169967,0.00428645266219974,-0.0332432463765144,0.0448263473808765
346,0.0191871020942926,0.00921827368438244,0.00545192789286375,0.0104922167956829,-0.0296842586249113,0.0380905829370022
347,0.0314277000725269,-0.0286404490470886,0.0129832588136196,0.0133131630718708,-0.0215632561594248,0.0242119804024696
348,0.0418954901397228,-0.0556077770888805,0.0178226660937071,0.0157202705740929,-0.0107834562659264,0.0191843714565039
349,0.0436007976531982,-0.0557255856692791,0.0197361428290606,0.0167696326971054,-0.000912696355953813,0.0183677356690168
350,0.0340246595442295,-0.0319840498268604,0.0183720793575048,0.0133554134517908,0.00584966316819191,0.0133858416229486
351,0.0185751691460609,-0.00507263699546456,0.0130432918667793,0.00464032962918282,0.00826675072312355,0.00138826773036271
352,0.00687295803800225,0.0111406315118074,0.00682734465226531,-0.00234680064022541,0.00851534679532051,-0.0183533504605293
353,0.00302200554870069,0.011938345618546,0.0030337511561811,-0.00339444866403937,0.0123524125665426,-0.0403154939413071
354,0.00950471311807632,-0.000241153727984056,0.00391338346526027,-0.0013748585479334,0.0246693212538958,-0.0554086156189442
355,0.0262844413518906,-0.0149968815967441,0.0084576578810811,0.000417640112573281,0.0426591336727142,-0.0593955479562283
356,0.0439671762287617,-0.0198718123137951,0.009864023886621,-0.00147575279697776,0.0561213418841362,-0.0542536154389381
357,0.0525179877877235,-0.0130394976586103,0.00740766525268555,-0.00837222952395678,0.0579833947122097,-0.0436499044299126
358,0.0485473349690437,-0.0127928266301751,0.0036300525534898,-0.0208748541772366,0.0459684580564499,-0.0324811115860939
359,0.0354816056787968,-0.0305490326136351,-0.0051017040386796,-0.0342216640710831,0.0226718671619892,-0.0238158386200666
360,0.0224084407091141,-0.0481619648635387,-0.0123871304094791,-0.0320373885333538,0.00281168008223176,-0.011399993672967
361,0.0139562049880624,-0.0478373169898987,-0.00714819505810738,-0.0117669487372041,-0.000263953639660031,0.00973759964108467
362,0.0109278336167336,-0.0333080850541592,0.00602661864832044,0.00695800222456455,0.0104889692738652,0.0278741400688887
363,0.0160064753144979,-0.0166605692356825,0.0198391620069742,0.0151197565719485,0.0275124050676823,0.0301085598766804
364,0.0247733145952225,-0.00837593898177147,0.0320601314306259,0.0196179393678904,0.0460221022367477,0.0218342449516058
365,0.0318048521876335,-0.010207537561655,0.0382854081690311,0.0255716871470213,0.0585997924208641,0.0178077127784491
366,0.0381632223725319,-0.0155618777498603,0.0352570787072182,0.0301330760121346,0.0567598938941956,0.0215989481657743
367,0.0404501855373383,-0.0189556442201138,0.0257705021649599,0.0254101846367121,0.0412928201258183,0.0205515250563622
368,0.0370105654001236,-0.0178547184914351,0.0174792837351561,0.0119241727516055,0.0253019127994776,0.00556596135720611
369,0.0324147529900074,-0.0135889146476984,0.0127876102924347,-0.00273703807033598,0.01823840290308,-0.0169084202498198
370,0.0253712125122547,-0.00850031338632107,0.00543303694576025,-0.0152463642880321,0.0152888633310795,-0.0373145528137684
371,0.0126981195062399,-0.00388517021201551,-0.00610708119347692,-0.0233920328319073,0.00923962518572807,-0.0513022691011429
372,-0.00390039384365082,-0.000579543178901076,-0.0164737906306982,-0.0265267137438059,-0.000933302333578467,-0.0547882840037346
373,-0.016310665756464,0.0066370596177876,-0.0210378114134073,-0.0249490402638912,-0.0107977883890271,-0.0437327697873116
374,-0.0127136502414942,0.0175613090395927,-0.0154448188841343,-0.0140105914324522,-0.0113548180088401,-0.0180867500603199
375,0.00777086894959211,0.0200339592993259,-0.00179579481482506,0.00488412007689476,0.00081634713569656,0.0126323690637946
376,0.033105093985796,0.0164807848632336,0.00943646673113108,0.0197745747864246,0.017050176858902,0.0308626443147659
377,0.0514398664236069,0.0265954341739416,0.0130106313154101,0.0228476244956255,0.0286639835685492,0.0330550670623779
378,0.0576523803174496,0.0510465055704117,0.0120211085304618,0.0158017799258232,0.0347089692950249,0.0284353476017714
379,0.0539427325129509,0.064040943980217,0.0136216776445508,0.00751106580719352,0.0390916578471661,0.0164058040827513
380,0.0451591573655605,0.0482837744057179,0.0209320541471243,0.00473384279757738,0.0439595021307468,-0.00539683550596237
381,0.0340474545955658,0.0138913774862885,0.0280984491109848,0.00517783593386412,0.0459454357624054,-0.0273497309535742
382,0.0241397749632597,-0.0180455800145864,0.034911647439003,0.00983320362865925,0.0473525524139404,-0.0360389426350594
383,0.0175711661577225,-0.0369539819657803,0.0433938540518284,0.0204793252050877,0.0536833740770817,-0.0315934717655182
384,0.0134611334651709,-0.0437932051718235,0.0457381568849087,0.0280946418642998,0.0608393475413322,-0.02693010866642
385,0.0133320856839418,-0.0392431728541851,0.0381293147802353,0.027487562969327,0.0628270953893662,-0.0241183582693338
386,0.0174039155244827,-0.0240817815065384,0.0254067946225405,0.0230861529707909,0.0586200580000877,-0.0157942697405815
387,0.0202325731515884,-0.00253460393287241,0.0117927175015211,0.0168101564049721,0.0491910018026829,-0.00728755770251155
388,0.0146130723878741,0.0202418304979801,-0.000834887265227735,0.00817320588976145,0.0360828228294849,-0.0104944230988622
389,-0.00104857853148133,0.0347019322216511,-0.0115706482902169,1.00671968539245E-06,0.0216999445110559,-0.0239820629358292
390,-0.0143991280347109,0.0336558856070042,-0.0167094301432371,-0.00173119048122317,0.0119236232712865,-0.0337541624903679
391,-0.0102077638730407,0.0243299137800932,-0.0127456821501255,0.00295571517199278,0.0134188020601869,-0.0333093665540218
392,0.00900595914572477,0.0186856482177973,-0.00388150312937796,0.0042698779143393,0.0250154547393322,-0.0307916086167097
393,0.0287465583533049,0.0200120955705643,0.00436392612755299,-0.00291193230077624,0.037777554243803,-0.0298046842217445
394,0.0388265065848827,0.0182150714099407,0.00995063129812479,-0.0130731416866183,0.0432766489684582,-0.0281875003129244
395,0.0395837053656578,0.00480041140690446,0.0123279085382819,-0.0172830782830715,0.0413738153874874,-0.030662277713418
396,0.0377851165831089,-0.0109240449965,0.0132910087704659,-0.0113405901938677,0.0393677912652493,-0.0374341197311878
397,0.0345644056797028,-0.018561901524663,0.0127022797241807,-0.00227695843204856,0.0421105325222015,-0.0376164056360722
398,0.0280094407498837,-0.0151101918891072,0.00939077418297529,0.00270359730347991,0.0472856350243092,-0.023839995265007
399,0.0229887813329697,-0.000572013494092971,0.00489905057474971,0.0059755751863122,0.0505051091313362,0.00163370813243091
400,0.0208795145153999,0.0169712658971548,-0.00548776052892208,0.00497573427855968,0.0460055507719517,0.0266692917793989
401,0.0164828822016716,0.0270313713699579,-0.0249287597835064,-0.00658994168043137,0.0314278304576874,0.0279346592724323
402,0.014102216809988,0.0209579411894083,-0.039813369512558,-0.0237454753369093,0.017160264775157,-0.00838107615709305
403,0.0207356084138155,-0.00728836888447404,-0.0443634651601315,-0.042864415794611,0.0074716373346746,-0.0703859850764275
404,0.0288917608559132,-0.0481616035103798,-0.0483850464224815,-0.0614242926239967,-0.00558045692741871,-0.130231410264969
405,0.0270715095102787,-0.0782473683357239,-0.0479765087366104,-0.0646461844444275,-0.0176870413124561,-0.161101818084717
406,0.01775773614645,-0.0790212377905846,-0.0295844934880733,-0.0413950234651566,-0.0145995691418648,-0.152278795838356
407,0.0145647972822189,-0.0455550067126751,0.00892613455653191,0.00423066224902868,0.0111286211758852,-0.105296649038792
408,0.0241161901503801,0.00333753600716591,0.0522044785320759,0.0548144355416298,0.05111413449049,-0.0327622555196285
409,0.0390503145754337,0.0389897525310516,0.0774695128202438,0.0876116827130318,0.0832715407013893,0.0344395078718662
410,0.0473165325820446,0.057967983186245,0.0788046941161156,0.096000649034977,0.0937515571713448,0.0695614144206047
411,0.0400979928672314,0.0696202218532562,0.0683634281158447,0.0896973013877869,0.0860529392957687,0.0720478221774101
412,0.0202560853213072,0.0731678530573845,0.0583157353103161,0.077759861946106,0.069605216383934,0.0559468939900398
413,0.00146205711644143,0.0650889202952385,0.0535552576184273,0.065521314740181,0.0531954504549503,0.0333949960768223
414,-0.00968013983219862,0.0478528402745724,0.0495098121464252,0.0528053902089596,0.0399128459393978,0.0134240938350558
415,-0.0152642410248518,0.032491710036993,0.0405043885111809,0.0373840406537056,0.0289752092212439,0.00173266790807247
416,-0.0182712208479643,0.0266213994473219,0.0275214686989784,0.020322160795331,0.0220956411212683,-0.0102088833227754
417,-0.022202642634511,0.0247336179018021,0.0134934764355421,0.00313695869408548,0.0194526575505733,-0.0355262421071529
418,-0.0240043308585882,0.0237069763243198,0.00348147749900818,-0.00768721662461758,0.0203215200453997,-0.0638025626540184
419,-0.0186506658792496,0.0260982755571604,-0.000531940313521773,-0.00710380123928189,0.0244206842035055,-0.0705098137259483
420,-0.00838949251919985,0.0275285877287388,-0.00258672656491399,-0.00168560177553445,0.0287783704698086,-0.0472960248589516
421,0.00173787691164762,0.0195352863520384,-0.0063113491050899,0.000425092759542167,0.0288611277937889,-0.0109206857159734
422,0.0077610514126718,-0.000774512125644833,-0.0143986297771335,-0.0039825364947319,0.0237771663814783,0.00561199290677905
423,0.015782255679369,-0.0236911084502935,-0.0229001436382532,-0.0120316864922643,0.0229525733739138,-0.0128940884023905
424,0.0332708097994328,-0.0346759706735611,-0.0218553710728884,-0.0164089947938919,0.0341187678277493,-0.0445484220981598
425,0.0455083586275578,-0.0309212859719992,-0.0123752076178789,-0.0150073980912566,0.0462013222277164,-0.0643527209758759
426,0.0386693179607391,-0.0204434562474489,-0.00498691387474537,-0.0071507110260427,0.0460606589913368,-0.0664408951997757
427,0.023239953443408,-0.0099571505561471,-0.00297546503134072,0.00877153314650059,0.0393731668591499,-0.0541175454854965
428,0.0102107282727957,0.00277308491058648,-0.0029708263464272,0.0252450406551361,0.0373278148472309,-0.036382868885994
429,0.000873556185979396,0.0207501519471407,3.3142336178571E-05,0.0347186885774136,0.0418284311890602,-0.0235519614070654
430,-0.00466935522854328,0.034977849572897,0.00822335388511419,0.037961732596159,0.047968789935112,-0.0186996776610613
431,-0.00882768165320158,0.0400923006236553,0.0163852106779814,0.0361100248992443,0.0489793121814728,-0.0201386623084545
432,-0.0131104532629251,0.0482183322310448,0.0207614321261644,0.0322197005152702,0.0448733568191528,-0.0255459100008011
433,-0.0169713478535414,0.0610281154513359,0.0190730895847082,0.0245349258184433,0.0387309789657593,-0.034225407987833
434,-0.0221544839441776,0.0627663731575012,0.00477827247232199,0.00348574877716601,0.0259799677878618,-0.0477974638342857
435,-0.0279330909252167,0.0483541525900364,-0.0183687675744295,-0.0231586508452892,0.00731318723410368,-0.0626118257641792
436,-0.0282459054142237,0.0239184163510799,-0.0338661000132561,-0.0340529084205627,-0.0033748890273273,-0.0711449086666107
437,-0.0165885593742132,-0.00212064082734287,-0.0330581553280354,-0.0246891155838966,0.00335790636017919,-0.0721356719732285
438,0.00539642665535212,-0.0230986922979355,-0.0202851332724094,-0.00455540651455522,0.0242680739611387,-0.0699325054883957
439,0.0236510224640369,-0.0401003733277321,-0.00348836905322969,0.0180991925299168,0.0482994765043259,-0.0672700330615044
440,0.0292097833007574,-0.0518833920359612,0.0145404217764735,0.0404631085693836,0.064599871635437,-0.0614092312753201
441,0.0280365813523531,-0.0509940274059772,0.0361296385526657,0.0626151114702225,0.0722816288471222,-0.0442192256450653
442,0.0253600962460041,-0.0340830758213997,0.0564968511462212,0.0796203464269638,0.0750669240951538,-0.0105971107259393
443,0.0227809678763151,-0.00454143155366182,0.0665278211236,0.086666464805603,0.0744640082120895,0.0276607684791088
444,0.020011056214571,0.0257082432508469,0.0620043575763702,0.0820914432406425,0.0695150047540665,0.0448332168161869
445,0.0147686619311571,0.0423734001815319,0.0443681702017784,0.0656126141548157,0.0589064657688141,0.03084522113204
446,0.00978696439415216,0.0416479557752609,0.0226459708064795,0.0450712740421295,0.0465263575315475,0.00326234707608819
447,0.00738197937607765,0.0256705693900585,0.00443669920787215,0.0284244287759066,0.0364941544830799,-0.0214086268097162
448,0.00821752939373255,-0.00160431012045592,-0.00920895580202341,0.0167993418872356,0.0301779136061668,-0.0441257618367672
449,0.0159100778400898,-0.0307977236807346,-0.0168169587850571,0.00967366248369217,0.0295373052358627,-0.0710659027099609
450,0.0273788440972567,-0.0530943311750889,-0.0190689209848642,0.00341105344705284,0.032266341149807,-0.10425778478384
451,0.034384410828352,-0.0600009486079216,-0.0181421972811222,-0.00273648207075894,0.0346865877509117,-0.134714275598526
452,0.0334104485809803,-0.0430309660732746,-0.013461004011333,-0.00357213360257447,0.0375787355005741,-0.144811555743217
453,0.0238251108676195,-0.0105389002710581,-0.00830741226673126,0.000370170135283843,0.0386156104505062,-0.12787601351738
454,0.0105110788717866,0.0164505951106548,-0.00805755518376827,0.00444298516958952,0.0348014570772648,-0.0958596765995026
455,0.00180534867104143,0.0283057112246752,-0.0146062737330794,0.00590467732399702,0.0283311028033495,-0.0695948228240013
456,-0.000474408268928528,0.0285211279988289,-0.0273598879575729,0.00254967203363776,0.0194517783820629,-0.0621772482991219
457,7.61691553634591E-05,0.0268175639212132,-0.04068249091506,-0.00401106756180525,0.00865924917161465,-0.0646562576293945
458,-0.00169749255292118,0.0290772523730993,-0.048360675573349,-0.0111392335966229,0.00230794958770275,-0.0573432706296444
459,-0.00599985383450985,0.0306020677089691,-0.0470671206712723,-0.0151961240917444,0.007223897613585,-0.0372023396193981
460,-0.00664657773450017,0.0242593195289373,-0.0357708968222141,-0.0110597051680088,0.0222675744444132,-0.0250353012233973
461,-0.00172642059624195,0.00449267821386456,-0.0205467473715544,-0.0010212364140898,0.0390120409429073,-0.0376512408256531
462,0.0074737835675478,-0.0226559676229954,-0.00630524987354875,0.0113551532849669,0.053802240639925,-0.0626896619796753
463,0.0201265923678875,-0.0400054417550564,0.00965540856122971,0.0277146119624376,0.0688952878117561,-0.0729139596223831
464,0.0316986963152885,-0.0429397486150265,0.0264785997569561,0.0464321821928024,0.0824905931949615,-0.0568841025233269
465,0.040787860751152,-0.0396131575107574,0.0403466150164604,0.0645861104130745,0.0913010910153389,-0.0280263554304838
466,0.0481811985373497,-0.0355249866843224,0.0484471991658211,0.0785124152898788,0.0937894061207771,-0.00705694314092398
467,0.0471079759299755,-0.0292765665799379,0.0430453456938267,0.0769136026501656,0.0845037996768951,-0.0069510405883193
468,0.0358021967113018,-0.0107477400451899,0.0211612582206726,0.0548533052206039,0.0621394068002701,-0.0284446552395821
469,0.0252074506133795,0.0234006885439157,-0.00802244991064072,0.0233850162476301,0.0369151383638382,-0.0591301172971725
470,0.0237426534295082,0.0583275407552719,-0.0330719985067844,-0.00460407370701432,0.0200973637402058,-0.0831880196928978
471,0.0271062459796667,0.0720576271414757,-0.0465093553066254,-0.0205433182418346,0.0167405661195517,-0.090447336435318
472,0.0272566881030798,0.0493336729705334,-0.0475258268415928,-0.0192428696900606,0.0251851417124271,-0.0794716104865074
473,0.0259262528270483,0.000537808635272086,-0.0370810106396675,-0.00225293915718794,0.0403372719883919,-0.0619102045893669
474,0.0284412689507008,-0.0450899787247181,-0.013974598608911,0.0237427800893784,0.0600560195744038,-0.056042492389679
475,0.030636278912425,-0.0709372833371162,0.0148697029799223,0.0493951141834259,0.0821141749620438,-0.06634621322155
476,0.0270586889237165,-0.0755932480096817,0.0396490916609764,0.0697715356945992,0.101794674992561,-0.0780057609081268
477,0.0196748953312635,-0.0631845071911812,0.0582733526825905,0.0855114087462425,0.115533165633678,-0.0770014971494675
478,0.0108202202245593,-0.0429513417184353,0.0680114179849625,0.0915089920163155,0.118990108370781,-0.0616894625127316
479,0.00387095147743821,-0.0209994036704302,0.0665194988250732,0.0823451802134514,0.1096326187253,-0.0387845188379288
480,4.49273793492466E-05,0.00173486315179616,0.05687590315938,0.0625850632786751,0.0892040953040123,-0.0179587434977293
481,-0.00572843058034778,0.0227236244827509,0.0417852103710175,0.0421800836920738,0.0596253015100956,-0.00711352843791246
482,-0.0109751997515559,0.0353880971670151,0.0279406905174255,0.0320325493812561,0.0303928628563881,-0.0123768215999007
483,-0.00961038563400507,0.0316948778927326,0.0234074089676142,0.0350296683609486,0.0152534078806639,-0.0351626500487328
484,-0.00331318774260581,0.0136006958782673,0.0262777153402567,0.0436646565794945,0.0152269415557384,-0.0627147406339645
485,0.00644305255264044,-0.00251364661380649,0.0324121043086052,0.0530096851289272,0.0240109413862228,-0.0697175711393356
486,0.0162571407854557,-0.00193353614304215,0.0361975021660328,0.056453175842762,0.0336968749761581,-0.0435424782335758
487,0.0174952130764723,0.0154062164947391,0.0278017036616802,0.0459471680223942,0.0335810855031013,-0.00234593451023102
488,0.00903991237282753,0.0376697815954685,0.00826419983059168,0.0300777871161699,0.0228671561926603,0.025377070531249
489,0.00265432009473443,0.0474081933498383,-0.00874482467770576,0.023230979219079,0.01477887108922,0.0226822216063738
490,0.0129171600565314,0.0324204228818417,-0.0122294425964355,0.0256657171994448,0.020021814852953,-0.0104484409093857
491,0.0370359160006046,-0.00427103880792856,-0.00237862160429358,0.0284318905323744,0.0332421585917473,-0.0543357692658901
492,0.0535579286515713,-0.043872594833374,0.011002454906702,0.0239386092871428,0.0411947071552277,-0.0898913443088531
493,0.0501709170639515,-0.067001111805439,0.01740787550807,0.0130818439647555,0.0388542078435421,-0.111773416399956
494,0.0302418265491724,-0.0716778635978699,0.0135887432843447,0.00318795046769083,0.0291237030178308,-0.114440061151981
495,0.00145420886110514,-0.0639827102422714,0.00456516956910491,-0.000180621034814976,0.0160023346543312,-0.0957789421081543
496,-0.0268682148307562,-0.0467894561588764,-0.00172928778920323,0.00335312727838755,0.00408119568601251,-0.0663238987326622
497,-0.0474278219044209,-0.0238875318318605,-0.00118772848509252,0.0106045883148909,-0.00201516621746123,-0.0379316136240959
498,-0.0548934489488602,0.000262348359683529,0.00624001584947109,0.0200243815779686,8.19474444142543E-05,-0.018334474414587
499,-0.047085415571928,0.0204880107194185,0.0188352167606354,0.0319826044142246,0.0105996951460838,-0.00743647990748286
500,-0.0293655563145876,0.0313082747161388,0.0321673788130283,0.0430005937814713,0.0275088958442211,0.00309417932294309
501,-0.00942433159798384,0.0390498228371143,0.0414440743625164,0.0478270761668682,0.045001782476902,0.0144516034051776
502,0.00566629646345973,0.0588986165821552,0.0426016598939896,0.0447691641747952,0.0560265444219112,0.0247860047966242
503,0.010183421894908,0.0858326554298401,0.0302489511668682,0.0333268009126186,0.0569471679627895,0.0343902334570885
504,0.00718579813838005,0.0965825840830803,0.00668087601661682,0.0165006536990404,0.0511725954711437,0.0287790223956108
505,0.00315030128695071,0.0757795795798302,-0.0169238075613976,-0.00201183208264411,0.0432742983102798,-0.0103769637644291
506,-0.000949016655795276,0.0237602181732655,-0.0319268815219402,-0.0208855085074902,0.0330076366662979,-0.0727386623620987
507,-0.00560728460550308,-0.0390691086649895,-0.0336866863071918,-0.0306966193020344,0.0219522714614868,-0.124689340591431
508,-0.0115722436457872,-0.0859412848949432,-0.0225988458842039,-0.02219801209867,0.0138205867260695,-0.142864033579826
509,-0.0173755437135696,-0.105867005884647,-0.00343609834089875,0.00109057710506022,0.0109016131609678,-0.127847418189049
510,-0.0161148458719254,-0.100995056331158,0.0211363229900599,0.0320082046091557,0.0169731788337231,-0.0914553999900818
511,-0.00732023548334837,-0.0780166313052177,0.0459960848093033,0.0619054026901722,0.0314154140651226,-0.0443449802696705
512,-0.000179049748112448,-0.0459588058292866,0.0604158863425255,0.0791402906179428,0.0447752140462399,0.00248075788840652
513,0.000429421255830675,-0.0142289279028773,0.0589339248836041,0.0784770995378494,0.0496172867715359,0.0368789806962013
514,-0.00356662832200527,0.00950203090906143,0.0456750690937042,0.0631202980875969,0.0462710075080395,0.0498309396207333
515,-0.00822100602090359,0.0234172847121954,0.029244601726532,0.0412604175508022,0.0394914820790291,0.0387599840760231
516,-0.0113913007080555,0.0284832157194614,0.0152694610878825,0.0213758908212185,0.0337167531251907,0.012194680981338
517,-0.0148273818194866,0.0253791287541389,0.00205304543487728,0.00556338019669056,0.0278985984623432,-0.0170335117727518
518,-0.0167278666049242,0.0232081357389688,-0.00893079675734043,-0.00505276676267385,0.0218878593295813,-0.0393171794712543
519,-0.012559100985527,0.0313374772667885,-0.0110620949417353,-0.0080148670822382,0.0220134258270264,-0.0448613129556179
520,-0.00283264764584601,0.0468927100300789,-0.00410265848040581,-0.0051224366761744,0.0321418307721615,-0.0346579737961292
521,0.00822043512016535,0.057432621717453,0.00712068006396294,0.00162452959921211,0.0480661615729332,-0.02424849383533
522,0.0145450420677662,0.0483553968369961,0.0151849947869778,0.00966851413249969,0.0591586716473103,-0.0232213363051414
523,0.0124055342748761,0.0230693351477385,0.0147719420492649,0.0151382135227323,0.0579744726419449,-0.0261240098625422
524,0.00277036381885409,0.00134118332061917,0.00990404933691025,0.0177992675453424,0.0479564033448696,-0.0250205807387829
525,-0.0133891813457012,-0.0130565539002419,0.00606694864109159,0.018325436860323,0.0337370298802853,-0.0204466413706541
526,-0.0322389677166939,-0.029329352080822,0.00535835046321154,0.0185600016266108,0.0178091917186975,-0.0152598153799772
527,-0.0445263423025608,-0.0460532419383526,0.00700827222317457,0.0184430126100779,0.00505806505680084,-0.0143470726907253
528,-0.044067669659853,-0.0551037453114986,0.00967026688158512,0.0165187232196331,8.79458239069209E-05,-0.019781282171607
529,-0.0328345373272896,-0.0507962927222252,0.0174499023705721,0.0203960724174976,0.00717858830466866,-0.0188145823776722
530,-0.0195847321301699,-0.0351332426071167,0.0308903902769089,0.0332899317145348,0.0253022629767656,-0.008321319706738
531,-0.0131848659366369,-0.0145298009738326,0.039133608341217,0.0425930619239807,0.0430895537137985,-0.00462106056511402
532,-0.0150584327057004,0.00972551293671131,0.033455453813076,0.0381083525717258,0.0497684068977833,-0.0121195940300822
533,-0.0235384367406368,0.0307318046689034,0.016186585649848,0.0217492897063494,0.0438544787466526,-0.0256904531270266
534,-0.0337179861962795,0.0346959009766579,-0.00306782475672662,0.00221089110709727,0.0321933142840862,-0.0469987131655216
535,-0.0362572930753231,0.0224550236016512,-0.0131772942841053,-0.00880444888025522,0.025833748281002,-0.068081445991993
536,-0.03132538869977,0.00592223228886724,-0.0118136322125793,-0.00637022638693452,0.0281394142657518,-0.0699981600046158
537,-0.0263099726289511,-0.00486650317907333,-0.00586503650993109,0.00298077682964504,0.0316584184765816,-0.0502796210348606
538,-0.024749394506216,-0.00307531631551683,-0.00168614357244223,0.0108270803466439,0.0300378724932671,-0.0290745180100203
539,-0.0284719839692116,0.00917302723973989,-0.00160339439753443,0.0119886063039303,0.0233247745782137,-0.0207882113754749
540,-0.0329752750694752,0.0239668749272823,-0.00361729715950787,0.00560451997444034,0.0174474474042654,-0.0192886423319578
541,-0.0317607261240482,0.0331822447478771,-0.00620436482131481,-0.0043144142255187,0.016819080337882,-0.0149257741868496
542,-0.0268887989223003,0.0304423794150352,-0.0100843170657754,-0.0105041703209281,0.0171344578266144,-0.00728079490363598
543,-0.0218771696090698,0.0198485441505909,-0.0120930997654796,-0.00788502022624016,0.0161763876676559,-0.00418440205976367
544,-0.0203465484082699,0.0100649269297719,-0.010304382070899,-0.00284682749770582,0.0175238084048033,-0.013064244762063
545,-0.0244293678551912,0.000790040590800345,-0.00755231268703938,-0.00206361361779273,0.0212781727313995,-0.0283531118184328
546,-0.0269990302622318,-0.00975448451936245,-0.00329887703992426,0.000856402679346502,0.0261793863028288,-0.041810430586338
547,-0.023060193285346,-0.0175346005707979,0.00317456224001944,0.00834515038877726,0.0319720394909382,-0.0568839572370052
548,-0.0170775484293699,-0.0191807113587856,0.00859697163105011,0.0134441712871194,0.0355057045817375,-0.0721611976623535
549,-0.0137318950146437,-0.0181045290082693,0.0113900443539023,0.0148720322176814,0.0350719727575779,-0.0786697939038277
550,-0.0162516590207815,-0.0238706767559052,0.0102794924750924,0.0153112690895796,0.0314952172338963,-0.0781333670020103
551,-0.0200796090066433,-0.0395580232143402,0.00820730999112129,0.0185688380151987,0.0274199787527323,-0.0729034468531609
552,-0.014877119101584,-0.0558567754924297,0.0143822524696589,0.0279461462050676,0.0295209381729364,-0.060823418200016
553,-0.00309572275727987,-0.062876008450985,0.0269119888544083,0.0367064736783504,0.0385770127177238,-0.048035915941
554,0.00442638527601957,-0.0545540750026703,0.0335585214197636,0.0363041944801807,0.0466237999498844,-0.0386404506862164
555,0.00144462496973574,-0.0299412310123444,0.0294790100306273,0.029178686439991,0.0483944565057755,-0.0271232575178146
556,-0.0102257318794727,0.00463521294295788,0.0184071641415358,0.0222859680652618,0.0448111668229103,-0.00958035234361887
557,-0.0207906793802977,0.0440874807536602,0.00812803767621517,0.0191807840019464,0.0408397391438484,0.00907979998737574
558,-0.025381738319993,0.081343948841095,0.00252896943129599,0.0165625270456076,0.0396257303655148,0.018098084256053
559,-0.0282372403889894,0.0979610830545425,-0.00233997963368893,0.0105673614889383,0.0376905538141727,0.0146557427942753
560,-0.0304391328245401,0.079153299331665,-0.0062029748223722,0.00751587934792042,0.0342204682528973,0.00922906119376421
561,-0.0313263833522797,0.0316502191126347,-0.00509162433445454,0.0111377611756325,0.0326897837221622,0.00487926183268428
562,-0.0308495331555605,-0.0170228201895952,0.00137889257166535,0.014944308437407,0.0346804596483707,-0.00741067668423057
563,-0.0256783552467823,-0.0387670509517193,0.00950530264526606,0.012605139054358,0.0401472486555576,-0.029831288382411
564,-0.0154191264882684,-0.034597460180521,0.00922484882175922,0.000861724663991481,0.0437780618667603,-0.0555199719965458
565,-0.00457092467695475,-0.026891915127635,-0.00174470257479697,-0.0136356139555573,0.0406734719872475,-0.0720123648643494
566,-0.00180867698509246,-0.0291195549070835,-0.0126050654798746,-0.0196927543729544,0.0332040600478649,-0.0748431831598282
567,-0.0126525238156319,-0.0388173460960388,-0.0172525811940432,-0.0176514908671379,0.0240610484033823,-0.0763282254338264
568,-0.0258917342871428,-0.0450283512473106,-0.016276054084301,-0.0110011901706457,0.018125319853425,-0.0813010632991791
569,-0.0280829034745693,-0.0431539453566074,-0.0127383703365922,-0.00167597527615726,0.0234437827020884,-0.0827822163701057
570,-0.022381354123354,-0.0340172983705997,-0.00971196405589581,0.00528000248596072,0.0383871048688889,-0.0766185522079468
571,-0.0175857823342085,-0.0132217761129141,-0.0048126382753253,0.00874308589845896,0.0517031773924828,-0.0583266317844391
572,-0.0201639235019684,0.0139152994379401,0.00148832821287215,0.00748670473694801,0.0530625358223915,-0.0312252510339022
573,-0.031573586165905,0.0314936824142933,0.00529867643490434,0.00154996057972312,0.0408566556870937,-0.00987784378230572
574,-0.0428468585014343,0.0325435809791088,0.00815119780600071,-2.93940920528257E-05,0.0245682708919048,-0.00314329168759286
575,-0.0456512533128262,0.0228470787405968,0.0110254073515534,0.0073940884321928,0.014125476591289,-0.0088391387835145
576,-0.0382535345852375,0.0149841485545039,0.0129160042852163,0.0201783683151007,0.0129367699846625,-0.01728680357337
577,-0.0255181603133678,0.0143623556941748,0.0129679795354605,0.031740840524435,0.0177428890019655,-0.0239231009036303
578,-0.0186660047620535,0.0199121423065662,0.009305021725595,0.0342488475143909,0.0201961938291788,-0.0313932225108147
579,-0.0217104982584715,0.0314219743013382,0.00287487544119358,0.0273604169487953,0.016321687027812,-0.0320992469787598
580,-0.0287638530135155,0.0373162366449833,-0.00325740315020084,0.0190991796553135,0.0105845918878913,-0.0173157341778278
581,-0.0332546420395374,0.0249679628759623,-0.00561719201505184,0.0174678098410368,0.00905682612210512,0.00632586749270558
582,-0.0310712344944477,0.00313024944625795,-0.000435434369137511,0.0244210362434387,0.0158173106610775,0.0271676275879145
583,-0.0227952245622873,-0.0143555132672191,0.00742135522887111,0.0314867682754993,0.0297778137028217,0.0345848016440868
584,-0.0126044461503625,-0.0258355885744095,0.00632789777591825,0.0273343455046415,0.0429874658584595,0.0215250682085752
585,-0.00517593324184418,-0.0354030653834343,-0.00388227007351816,0.0129346288740635,0.0483565703034401,-0.00665926747024059
586,-0.00877709873020649,-0.0487927347421646,-0.0159741323441267,-0.00381263182498515,0.040688406676054,-0.0404777452349663
587,-0.0261869076639414,-0.0648722499608994,-0.0265610478818417,-0.0180048532783985,0.0200749579817057,-0.0740126669406891
588,-0.0445482358336449,-0.0713912323117256,-0.0322171226143837,-0.0250715687870979,-0.00079272931907326,-0.0947442576289177
589,-0.0503782145678997,-0.058344878256321,-0.0312123075127602,-0.0238207429647446,-0.00951790064573288,-0.0875528156757355
590,-0.0425288155674934,-0.0241854004561901,-0.023184971883893,-0.016347186639905,-0.00472767930477858,-0.0560513958334923
591,-0.028387164697051,0.0206678677350283,-0.0095239644870162,-0.0050000948831439,0.00980070047080517,-0.0232224706560373
592,-0.0150049850344658,0.0563927702605724,0.000699152122251689,0.00209441245533526,0.0249531734734774,-0.00678369682282209
593,-0.00571572501212358,0.0718793645501137,0.000761652365326881,-0.000399239856051281,0.0300402790307999,-0.00715878885239363
594,-0.00476504815742373,0.0645983442664146,-0.00605807034298778,-0.00391301512718201,0.0246377196162939,-0.0199861917644739
595,-0.0140730021521449,0.0362789295613766,-0.0121055720373988,0.00151959713548422,0.0167764686048031,-0.0397838912904263
596,-0.0269681233912706,0.0045839361846447,-0.00854185037314892,0.0156913064420223,0.0141970310360193,-0.0503589138388634
597,-0.0365046933293343,-0.0105964615941048,0.00524210184812546,0.0320644937455654,0.016333594918251,-0.0373452082276344
598,-0.0388399139046669,-0.0108336443081498,0.0227096285670996,0.0482706129550934,0.0184552054852247,-0.00698011694476008
599,-0.0321233905851841,-0.007637660484761,0.040505051612854,0.0668568089604378,0.0217921249568462,0.0237578451633453
600,-0.0235192775726318,-0.00718043046072125,0.0526122525334358,0.08280199021101,0.0258831139653921,0.0407609194517136
601,-0.0182212293148041,-0.00759294629096985,0.0553787983953953,0.0889954566955566,0.0283860508352518,0.0404994934797287
602,-0.0126880491152406,-0.0037348079495132,0.0548757836222649,0.0870407521724701,0.0316078662872314,0.0334238298237324
603,-0.00620709266513586,0.00413727294653654,0.0538883358240128,0.0798391550779343,0.0355885364115238,0.0281034335494041
604,-0.000875469588208944,0.0156697798520327,0.0494964309036732,0.0677644908428192,0.0373616702854633,0.0232689883559942
605,-4.7897676267894E-05,0.028657091781497,0.0382236838340759,0.0486591383814812,0.0337301939725876,0.0173607505857944
606,-0.004312998149544,0.0341041423380375,0.0175884384661913,0.0217489842325449,0.0227803885936737,0.0099015673622489
607,-0.00763484835624695,0.0313543975353241,-0.0057916110381484,-0.00278447847813368,0.0103592444211245,-0.00180771050509065
608,-0.0100251389667392,0.0288281589746475,-0.0221648570150137,-0.0162658281624317,0.00302248983643949,-0.0203456562012434
609,-0.0160708148032427,0.027695432305336,-0.0285314526408911,-0.0225162990391254,-0.000246041512582451,-0.0379641465842724
610,-0.0223893690854311,0.0222910102456808,-0.0231298245489597,-0.0226151533424854,0.000870413088705391,-0.0431817620992661
611,-0.0244961399585009,0.00842688418924809,-0.00917192734777927,-0.0156912431120873,0.00755910202860832,-0.044071227312088
612,-0.0198464337736368,-0.00597131811082363,0.00413780938833952,-0.00750633236020803,0.0161869302392006,-0.0491622351109982
613,-0.00672693829983473,-0.00461644353345037,0.0122299045324326,-0.00334382895380259,0.0234741661697626,-0.0482706278562546
614,0.00684205861762166,0.007504444103688,0.0136164585128427,-0.00736537482589483,0.0252380855381489,-0.0423835963010788
615,0.0117201032117009,0.0104649821296334,0.00998581107705832,-0.0177032686769962,0.0191900637000799,-0.0452099591493607
616,0.00906923692673445,-0.000513025734107941,0.00398905109614134,-0.0258004274219275,0.0100669860839844,-0.0569621212780476
617,0.00225846678949893,-0.018666498363018,-0.00608554482460022,-0.0276754964143038,0.00191267591435462,-0.0639043897390366
618,-0.00518916128203273,-0.0328228287398815,-0.0154480645433068,-0.0210691373795271,-0.00187598587945104,-0.0567056946456432
619,-0.00912013929337263,-0.0298530105501413,-0.0170700363814831,-0.00597844645380974,0.00174009695183486,-0.041962843388319
620,-0.00940775498747826,-0.00486368546262383,-0.0124997869133949,0.0125576471909881,0.0106377499178052,-0.0239217597991228
621,-0.00976834539324045,0.0304341334849596,-0.00578687572851777,0.0270194541662931,0.019136531278491,-0.00242410367354751
622,-0.0149851329624653,0.0518286898732185,-0.00208722637034953,0.0263932608067989,0.019850417971611,0.0054753883741796
623,-0.0248716622591019,0.048358328640461,-0.00334948650561273,0.0101206051185727,0.0110735706984997,-0.0140024041756988
624,-0.0344213470816612,0.0319755785167217,-0.0049839336425066,-0.00744065083563328,0.00171870156191289,-0.0468824617564678
625,-0.042367085814476,0.011513764038682,-0.00657243002206087,-0.0175946839153767,-0.0019905548542738,-0.0726034939289093
626,-0.0460881143808365,-0.0124168377369642,-0.00826445501297712,-0.0194058269262314,-0.00177502038422972,-0.0807952061295509
627,-0.0398702025413513,-0.0283538866788149,-0.003597526345402,-0.0127885891124606,0.00226730667054653,-0.0661460608243942
628,-0.0256369598209858,-0.0241631586104631,0.0106332022696733,-0.000967691128607839,0.0112527571618557,-0.0319354273378849
629,-0.00765280751511455,-0.00797371566295624,0.0308964718133211,0.0138192260637879,0.0253584887832403,0.00770296948030591
630,0.0117121115326881,0.00573183037340641,0.0493959039449692,0.0287783518433571,0.0433177463710308,0.0362747497856617
631,0.0270513389259577,0.0150012634694576,0.0587135888636112,0.037847675383091,0.0575168617069721,0.0428696721792221
632,0.0334616489708424,0.0269565507769585,0.0589139126241207,0.0391862690448761,0.0584533363580704,0.0347340740263462
633,0.0320097468793392,0.042333859950304,0.0525623336434364,0.0327212326228619,0.0453487634658813,0.0266604982316494
634,0.0284627005457878,0.0469430685043335,0.0423327647149563,0.0200862661004066,0.0280839279294014,0.0133198872208595
635,0.0215337332338095,0.0288149826228619,0.0324961021542549,0.00915058888494968,0.0156126115471125,-0.0153679521754384
636,0.00321450550109148,-0.00882589630782604,0.0204203017055988,-0.000267958384938538,0.00273340311832726,-0.0515350066125393
637,-0.01927824690938,-0.0462550111114979,0.00604309001937509,-0.0136859333142638,-0.0148891424760222,-0.0777280926704407
638,-0.0302371010184288,-0.0608034767210484,-0.00150793883949518,-0.0254193264991045,-0.0282510630786419,-0.084776371717453
639,-0.0317525640130043,-0.0517591796815395,-0.0037923485506326,-0.031597476452589,-0.0345661975443363,-0.0825489237904549
640,-0.0327103324234486,-0.0275820195674896,-0.00890111643821001,-0.0342956073582172,-0.0384612455964088,-0.081008642911911
641,-0.0325330644845963,0.0029887743294239,-0.0142094930633903,-0.0288569629192352,-0.0362441428005695,-0.0745098814368248
642,-0.0268588997423649,0.0214008167386055,-0.0124969407916069,-0.0119007248431444,-0.0215727780014277,-0.0548619069159031
643,-0.0142997102811933,0.0221490561962128,-0.00185240467544645,0.0103467833250761,0.00284329243004322,-0.0181754361838102
644,-0.00198298343457282,0.0213805697858334,0.00903019495308399,0.0257357209920883,0.0246310345828533,0.031971912831068
645,0.00329354824498296,0.0330756865441799,0.0109213134273887,0.0261067915707827,0.0334487520158291,0.0710421875119209
646,0.00632232008501887,0.0500108227133751,0.0105522619560361,0.0183325670659542,0.032772246748209,0.0667664855718613
647,0.0105617083609104,0.0493499226868153,0.0158247109502554,0.0122961606830359,0.0289956256747246,0.0210594329982996
648,0.0127091454342008,0.0278683807700872,0.0224333014339209,0.00868321862071753,0.022166071459651,-0.0245020519942045
649,0.00988248642534018,0.00622832449153066,0.0221189931035042,0.00459819752722979,0.0129023184999824,-0.0367207303643227
650,-0.00174037297256291,-0.00385536602698267,0.00902881473302841,-0.00363996531814337,0.000648237648420036,-0.026567367836833
651,-0.0178912132978439,-0.00325350579805672,-0.00757289258763194,-0.0107980947941542,-0.0125329494476318,-0.0218148119747639
652,-0.0257122814655304,0.00251514976844192,-0.00970522034913301,-0.0049537681043148,-0.0169183295220137,-0.0293147973716259
653,-0.0205447301268578,0.00462984293699265,0.00535995000973344,0.0149198491126299,-0.00736392335966229,-0.0386828370392323
654,-0.00601002294570208,0.000986021710559726,0.0285325739532709,0.0420432575047016,0.0125308018177748,-0.0382167585194111
655,0.00939584616571665,-0.00433076778426766,0.0494055077433586,0.0677347481250763,0.0342111438512802,-0.0234755985438824
656,0.0168949365615845,-0.0080868611112237,0.0595924966037273,0.0813924223184586,0.0476613529026508,-0.000664028921164572
657,0.0165130477398634,-0.00705322064459324,0.0587045140564442,0.0775491371750832,0.0494729653000832,0.0188014302402735
658,0.00908795651048422,-0.00157306657638401,0.0482423789799213,0.057400718331337,0.0404884368181229,0.027228681370616
659,-0.0041037080809474,0.00323329749517143,0.0304725393652916,0.0294145401567221,0.0236368905752897,0.0271630249917507
660,-0.0139502296224236,0.00593952881172299,0.0160182900726795,0.00755022605881095,0.00810976047068834,0.0237547047436237
661,-0.0150691103190184,0.00933467596769333,0.0126583389937878,-0.00138395710382611,0.00023370266717393,0.013609217479825
662,-0.0106073636561632,0.0149826500564814,0.0168421287089586,-0.000181110211997293,-0.00201032334007323,-0.00389195582829416
663,-0.00410375511273742,0.0230798050761223,0.0210198536515236,0.00430466746911407,-0.00161989266052842,-0.0147866662591696
664,0.00109373114537448,0.0313997529447079,0.0182335283607244,0.00456284638494253,-0.00109289831016213,-0.00209241360425949
665,0.00602136226370931,0.0363825224339962,0.0102724060416222,0.00237458851188421,0.00102209218312055,0.0312035661190748
666,0.0140678118914366,0.0373438596725464,0.00449004024267197,0.0028778500854969,0.00753868836909533,0.0574670620262623
667,0.0198568534106016,0.0322995074093342,-0.00239815237000585,-0.00138783734291792,0.0089442441239953,0.0486857667565346
668,0.0182834379374981,0.0162632577121258,-0.0120216235518456,-0.0145069845020771,-0.00405431212857366,0.0042219222523272
669,0.0100019238889217,-0.00891320593655109,-0.0139153432101011,-0.0242354385554791,-0.0225332453846931,-0.0478158891201019
670,-0.00210033380426466,-0.030830992385745,-0.0029395034071058,-0.0202052462846041,-0.030654814094305,-0.0786091834306717
671,-0.0103675415739417,-0.0394804924726486,0.0150553034618497,-0.00454918015748262,-0.0219661500304937,-0.0812165811657906
672,-0.013076288625598,-0.0368112102150917,0.0305991787463427,0.0135860117152333,-0.00406193872913718,-0.0671303868293762
673,-0.014692242257297,-0.0263263210654259,0.0401303917169571,0.0296710785478354,0.0127814151346684,-0.0473116748034954
674,-0.0150977652519941,-0.00929536391049623,0.0472560077905655,0.0452073886990547,0.0255366656929255,-0.0235316939651966
675,-0.0147710219025612,0.00856427010148764,0.0524531565606594,0.0572917647659779,0.0323508232831955,0.0013651791960001
676,-0.0130236139521003,0.0235848408192396,0.0532042905688286,0.0618660040199757,0.031635694205761,0.021642629057169
677,-0.00815736968070269,0.0328458249568939,0.0474186353385448,0.0570858605206013,0.023899182677269,0.0317253358662128
678,-0.00433133589103818,0.0328967347741127,0.0345932096242905,0.0422552451491356,0.0106953186914325,0.0280454736202955
679,-0.00397292757406831,0.0308705624192953,0.0209235996007919,0.0238534118980169,-0.0029369464609772,0.0177557561546564
680,-0.00549342390149832,0.0326381362974644,0.014392452314496,0.0103198941797018,-0.011197310872376,0.0110678877681494
681,-0.00806913338601589,0.034066341817379,0.0142059186473489,0.00263640726916492,-0.0145937465131283,0.00647546676918864
682,-0.0110017471015453,0.0342093221843243,0.0136061208322644,-0.00179345044307411,-0.0189839899539948,9.19453741516918E-05
683,-0.0152825657278299,0.0330464988946915,0.0081898421049118,-0.00501787243410945,-0.0280387215316296,-0.00491754990071058
684,-0.0205532517284155,0.0313427299261093,-0.000655013311188668,-0.00715765031054616,-0.0394735150039196,-0.00329324672929943
685,-0.0211709327995777,0.0336896479129791,-0.00645428383722901,-0.00455073127523065,-0.0459787733852863,0.0077542238868773
686,-0.0144917564466596,0.0362967848777771,-0.00612964434549212,0.00338392634876072,-0.0432022400200367,0.0210193134844303
687,-0.00497875874862075,0.0321786366403103,-0.00210099737159908,0.0123239681124687,-0.0344729870557785,0.0243498180061579
688,-0.000190179474884644,0.0223172940313816,0.00223801680840552,0.0189992785453796,-0.0260981693863869,0.015723405405879
689,-0.00548036443069577,0.0106899486854672,0.00210315524600446,0.0201009120792151,-0.0238942429423332,0.00050824717618525
690,-0.0171669889241457,0.002841119421646,-0.00187419215217233,0.0171169545501471,-0.0277095343917608,-0.0130814649164677
691,-0.0287159103900194,0.00162389932665974,-0.00341783417388797,0.0166822858154774,-0.0319791734218597,-0.0145454406738281
692,-0.039123859256506,0.00407920032739639,-0.00289828982204199,0.0178385358303785,-0.0357540585100651,-0.00204598857089877
693,-0.047138474881649,0.0124468794092536,-0.00426738383248448,0.0149673372507095,-0.0414048954844475,0.0138247851282358
694,-0.050808772444725,0.0306569840759039,-0.008926872164011,0.00582273211330175,-0.0488279461860657,0.0185432843863964
695,-0.049460805952549,0.0492562167346478,-0.0155108971521258,-0.00773402163758874,-0.0557104162871838,0.00288590416312218
696,-0.0403994470834732,0.0514838472008705,-0.0158929917961359,-0.0168917216360569,-0.0555476360023022,-0.0241098403930664
697,-0.0245286282151937,0.03300616517663,-0.00609015254303813,-0.0145915616303682,-0.0440348908305168,-0.0351515933871269
698,-0.00703786639496684,0.0101846447214484,0.00568610988557339,-0.00342416157945991,-0.0269376151263714,-0.0188502538949251
699,0.00800559390336275,0.000492052990011871,0.0107808643952012,0.0081545552238822,-0.0129447672516108,0.00344152166508138
700,0.0151453008875251,0.00423535890877247,0.00594705669209361,0.0100557329133153,-0.00689780712127686,0.0127694085240364
701,0.0127105265855789,0.0159085225313902,-0.00347689818590879,0.00302835018374026,-0.00767058692872524,0.0119275897741318
702,0.00529004214331508,0.0283620059490204,-0.0073320702649653,-0.0024053065571934,-0.010446410626173,0.00667916657403111
703,-0.00266558956354856,0.0283441469073296,-0.00283810473047197,-0.000969090615399182,-0.0115276696160436,-0.00163018296007067
704,-0.00586728658527136,0.0119067970663309,0.00579132279381156,0.00658656330779195,-0.00758791249245405,-0.00877521652728319
705,-0.00298345112241805,-0.00781891215592623,0.0115441186353564,0.01440838444978,-0.00018811364134308,-0.0126545643433928
706,0.00208508898504078,-0.0160008035600185,0.0100452629849315,0.0170320477336645,0.00354840490035713,-0.0153458649292588
707,0.00931479781866074,-0.00912464875727892,0.00498100928962231,0.016904829069972,0.00248817657120526,-0.0104515701532364
708,0.0172071307897568,0.00219722231850028,0.00222544185817242,0.0172267537564039,0.000695022405125201,0.00812015403062105
709,0.0190404746681452,0.00605692900717258,0.00381175871007144,0.0188499186187983,-0.00104756653308868,0.0275618508458138
710,0.0127943251281977,0.00319311791099608,0.00878534931689501,0.0229591056704521,-0.00154135248158127,0.0315744504332542
711,0.00327546126209199,-0.000832795747555792,0.0098596615716815,0.0234882365912199,-9.32826296775602E-05,0.0223449971526861
712,-0.00304516474716365,-0.00334030133672059,-0.00260924338363111,0.0124510964378715,-0.00171544402837753,0.00970184430480003
713,-0.00492029450833797,-0.002024783520028,-0.0246993862092495,-0.00384727795608342,-0.0082452679052949,-0.00535332830622792
714,-0.011111413128674,0.00392166711390018,-0.0427334047853947,-0.0157883018255234,-0.016786091029644,-0.0216813087463379
715,-0.0268035922199488,0.0112769566476345,-0.0411147996783257,-0.0185635387897491,-0.0216041263192892,-0.0295977387577295
716,-0.0422423742711544,0.014070475474,-0.0132632441818714,-0.00773829873651266,-0.0169300734996796,-0.0266680493950844
717,-0.0460973121225834,0.00868246983736753,0.0201493222266436,0.00999537389725447,-0.0117951026186347,-0.0247508157044649
718,-0.0363288708031178,0.000999926123768091,0.0380463115870953,0.0241122618317604,-0.016271511092782,-0.0265935864299536
719,-0.0217901784926653,0.00476044323295355,0.0422567389905453,0.0338526777923107,-0.0257465597242117,-0.0185972079634666
720,-0.0132854795083404,0.0261113867163658,0.0390513390302658,0.0413944572210312,-0.0348571352660656,0.00393701670691371
721,-0.0119712948799133,0.0513774752616882,0.0343094430863857,0.0486344993114471,-0.0397690758109093,0.0288753695785999
722,-0.0179888214915991,0.0619314648211002,0.0339842736721039,0.056634958833456,-0.0377981252968311,0.0460032671689987
723,-0.0292010214179754,0.0569899044930935,0.0386168509721756,0.0650978237390518,-0.0319084674119949,0.0556220561265945
724,-0.0350353494286537,0.0441959388554096,0.0423741601407528,0.0705155208706856,-0.0254430118948221,0.0590871535241604
725,-0.030572172254324,0.0257039200514555,0.036639466881752,0.065788097679615,-0.0202723983675241,0.0555436685681343
726,-0.0200364552438259,0.00686771655455232,0.0217156503349543,0.0490592382848263,-0.0178649965673685,0.0459281094372272
727,-0.0108955092728138,-0.007630898617208,0.00362538639456034,0.0234940946102142,-0.020509134978056,0.030136376619339
728,-0.00848965346813202,-0.017927223816514,-0.01393130607903,-0.00406199181452394,-0.0289598722010851,0.012740227393806
729,-0.012132334522903,-0.0153475850820541,-0.0268841963261366,-0.0222357343882322,-0.038310844451189,0.00821597594767809
730,-0.0185001045465469,0.00683247018605471,-0.0337759666144848,-0.0270202811807394,-0.041534136980772,0.0244344789534807
731,-0.0223152358084917,0.0406890399754047,-0.0342261120676994,-0.022620253264904,-0.0338508188724518,0.0472372248768806
732,-0.0208601579070091,0.0770079493522644,-0.0248983576893806,-0.0103145521134138,-0.0179462600499392,0.0541070885956287
733,-0.0193546023219824,0.108401529490948,-0.00594983482733369,0.00697415228933096,-0.00395100843161345,0.0400875359773636
734,-0.022547785192728,0.12145871669054,0.0164075009524822,0.0202952232211828,0.000833949015941471,0.0161210615187883
735,-0.0280270017683506,0.103439919650555,0.0348296314477921,0.0238444041460752,-0.00467742001637816,-0.00808583106845617
736,-0.0320771709084511,0.0634804144501686,0.0423683486878872,0.0191382355988026,-0.0200808383524418,-0.0291035044938326
737,-0.0318797454237938,0.0251478608697653,0.0379073619842529,0.015054096467793,-0.0403077341616154,-0.0403196066617966
738,-0.0258184913545847,-0.00212967419065535,0.0267638936638832,0.0191147588193417,-0.0559159740805626,-0.0277294367551804
739,-0.0173963978886604,-0.0170980673283339,0.0108899232000113,0.0245193522423506,-0.0643616393208504,0.00742095615714788
740,-0.011262402869761,-0.0163603890687227,-0.00782455690205097,0.0204423535615206,-0.0672938451170921,0.0354927070438862
741,-0.0118809966370463,-0.00953304301947355,-0.0252812709659338,0.00624268222600222,-0.0649485141038895,0.0316664576530457
742,-0.0204644203186035,-0.0100242793560028,-0.0377559214830399,-0.00859600119292736,-0.0596921406686306,0.00781548488885164
743,-0.0258364249020815,-0.0111209033057094,-0.0345175601541996,-0.00757221225649118,-0.0486567988991737,-0.00549723207950592
744,-0.0186659172177315,-0.00189627357758582,-0.00841806549578905,0.0151199344545603,-0.0265605859458447,0.00546365370973945
745,-0.00333890924230218,0.0154337603598833,0.0318145528435707,0.0452923327684402,0.00315661239437759,0.0314671322703362
746,0.0115946158766747,0.0341048911213875,0.0726884603500366,0.0682411417365074,0.0323093645274639,0.0574506185948849
747,0.0176181923598051,0.0486099235713482,0.0976347401738167,0.0753497779369354,0.0481125116348267,0.0760480090975761
748,0.0128149185329676,0.0600228682160378,0.094365231692791,0.064848430454731,0.0403676517307758,0.0875812992453575
749,0.00295089324936271,0.072383739054203,0.0700318589806557,0.0485071875154972,0.0147764291614294,0.0916446596384048
750,-0.00853143446147442,0.0804408416152,0.0382646322250366,0.0352989286184311,-0.0143174976110458,0.0878277868032455
751,-0.0175129063427448,0.0805592834949493,0.00865036621689796,0.0233353246003389,-0.0358033776283264,0.0778915509581566
752,-0.0189360119402409,0.0802787020802498,-0.013330084271729,0.00921250320971012,-0.0483712330460548,0.0580228231847286
753,-0.0155121721327305,0.0770047754049301,-0.0281442925333977,-0.00938899349421263,-0.0563840307295322,0.0241511929780245
754,-0.0153622562065721,0.0576769486069679,-0.0334469005465508,-0.0266493912786245,-0.0581575855612755,-0.0101994387805462
755,-0.0272329784929752,0.0278250183910131,-0.0264897104352713,-0.0348729752004147,-0.0542273297905922,-0.0251535717397928
756,-0.0495998226106167,0.00382158113643527,-0.0123560857027769,-0.0344575941562653,-0.0530155412852764,-0.0223590806126595
757,-0.0634207725524902,-0.010852706618607,0.00404104124754667,-0.0247078072279692,-0.0522983148694038,-0.014617464505136
758,-0.0552926994860172,-0.0187491904944181,0.0211385078728199,-0.00548513699322939,-0.0417203828692436,-0.00307007576338947
759,-0.0314249508082867,-0.0166793894022703,0.0378223024308681,0.0181073565036058,-0.0218641869723797,0.0198754034936428
760,-0.00481365714222193,-0.00126012344844639,0.052280880510807,0.0401179790496826,-0.00113797560334206,0.057292316108942
761,0.0135121401399374,0.0176837388426065,0.0568070597946644,0.0518143549561501,0.0104664517566562,0.0926065146923065
762,0.0215154066681862,0.0256695132702589,0.0446322932839394,0.0473130084574223,0.00611665565520525,0.0986735299229622
763,0.0257344432175159,0.0244403388351202,0.0240095965564251,0.0326338112354279,-0.00819083768874407,0.0714632868766785
764,0.0299962554126978,0.021539218723774,0.00912536401301622,0.0161005221307278,-0.0216714218258858,0.0305964015424252
765,0.0320303328335285,0.0177944451570511,0.00566622102633119,0.00261059077456594,-0.0304416920989752,-0.00339163281023502
766,0.0278083011507988,0.0156224016100168,0.0114613408222795,-0.00145074783358723,-0.0337570197880268,-0.0176324788480997
767,0.0181810073554516,0.0177430436015129,0.0194345880299807,0.00568140158429742,-0.0317195989191532,-0.00773800862953067
768,0.0111242914572358,0.0245032757520676,0.0245260037481785,0.0177070647478104,-0.0247431602329016,0.0268456432968378
769,0.00946761108934879,0.0333939790725708,0.0239190012216568,0.0237818267196417,-0.0164469592273235,0.0718855410814285
770,0.00714516546577215,0.039723452180624,0.016462555155158,0.0182773564010859,-0.0130284717306495,0.0986764058470726
771,0.0019268209580332,0.0426558330655098,0.00782723817974329,0.00679018860682845,-0.0155563401058316,0.101141691207886
772,-0.00594520289450884,0.0461201220750809,0.000229618206503801,-0.00906993355602026,-0.0243732072412968,0.0898873433470726
773,-0.0155451828613877,0.0571813806891441,-0.00948701612651348,-0.0302876699715853,-0.039255753159523,0.0638752430677414
774,-0.0211314503103495,0.0702148824930191,-0.018526503816247,-0.0468208231031895,-0.0516236089169979,0.0291110929101706
775,-0.0184394847601652,0.0641631409525871,-0.0209660939872265,-0.0479783192276955,-0.0507402718067169,0.00288433092646301
776,-0.00588471814990044,0.0352181270718575,-0.0151668284088373,-0.0315158888697624,-0.0357443541288376,-0.00726952776312828
777,0.0130820134654641,0.00395956775173545,-0.0111880134791136,-0.0100700613111258,-0.0208603851497173,-0.0103640956804156
778,0.0288842990994453,-0.0107841659337282,-0.0225212052464485,-0.00584583170711994,-0.0237224195152521,-0.0204879343509674
779,0.0347979292273521,-0.0109106618911028,-0.040537390857935,-0.0181905459612608,-0.0431805737316608,-0.0342842936515808
780,0.0303873401135206,-0.0120788384228945,-0.0416581183671951,-0.0226692333817482,-0.0605617873370647,-0.0335577353835106
781,0.0214887037873268,-0.0167001578956842,-0.0171997342258692,-0.00494289491325617,-0.0621437132358551,-0.0088836383074522
782,0.0147080067545176,-0.0138456095010042,0.0215465556830168,0.0258481558412313,-0.0496295541524887,0.028215080499649
783,0.0100119104608893,-0.000549914839211851,0.0555246286094189,0.047486562281847,-0.0323504470288754,0.0592110715806484
784,0.00553766684606671,0.0182555075734854,0.0755870491266251,0.0515838116407394,-0.0149610564112663,0.0801927000284195
785,0.00150403217412531,0.0344326160848141,0.0863562971353531,0.0501439310610294,0.000782896473538131,0.0911135524511337
786,-0.00443804496899247,0.0405876711010933,0.0871471837162972,0.0470703728497028,0.0064268778078258,0.0840322077274323
787,-0.0134916212409735,0.0380279123783112,0.0719383507966995,0.0363443680107594,-0.00429924950003624,0.0654270723462105
788,-0.0202318821102381,0.0309583190828562,0.0447533316910267,0.0199915338307619,-0.0237551853060722,0.0574620142579079
789,-0.0204424876719713,0.0233376622200012,0.0158157628029585,0.00241512106731534,-0.0408336780965328,0.0611118748784065
790,-0.0145883103832603,0.0230344086885452,-0.0044199712574482,-0.0125320889055729,-0.0495348423719406,0.053986981511116
791,-0.00696096057072282,0.0293625947088003,-0.0118218511343002,-0.0215493328869343,-0.0485796369612217,0.0254583321511745
792,-0.00300430762581527,0.0287927109748125,-0.0142751336097717,-0.0270615573972464,-0.0440318137407303,-0.0110102025792003
793,0.000124061101814732,0.0181195251643658,-0.0144699672237039,-0.0267627034336329,-0.040225800126791,-0.030403696000576
794,0.00449204817414284,0.00690091634169221,-0.00857101380825043,-0.0164727121591568,-0.0371809639036655,-0.0198746155947447
795,0.00729324528947473,-0.000574871548451483,0.00131769990548491,0.00112824758980423,-0.0350398495793343,0.00873488187789917
796,0.0102682560682297,-0.00641454104334116,0.0120436307042837,0.0211215708404779,-0.0319903120398521,0.03369015827775
797,0.0118334572762251,-0.0154464105144143,0.0183334071189165,0.0341259874403477,-0.031592071056366,0.0413817055523396
798,0.0118918679654598,-0.0274854302406311,0.0181621536612511,0.0354273580014706,-0.0377186015248299,0.0350490435957909
799,0.0149604268372059,-0.0348641648888588,0.0168461557477713,0.0306210909038782,-0.0456025265157223,0.0273949801921844
800,0.017186127603054,-0.0351042747497559,0.0132662616670132,0.0210028626024723,-0.0529631972312927,0.0234258472919464
801,0.0149599080905318,-0.0294402539730072,0.00467832386493683,0.00654592644423246,-0.0611612759530544,0.0264935214072466
802,0.0101420748978853,-0.0181802604347467,-0.00181286153383553,-0.00341493915766478,-0.0671715065836906,0.0452031269669533
803,0.00380031275562942,-0.0040462538599968,0.000435463181929663,-0.00265308353118598,-0.067455068230629,0.0739827156066895
804,-0.000661265454255044,0.0128507260233164,0.00901027675718069,0.00159094855189323,-0.0619286820292473,0.094720371067524
805,-0.00109556398820132,0.0336556769907475,0.0152362873777747,-0.00145919760689139,-0.0544067062437534,0.09733996540308
806,-0.00067983620101586,0.055503498762846,0.0121978288516402,-0.0130392024293542,-0.0513390824198723,0.0797397717833519
807,-0.000591755611822009,0.0759803578257561,0.00522896880283952,-0.0228869263082743,-0.0528719499707222,0.0483483038842678
808,0.00069338665343821,0.0861716270446777,0.00546445976942778,-0.0231298580765724,-0.0529177226126194,0.0188931729644537
809,0.00223795184865594,0.0748099833726883,0.0153226144611835,-0.0156570672988892,-0.049711637198925,0.00502966716885567
810,0.0035790903493762,0.0489116236567497,0.0294959992170334,-0.00298151629976928,-0.0427396893501282,0.010851033963263
811,0.00638787914067507,0.0223404467105865,0.0414462387561798,0.0135126998648047,-0.0313639529049397,0.028823995962739
812,0.0117863873019814,-0.000471521721919999,0.0479457676410675,0.0293413400650024,-0.0202794931828976,0.0474694631993771
813,0.0193764995783567,-0.0205982029438019,0.0501690618693829,0.0390055850148201,-0.0124848354607821,0.0551358722150326
814,0.0273930113762617,-0.0366854928433895,0.0493922382593155,0.0401235371828079,-0.00645175715908408,0.0428113304078579
815,0.0384117178618908,-0.0406509563326836,0.0472360923886299,0.0373520217835903,0.00147222029045224,0.0235292036086321
816,0.0538064017891884,-0.0291238222271204,0.0434969812631607,0.0340274423360825,0.0122715728357434,0.0218538586050272
817,0.06112315133214,-0.00801453925669193,0.0349821150302887,0.0260625146329403,0.0158612746745348,0.0397256538271904
818,0.0491197630763054,0.0175027642399073,0.0247668642550707,0.0143127534538507,0.00346756004728377,0.0597843267023563
819,0.0227990578860044,0.038660004734993,0.018827898427844,0.00327567011117935,-0.0195808336138725,0.0679023116827011
820,-0.00462918309494853,0.0444914065301418,0.0164569113403559,-0.0060654110275209,-0.0430793017148972,0.0603347308933735
821,-0.0201742108911276,0.0347692035138607,0.0154309207573533,-0.0108366161584854,-0.0583401918411255,0.0407837815582752
822,-0.0194878671318293,0.016404727473855,0.0144561845809221,-0.0104217976331711,-0.0630735084414482,0.0178609546273947
823,-0.00782215595245361,5.54079342691693E-05,0.0138713754713535,-0.00784258916974068,-0.0637084022164345,0.006516526453197
824,0.00676784105598927,-0.00503941997885704,0.0173168666660786,-0.00247831316664815,-0.0646758154034615,0.0170100256800652
825,0.0175600480288267,-0.00143303815275431,0.0233303643763065,0.0045949830673635,-0.0651793256402016,0.037377692759037
826,0.0266478266566992,0.00756700150668621,0.0287023540586233,0.0091248182579875,-0.0622466579079628,0.0506396889686584
827,0.0378440991044044,0.0242542754858732,0.0325284749269485,0.00771502731367946,-0.0556854531168938,0.05583181604743
828,0.0434655658900738,0.0424035377800465,0.0316515080630779,0.000342346116667613,-0.0519753992557526,0.056656539440155
829,0.0381906479597092,0.0501062422990799,0.0277616810053587,-0.00469672959297895,-0.0524327792227268,0.0565744452178478
830,0.0288441646844149,0.0461125709116459,0.023948909714818,-0.00139731413219124,-0.0530618168413639,0.0581737272441387
831,0.0222130287438631,0.0409809239208698,0.0168519169092178,0.00256636319682002,-0.0574709475040436,0.0560461804270744
832,0.0206016711890697,0.0439872331917286,0.00685839680954814,-0.00114472268614918,-0.0674761533737183,0.0489840283989906
833,0.0216004699468613,0.0511194914579391,0.000782269169576466,-0.0093869911506772,-0.074799619615078,0.0435573570430279
834,0.0196738857775927,0.0500736758112907,0.00264700478874147,-0.0144345965236425,-0.0738461390137672,0.0398747138679028
835,0.0152103202417493,0.0356025099754334,0.0134229324758053,-0.0099094845354557,-0.065251000225544,0.03926707431674
836,0.015220976434648,0.016233230009675,0.0297775529325008,0.00483595533296466,-0.0517074391245842,0.043470848351717
837,0.0230389647185802,0.00403623515740037,0.0423227660357952,0.02100470662117,-0.0395966805517673,0.04290521889925
838,0.0310802590101957,-0.000128510087961331,0.0466841794550419,0.0297326408326626,-0.0339082553982735,0.0322218872606754
839,0.0301508698612452,-0.00274574384093285,0.04689996317029,0.0299201440066099,-0.0337406881153584,0.0187740549445152
840,0.0236702691763639,-0.00467683328315616,0.0480730496346951,0.0270291492342949,-0.0345287695527077,0.0133430799469352
841,0.0189640577882528,-0.00470119947567582,0.0480543822050095,0.0235817730426788,-0.0354682803153992,0.0204816423356533
842,0.0182864461094141,-0.00475833937525749,0.0371144898235798,0.0128195276483893,-0.0426126793026924,0.0305476319044828
843,0.0238544307649136,-0.00146439822856337,0.0133273238316178,-0.00831983797252178,-0.0583467558026314,0.0327866822481155
844,0.0295690111815929,0.0128390248864889,-0.0147395059466362,-0.0330556593835354,-0.078819178044796,0.0270005259662867
845,0.0252869445830584,0.0350922048091888,-0.03659538179636,-0.0525419488549232,-0.097819060087204,0.0152892637997866
846,0.0149429459124804,0.0482542924582958,-0.0433829911053181,-0.0602835565805435,-0.108200505375862,0.0032901493832469
847,0.00946897640824318,0.0419719256460667,-0.0369863361120224,-0.0562319383025169,-0.107160307466984,-0.00034856706042774
848,0.0152870193123817,0.0253273621201515,-0.0271215438842773,-0.0434557497501373,-0.0955100208520889,0.00636577326804399
849,0.0299099814146757,0.0125369559973478,-0.01766137778759,-0.0238875094801188,-0.0743979141116142,0.0215273667126894
850,0.0419081188738346,0.0116321891546249,-0.00644700089469552,-0.00191050034482032,-0.0482769869267941,0.0452380366623402
851,0.0466546453535557,0.024281982332468,0.0109195411205292,0.0214798357337713,-0.0233921092003584,0.0727866888046265
852,0.0489862002432346,0.0428213514387608,0.0335109643638134,0.0448439493775368,-0.00376971694640815,0.0902197882533073
853,0.0505247786641121,0.0538916848599911,0.0501834414899349,0.05667494982481,0.00595306092873216,0.0854744464159012
854,0.0513621605932713,0.0512074045836926,0.0534435361623764,0.0526552796363831,0.00357050634920597,0.0594673566520214
855,0.053000058978796,0.0396211445331573,0.0444252379238606,0.0387235134840012,-0.00598925212398171,0.0247978158295155
856,0.0575750581920147,0.0281758643686771,0.0295504461973906,0.0213557295501232,-0.0139150125905871,-0.000264142407104373
857,0.0639418438076973,0.02583322301507,0.0211353879421949,0.0106694484129548,-0.0132776545360684,-0.00192666542716324
858,0.0614547021687031,0.0347512029111385,0.0206553600728512,0.00622003758326173,-0.00998699944466352,0.0119889015331864
859,0.0444575361907482,0.0432096943259239,0.0192560814321041,-0.00130782031919807,-0.0157697666436434,0.022202655673027
860,0.0228246953338385,0.039971087127924,0.0170946344733238,-0.00900464225560427,-0.0286883767694235,0.0234461575746536
861,0.00708027323707938,0.029695687815547,0.0157122295349836,-0.0112390369176865,-0.0409330055117607,0.0213419944047928
862,-0.00172162207309157,0.0232181679457426,0.0103131495416164,-0.0123512232676148,-0.0528654381632805,0.020012404769659
863,-0.00772234983742237,0.0237168278545141,-0.0014344509691,-0.0182187929749489,-0.0666340216994286,0.0211510602384806
864,-0.0125943627208471,0.0325052626430988,-0.0159847233444452,-0.0271020922809839,-0.0794496089220047,0.0258452314883471
865,-0.0112937390804291,0.0508620850741863,-0.0252104066312313,-0.0289744436740875,-0.0836563482880592,0.0291534718126059
866,0.000635265896562487,0.0640535727143288,-0.0242506600916386,-0.0187115203589201,-0.0735236927866936,0.022795831784606
867,0.0189030580222607,0.0549343600869179,-0.0163816325366497,-0.00522537901997566,-0.0540313646197319,0.00790591072291136
868,0.0380355902016163,0.0306471902877092,-0.00502807181328535,0.00252136657945812,-0.0323485098779202,-0.00574096711352468
869,0.0506664253771305,0.00693598389625549,0.00402921345084906,0.00110136950388551,-0.0157073196023703,-0.0151023110374808
870,0.0468070022761822,-0.00842480082064867,0.00612906832247972,-0.0088897068053484,-0.0127757135778666,-0.0247710831463337
871,0.0309204515069723,-0.0142808221280575,0.00841085705906153,-0.0165589489042759,-0.0198709648102522,-0.0284356232732534
872,0.0168709736317396,-0.0176090579479933,0.0162640325725079,-0.012318697758019,-0.0270441137254238,-0.0171271245926619
873,0.0124360164627433,-0.019352262839675,0.0271904394030571,0.00205532880499959,-0.0308735016733408,0.00412063952535391
874,0.0166926775127649,-0.0120096392929554,0.0390325002372265,0.0215849876403809,-0.0308637972921133,0.0287785995751619
875,0.0219963360577822,0.00450324220582843,0.0473320111632347,0.0398619435727596,-0.0283341221511364,0.0534298121929169
876,0.0254653189331293,0.0275082867592573,0.046355951577425,0.0490788072347641,-0.0266782101243734,0.0698867961764336
877,0.028237096965313,0.0528286322951317,0.0341663546860218,0.0426506586372852,-0.030294094234705,0.0681283175945282
878,0.0312936715781689,0.0693333745002747,0.0137737104669213,0.0197079572826624,-0.0392885096371174,0.0463323853909969
879,0.0407578349113464,0.0698209926486015,-0.00848957989364862,-0.0111213596537709,-0.044097263365984,0.0169872865080833
880,0.0544557236135006,0.05866464599967,-0.0293545965105295,-0.0426932722330093,-0.0391489826142788,-0.00703845405951142
881,0.0580807588994503,0.0461357496678829,-0.0451354123651981,-0.0705768838524818,-0.0323657691478729,-0.0261272583156824
882,0.045920867472887,0.0380031913518906,-0.0471609011292458,-0.0849581509828568,-0.0311181638389826,-0.0379919111728668
883,0.0257891044020653,0.0309604927897453,-0.0349237099289894,-0.0814947709441185,-0.0349264293909073,-0.0352824702858925
884,0.0112197427079082,0.0240875016897917,-0.0175064280629158,-0.0654014274477959,-0.0391694530844688,-0.0234635006636381
885,0.0119041260331869,0.0268255732953548,-0.000920736871194094,-0.0423645712435246,-0.0389775708317757,-0.00745009770616889
886,0.0243005976080894,0.0402316302061081,0.0121249472722411,-0.0168453119695187,-0.034108005464077,0.0176921132951975
887,0.0384373068809509,0.0502754971385002,0.0218968391418457,0.0102164093405008,-0.0258236117660999,0.046767670661211
888,0.0493920370936394,0.0448298901319504,0.0308332219719887,0.0379283800721169,-0.0147588038817048,0.0623683109879494
889,0.0532944872975349,0.0202079433947802,0.0335605442523956,0.0537833273410797,-0.00962434336543083,0.0510253235697746
890,0.0429776385426521,-0.0154419671744108,0.0223676487803459,0.0453089699149132,-0.0203015320003033,0.0172795206308365
891,0.0193903893232346,-0.0443120934069157,0.0018026529578492,0.0182190872728825,-0.0398178398609161,-0.0185438133776188
892,-0.00388969713822007,-0.0511094816029072,-0.0142064346000552,-0.0115700252354145,-0.051747765392065,-0.0384227447211742
893,-0.0134594812989235,-0.0324504300951958,-0.0127133531495929,-0.0298823695629835,-0.0452892035245895,-0.0356034077703953
894,-0.00980241317301989,-0.000991350621916354,0.00363026629202068,-0.0330601707100868,-0.0252357292920351,-0.0170349311083555
895,-0.00301557476632297,0.0253759678453207,0.0188692081719637,-0.027506185695529,-0.00839282292872667,0.00533732399344444
896,0.00380910118110478,0.0371376238763332,0.0276206247508526,-0.0180727727711201,0.000226912670768797,0.0247156769037247
897,0.012372731231153,0.0343736112117767,0.0336563512682915,-0.00887966621667147,0.00660850433632731,0.0323825255036354
898,0.0209856666624546,0.0299924947321415,0.0358333289623261,-0.00368413119576871,0.0113556673750281,0.0291254557669163
899,0.0248363632708788,0.0373259261250496,0.0283741094172001,-0.00649117073044181,0.0104439090937376,0.0309343934059143
900,0.0197143722325563,0.0554268397390842,0.00822039786726236,-0.0223012138158083,-0.000271000171778724,0.0401228591799736
901,0.0116635449230671,0.0815570801496506,-0.0146006792783737,-0.0422859452664852,-0.0185057744383812,0.044299628585577
902,0.0106784645467997,0.108900852501392,-0.0263512618839741,-0.0495859570801258,-0.0354043506085873,0.0420344211161137
903,0.0162713136523962,0.122564725577831,-0.0247925315052271,-0.0393018387258053,-0.0447254702448845,0.0437183566391468
904,0.0222227517515421,0.112813346087933,-0.0123583097010851,-0.0164395365864038,-0.0433969162404537,0.0520306341350079
905,0.0260985754430294,0.0773882791399956,0.00861165206879377,0.0112072862684727,-0.0297292936593294,0.0572350807487965
906,0.0306200310587883,0.0271044969558716,0.0325812138617039,0.0370575524866581,-0.00767452269792557,0.054013729095459
907,0.0379366092383862,-0.0167972631752491,0.051673948764801,0.0547538921236992,0.0124137755483389,0.0457602292299271
908,0.042522270232439,-0.0443529598414898,0.0556001625955105,0.0535462982952595,0.0178418587893248,0.032090537250042
909,0.038298711180687,-0.0570789203047752,0.040659923106432,0.0312919169664383,0.00508019560948014,0.0121385771781206
910,0.0279556103050709,-0.0545227527618408,0.0198997333645821,0.00451382109895349,-0.0128303114324808,-0.00150332076009363
911,0.0184734780341387,-0.0402726009488106,0.0100497137755156,-0.00843406282365322,-0.0211675241589546,0.00246281502768397
912,0.0160429608076811,-0.0238698553293943,0.0155433677136898,-0.00213920068927109,-0.0164078902453184,0.0137513671070337
913,0.0207118839025497,-0.0108339712023735,0.0276881456375122,0.0140498206019402,-0.00501936161890626,0.0204481352120638
914,0.0258128475397825,0.000369075365597382,0.0331223718822002,0.0221028309315443,0.0014194087125361,0.0257020276039839
915,0.0287367030978203,0.0158296413719654,0.028305584564805,0.0151257999241352,-0.000666178530082107,0.0344770140945911
916,0.0308181326836348,0.0357372052967548,0.0200609210878611,0.00146477157250047,-0.00305492244660854,0.0444788746535778
917,0.0320688486099243,0.0544423833489418,0.014061626046896,-0.0109388269484043,-0.000352987786754966,0.0526621676981449
918,0.0345313996076584,0.0702690780162811,0.0131990555673838,-0.0190623849630356,0.00599996000528336,0.0589190647006035
919,0.0347686931490898,0.0784487575292587,0.0144305881112814,-0.0254540666937828,0.00887956656515598,0.0588262267410755
920,0.0258352309465408,0.0734030678868294,0.0112647525966167,-0.0326618030667305,-0.000177819325472228,0.0482528693974018
921,0.0124359289184213,0.0589715875685215,0.00454112933948636,-0.0359459072351456,-0.0174213945865631,0.0323105603456497
922,0.00141302542760968,0.0388584174215794,-0.00284220324829221,-0.0331097766757011,-0.0331412814557552,0.0221235137432814
923,-0.0023121836129576,0.0148008996620774,-0.00716784875839949,-0.0258161183446646,-0.0386295840144157,0.0225826073437929
924,0.00631636660546064,-0.00715385610237718,-0.00312630529515445,-0.0148995267227292,-0.0280114784836769,0.0227734763175249
925,0.020785965025425,-0.0186546668410301,0.00675171939656138,-0.00362194026820362,-0.00965038035064936,0.0146801937371492
926,0.0322170555591583,-0.0135573130100966,0.018755042925477,0.00823613349348307,0.00529156625270844,0.00964368134737015
927,0.0380231291055679,0.00347219058312476,0.0303578916937113,0.0200181901454926,0.0140886818990111,0.0171018112450838
928,0.0368995666503906,0.02541109547019,0.035878200083971,0.0245811510831118,0.0150631051510572,0.0309102851897478
929,0.0303692929446697,0.0495180003345013,0.0353159047663212,0.022222125902772,0.00978029705584049,0.0421398282051086
930,0.0192259848117828,0.0628109723329544,0.0309091601520777,0.0185413230210543,0.000360961654223502,0.046909436583519
931,0.00596981216222048,0.0578360930085182,0.0218380317091942,0.0137367676943541,-0.0149592505767941,0.0512631759047508
932,-0.000309645896777511,0.0470504499971867,0.011382001452148,0.00715920515358448,-0.0317945927381516,0.0634681284427643
933,0.0054469252936542,0.0372591726481915,0.00360932340845466,-0.00344217056408525,-0.0408514700829983,0.0732643157243729
934,0.0174779091030359,0.0249394029378891,-0.00463554635643959,-0.0208179149776697,-0.0443193502724171,0.0627225711941719
935,0.0249957516789436,0.0101173771545291,-0.0178102161735296,-0.0400904603302479,-0.0515180788934231,0.0309837087988853
936,0.0220584273338318,-0.0021607696544379,-0.0342660546302795,-0.0553746558725834,-0.0626314729452133,-0.00590503076091409
937,0.0162298977375031,-0.00099667371250689,-0.0470359921455383,-0.0640013590455055,-0.0674960538744926,-0.0264646206051111
938,0.0192834492772818,0.0188592150807381,-0.046909861266613,-0.0608612895011902,-0.0540755018591881,-0.0198834855109453
939,0.0313149839639664,0.0447527877986431,-0.0288150385022163,-0.0424478985369205,-0.0234749615192413,0.00445643626153469
940,0.047223374247551,0.0624737963080406,0.00255456753075123,-0.0112669430673122,0.00939521472901106,0.0305119659751654
941,0.0603814050555229,0.0661536604166031,0.032442968338728,0.0211665164679289,0.0302974488586187,0.044349305331707
942,0.0607650801539421,0.0532850027084351,0.049476221203804,0.0402254872024059,0.033190943300724,0.0394974090158939
943,0.0469935387372971,0.031880084425211,0.0562935434281826,0.0445941686630249,0.0229887831956148,0.0277882385998964
944,0.0275200549513102,0.0133191328495741,0.0559260882437229,0.0403162874281406,0.00722479866817594,0.0219769310206175
945,0.0109553029760718,0.00219826796092093,0.0482731610536575,0.0313171558082104,-0.0107584297657013,0.024803202599287
946,0.00298716360703111,0.00133191258646548,0.0396190099418163,0.0254404861479998,-0.0234749913215637,0.0385411977767944
947,0.00392027059569955,0.0102870687842369,0.0345083996653557,0.0278074331581593,-0.0248736478388309,0.0561141557991505
948,0.0108567094430327,0.0269704442471266,0.0312228053808212,0.0337797552347183,-0.0196525156497955,0.0664969757199287
949,0.0202275682240725,0.0442775897681713,0.0276885032653809,0.0361730456352234,-0.0146531518548727,0.071979433298111
950,0.0262837503105402,0.0503944829106331,0.0234051998704672,0.032306931912899,-0.0119567448273301,0.0752002596855164
951,0.0270700175315142,0.0449167564511299,0.0227497648447752,0.0261356644332409,-0.00876416452229023,0.0704806447029114
952,0.0244831219315529,0.0339170880615711,0.0268384590744972,0.0201420467346907,-0.0039916941896081,0.0536685809493065
953,0.0217660255730152,0.0236287601292133,0.0258729197084904,0.0101268878206611,-0.00165613438002765,0.0298761371523142
954,0.0212788842618465,0.0274564996361732,0.012530567124486,-0.00620580138638616,-0.00562157202512026,0.0172631721943617
955,0.0180867630988359,0.0498147122561932,-0.00882087741047144,-0.0261178333312273,-0.0153214689344168,0.0220343470573425
956,0.0111941443756223,0.0758485794067383,-0.0278246887028217,-0.0446035079658031,-0.0229937881231308,0.0239091441035271
957,0.00897965766489506,0.0867256298661232,-0.0374753624200821,-0.0560012497007847,-0.0225005261600018,0.00908755976706743
958,0.0127149000763893,0.0691792964935303,-0.0397140942513943,-0.0558976456522942,-0.0195008758455515,-0.0145248966291547
959,0.0172264669090509,0.0288295578211546,-0.0379509590566158,-0.0402200073003769,-0.0214875172823668,-0.0296253357082605
960,0.0235829968005419,-0.00974300783127546,-0.0305630750954151,-0.0125789474695921,-0.0256942138075829,-0.0245589334517717
961,0.0350715890526772,-0.0308944396674633,-0.0173663049936295,0.0120126651600003,-0.0256729666143656,-0.00632788147777319
962,0.0487689487636089,-0.0337399169802666,-0.000259394728345796,0.024963179603219,-0.0193211808800697,0.00854695867747068
963,0.0558092854917049,-0.0225343201309443,0.0165748633444309,0.0294380653649569,-0.0110257985070348,0.0148004181683064
964,0.0510789789259434,-0.00916404742747545,0.0251035653054714,0.0283138211816549,-0.0104353716596961,0.0253484509885311
965,0.0410212278366089,-0.0027720732614398,0.0241637118160725,0.0252188891172409,-0.0197094045579433,0.0509005002677441
966,0.0304236859083176,0.00489010894671083,0.0174628738313913,0.0196702070534229,-0.0320682190358639,0.0732659623026848
967,0.0171710513532162,0.0262623764574528,0.00583107816055417,0.00403568334877491,-0.0420672819018364,0.0656929314136505
968,0.00450450321659446,0.0507965944707394,-0.00649794237688184,-0.0206778235733509,-0.0462477318942547,0.0303312763571739
969,-0.00243319128639996,0.0535257868468761,-0.0133425956591964,-0.0435048826038837,-0.0423335358500481,-0.0102779949083924
970,0.000520945060998201,0.0326430648565292,-0.00906336959451437,-0.0505479015409946,-0.0271414034068584,-0.0358070880174637
971,0.0137528860941529,0.00736501300707459,0.00850409083068371,-0.0357005074620247,-0.00143422756809741,-0.0397753417491913
972,0.026683371514082,-0.00901876110583544,0.0295993573963642,-0.0113634234294295,0.0220513138920069,-0.0301365051418543
973,0.0328696668148041,-0.0102285668253899,0.042125903069973,0.00781972426921129,0.0313381627202034,-0.0107224769890308
974,0.036691028624773,0.00239187548868358,0.0410244427621365,0.0175659097731113,0.026544502004981,0.021283432841301
975,0.0432682484388351,0.0168803241103888,0.0251567643135786,0.014788031578064,0.0173309538513422,0.0511678382754326
976,0.0555927194654942,0.0257244445383549,0.00411822320893407,0.00153869634959847,0.0179642029106617,0.0547826699912548
977,0.0657247975468636,0.0287123285233974,-0.00576841365545988,-0.0104518299922347,0.0312953554093838,0.0358988232910633
978,0.0599565543234348,0.0267443582415581,0.000921278377063572,-0.0120190540328622,0.0428062528371811,0.0191505346447229
979,0.0396109744906425,0.0219236500561237,0.0164897125214338,-0.00359116797335446,0.0387252196669579,0.0131675722077489
980,0.0173796750605106,0.0135606005787849,0.0283920224756002,0.00643763318657875,0.0180171895772219,0.00620238948613405
981,0.00305604073219001,0.00549842556938529,0.0305242426693439,0.0126382820308208,-0.0103556858375669,-0.00600008387118578
982,-0.00129656866192818,0.00704779149964452,0.0257476102560759,0.0167250949889421,-0.035197876393795,-0.0109583344310522
983,-0.00117694190703332,0.0170157663524151,0.0174448508769274,0.0176790114492178,-0.0508743785321712,-0.00438514072448015
984,-0.000267408904619515,0.0281898006796837,0.00990237295627594,0.0152797009795904,-0.055502537637949,0.00467914855107665
985,0.00216295989230275,0.0385776795446873,0.00750767486169934,0.0131191108375788,-0.048451341688633,0.0120462877675891
986,0.00403351057320833,0.0465027615427971,0.00708600040525198,0.00879389699548483,-0.0358037762343884,0.0206510052084923
987,0.00311660044826567,0.0528199374675751,0.00268934690393507,-0.00285908649675548,-0.0258192848414183,0.0328269191086292
