,AF3,AF4,Fp1,Fp2,AF7,AF8
0,-0.0236324854195118,-0.00594512326642871,-0.00711074052378535,-0.00641778483986855,0.0263969022780657,0.0454661287367344
1,-0.0517181903123856,-0.00807814579457045,-0.00395980151370168,-0.0179595891386271,0.00559460883960128,0.00618482986465096
2,-0.0730379894375801,-0.0165928713977337,0.0172446016222239,-0.00965490937232971,0.00324463029392064,-0.0155757116153836
3,-0.0739286988973618,-0.0193556118756533,0.0523463971912861,0.0190263092517853,0.0238394308835268,-0.0107003543525934
4,-0.0621725916862488,-0.00742667820304632,0.0923153907060623,0.055857602506876,0.0567662194371223,0.0177649036049843
5,-0.0529527552425861,0.0224077776074409,0.128911018371582,0.0869600176811218,0.0852586552500725,0.0615226775407791
6,-0.0529658310115337,0.0605545453727245,0.145519360899925,0.0992613807320595,0.093385636806488,0.103499718010426
7,-0.0636413767933846,0.0797874853014946,0.124528788030148,0.0874229297041893,0.0732067078351974,0.121421441435814
8,-0.0771028399467468,0.0623482540249825,0.0777261778712273,0.0659278184175491,0.0431918054819107,0.115100793540478
9,-0.0836404114961624,0.0216712225228548,0.0345827378332615,0.0484919399023056,0.0278861578553915,0.100205808877945
10,-0.0807861685752869,-0.0156180802732706,0.0096636088564992,0.0358488038182259,0.028210423886776,0.0800498798489571
11,-0.0680398568511009,-0.0352751053869724,0.00267454772256315,0.0298865474760532,0.0332500599324703,0.0578056275844574
12,-0.0522994920611382,-0.0349299013614655,0.00712103210389614,0.0320851095020771,0.0332409143447876,0.0448120832443237
13,-0.0475183688104153,-0.0201411508023739,0.0144164375960827,0.040404237806797,0.0235843751579523,0.040182888507843
14,-0.0572593845427036,-0.00406649755313993,0.0214218348264694,0.052739080041647,0.0144086880609393,0.037835031747818
15,-0.0672013983130455,0.0042017619125545,0.0306228715926409,0.0615759901702404,0.0216657537966967,0.0411430932581425
16,-0.0609735585749149,0.00746965035796165,0.0430570878088474,0.0602070614695549,0.0473595224320889,0.0546204037964344
17,-0.0452712439000607,0.0109081771224737,0.0533314682543278,0.051428560167551,0.0775480046868324,0.0748523995280266
18,-0.0383286587893963,0.0129860658198595,0.0559397749602795,0.0430519618093967,0.0973166301846504,0.0891101658344269
19,-0.0388681665062904,0.0126960631459951,0.0519462265074253,0.0415829755365849,0.105324864387512,0.0877084732055664
20,-0.0350691303610802,0.0118707688525319,0.0421202257275581,0.0438087396323681,0.104323320090771,0.0767677426338196
21,-0.0217379704117775,0.0102875754237175,0.0301248300820589,0.0460735447704792,0.0934737548232079,0.0672304853796959
22,-0.00174125866033137,0.00778805976733565,0.026348827406764,0.0529799237847328,0.0799759104847908,0.060436487197876
23,0.0102915214374661,0.00575550459325314,0.0326248332858086,0.059535451233387,0.0711941495537758,0.0525460988283157
24,0.00158600124996156,0.00640356494113803,0.0421797409653664,0.0578365586698055,0.0650944262742996,0.0439535789191723
25,-0.026731675490737,0.00774241657927632,0.0491704940795898,0.0510848201811314,0.0576264671981335,0.0370897240936756
26,-0.0641316995024681,0.00720072584226727,0.0501421019434929,0.0430793762207031,0.0499604865908623,0.035020224750042
27,-0.0924315452575684,0.00966480560600758,0.0467486865818501,0.0375654920935631,0.0521975755691528,0.041142325848341
28,-0.102858372032642,0.00871848035603762,0.0369597412645817,0.0314485356211662,0.067113570868969,0.0431273840367794
29,-0.105666324496269,-0.00944963283836842,0.0150689408183098,0.0135664278641343,0.0781321227550507,0.0224910248070955
30,-0.109293088316917,-0.0355341210961342,-0.0123131740838289,-0.0123728467151523,0.074727863073349,-0.0112294824793935
31,-0.11287796497345,-0.048617959022522,-0.0320267677307129,-0.0324698984622955,0.0675710737705231,-0.0343668945133686
32,-0.113896265625954,-0.03775629773736,-0.0386665798723698,-0.0423766896128654,0.0664523541927338,-0.0380389466881752
33,-0.108591288328171,-0.0168729927390814,-0.0382173806428909,-0.0462200380861759,0.0665819495916367,-0.030480457469821
34,-0.095244936645031,-0.0130903888493776,-0.0415261015295982,-0.0477384068071842,0.060509018599987,-0.030689649283886
35,-0.0715134665369987,-0.0222511123865843,-0.0433783195912838,-0.0398107208311558,0.0551007390022278,-0.0402996651828289
36,-0.0377054736018181,-0.0190789625048637,-0.0303533915430307,-0.0160736031830311,0.0617467761039734,-0.0390924140810966
37,-0.00590735161677003,0.00369067909196019,-0.00746341003105044,0.0114538101479411,0.0756395012140274,-0.0254636593163013
38,0.0145247029140592,0.0308051276952028,0.0150259304791689,0.032044917345047,0.0903219878673553,-0.0143303172662854
39,0.0255686733871698,0.0471570044755936,0.0336485840380192,0.0489678271114826,0.109881535172462,0.00125152617692947
40,0.0316821746528149,0.0549609512090683,0.0425019897520542,0.0619776584208012,0.134141564369202,0.0355450212955475
41,0.0360222980380058,0.0567449741065502,0.0404829457402229,0.0666690617799759,0.156087681651115,0.0693283304572105
42,0.033376969397068,0.0402812026441097,0.0283434372395277,0.0583290606737137,0.164833977818489,0.0626172572374344
43,0.0168084986507893,-0.00272504612803459,0.00264640618115664,0.0344623103737831,0.152430340647697,0.00913443975150585
44,-0.00368389138020575,-0.0549784637987614,-0.0287678055465221,0.00776561023667455,0.129178211092949,-0.0513521507382393
45,-0.0168858617544174,-0.0881598144769669,-0.0530894361436367,-0.00976426433771849,0.109297350049019,-0.0869007259607315
46,-0.0268024299293756,-0.0888322740793228,-0.0645289570093155,-0.0203161854296923,0.0949074625968933,-0.0992496088147163
47,-0.0402959622442722,-0.0673832222819328,-0.0601874478161335,-0.0248351860791445,0.0872560143470764,-0.094240590929985
48,-0.0569883398711681,-0.0459464192390442,-0.0442992374300957,-0.023374380543828,0.0888423025608063,-0.0732287243008614
49,-0.0668992698192596,-0.0333930365741253,-0.0295521300286055,-0.0226960852742195,0.095048226416111,-0.047243170440197
50,-0.0635061413049698,-0.0288595426827669,-0.0286942888051271,-0.0295452103018761,0.0973647460341454,-0.0341872051358223
51,-0.056238055229187,-0.0358743369579315,-0.0479390397667885,-0.0448462218046188,0.094807542860508,-0.0484316349029541
52,-0.0532062351703644,-0.0515586771070957,-0.0786740332841873,-0.0624134317040443,0.092290461063385,-0.0843060612678528
53,-0.0517203360795975,-0.0636388659477234,-0.0992743819952011,-0.0724553763866425,0.0899482369422913,-0.110280245542526
54,-0.0526036396622658,-0.0609612129628658,-0.0994695425033569,-0.0730369389057159,0.0829627513885498,-0.105551272630692
55,-0.0587770789861679,-0.0338905900716782,-0.0866012945771217,-0.0670815408229828,0.0715983584523201,-0.0728117823600769
56,-0.0650976747274399,0.0121542112901807,-0.0677268356084824,-0.0518433451652527,0.0671965926885605,-0.0212402604520321
57,-0.0592690780758858,0.0491914562880993,-0.0443672090768814,-0.026430020108819,0.0840428099036217,0.0241417251527309
58,-0.0394836589694023,0.0618510060012341,-0.0207030009478331,-0.00157959095668048,0.119917713105679,0.034388791769743
59,-0.0221023801714182,0.0575259700417519,-0.00631861109286547,0.0105073386803269,0.151397362351418,0.0111378999426961
60,-0.0165801029652357,0.0390619859099388,-0.00192816811613739,0.0146480463445187,0.159928366541862,-0.0148921180516481
61,-0.0161925777792931,0.00868231523782015,0.00148706627078354,0.0235282983630896,0.147553861141205,-0.0215538050979376
62,-0.0168272200971842,-0.0242737364023924,0.0040966896340251,0.0370402447879314,0.123720712959766,-0.0171851851046085
63,-0.0217266902327538,-0.051946796476841,0.00364845059812069,0.0510544404387474,0.0980961099267006,-0.0158365499228239
64,-0.032586183398962,-0.0680756419897079,0.00392264919355512,0.0655024573206902,0.0791324451565742,-0.0153789073228836
65,-0.0469326451420784,-0.0704072639346123,0.00537117198109627,0.0763941705226898,0.0694727525115013,-0.0074935806915164
66,-0.0588039383292198,-0.0589458458125591,0.00677129812538624,0.079586923122406,0.068731926381588,0.0157942697405815
67,-0.064038023352623,-0.0336682349443436,0.00680417940020561,0.0710954889655113,0.0739398673176765,0.0494182668626308
68,-0.0652218163013458,-0.00425525987520814,0.00010647395538399,0.0413071140646935,0.0788906440138817,0.0627000704407692
69,-0.067010834813118,0.0107061294838786,-0.0173918008804321,-0.0088712852448225,0.0784696787595749,0.0355195142328739
70,-0.072665348649025,-0.00326591660268605,-0.0442695803940296,-0.0597617775201797,0.0655620545148849,-0.0176144372671843
71,-0.0789024382829666,-0.0371268764138222,-0.0679013356566429,-0.0876268669962883,0.041259128600359,-0.062936544418335
72,-0.0771711394190788,-0.0602249428629875,-0.071007028222084,-0.0812976211309433,0.0235105250030756,-0.0670572519302368
73,-0.0668320059776306,-0.0598635263741016,-0.0567593090236187,-0.0525313951075077,0.021839490160346,-0.0350534804165363
74,-0.0498886741697788,-0.0463803224265575,-0.0382314398884773,-0.0186787080019712,0.0348925814032555,0.000615076860412955
75,-0.0289428923279047,-0.0248690489679575,-0.0186808854341507,0.011554921977222,0.063788428902626,0.0322428494691849
76,-0.0123254293575883,0.00576023478060961,0.000545017188414931,0.0325188525021076,0.101085260510445,0.0652255192399025
77,-0.00250807730481029,0.0391337908804417,0.0153382550925016,0.0420180298388004,0.132286757230759,0.0848818346858025
78,0.00291182729415596,0.0525886900722981,0.0175919383764267,0.0386777520179749,0.150078937411308,0.0733475238084793
79,0.00205819797702134,0.0287460312247276,0.00340078608132899,0.0229038223624229,0.153321206569672,0.0340096391737461
80,-0.00253058900125325,-0.0126624163240194,-0.0127932615578175,0.0064036431722343,0.146238073706627,-0.00851548928767443
81,-0.00649140402674675,-0.0409964248538017,-0.0134834321215749,0.0015015642857179,0.135785907506943,-0.0235332027077675
82,-0.0159972887486219,-0.0473786666989326,-0.0030397882219404,0.001110051991418,0.119563356041908,-0.0118779959157109
83,-0.0319229066371918,-0.0434918515384197,-0.00110240653157234,-0.0117507558315992,0.0928672775626183,-0.00879658199846745
84,-0.0452321842312813,-0.0449229814112186,-0.0116249676793814,-0.0333518795669079,0.0637770444154739,-0.021845506504178
85,-0.0533140748739243,-0.0449448674917221,-0.01154366414994,-0.0358852930366993,0.0504481047391891,-0.0187348239123821
86,-0.053565688431263,-0.0292822532355785,0.0145518314093351,-0.00511073786765337,0.0632151663303375,0.012801599688828
87,-0.0430970415472984,-0.00574331637471914,0.0483078397810459,0.0377782098948956,0.0878937616944313,0.0497865490615368
88,-0.0272278431802988,0.00952634867280722,0.0652469769120216,0.0654331296682358,0.102218575775623,0.0699675232172012
89,-0.0162310507148504,0.0124227805063128,0.063504196703434,0.0735371932387352,0.10264752805233,0.0708146020770073
90,-0.0188487153500319,0.00825607404112816,0.0526565760374069,0.070075660943985,0.0957997292280197,0.0598167665302753
91,-0.029632618650794,0.00317547959275544,0.0380688235163689,0.059239212423563,0.086044929921627,0.0422684587538242
92,-0.0420601144433022,-0.00493512582033873,0.0128776486963034,0.0350900217890739,0.071409285068512,0.0179785098880529
93,-0.0606633722782135,-0.0215370710939169,-0.028968932107091,-0.00532494205981493,0.0480712689459324,-0.0104462336748838
94,-0.0801791995763779,-0.0392637103796005,-0.0682380348443985,-0.042738176882267,0.0287282317876816,-0.0296884011477232
95,-0.090198889374733,-0.0430854968726635,-0.0854398906230927,-0.0615381076931953,0.0292700100690126,-0.0320219248533249
96,-0.0892680138349533,-0.0296435784548521,-0.0829269215464592,-0.0666966736316681,0.0467990934848785,-0.0236880872398615
97,-0.0806384086608887,-0.0150969075039029,-0.0706708878278732,-0.0663932040333748,0.0655050501227379,-0.0188842304050922
98,-0.0677509531378746,-0.0178298521786928,-0.062621682882309,-0.068738117814064,0.0728031992912292,-0.0332920104265213
99,-0.0503705181181431,-0.0356424897909164,-0.0656014233827591,-0.0735369250178337,0.0729307681322098,-0.0651339814066887
100,-0.0325481258332729,-0.0589430555701256,-0.0742940083146095,-0.072854183614254,0.0732353255152702,-0.0973611995577812
101,-0.0219236053526402,-0.085063748061657,-0.0834788754582405,-0.0668294876813889,0.0680327564477921,-0.11506013572216
102,-0.0198487117886543,-0.106053382158279,-0.0876336768269539,-0.0586823225021362,0.0533063933253288,-0.107302881777287
103,-0.0266823992133141,-0.113206826150417,-0.0844104886054993,-0.0510040558874607,0.0352721475064754,-0.0756652429699898
104,-0.041439738124609,-0.104338303208351,-0.0776539519429207,-0.0467986539006233,0.0225169360637665,-0.0363061800599098
105,-0.0555526800453663,-0.0803558230400085,-0.0659850463271141,-0.0414873287081718,0.0224941410124302,-0.00295312819071114
106,-0.0622669644653797,-0.0497532449662685,-0.0453123338520527,-0.0287876855581999,0.0342153273522854,0.0192727763205767
107,-0.0626257285475731,-0.0218122266232967,-0.020188957452774,-0.0102822044864297,0.0469374395906925,0.0367260985076427
108,-0.0589079558849335,0.00112382730003446,-0.00109504139982164,0.00733257737010717,0.0549503825604916,0.0553677566349506
109,-0.0540518537163734,0.0120172677561641,0.00452312594279647,0.0140237649902701,0.0600673444569111,0.0588862374424934
110,-0.051955334842205,0.00149119668640196,-0.0048204124905169,0.00168509176000953,0.060914658010006,0.0306383334100246
111,-0.0572547689080238,-0.022209644317627,-0.0311765633523464,-0.030391588807106,0.0495294481515884,-0.0239950940012932
112,-0.0755485519766808,-0.0467273704707623,-0.0737228691577911,-0.0757059454917908,0.0203462969511747,-0.0886781141161919
113,-0.103343106806278,-0.0718333348631859,-0.113892890512943,-0.116130754351616,-0.0140286004170775,-0.138717651367188
114,-0.127711743116379,-0.0946794673800468,-0.130685329437256,-0.132936641573906,-0.0347206778824329,-0.156467840075493
115,-0.139088556170464,-0.111121773719788,-0.126764848828316,-0.126932099461555,-0.0415516272187233,-0.149740472435951
116,-0.132138848304749,-0.116529367864132,-0.112214766442776,-0.107764557003975,-0.0376606620848179,-0.126977294683456
117,-0.110581748187542,-0.10581462085247,-0.0888035297393799,-0.0800031051039696,-0.0184909999370575,-0.0850208103656769
118,-0.0879063680768013,-0.083642490208149,-0.0601772218942642,-0.0475316122174263,0.0097722178325057,-0.0324595905840397
119,-0.0697251781821251,-0.0558606460690498,-0.032348059117794,-0.0154624162241817,0.0351386666297913,0.00985234882682562
120,-0.0559187904000282,-0.0321256779134274,-0.0127408858388662,0.00453358562663198,0.0524778924882412,0.0255782771855593
121,-0.047165784984827,-0.0279765613377094,-0.0063338833861053,0.00179195438977331,0.0636429190635681,0.0133365457877517
122,-0.0442317463457584,-0.0447662882506847,-0.0161860939115286,-0.0229187477380037,0.0682555660605431,-0.013740474358201
123,-0.0567143373191357,-0.0713558048009872,-0.0517281033098698,-0.0698929950594902,0.0496318526566029,-0.0466208569705486
124,-0.0906232371926308,-0.103384464979172,-0.10943478345871,-0.129596993327141,-0.00198246841318905,-0.0786003023386002
125,-0.134763330221176,-0.140373900532722,-0.167841643095016,-0.175303652882576,-0.0664552301168442,-0.100544527173042
126,-0.176600754261017,-0.17189322412014,-0.213187515735626,-0.195285305380821,-0.119606286287308,-0.118048183619976
127,-0.211556494235992,-0.188830628991127,-0.241538539528847,-0.199867740273476,-0.153266802430153,-0.141915872693062
128,-0.239204108715057,-0.201226279139519,-0.256601393222809,-0.205505147576332,-0.173619166016579,-0.17918287217617
129,-0.257942140102386,-0.221316799521446,-0.263405352830887,-0.218609362840652,-0.188499927520752,-0.229169875383377
130,-0.259762644767761,-0.241337358951569,-0.25425910949707,-0.225670471787453,-0.191234707832336,-0.263717234134674
131,-0.240699470043182,-0.25111910700798,-0.229967132210732,-0.218061864376068,-0.174910351634026,-0.254624426364899
132,-0.211283311247826,-0.255384743213654,-0.208847343921661,-0.206877455115318,-0.14876689016819,-0.219229146838188
133,-0.193015828728676,-0.261635810136795,-0.203087478876114,-0.204621016979218,-0.12878692150116,-0.199912384152412
134,-0.201631829142571,-0.26745542883873,-0.214230448007584,-0.213746026158333,-0.125039279460907,-0.214508384466171
135,-0.231026247143745,-0.266466528177261,-0.237755373120308,-0.230357721447945,-0.137498438358307,-0.247697576880455
136,-0.264861166477203,-0.263264000415802,-0.263303518295288,-0.247805416584015,-0.160738408565521,-0.271694123744965
137,-0.29486683011055,-0.269422143697739,-0.284323871135712,-0.261366039514542,-0.189165458083153,-0.273313045501709
138,-0.312174648046494,-0.280930906534195,-0.296224981546402,-0.267821937799454,-0.206817999482155,-0.260669559240341
139,-0.312175869941711,-0.285122722387314,-0.295473009347916,-0.265548825263977,-0.199230343103409,-0.245821297168732
140,-0.309195697307587,-0.283087164163589,-0.28729972243309,-0.26027649641037,-0.181824281811714,-0.237967863678932
141,-0.310280710458755,-0.280121833086014,-0.272123754024506,-0.252507358789444,-0.176519006490707,-0.235346242785454
142,-0.309854805469513,-0.282513201236725,-0.253207743167877,-0.241685792803764,-0.189134642481804,-0.232902556657791
143,-0.304488122463226,-0.292260855436325,-0.24317255616188,-0.233415693044662,-0.212585166096687,-0.231987938284874
144,-0.28806409239769,-0.296898365020752,-0.240111336112022,-0.223960623145103,-0.224837213754654,-0.226738557219505
145,-0.262378484010696,-0.291171312332153,-0.236697167158127,-0.213482484221458,-0.214303851127625,-0.216508895158768
146,-0.235858932137489,-0.281715214252472,-0.234417334198952,-0.210387319326401,-0.195292621850967,-0.209777653217316
147,-0.212121590971947,-0.265218764543533,-0.234459728002548,-0.211508631706238,-0.182201981544495,-0.201827436685562
148,-0.19570554792881,-0.233246147632599,-0.236795380711555,-0.209948286414146,-0.175206884741783,-0.186973288655281
149,-0.184720754623413,-0.191069677472115,-0.233432307839394,-0.197635129094124,-0.164198279380798,-0.166769728064537
150,-0.168942853808403,-0.152100145816803,-0.211205691099167,-0.164016932249069,-0.140443250536919,-0.137813150882721
151,-0.143288597464561,-0.123208470642567,-0.171673059463501,-0.11527943611145,-0.105892658233643,-0.104460120201111
152,-0.110433347523212,-0.101590387523174,-0.128774851560593,-0.0716163590550423,-0.0671152696013451,-0.0764755830168724
153,-0.0757830590009689,-0.0803114548325539,-0.0951537191867828,-0.0478089414536953,-0.0316324308514595,-0.051396731287241
154,-0.0382510349154472,-0.0579232424497604,-0.0679563954472542,-0.0380517691373825,0.00186094047967345,-0.0225882176309824
155,0.00526174763217568,-0.0413147732615471,-0.0305658951401711,-0.0203283168375492,0.0459532365202904,0.0122602423653007
156,0.0518558360636234,-0.0322771370410919,0.0213480442762375,0.0171113256365061,0.104266665875912,0.0503784343600273
157,0.100278183817863,-0.0192383620887995,0.0767172873020172,0.0709909796714783,0.168081715703011,0.0872087776660919
158,0.151209190487862,0.0102629829198122,0.127500712871552,0.134146198630333,0.228337153792381,0.122164256870747
159,0.201679795980453,0.0631759613752365,0.175165042281151,0.200646460056305,0.280524909496307,0.164182096719742
160,0.248866960406303,0.14307776093483,0.225790649652481,0.267096221446991,0.327673614025116,0.230011194944382
161,0.291869401931763,0.237146809697151,0.278848201036453,0.326834857463837,0.374485015869141,0.316888839006424
162,0.330910801887512,0.319574654102325,0.329410523176193,0.375851482152939,0.4206383228302,0.397774934768677
163,0.377359360456467,0.389423072338104,0.392509877681732,0.431437402963638,0.473695069551468,0.464018553495407
164,0.447661399841309,0.468309193849564,0.491193532943726,0.5,0.5,0.5
165,0.5,0.5,0.5,0.5,0.5,0.5
166,0.5,0.5,0.5,0.5,0.5,0.5
167,0.5,0.5,0.5,0.5,0.5,0.5
168,0.5,0.5,0.5,0.5,0.5,0.5
169,0.5,0.5,0.5,0.5,0.5,0.5
170,0.5,0.5,0.5,0.5,0.5,0.5
171,0.5,0.5,0.5,0.5,0.5,0.5
172,0.5,0.5,0.5,0.5,0.5,0.5
173,0.5,0.5,0.5,0.5,0.5,0.5
174,0.5,0.5,0.5,0.5,0.5,0.5
175,0.5,0.5,0.5,0.5,0.5,0.5
176,0.5,0.5,0.5,0.5,0.5,0.5
177,0.5,0.5,0.5,0.5,0.5,0.5
178,0.5,0.5,0.5,0.5,0.5,0.5
179,0.5,0.5,0.5,0.5,0.5,0.5
180,0.5,0.5,0.5,0.5,0.5,0.5
181,0.5,0.5,0.5,0.5,0.5,0.5
182,0.5,0.5,0.5,0.5,0.5,0.5
183,0.5,0.5,0.5,0.5,0.5,0.5
184,0.5,0.5,0.5,0.5,0.5,0.5
185,0.5,0.5,0.5,0.5,0.5,0.5
186,0.5,0.5,0.5,0.5,0.5,0.5
187,0.5,0.5,0.5,0.5,0.5,0.5
188,0.5,0.5,0.5,0.5,0.5,0.5
189,0.5,0.5,0.5,0.5,0.5,0.5
190,0.5,0.5,0.5,0.5,0.5,0.5
191,0.5,0.5,0.5,0.5,0.5,0.5
192,0.5,0.5,0.5,0.5,0.5,0.5
193,0.5,0.5,0.5,0.5,0.5,0.5
194,0.5,0.5,0.5,0.5,0.5,0.5
195,0.5,0.5,0.5,0.5,0.5,0.5
196,0.5,0.5,0.5,0.5,0.5,0.5
197,0.5,0.5,0.5,0.5,0.5,0.5
198,0.5,0.5,0.5,0.5,0.5,0.5
199,0.5,0.5,0.5,0.5,0.5,0.5
200,0.5,0.5,0.5,0.5,0.5,0.5
201,0.5,0.5,0.5,0.5,0.5,0.5
202,0.5,0.5,0.5,0.5,0.5,0.5
203,0.5,0.5,0.5,0.5,0.5,0.5
204,0.5,0.5,0.5,0.5,0.5,0.5
205,0.5,0.5,0.5,0.5,0.5,0.5
206,0.5,0.5,0.5,0.5,0.5,0.5
207,0.5,0.5,0.5,0.5,0.5,0.5
208,0.5,0.5,0.5,0.5,0.5,0.5
209,0.5,0.5,0.5,0.5,0.5,0.5
210,0.5,0.5,0.5,0.5,0.5,0.5
211,0.5,0.5,0.5,0.5,0.5,0.5
212,0.5,0.5,0.5,0.5,0.5,0.5
213,0.5,0.5,0.5,0.5,0.5,0.5
214,0.5,0.5,0.5,0.5,0.5,0.5
215,0.5,0.5,0.5,0.5,0.5,0.5
216,0.5,0.5,0.5,0.5,0.5,0.5
217,0.5,0.5,0.5,0.5,0.5,0.5
218,0.5,0.5,0.5,0.5,0.5,0.5
219,0.5,0.5,0.5,0.5,0.5,0.5
220,0.5,0.5,0.5,0.5,0.5,0.5
221,0.5,0.5,0.5,0.5,0.5,0.5
222,0.5,0.5,0.5,0.5,0.5,0.5
223,0.5,0.5,0.5,0.5,0.5,0.5
224,0.5,0.5,0.5,0.5,0.5,0.5
225,0.5,0.5,0.5,0.5,0.5,0.5
226,0.5,0.5,0.5,0.5,0.5,0.5
227,0.5,0.5,0.5,0.5,0.5,0.5
228,0.5,0.5,0.5,0.5,0.5,0.5
229,0.5,0.5,0.5,0.5,0.5,0.5
230,0.5,0.5,0.5,0.5,0.5,0.5
231,0.5,0.5,0.5,0.5,0.5,0.5
232,0.5,0.5,0.5,0.5,0.5,0.5
233,0.5,0.5,0.5,0.5,0.5,0.5
234,0.5,0.5,0.5,0.5,0.5,0.5
235,0.5,0.5,0.5,0.5,0.5,0.5
236,0.5,0.5,0.5,0.5,0.5,0.5
237,0.5,0.5,0.5,0.5,0.5,0.5
238,0.5,0.5,0.5,0.5,0.5,0.5
239,0.5,0.5,0.5,0.5,0.5,0.5
240,0.5,0.5,0.5,0.5,0.5,0.5
241,0.5,0.5,0.5,0.5,0.5,0.5
242,0.5,0.5,0.5,0.5,0.5,0.5
243,0.5,0.5,0.5,0.5,0.5,0.5
244,0.5,0.5,0.5,0.5,0.5,0.5
245,0.5,0.5,0.5,0.5,0.5,0.5
246,0.5,0.5,0.5,0.5,0.5,0.5
247,0.5,0.5,0.5,0.5,0.5,0.5
248,0.5,0.5,0.5,0.5,0.5,0.5
249,0.5,0.5,0.5,0.5,0.5,0.5
250,0.5,0.5,0.5,0.5,0.5,0.5
251,0.5,0.5,0.5,0.5,0.5,0.5
252,0.5,0.5,0.5,0.5,0.5,0.5
253,0.5,0.5,0.5,0.5,0.5,0.5
254,0.5,0.5,0.5,0.5,0.5,0.5
255,0.5,0.5,0.5,0.5,0.5,0.5
256,0.5,0.5,0.5,0.5,0.5,0.5
257,0.356517553329468,0.5,0.5,0.5,0.5,0.5
258,0.0525926053524017,0.5,0.5,0.5,0.5,0.5
259,-0.245081961154938,0.5,0.5,0.5,0.5,0.5
260,-0.496683388948441,0.5,0.5,0.5,0.5,0.5
261,-0.5,0.5,0.5,0.5,0.5,0.5
262,-0.5,0.5,0.5,0.5,0.5,0.5
263,-0.5,0.5,0.5,0.5,0.5,0.5
264,-0.5,0.5,0.5,0.5,0.5,0.5
265,-0.5,0.5,0.5,0.5,0.5,0.5
266,-0.5,0.5,0.5,0.5,0.5,0.5
267,-0.5,0.5,0.5,0.5,0.5,0.5
268,-0.5,0.5,0.5,0.5,0.5,0.5
269,-0.5,0.353330254554749,0.5,0.5,0.5,0.5
270,-0.5,0.176932379603386,0.5,0.5,0.5,0.5
271,-0.5,0.00807394366711378,0.5,0.5,0.5,0.5
272,-0.5,-0.109742909669876,0.5,0.5,0.5,0.5
273,-0.5,-0.153621360659599,0.5,0.5,0.5,0.5
274,-0.5,-0.175646588206291,0.5,0.5,0.5,0.5
275,-0.5,-0.255993694067001,0.5,0.5,0.5,0.5
276,-0.5,-0.419982820749283,0.5,0.5,0.5,0.5
277,-0.5,-0.5,0.5,0.5,0.5,0.5
278,-0.5,-0.5,0.5,0.5,0.5,0.5
279,-0.5,-0.5,0.5,0.5,0.5,0.5
280,-0.5,-0.5,0.5,0.5,0.5,0.5
281,-0.5,-0.5,0.5,0.5,0.5,0.5
282,-0.5,-0.5,0.491355985403061,0.497666507959366,0.470050811767578,0.375263035297394
283,-0.5,-0.5,0.371831774711609,0.3685442507267,0.376250177621841,0.251650214195251
284,-0.5,-0.5,0.279805451631546,0.268319100141525,0.309330016374588,0.157836630940437
285,-0.5,-0.5,0.166076928377151,0.143158406019211,0.218547344207764,0.0308385323733091
286,-0.5,-0.5,-0.025495121255517,-0.06035091355443,0.0444512292742729,-0.170862182974815
287,-0.5,-0.5,-0.30793622136116,-0.346312761306763,-0.226540327072144,-0.443311214447021
288,-0.5,-0.5,-0.5,-0.5,-0.5,-0.5
289,-0.5,-0.5,-0.5,-0.5,-0.5,-0.5
290,-0.5,-0.5,-0.5,-0.5,-0.5,-0.5
291,-0.5,-0.5,-0.5,-0.5,-0.5,-0.5
292,-0.5,-0.5,-0.5,-0.5,-0.5,-0.5
293,-0.5,-0.5,-0.5,-0.5,-0.5,-0.5
294,-0.5,-0.5,-0.5,-0.5,-0.5,-0.5
295,-0.5,-0.5,-0.5,-0.5,-0.5,-0.5
296,-0.5,-0.5,-0.5,-0.5,-0.5,-0.5
297,-0.5,-0.5,-0.5,-0.5,-0.5,-0.5
298,-0.5,-0.5,-0.5,-0.5,-0.5,-0.5
299,-0.5,-0.5,-0.5,-0.5,-0.5,-0.5
300,-0.5,-0.5,-0.5,-0.5,-0.5,-0.5
301,-0.5,-0.5,-0.5,-0.5,-0.5,-0.5
302,-0.5,-0.5,-0.5,-0.5,-0.5,-0.5
303,-0.5,-0.5,-0.5,-0.5,-0.5,-0.5
304,-0.5,-0.5,-0.5,-0.5,-0.5,-0.5
305,-0.5,-0.5,-0.5,-0.5,-0.5,-0.5
306,-0.5,-0.5,-0.5,-0.5,-0.5,-0.5
307,-0.5,-0.5,-0.5,-0.5,-0.5,-0.5
308,-0.5,-0.5,-0.5,-0.5,-0.5,-0.5
309,-0.5,-0.5,-0.5,-0.5,-0.5,-0.5
310,-0.5,-0.5,-0.5,-0.5,-0.5,-0.5
311,-0.5,-0.5,-0.5,-0.5,-0.5,-0.5
312,-0.5,-0.5,-0.5,-0.5,-0.5,-0.5
313,-0.5,-0.5,-0.5,-0.5,-0.5,-0.5
314,-0.5,-0.5,-0.5,-0.5,-0.5,-0.5
315,-0.5,-0.5,-0.5,-0.5,-0.5,-0.5
316,-0.5,-0.5,-0.5,-0.5,-0.5,-0.5
317,-0.5,-0.5,-0.5,-0.5,-0.5,-0.5
318,-0.5,-0.5,-0.5,-0.5,-0.5,-0.5
319,-0.5,-0.5,-0.5,-0.5,-0.5,-0.5
320,-0.5,-0.5,-0.5,-0.5,-0.5,-0.5
321,-0.5,-0.5,-0.457191944122314,-0.5,-0.5,-0.5
322,-0.5,-0.5,-0.15538889169693,-0.22476664185524,-0.258721947669983,-0.386285334825516
323,-0.5,-0.5,0.089665949344635,0.0175354983657599,-0.0216879174113274,-0.169218495488167
324,-0.5,-0.5,0.279560416936874,0.209953337907791,0.170612528920174,0.0201561637222767
325,-0.5,-0.5,0.429488241672516,0.365638345479965,0.332329481840134,0.194227397441864
326,-0.5,-0.5,0.5,0.462236434221268,0.444219201803207,0.314691156148911
327,-0.5,-0.5,0.5,0.47309085726738,0.479208916425705,0.343079090118408
328,-0.5,-0.5,0.499609410762787,0.432534366846085,0.466730773448944,0.317430585622787
329,-0.5,-0.5,0.461156696081162,0.380434364080429,0.439916878938675,0.27807605266571
330,-0.5,-0.5,0.399538457393646,0.306016087532043,0.374089330434799,0.206675112247467
331,-0.5,-0.5,0.273864150047302,0.17974828183651,0.22759060561657,0.0809641778469086
332,-0.5,-0.5,0.0970527678728104,0.0121917594224215,0.0189473200589418,-0.0738112702965736
333,-0.5,-0.5,-0.0472747124731541,-0.121908068656921,-0.15694859623909,-0.185334652662277
334,-0.5,-0.5,-0.10085541009903,-0.165246739983559,-0.231424242258072,-0.209207698702812
335,-0.5,-0.5,-0.10413321852684,-0.160508185625076,-0.241993322968483,-0.197708010673523
336,-0.5,-0.5,-0.127300888299942,-0.187048763036728,-0.259166777133942,-0.230696216225624
337,-0.5,-0.5,-0.183471873402596,-0.262189120054245,-0.301053732633591,-0.31854635477066
338,-0.5,-0.5,-0.230746075510979,-0.334780097007751,-0.334701687097549,-0.404935598373413
339,-0.5,-0.5,-0.24755035340786,-0.363524228334427,-0.340919345617294,-0.451032072305679
340,-0.5,-0.5,-0.277345359325409,-0.380526453256607,-0.362812399864197,-0.492003321647644
341,-0.5,-0.5,-0.355424106121063,-0.433348178863525,-0.44082698225975,-0.5
342,-0.5,-0.5,-0.465797156095505,-0.5,-0.5,-0.5
343,-0.5,-0.5,-0.5,-0.5,-0.5,-0.5
344,-0.5,-0.5,-0.5,-0.5,-0.5,-0.5
345,-0.5,-0.5,-0.5,-0.5,-0.5,-0.5
346,-0.5,-0.5,-0.5,-0.5,-0.5,-0.5
347,-0.5,-0.5,-0.5,-0.5,-0.5,-0.5
348,-0.5,-0.5,-0.5,-0.5,-0.5,-0.5
349,-0.5,-0.5,-0.5,-0.5,-0.5,-0.5
350,-0.5,-0.5,-0.5,-0.5,-0.5,-0.5
351,-0.5,-0.5,-0.5,-0.5,-0.5,-0.5
352,-0.5,-0.5,-0.5,-0.5,-0.5,-0.5
353,-0.5,-0.5,-0.5,-0.5,-0.5,-0.5
354,-0.5,-0.5,-0.5,-0.5,-0.5,-0.5
355,-0.5,-0.5,-0.5,-0.5,-0.5,-0.5
356,-0.5,-0.5,-0.5,-0.5,-0.5,-0.5
357,-0.5,-0.5,-0.5,-0.5,-0.5,-0.5
358,-0.5,-0.5,-0.5,-0.5,-0.5,-0.5
359,-0.5,-0.5,-0.5,-0.5,-0.5,-0.5
360,-0.5,-0.5,-0.5,-0.5,-0.5,-0.5
361,-0.5,-0.5,-0.5,-0.5,-0.5,-0.5
362,-0.5,-0.5,-0.5,-0.5,-0.5,-0.5
363,-0.5,-0.5,-0.5,-0.5,-0.5,-0.5
364,-0.5,-0.5,-0.5,-0.5,-0.5,-0.5
365,-0.5,-0.5,-0.5,-0.5,-0.5,-0.5
366,-0.4083571434021,-0.5,-0.5,-0.5,-0.5,-0.5
367,-0.394310683012009,-0.5,-0.5,-0.5,-0.5,-0.5
368,-0.461483299732208,-0.5,-0.5,-0.5,-0.5,-0.5
369,-0.5,-0.5,-0.5,-0.5,-0.5,-0.5
370,-0.48923996090889,-0.5,-0.5,-0.5,-0.5,-0.5
371,-0.217048704624176,-0.5,-0.5,-0.5,-0.5,-0.5
372,0.245025217533112,-0.5,-0.221935093402863,-0.114098004996777,-0.312992185354233,-0.222774296998978
373,0.5,-0.5,0.347511410713196,0.461665391921997,0.236777275800705,0.341543614864349
374,0.5,-0.5,0.5,0.5,0.5,0.5
375,0.5,-0.5,0.5,0.5,0.5,0.5
376,0.5,-0.473218381404877,0.5,0.5,0.5,0.5
377,0.5,-0.151635602116585,0.5,0.5,0.5,0.5
378,0.5,0.120573952794075,0.5,0.5,0.5,0.5
379,0.5,0.324865251779556,0.5,0.5,0.5,0.5
380,0.5,0.447829216718674,0.5,0.5,0.5,0.5
381,0.5,0.478798091411591,0.5,0.5,0.5,0.5
382,0.5,0.396429091691971,0.5,0.5,0.5,0.5
383,0.5,0.171338826417923,0.5,0.5,0.5,0.5
384,0.5,-0.180651918053627,0.5,0.5,0.5,0.5
385,0.5,-0.5,0.5,0.5,0.5,0.5
386,0.5,-0.5,0.279193520545959,0.401683479547501,0.23426079750061,0.241005092859268
387,0.5,-0.5,-0.035159345716238,0.108328476548195,-0.0938928872346878,-0.0523455142974854
388,0.5,-0.5,-0.238563269376755,-0.0739952847361565,-0.311994582414627,-0.225181683897972
389,0.5,-0.5,-0.359063237905502,-0.190198466181755,-0.440121740102768,-0.323628753423691
390,0.5,-0.5,-0.432607412338257,-0.276220381259918,-0.5,-0.381526827812195
391,0.5,-0.5,-0.495647698640823,-0.355429470539093,-0.5,-0.427908837795258
392,0.338080525398254,-0.5,-0.5,-0.438486069440842,-0.5,-0.491722136735916
393,0.179270684719086,-0.5,-0.5,-0.5,-0.5,-0.5
394,0.0820945203304291,-0.5,-0.5,-0.5,-0.5,-0.5
395,0.0451926067471504,-0.5,-0.5,-0.5,-0.5,-0.5
396,0.0167031660676003,-0.5,-0.5,-0.5,-0.5,-0.5
397,-0.0596635714173317,-0.5,-0.5,-0.5,-0.5,-0.5
398,-0.197997108101845,-0.5,-0.5,-0.5,-0.5,-0.5
399,-0.351355701684952,-0.5,-0.5,-0.5,-0.5,-0.5
400,-0.458379775285721,-0.5,-0.5,-0.5,-0.5,-0.5
401,-0.497225075960159,-0.5,-0.5,-0.5,-0.5,-0.5
402,-0.480836719274521,-0.5,-0.5,-0.5,-0.5,-0.5
403,-0.436822503805161,-0.5,-0.5,-0.5,-0.5,-0.5
404,-0.384569019079208,-0.5,-0.5,-0.5,-0.5,-0.5
405,-0.316672265529633,-0.5,-0.5,-0.5,-0.5,-0.5
406,-0.229015350341797,-0.5,-0.5,-0.5,-0.5,-0.5
407,-0.149136513471603,-0.5,-0.5,-0.5,-0.5,-0.5
408,-0.0969272628426552,-0.5,-0.5,-0.5,-0.5,-0.5
409,-0.0497371442615986,-0.5,-0.5,-0.5,-0.5,-0.5
410,0.0462179332971573,-0.5,-0.5,-0.5,-0.5,-0.5
411,0.249478712677956,-0.445253670215607,-0.5,-0.398937672376633,-0.5,-0.5
412,0.5,-0.245533153414726,-0.362721711397171,-0.170486405491829,-0.372930079698563,-0.325579255819321
413,0.5,0.0270988736301661,-0.0937822237610817,0.0993377417325974,-0.0911275297403336,-0.060535479336977
414,0.5,0.309410929679871,0.145899876952171,0.337301939725876,0.145793318748474,0.177375435829163
415,0.5,0.5,0.303070187568665,0.487439632415771,0.281949907541275,0.333568245172501
416,0.5,0.5,0.375282466411591,0.5,0.329966694116592,0.401586890220642
417,0.5,0.5,0.431932181119919,0.5,0.378072202205658,0.451828002929688
418,0.5,0.5,0.5,0.5,0.5,0.5
419,0.5,0.5,0.5,0.5,0.5,0.5
420,0.5,0.5,0.5,0.5,0.5,0.5
421,0.5,0.5,0.5,0.5,0.5,0.5
422,0.5,0.5,0.5,0.5,0.5,0.5
423,0.5,0.5,0.5,0.5,0.5,0.5
424,0.5,0.5,0.5,0.5,0.5,0.5
425,0.5,0.5,0.5,0.5,0.5,0.5
426,0.5,0.5,0.5,0.5,0.5,0.5
427,0.5,0.5,0.5,0.5,0.5,0.5
428,0.5,0.5,0.5,0.5,0.5,0.5
429,0.5,0.5,0.5,0.5,0.5,0.5
430,0.5,0.5,0.5,0.5,0.5,0.5
431,0.5,0.5,0.5,0.5,0.5,0.5
432,0.5,0.5,0.5,0.5,0.5,0.5
433,0.5,0.5,0.5,0.5,0.5,0.5
434,0.5,0.5,0.5,0.5,0.5,0.5
435,0.5,0.5,0.5,0.5,0.489556849002838,0.5
436,0.5,0.5,0.376919090747833,0.440198689699173,0.27788707613945,0.286293655633926
437,0.5,0.5,0.12338125705719,0.205509588122368,0.0172243919223547,0.0636624693870544
438,0.5,0.5,-0.118436612188816,-0.0146833118051291,-0.234497159719467,-0.130925104022026
439,0.5,0.5,-0.279559999704361,-0.164995193481445,-0.399743407964706,-0.260298401117325
440,0.5,0.5,-0.349001109600067,-0.234867334365845,-0.462170630693436,-0.313004910945892
441,0.5,0.5,-0.347301095724106,-0.242715612053871,-0.449552595615387,-0.298190623521805
442,0.5,0.5,-0.311323761940002,-0.218140706419945,-0.408224314451218,-0.253619134426117
443,0.5,0.5,-0.288693696260452,-0.201226562261581,-0.386653363704681,-0.233216032385826
444,0.5,0.5,-0.282874435186386,-0.198118671774864,-0.387200802564621,-0.23955012857914
445,0.5,0.5,-0.299078851938248,-0.214753359556198,-0.412169843912125,-0.264422655105591
446,0.5,0.5,-0.38842049241066,-0.299324363470078,-0.5,-0.344671040773392
447,0.5,0.5,-0.5,-0.48697954416275,-0.5,-0.5
448,0.5,0.5,-0.5,-0.5,-0.5,-0.5
449,0.5,0.5,-0.5,-0.5,-0.5,-0.5
450,0.5,0.5,-0.5,-0.5,-0.5,-0.5
451,0.5,0.5,-0.5,-0.5,-0.5,-0.5
452,0.5,0.5,-0.5,-0.5,-0.5,-0.5
453,0.5,0.5,-0.5,-0.5,-0.5,-0.5
454,0.5,0.5,-0.5,-0.5,-0.5,-0.5
455,0.5,0.5,-0.5,-0.5,-0.5,-0.5
456,0.5,0.5,-0.5,-0.5,-0.5,-0.5
457,0.5,0.5,-0.5,-0.5,-0.5,-0.5
458,0.5,0.5,-0.5,-0.5,-0.5,-0.5
459,0.5,0.5,-0.5,-0.5,-0.5,-0.5
460,0.5,0.5,-0.5,-0.5,-0.5,-0.5
461,0.5,0.5,-0.5,-0.5,-0.5,-0.5
462,0.5,0.5,-0.5,-0.5,-0.5,-0.5
463,0.5,0.5,-0.5,-0.5,-0.5,-0.5
464,0.5,0.5,-0.5,-0.5,-0.5,-0.5
465,0.5,0.434632301330566,-0.5,-0.5,-0.5,-0.5
466,0.5,0.388947665691376,-0.5,-0.5,-0.5,-0.5
467,0.5,0.383553832769394,-0.5,-0.5,-0.5,-0.5
468,0.5,0.385534405708313,-0.5,-0.5,-0.5,-0.5
469,0.5,0.375212818384171,-0.5,-0.5,-0.5,-0.5
470,0.5,0.348676353693008,-0.5,-0.5,-0.5,-0.5
471,0.5,0.336701929569244,-0.5,-0.5,-0.5,-0.5
472,0.5,0.36457160115242,-0.5,-0.5,-0.5,-0.5
473,0.5,0.400808364152908,-0.5,-0.5,-0.5,-0.5
474,0.5,0.40587329864502,-0.5,-0.5,-0.5,-0.5
475,0.5,0.384461730718613,-0.5,-0.5,-0.5,-0.5
476,0.5,0.377543717622757,-0.5,-0.5,-0.5,-0.5
477,0.5,0.421770542860031,-0.5,-0.5,-0.5,-0.5
478,0.5,0.5,-0.5,-0.5,-0.5,-0.5
479,0.5,0.5,-0.5,-0.5,-0.5,-0.5
480,0.5,0.5,-0.5,-0.5,-0.5,-0.5
481,0.5,0.5,-0.5,-0.5,-0.5,-0.5
482,0.5,0.5,-0.5,-0.5,-0.5,-0.5
483,0.5,0.5,-0.5,-0.5,-0.5,-0.5
484,0.5,0.5,-0.5,-0.5,-0.5,-0.5
485,0.5,0.5,-0.5,-0.5,-0.5,-0.5
486,0.5,0.5,-0.5,-0.5,-0.5,-0.5
487,0.5,0.5,-0.5,-0.5,-0.5,-0.5
488,0.5,0.5,-0.5,-0.5,-0.5,-0.5
489,0.5,0.5,-0.5,-0.5,-0.5,-0.5
490,0.5,0.5,-0.5,-0.5,-0.5,-0.5
491,0.5,0.5,-0.395477384328842,-0.5,-0.412007600069046,-0.379111111164093
492,0.5,0.5,-0.271259188652039,-0.5,-0.310418725013733,-0.273464441299438
493,0.5,0.5,-0.212803676724434,-0.482456415891647,-0.279370486736298,-0.217964470386505
494,0.5,0.5,-0.207463815808296,-0.470914334058762,-0.296509444713593,-0.202124461531639
495,0.5,0.5,-0.239183440804482,-0.481578081846237,-0.334181487560272,-0.218306094408035
496,0.5,0.5,-0.311843752861023,-0.5,-0.389940649271011,-0.277808338403702
497,0.5,0.5,-0.411744266748428,-0.5,-0.45773184299469,-0.366544634103775
498,0.5,0.5,-0.49606055021286,-0.5,-0.5,-0.437096983194351
499,0.5,0.5,-0.5,-0.5,-0.5,-0.46794980764389
500,0.5,0.5,-0.5,-0.5,-0.5,-0.492204248905182
501,0.5,0.5,-0.5,-0.5,-0.5,-0.5
502,0.5,0.5,-0.5,-0.5,-0.5,-0.5
503,0.5,0.5,-0.5,-0.5,-0.5,-0.5
504,0.5,0.5,-0.5,-0.5,-0.5,-0.5
505,0.5,0.5,-0.5,-0.5,-0.5,-0.5
506,0.5,0.5,-0.5,-0.5,-0.5,-0.5
507,0.5,0.5,-0.5,-0.5,-0.5,-0.5
508,0.5,0.5,-0.5,-0.5,-0.5,-0.5
509,0.5,0.5,-0.5,-0.5,-0.5,-0.5
510,0.5,0.5,-0.5,-0.5,-0.5,-0.5
511,0.5,0.5,-0.5,-0.5,-0.5,-0.5
512,0.5,0.5,-0.5,-0.5,-0.5,-0.5
513,0.5,0.5,-0.5,-0.5,-0.5,-0.5
514,0.5,0.5,-0.5,-0.5,-0.5,-0.5
515,0.5,0.5,-0.5,-0.5,-0.5,-0.5
516,0.5,0.482098311185837,-0.5,-0.5,-0.5,-0.5
517,0.5,0.235014334321022,-0.5,-0.5,-0.5,-0.5
518,0.5,-0.0297205504029989,-0.5,-0.5,-0.5,-0.5
519,0.342197388410568,-0.229687318205833,-0.5,-0.5,-0.5,-0.5
520,0.0442116223275661,-0.336165249347687,-0.5,-0.5,-0.5,-0.5
521,-0.209179267287254,-0.426283329725266,-0.5,-0.5,-0.5,-0.5
522,-0.469102889299393,-0.5,-0.5,-0.5,-0.5,-0.5
523,-0.5,-0.5,-0.5,-0.5,-0.5,-0.5
524,-0.5,-0.5,-0.5,-0.5,-0.5,-0.5
525,-0.5,-0.5,-0.5,-0.5,-0.5,-0.5
526,-0.5,-0.5,-0.5,-0.5,-0.5,-0.5
527,-0.5,-0.5,-0.5,-0.5,-0.5,-0.5
528,-0.5,-0.5,-0.5,-0.5,-0.5,-0.5
529,-0.5,-0.5,-0.5,-0.5,-0.5,-0.5
530,-0.5,-0.5,-0.5,-0.5,-0.5,-0.5
531,-0.5,-0.5,-0.5,-0.5,-0.5,-0.5
532,-0.5,-0.5,-0.5,-0.5,-0.5,-0.5
533,-0.5,-0.5,-0.5,-0.5,-0.5,-0.5
534,-0.5,-0.5,-0.5,-0.5,-0.5,-0.5
535,-0.5,-0.5,-0.5,-0.5,-0.5,-0.5
536,-0.5,-0.5,-0.5,-0.5,-0.5,-0.5
537,-0.5,-0.269110947847366,-0.5,-0.5,-0.5,-0.5
538,-0.5,0.118875086307526,-0.5,-0.5,-0.5,-0.5
539,-0.5,0.390793859958649,-0.5,-0.5,-0.5,-0.5
540,-0.5,0.5,-0.5,-0.5,-0.5,-0.5
541,-0.5,0.492073774337769,-0.5,-0.5,-0.5,-0.5
542,-0.5,0.41295650601387,-0.5,-0.5,-0.5,-0.5
543,-0.5,0.323419153690338,-0.5,-0.5,-0.5,-0.5
544,-0.5,0.250615805387497,-0.5,-0.5,-0.5,-0.5
545,-0.5,0.216433629393578,-0.5,-0.5,-0.5,-0.5
546,-0.5,0.246222019195557,-0.5,-0.5,-0.5,-0.5
547,-0.5,0.332732826471329,-0.5,-0.5,-0.5,-0.437300205230713
548,-0.5,0.411345779895782,-0.459742218255997,-0.5,-0.5,-0.353911012411118
549,-0.5,0.462862342596054,-0.404017150402069,-0.5,-0.5,-0.323422223329544
550,-0.5,0.5,-0.294561177492142,-0.407493323087692,-0.452607899904251,-0.231628760695457
551,-0.5,0.5,-0.0940060541033745,-0.210819810628891,-0.286180764436722,-0.0184536017477512
552,-0.5,0.5,0.140895202755928,0.0257006175816059,-0.0606014877557755,0.234497457742691
553,-0.5,0.5,0.34239274263382,0.22795258462429,0.15478253364563,0.426215142011642
554,-0.473107844591141,0.5,0.5,0.390713304281235,0.346821993589401,0.5
555,-0.348326534032822,0.5,0.5,0.5,0.5,0.5
556,-0.207070082426071,0.5,0.5,0.5,0.5,0.5
557,-0.0699400529265404,0.5,0.5,0.5,0.5,0.5
558,0.0688884854316711,0.5,0.5,0.5,0.5,0.5
559,0.201934173703194,0.5,0.5,0.5,0.5,0.5
560,0.304668724536896,0.5,0.5,0.5,0.5,0.5
561,0.380077332258224,0.5,0.5,0.5,0.5,0.5
562,0.452315032482147,0.5,0.5,0.5,0.5,0.5
563,0.5,0.5,0.5,0.5,0.5,0.5
564,0.5,0.5,0.5,0.5,0.5,0.5
565,0.5,0.5,0.5,0.5,0.5,0.5
566,0.5,0.5,0.5,0.5,0.5,0.5
567,0.5,0.5,0.5,0.5,0.5,0.5
568,0.5,0.5,0.5,0.5,0.5,0.5
569,0.5,0.5,0.5,0.5,0.5,0.5
570,0.5,0.5,0.5,0.5,0.5,0.5
571,0.5,0.5,0.5,0.5,0.5,0.5
572,0.5,0.5,0.5,0.5,0.5,0.5
573,0.5,0.5,0.5,0.5,0.5,0.5
574,0.5,0.5,0.5,0.5,0.5,0.5
575,0.5,0.5,0.5,0.5,0.5,0.5
576,0.5,0.5,0.5,0.5,0.5,0.5
577,0.5,0.5,0.5,0.5,0.5,0.5
578,0.5,0.5,0.5,0.5,0.5,0.5
579,0.5,0.5,0.5,0.5,0.5,0.5
580,0.5,0.5,0.5,0.5,0.5,0.5
581,0.5,0.5,0.5,0.5,0.5,0.5
582,0.5,0.5,0.5,0.5,0.5,0.5
583,0.5,0.5,0.5,0.5,0.5,0.5
584,0.5,0.5,0.5,0.5,0.5,0.5
585,0.5,0.5,0.5,0.5,0.5,0.5
586,0.5,0.5,0.5,0.5,0.5,0.5
587,0.5,0.5,0.5,0.5,0.5,0.5
588,0.5,0.5,0.5,0.5,0.5,0.5
589,0.5,0.5,0.5,0.5,0.5,0.5
590,0.5,0.5,0.5,0.5,0.5,0.5
591,0.5,0.5,0.5,0.5,0.5,0.5
592,0.5,0.5,0.5,0.5,0.5,0.5
593,0.5,0.5,0.5,0.5,0.5,0.5
594,0.5,0.5,0.5,0.5,0.5,0.5
595,0.5,0.5,0.5,0.5,0.5,0.5
596,0.5,0.5,0.5,0.5,0.5,0.5
597,0.5,0.5,0.5,0.5,0.5,0.5
598,0.5,0.430824726819992,0.5,0.425755232572556,0.390743970870972,0.5
599,0.5,0.282296061515808,0.440253257751465,0.31128141283989,0.305968582630157,0.433125227689743
600,0.5,0.16451159119606,0.36972987651825,0.242905095219612,0.253974199295044,0.390849173069
601,0.5,0.0871737897396088,0.347563832998276,0.22883440554142,0.235134020447731,0.390457451343536
602,0.5,0.0610833615064621,0.378883570432663,0.277197390794754,0.262907803058624,0.430363357067108
603,0.5,0.0936524495482445,0.46543562412262,0.384669154882431,0.352753251791,0.5
604,0.5,0.165022864937782,0.5,0.5,0.49043071269989,0.5
605,0.5,0.220162868499756,0.5,0.5,0.5,0.5
606,0.5,0.216635033488274,0.5,0.5,0.5,0.5
607,0.5,0.149577602744102,0.5,0.5,0.5,0.5
608,0.5,0.0217810720205307,0.5,0.5,0.5,0.5
609,0.5,-0.1696517765522,0.5,0.412614792585373,0.5,0.5
610,0.5,-0.413769870996475,0.418382465839386,0.18030846118927,0.365636020898819,0.38601616024971
611,0.456499010324478,-0.5,0.182170942425728,-0.066133126616478,0.135701790452003,0.155398294329643
612,0.200403034687042,-0.5,-0.0736942365765572,-0.310796529054642,-0.132106319069862,-0.0891596004366875
613,-0.0375219918787479,-0.5,-0.303605675697327,-0.5,-0.387174308300018,-0.310354292392731
614,-0.192565768957138,-0.5,-0.445322394371033,-0.5,-0.5,-0.446004599332809
615,-0.26243844628334,-0.5,-0.5,-0.5,-0.5,-0.5
616,-0.288461774587631,-0.5,-0.5,-0.5,-0.5,-0.5
617,-0.293169289827347,-0.5,-0.5,-0.5,-0.5,-0.5
618,-0.279895454645157,-0.5,-0.5,-0.5,-0.5,-0.5
619,-0.256304442882538,-0.5,-0.5,-0.5,-0.5,-0.5
620,-0.248509988188744,-0.5,-0.5,-0.5,-0.5,-0.5
621,-0.28905776143074,-0.5,-0.5,-0.5,-0.5,-0.5
622,-0.377817392349243,-0.5,-0.5,-0.5,-0.5,-0.5
623,-0.475698620080948,-0.5,-0.5,-0.5,-0.5,-0.5
624,-0.5,-0.5,-0.5,-0.5,-0.5,-0.5
625,-0.5,-0.5,-0.5,-0.5,-0.5,-0.5
626,-0.492990761995316,-0.5,-0.5,-0.5,-0.5,-0.5
627,-0.424063920974731,-0.5,-0.5,-0.5,-0.5,-0.5
628,-0.375428348779678,-0.5,-0.5,-0.5,-0.5,-0.5
629,-0.392710745334625,-0.5,-0.5,-0.5,-0.5,-0.5
630,-0.498951584100723,-0.5,-0.5,-0.5,-0.5,-0.5
631,-0.5,-0.5,-0.5,-0.5,-0.5,-0.5
632,-0.5,-0.5,-0.5,-0.5,-0.5,-0.5
633,-0.5,-0.5,-0.5,-0.5,-0.5,-0.5
634,-0.5,-0.5,-0.5,-0.5,-0.5,-0.5
635,-0.5,-0.5,-0.5,-0.5,-0.5,-0.5
636,-0.5,-0.5,-0.5,-0.5,-0.5,-0.5
637,-0.5,-0.5,-0.5,-0.5,-0.5,-0.5
638,-0.5,-0.5,-0.5,-0.5,-0.5,-0.5
639,-0.5,-0.5,-0.5,-0.5,-0.5,-0.5
640,-0.5,-0.5,-0.5,-0.5,-0.5,-0.5
641,-0.5,-0.5,-0.5,-0.5,-0.5,-0.5
642,-0.5,-0.5,-0.5,-0.5,-0.5,-0.5
643,-0.5,-0.5,-0.5,-0.5,-0.5,-0.5
644,-0.5,-0.5,-0.5,-0.5,-0.5,-0.5
645,-0.5,-0.5,-0.5,-0.5,-0.5,-0.5
646,-0.5,-0.5,-0.5,-0.5,-0.5,-0.5
647,-0.5,-0.5,-0.5,-0.5,-0.5,-0.5
648,-0.5,-0.5,-0.5,-0.5,-0.5,-0.5
649,-0.5,-0.5,-0.5,-0.5,-0.5,-0.5
650,-0.5,-0.5,-0.5,-0.5,-0.5,-0.5
651,-0.5,-0.5,-0.5,-0.5,-0.5,-0.5
652,-0.5,-0.5,-0.5,-0.5,-0.5,-0.5
653,-0.5,-0.5,-0.5,-0.5,-0.5,-0.5
654,-0.5,-0.5,-0.5,-0.5,-0.5,-0.5
655,-0.5,-0.5,-0.5,-0.5,-0.5,-0.5
656,-0.5,-0.5,-0.5,-0.5,-0.5,-0.5
657,-0.5,-0.5,-0.5,-0.5,-0.5,-0.5
658,-0.5,-0.5,-0.5,-0.5,-0.5,-0.5
659,-0.5,-0.5,-0.5,-0.5,-0.5,-0.5
660,-0.5,-0.5,-0.5,-0.5,-0.5,-0.5
661,-0.5,-0.5,-0.5,-0.5,-0.5,-0.5
662,-0.5,-0.5,-0.5,-0.5,-0.5,-0.5
663,-0.5,-0.5,-0.5,-0.5,-0.5,-0.5
664,-0.5,-0.5,-0.5,-0.5,-0.5,-0.5
665,-0.5,-0.5,-0.5,-0.5,-0.5,-0.5
666,-0.5,-0.5,-0.5,-0.5,-0.5,-0.5
667,-0.5,-0.5,-0.5,-0.5,-0.5,-0.5
668,-0.5,-0.5,-0.5,-0.5,-0.5,-0.5
669,-0.5,-0.5,-0.5,-0.5,-0.5,-0.5
670,-0.5,-0.5,-0.5,-0.5,-0.5,-0.5
671,-0.5,-0.5,-0.5,-0.5,-0.5,-0.5
672,-0.5,-0.5,-0.5,-0.5,-0.5,-0.5
673,-0.5,-0.5,-0.5,-0.5,-0.5,-0.5
674,-0.5,-0.5,-0.5,-0.5,-0.5,-0.5
675,-0.5,-0.5,-0.5,-0.5,-0.5,-0.5
676,-0.5,-0.5,-0.5,-0.5,-0.5,-0.5
677,-0.5,-0.5,-0.5,-0.5,-0.5,-0.5
678,-0.5,-0.5,-0.5,-0.5,-0.5,-0.5
679,-0.5,-0.5,-0.5,-0.5,-0.5,-0.5
680,-0.5,-0.5,-0.5,-0.5,-0.5,-0.5
681,-0.5,-0.5,-0.5,-0.5,-0.5,-0.5
682,-0.5,-0.5,-0.5,-0.5,-0.5,-0.5
683,-0.5,-0.5,-0.5,-0.5,-0.5,-0.5
684,-0.5,-0.5,-0.5,-0.5,-0.5,-0.5
685,-0.5,-0.5,-0.5,-0.5,-0.5,-0.5
686,-0.5,-0.5,-0.5,-0.5,-0.5,-0.5
687,-0.5,-0.5,-0.5,-0.5,-0.5,-0.5
688,-0.5,-0.5,-0.5,-0.5,-0.5,-0.5
689,-0.5,-0.5,-0.5,-0.5,-0.5,-0.5
690,-0.5,-0.5,-0.5,-0.5,-0.5,-0.5
691,-0.5,-0.5,-0.5,-0.5,-0.5,-0.5
692,-0.5,-0.5,-0.5,-0.5,-0.5,-0.5
693,-0.5,-0.5,-0.5,-0.5,-0.5,-0.5
694,-0.5,-0.5,-0.5,-0.5,-0.5,-0.5
695,-0.5,-0.5,-0.5,-0.5,-0.5,-0.5
696,-0.5,-0.5,-0.5,-0.5,-0.5,-0.5
697,-0.5,-0.5,-0.5,-0.5,-0.5,-0.5
698,-0.5,-0.5,-0.5,-0.5,-0.5,-0.5
699,-0.5,-0.5,-0.5,-0.5,-0.5,-0.5
700,-0.5,-0.5,-0.5,-0.5,-0.5,-0.5
701,-0.5,-0.5,-0.5,-0.5,-0.5,-0.5
702,-0.5,-0.5,-0.5,-0.5,-0.5,-0.5
703,-0.5,-0.5,-0.5,-0.5,-0.5,-0.5
704,-0.5,-0.5,-0.5,-0.5,-0.5,-0.5
705,-0.5,-0.5,-0.5,-0.5,-0.5,-0.5
706,-0.5,-0.5,-0.5,-0.5,-0.5,-0.5
707,-0.5,-0.5,-0.5,-0.5,-0.5,-0.5
708,-0.5,-0.5,-0.5,-0.5,-0.5,-0.5
709,-0.5,-0.5,-0.5,-0.5,-0.5,-0.5
710,-0.5,-0.5,-0.5,-0.5,-0.5,-0.5
711,-0.5,-0.5,-0.5,-0.5,-0.5,-0.5
712,-0.5,-0.5,-0.5,-0.5,-0.5,-0.5
713,-0.5,-0.5,-0.5,-0.5,-0.5,-0.5
714,-0.5,-0.5,-0.5,-0.5,-0.5,-0.5
715,-0.5,-0.5,-0.5,-0.5,-0.5,-0.5
716,-0.5,-0.5,-0.5,-0.5,-0.5,-0.5
717,-0.5,-0.5,-0.5,-0.5,-0.5,-0.5
718,-0.5,-0.5,-0.5,-0.5,-0.5,-0.5
719,-0.5,-0.5,-0.5,-0.5,-0.5,-0.5
720,-0.5,-0.5,-0.5,-0.5,-0.5,-0.5
721,-0.5,-0.5,-0.5,-0.5,-0.5,-0.5
722,-0.5,-0.5,-0.5,-0.5,-0.5,-0.5
723,-0.5,-0.5,-0.5,-0.5,-0.5,-0.5
724,-0.5,-0.5,-0.5,-0.5,-0.5,-0.5
725,-0.5,-0.5,-0.5,-0.5,-0.5,-0.5
726,-0.5,-0.5,-0.5,-0.5,-0.5,-0.5
727,-0.5,-0.5,-0.5,-0.5,-0.5,-0.5
728,-0.5,-0.5,-0.5,-0.5,-0.5,-0.5
729,-0.5,-0.5,-0.5,-0.5,-0.5,-0.5
730,-0.5,-0.5,-0.5,-0.5,-0.5,-0.5
731,-0.5,-0.5,-0.5,-0.5,-0.5,-0.5
732,-0.5,-0.5,-0.5,-0.5,-0.5,-0.5
733,-0.5,-0.5,-0.5,-0.5,-0.5,-0.5
734,-0.5,-0.5,-0.5,-0.5,-0.5,-0.5
735,-0.5,-0.5,-0.5,-0.5,-0.5,-0.5
736,-0.5,-0.5,-0.5,-0.5,-0.5,-0.5
737,-0.5,-0.5,-0.5,-0.5,-0.5,-0.5
738,-0.5,-0.5,-0.5,-0.5,-0.5,-0.5
739,-0.5,-0.5,-0.5,-0.5,-0.5,-0.5
740,-0.5,-0.5,-0.5,-0.5,-0.5,-0.5
741,-0.5,-0.5,-0.5,-0.5,-0.5,-0.5
742,-0.5,-0.5,-0.5,-0.5,-0.5,-0.5
743,-0.5,-0.5,-0.5,-0.5,-0.5,-0.5
744,-0.5,-0.5,-0.5,-0.5,-0.5,-0.5
745,-0.5,-0.5,-0.5,-0.5,-0.5,-0.5
746,-0.5,-0.5,-0.5,-0.5,-0.5,-0.5
747,-0.5,-0.5,-0.5,-0.5,-0.5,-0.5
748,-0.5,-0.5,-0.5,-0.5,-0.5,-0.5
749,-0.5,-0.5,-0.5,-0.5,-0.5,-0.5
750,-0.5,-0.5,-0.5,-0.5,-0.5,-0.5
751,-0.5,-0.5,-0.5,-0.5,-0.5,-0.5
752,-0.5,-0.5,-0.5,-0.5,-0.5,-0.5
753,-0.5,-0.5,-0.5,-0.5,-0.5,-0.5
754,-0.485953897237778,-0.5,-0.5,-0.5,-0.5,-0.5
755,-0.444100975990295,-0.5,-0.5,-0.5,-0.5,-0.5
756,-0.436026096343994,-0.5,-0.5,-0.5,-0.5,-0.5
757,-0.458586513996124,-0.5,-0.5,-0.5,-0.5,-0.5
758,-0.490861117839813,-0.5,-0.5,-0.5,-0.5,-0.5
759,-0.5,-0.5,-0.5,-0.5,-0.5,-0.5
760,-0.5,-0.5,-0.5,-0.5,-0.5,-0.5
761,-0.5,-0.5,-0.5,-0.5,-0.5,-0.5
762,-0.492514401674271,-0.5,-0.5,-0.5,-0.5,-0.5
763,-0.426105588674545,-0.480444818735123,-0.5,-0.5,-0.5,-0.5
764,-0.350516378879547,-0.403560698032379,-0.5,-0.5,-0.5,-0.5
765,-0.281279057264328,-0.325595408678055,-0.5,-0.5,-0.5,-0.5
766,-0.213874354958534,-0.237802088260651,-0.5,-0.5,-0.5,-0.5
767,-0.144884243607521,-0.15058308839798,-0.5,-0.5,-0.5,-0.5
768,-0.0979515835642815,-0.0913489833474159,-0.5,-0.5,-0.5,-0.5
769,-0.0953716039657593,-0.0752926096320152,-0.5,-0.5,-0.5,-0.5
770,-0.133209615945816,-0.099467970430851,-0.5,-0.5,-0.5,-0.5
771,-0.189203128218651,-0.143996194005013,-0.5,-0.5,-0.5,-0.5
772,-0.244530662894249,-0.188619241118431,-0.5,-0.5,-0.5,-0.5
773,-0.299243539571762,-0.24261175096035,-0.5,-0.5,-0.5,-0.5
774,-0.352954119443893,-0.31683561205864,-0.5,-0.5,-0.5,-0.5
775,-0.396626025438309,-0.39570751786232,-0.5,-0.5,-0.5,-0.5
776,-0.435719937086105,-0.46174681186676,-0.5,-0.5,-0.5,-0.5
777,-0.487012684345245,-0.5,-0.5,-0.5,-0.5,-0.5
778,-0.5,-0.5,-0.5,-0.5,-0.5,-0.5
779,-0.5,-0.5,-0.5,-0.5,-0.5,-0.5
780,-0.5,-0.5,-0.5,-0.5,-0.5,-0.5
781,-0.5,-0.5,-0.5,-0.5,-0.5,-0.5
782,-0.5,-0.5,-0.5,-0.5,-0.5,-0.5
783,-0.5,-0.447369486093521,-0.5,-0.5,-0.5,-0.5
784,-0.480598717927933,-0.36075946688652,-0.5,-0.5,-0.5,-0.5
785,-0.406930893659592,-0.308541089296341,-0.5,-0.5,-0.5,-0.5
786,-0.36353799700737,-0.302543252706528,-0.5,-0.5,-0.5,-0.5
787,-0.355358272790909,-0.324256598949432,-0.5,-0.5,-0.5,-0.5
788,-0.37140816450119,-0.348151296377182,-0.5,-0.5,-0.5,-0.5
789,-0.399671971797943,-0.364167451858521,-0.5,-0.5,-0.5,-0.5
790,-0.436788767576218,-0.381346166133881,-0.5,-0.5,-0.5,-0.5
791,-0.47915905714035,-0.410318285226822,-0.5,-0.5,-0.5,-0.5
792,-0.5,-0.45098340511322,-0.5,-0.5,-0.5,-0.5
793,-0.5,-0.497384250164032,-0.5,-0.5,-0.5,-0.5
794,-0.5,-0.5,-0.5,-0.5,-0.5,-0.5
795,-0.5,-0.5,-0.5,-0.5,-0.5,-0.5
796,-0.5,-0.5,-0.5,-0.5,-0.5,-0.5
797,-0.5,-0.5,-0.5,-0.5,-0.5,-0.5
798,-0.5,-0.5,-0.5,-0.5,-0.5,-0.5
799,-0.5,-0.5,-0.5,-0.5,-0.5,-0.5
800,-0.5,-0.5,-0.5,-0.5,-0.5,-0.5
801,-0.5,-0.5,-0.5,-0.5,-0.5,-0.5
802,-0.5,-0.464642137289047,-0.5,-0.5,-0.5,-0.5
803,-0.5,-0.304229885339737,-0.5,-0.5,-0.5,-0.5
804,-0.410075843334198,-0.146243244409561,-0.5,-0.5,-0.5,-0.5
805,-0.328058749437332,-0.0320762731134892,-0.5,-0.5,-0.5,-0.5
806,-0.277465641498566,0.0233525484800339,-0.5,-0.5,-0.5,-0.5
807,-0.262095540761948,0.028500659391284,-0.5,-0.5,-0.5,-0.5
808,-0.283265799283981,-0.00238392665050924,-0.5,-0.5,-0.5,-0.5
809,-0.328032791614532,-0.0469692796468735,-0.5,-0.5,-0.5,-0.5
810,-0.376701980829239,-0.0749378576874733,-0.5,-0.5,-0.5,-0.5
811,-0.423093110322952,-0.0689499601721764,-0.5,-0.5,-0.5,-0.5
812,-0.472009658813477,-0.0335026420652866,-0.5,-0.5,-0.5,-0.5
813,-0.5,0.014138906262815,-0.5,-0.5,-0.5,-0.5
814,-0.5,0.0515035204589367,-0.5,-0.5,-0.5,-0.5
815,-0.483867079019547,0.0680591315031052,-0.5,-0.5,-0.5,-0.5
816,-0.441809594631195,0.0741360262036324,-0.5,-0.5,-0.490036964416504,-0.5
817,-0.403469920158386,0.0801147520542145,-0.48388946056366,-0.5,-0.465382963418961,-0.5
818,-0.38031992316246,0.0908615365624428,-0.469772487878799,-0.5,-0.454603314399719,-0.5
819,-0.371595621109009,0.10852362215519,-0.469187617301941,-0.5,-0.462393820285797,-0.5
820,-0.373548954725266,0.12014177441597,-0.478038668632507,-0.5,-0.480545997619629,-0.5
821,-0.383031189441681,0.119180291891098,-0.485399425029755,-0.5,-0.498983979225159,-0.5
822,-0.398157000541687,0.114752888679504,-0.48703870177269,-0.5,-0.5,-0.487449020147324
823,-0.425075650215149,0.106712192296982,-0.497613191604614,-0.5,-0.5,-0.5
824,-0.462732166051865,0.0927256718277931,-0.5,-0.5,-0.5,-0.5
825,-0.5,0.07049310952425,-0.5,-0.5,-0.5,-0.5
826,-0.5,0.0320852212607861,-0.5,-0.5,-0.5,-0.5
827,-0.5,-0.0146523267030716,-0.5,-0.5,-0.5,-0.5
828,-0.5,-0.0530643910169601,-0.5,-0.5,-0.5,-0.5
829,-0.5,-0.0805389434099197,-0.5,-0.5,-0.5,-0.5
830,-0.481942623853683,-0.0937626734375954,-0.5,-0.5,-0.5,-0.5
831,-0.480101346969604,-0.0919667258858681,-0.5,-0.5,-0.5,-0.5
832,-0.494429230690002,-0.0893836542963982,-0.5,-0.5,-0.5,-0.5
833,-0.5,-0.0942079052329063,-0.5,-0.5,-0.5,-0.5
834,-0.5,-0.104864247143269,-0.5,-0.5,-0.5,-0.5
835,-0.5,-0.115098878741264,-0.5,-0.5,-0.5,-0.5
836,-0.5,-0.119168356060982,-0.5,-0.5,-0.5,-0.5
837,-0.5,-0.133720219135284,-0.5,-0.5,-0.5,-0.5
838,-0.5,-0.175818800926209,-0.5,-0.5,-0.5,-0.5
839,-0.5,-0.231317743659019,-0.5,-0.5,-0.5,-0.5
840,-0.5,-0.280557632446289,-0.5,-0.5,-0.5,-0.5
841,-0.5,-0.311785280704498,-0.5,-0.5,-0.5,-0.5
842,-0.5,-0.31378185749054,-0.5,-0.5,-0.5,-0.5
843,-0.5,-0.284227609634399,-0.5,-0.5,-0.5,-0.5
844,-0.5,-0.237062364816666,-0.5,-0.5,-0.5,-0.5
845,-0.5,-0.203223153948784,-0.5,-0.5,-0.5,-0.5
846,-0.5,-0.204390004277229,-0.5,-0.5,-0.5,-0.5
847,-0.5,-0.231236085295677,-0.5,-0.5,-0.5,-0.5
848,-0.5,-0.270639598369598,-0.5,-0.5,-0.5,-0.5
849,-0.5,-0.317889362573624,-0.5,-0.5,-0.5,-0.5
850,-0.5,-0.361310303211212,-0.5,-0.5,-0.5,-0.5
851,-0.5,-0.387972772121429,-0.5,-0.5,-0.5,-0.5
852,-0.5,-0.394931018352509,-0.5,-0.5,-0.5,-0.5
853,-0.5,-0.390655547380447,-0.5,-0.5,-0.5,-0.5
854,-0.5,-0.382021814584732,-0.5,-0.5,-0.5,-0.5
855,-0.5,-0.366548210382462,-0.5,-0.5,-0.5,-0.5
856,-0.5,-0.354728043079376,-0.5,-0.5,-0.5,-0.5
857,-0.5,-0.367316097021103,-0.5,-0.5,-0.5,-0.5
858,-0.5,-0.399323403835297,-0.5,-0.5,-0.5,-0.5
859,-0.5,-0.427180707454681,-0.5,-0.5,-0.5,-0.5
860,-0.5,-0.4395951628685,-0.5,-0.5,-0.5,-0.5
861,-0.5,-0.441814184188843,-0.5,-0.5,-0.5,-0.5
862,-0.5,-0.448219835758209,-0.5,-0.5,-0.5,-0.5
863,-0.5,-0.459547638893127,-0.5,-0.5,-0.5,-0.5
864,-0.5,-0.459458947181702,-0.5,-0.5,-0.5,-0.5
865,-0.5,-0.443801462650299,-0.5,-0.5,-0.5,-0.5
866,-0.5,-0.421206384897232,-0.5,-0.5,-0.5,-0.5
867,-0.5,-0.399577885866165,-0.5,-0.5,-0.5,-0.5
868,-0.5,-0.386628836393356,-0.5,-0.5,-0.5,-0.5
869,-0.5,-0.38719442486763,-0.5,-0.5,-0.5,-0.5
870,-0.5,-0.395700186491013,-0.5,-0.5,-0.5,-0.5
871,-0.5,-0.396440267562866,-0.5,-0.5,-0.5,-0.5
872,-0.5,-0.384232193231583,-0.5,-0.5,-0.5,-0.5
873,-0.5,-0.371443688869476,-0.5,-0.5,-0.5,-0.5
874,-0.5,-0.364651620388031,-0.5,-0.5,-0.5,-0.5
875,-0.5,-0.368270516395569,-0.5,-0.5,-0.5,-0.5
876,-0.5,-0.389022469520569,-0.5,-0.5,-0.5,-0.5
877,-0.5,-0.405684441328049,-0.5,-0.5,-0.5,-0.5
878,-0.5,-0.381515502929688,-0.5,-0.5,-0.5,-0.5
879,-0.5,-0.309958815574646,-0.5,-0.5,-0.5,-0.5
880,-0.5,-0.215048998594284,-0.5,-0.5,-0.5,-0.5
881,-0.5,-0.129087567329407,-0.5,-0.5,-0.5,-0.5
882,-0.5,-0.075973816215992,-0.5,-0.5,-0.5,-0.5
883,-0.5,-0.0547320172190666,-0.5,-0.5,-0.5,-0.5
884,-0.5,-0.0442075654864311,-0.5,-0.5,-0.5,-0.5
885,-0.5,-0.0252232477068901,-0.5,-0.5,-0.5,-0.5
886,-0.5,0.00586235895752907,-0.5,-0.5,-0.5,-0.5
887,-0.5,0.035920113325119,-0.5,-0.5,-0.5,-0.5
888,-0.5,0.0508569218218327,-0.5,-0.5,-0.5,-0.5
889,-0.485629588365555,0.0481109693646431,-0.5,-0.5,-0.5,-0.5
890,-0.491876870393753,0.0284696668386459,-0.5,-0.5,-0.5,-0.5
891,-0.5,0.000545754563063383,-0.5,-0.5,-0.5,-0.5
892,-0.5,-0.0200734082609415,-0.5,-0.5,-0.5,-0.5
893,-0.5,-0.0275789406150579,-0.5,-0.5,-0.5,-0.5
894,-0.5,-0.0231580138206482,-0.5,-0.5,-0.5,-0.5
895,-0.491058528423309,-0.0107389967888594,-0.5,-0.5,-0.5,-0.5
896,-0.476628094911575,0.00883637741208076,-0.5,-0.5,-0.5,-0.5
897,-0.455503791570663,0.0400438047945499,-0.5,-0.5,-0.5,-0.5
898,-0.438867390155792,0.0750749781727791,-0.5,-0.5,-0.5,-0.5
899,-0.437732607126236,0.102937556803226,-0.5,-0.5,-0.5,-0.5
900,-0.450420916080475,0.125777080655098,-0.5,-0.5,-0.5,-0.5
901,-0.467811077833176,0.14282488822937,-0.5,-0.5,-0.5,-0.5
902,-0.475511789321899,0.148110076785088,-0.5,-0.5,-0.5,-0.5
903,-0.468382477760315,0.146465435624123,-0.5,-0.5,-0.5,-0.5
904,-0.456804484128952,0.146737262606621,-0.5,-0.5,-0.5,-0.5
905,-0.449322491884232,0.148552671074867,-0.5,-0.5,-0.5,-0.5
906,-0.447777569293976,0.145549446344376,-0.5,-0.5,-0.5,-0.5
907,-0.444694578647614,0.136945679783821,-0.5,-0.5,-0.5,-0.5
908,-0.429706454277039,0.132626608014107,-0.5,-0.496323555707932,-0.5,-0.5
909,-0.412199676036835,0.13808174431324,-0.5,-0.465785324573517,-0.5,-0.5
910,-0.400541067123413,0.152445793151855,-0.5,-0.453683525323868,-0.5,-0.5
911,-0.380684316158295,0.175302907824516,-0.5,-0.44239205121994,-0.5,-0.483191281557083
912,-0.343802094459534,0.199061319231987,-0.476025462150574,-0.417551547288895,-0.487840175628662,-0.448922455310822
913,-0.298829674720764,0.218640446662903,-0.445986568927765,-0.389145165681839,-0.45711088180542,-0.423263639211655
914,-0.26072108745575,0.234642893075943,-0.426142871379852,-0.372080087661743,-0.438289314508438,-0.412237018346787
915,-0.236913874745369,0.246514186263084,-0.417484164237976,-0.368269920349121,-0.430979013442993,-0.413337796926498
916,-0.221652626991272,0.260950058698654,-0.408362329006195,-0.362158447504044,-0.421434611082077,-0.411493808031082
917,-0.209616586565971,0.284130156040192,-0.390608310699463,-0.343521654605865,-0.400032818317413,-0.389088273048401
918,-0.199615627527237,0.314839571714401,-0.364885210990906,-0.31886887550354,-0.37165030837059,-0.348913937807083
919,-0.188157707452774,0.349366724491119,-0.334079563617706,-0.296626597642899,-0.340197890996933,-0.310817927122116
920,-0.176860779523849,0.376663744449615,-0.313265293836594,-0.288370311260223,-0.313934922218323,-0.293116539716721
921,-0.167071849107742,0.393732935190201,-0.317625731229782,-0.298547655344009,-0.304191023111343,-0.298966884613037
922,-0.153513967990875,0.411148250102997,-0.340150028467178,-0.314021676778793,-0.310498267412186,-0.315094023942947
923,-0.141455665230751,0.425952076911926,-0.364179879426956,-0.32279309630394,-0.325531721115112,-0.324080437421799
924,-0.144792392849922,0.428993791341782,-0.3773472905159,-0.318997472524643,-0.339160650968552,-0.311192065477371
925,-0.164852812886238,0.425619393587112,-0.372745871543884,-0.302253782749176,-0.341403305530548,-0.27704045176506
926,-0.188013434410095,0.418477475643158,-0.35192745923996,-0.28207391500473,-0.334323078393936,-0.249172002077103
927,-0.201275378465652,0.400611251592636,-0.322456181049347,-0.268259167671204,-0.329422503709793,-0.251614362001419
928,-0.202001422643662,0.374503433704376,-0.29545584321022,-0.262182891368866,-0.330665349960327,-0.276087611913681
929,-0.187873065471649,0.352542817592621,-0.282333105802536,-0.256389021873474,-0.330435544252396,-0.301575392484665
930,-0.158180937170982,0.343281775712967,-0.280877321958542,-0.242273524403572,-0.320125043392181,-0.317016392946243
931,-0.131591364741325,0.343392372131348,-0.281456708908081,-0.224444374442101,-0.305300623178482,-0.322496086359024
932,-0.125882983207703,0.346475958824158,-0.27999010682106,-0.213496670126915,-0.297118872404099,-0.317607820034027
933,-0.136720955371857,0.350357264280319,-0.276949644088745,-0.212842047214508,-0.295653164386749,-0.297253906726837
934,-0.156029239296913,0.348924189805985,-0.281129837036133,-0.225477010011673,-0.300834715366364,-0.272003680467606
935,-0.176044300198555,0.340413600206375,-0.298623144626617,-0.246569693088531,-0.312825888395309,-0.259875863790512
936,-0.189698696136475,0.327997416257858,-0.322188407182693,-0.261094212532043,-0.327126502990723,-0.261242061853409
937,-0.200430601835251,0.30883714556694,-0.342308759689331,-0.269694447517395,-0.344304084777832,-0.275298625230789
938,-0.211051478981972,0.289341121912003,-0.350277960300446,-0.282132565975189,-0.360920906066895,-0.301715612411499
939,-0.219182580709457,0.283585160970688,-0.347023248672485,-0.297608375549316,-0.369026929140091,-0.328564047813416
940,-0.224603265523911,0.285148918628693,-0.352940946817398,-0.31874880194664,-0.374569267034531,-0.350464463233948
941,-0.223562031984329,0.276812583208084,-0.376727998256683,-0.347222805023193,-0.381812930107117,-0.367601990699768
942,-0.216606914997101,0.261521637439728,-0.404233634471893,-0.373355329036713,-0.38435760140419,-0.375449508428574
943,-0.212749347090721,0.258310765028,-0.427472949028015,-0.391679793596268,-0.382384717464447,-0.375363409519196
944,-0.21551738679409,0.267716735601425,-0.449707001447678,-0.408293604850769,-0.38300809264183,-0.38082680106163
945,-0.226341307163239,0.265663325786591,-0.471486032009125,-0.427872270345688,-0.396034061908722,-0.403051793575287
946,-0.238805159926414,0.249656602740288,-0.477951020002365,-0.432551652193069,-0.414830535650253,-0.423927992582321
947,-0.235711246728897,0.244287624955177,-0.450898081064224,-0.397288531064987,-0.412510752677917,-0.411093026399612
948,-0.213452830910683,0.256557255983353,-0.3955138027668,-0.328816443681717,-0.381907194852829,-0.360980689525604
949,-0.180750533938408,0.280358672142029,-0.329913020133972,-0.254708230495453,-0.338301539421082,-0.291052162647247
950,-0.14483642578125,0.312549293041229,-0.271007597446442,-0.196122899651527,-0.296077609062195,-0.221446111798286
951,-0.113158285617828,0.341973185539246,-0.233933299779892,-0.161352604627609,-0.266592502593994,-0.172608286142349
952,-0.0885887965559959,0.358666181564331,-0.218310281634331,-0.142523810267448,-0.249303415417671,-0.151120737195015
953,-0.0723713934421539,0.360319763422012,-0.22040006518364,-0.136977657675743,-0.240572258830071,-0.15786412358284
954,-0.0671975463628769,0.351525664329529,-0.241364896297455,-0.152192890644073,-0.242622002959251,-0.184478402137756
955,-0.0668778195977211,0.341256678104401,-0.268792033195496,-0.180464252829552,-0.245216593146324,-0.208494573831558
956,-0.0620505772531033,0.324875116348267,-0.293021559715271,-0.211303681135178,-0.239783361554146,-0.233282893896103
957,-0.0524527058005333,0.294319033622742,-0.321100860834122,-0.244765684008598,-0.239521890878677,-0.277080416679382
958,-0.0466279946267605,0.262044787406921,-0.351743191480637,-0.272384792566299,-0.25614395737648,-0.323581427335739
959,-0.0557380728423595,0.248061373829842,-0.367817103862762,-0.280258864164352,-0.283228904008865,-0.33973702788353
960,-0.0783462971448898,0.25786691904068,-0.356797337532043,-0.264278948307037,-0.304151892662048,-0.317296206951141
961,-0.0995709151029587,0.28555828332901,-0.327428460121155,-0.231779024004936,-0.307439416646957,-0.270571976900101
962,-0.108598075807095,0.323806941509247,-0.303529322147369,-0.200124174356461,-0.298351407051086,-0.220598146319389
963,-0.101291947066784,0.366915374994278,-0.290057629346848,-0.176538556814194,-0.282221227884293,-0.181834504008293
964,-0.077985942363739,0.410520404577255,-0.268570989370346,-0.15149787068367,-0.253732264041901,-0.152362495660782
965,-0.0446705631911755,0.448570966720581,-0.232766285538673,-0.123405136168003,-0.214158773422241,-0.129041329026222
966,-0.00452893180772662,0.47083368897438,-0.193136066198349,-0.0982267409563065,-0.170206964015961,-0.115637302398682
967,0.0412844270467758,0.465753585100174,-0.158879160881042,-0.0775628685951233,-0.125212892889977,-0.112364202737808
968,0.0830709114670753,0.439107894897461,-0.13194839656353,-0.0589541755616665,-0.084069736301899,-0.112118475139141
969,0.109390772879124,0.411251038312912,-0.115570671856403,-0.0429805107414722,-0.0577101297676563,-0.110148377716541
970,0.115689441561699,0.387252479791641,-0.121060729026794,-0.0423156581819057,-0.0628864318132401,-0.11023411154747
971,0.106311954557896,0.370417237281799,-0.143240705132484,-0.0582251995801926,-0.098005086183548,-0.108614861965179
972,0.090544231235981,0.373318552970886,-0.15752549469471,-0.0715614557266235,-0.135679230093956,-0.0985911339521408
973,0.0748908221721649,0.389558792114258,-0.154433101415634,-0.0713438168168068,-0.155848100781441,-0.0894048288464546
974,0.0705147758126259,0.405641287565231,-0.140597745776176,-0.0585884377360344,-0.152527943253517,-0.089647002518177
975,0.0824785903096199,0.420492708683014,-0.125439643859863,-0.0417825616896153,-0.129677683115005,-0.0959949493408203
976,0.0988609939813614,0.432340830564499,-0.115177281200886,-0.0304213147610426,-0.10216373950243,-0.0953693315386772
977,0.117254309356213,0.439998805522919,-0.106059916317463,-0.0202832072973251,-0.0758383274078369,-0.0724433436989784
978,0.138382405042648,0.442244708538055,-0.102644026279449,-0.0112656839191914,-0.053431298583746,-0.0429269224405289
979,0.147757306694984,0.431886196136475,-0.118936143815517,-0.0173718258738518,-0.04885358735919,-0.0359495542943478
980,0.139284312725067,0.408554434776306,-0.150993764400482,-0.0410445183515549,-0.067316897213459,-0.0499490685760975
981,0.121317513287067,0.382353395223618,-0.179434955120087,-0.0682556554675102,-0.0968988239765167,-0.0763547644019127
982,0.10737469792366,0.371003121137619,-0.183630406856537,-0.0799674838781357,-0.114603951573372,-0.106335856020451
983,0.106294728815556,0.388386458158493,-0.159713491797447,-0.0691016167402267,-0.107250347733498,-0.119077406823635
984,0.11261260509491,0.423387229442596,-0.132504984736443,-0.0515356808900833,-0.0943440496921539,-0.110541552305222
985,0.125663727521896,0.457061916589737,-0.116698399186134,-0.0326615609228611,-0.0907598435878754,-0.0881019309163094
986,0.151648670434952,0.485859900712967,-0.0980111211538315,0.00109961617272347,-0.0805848464369774,-0.0507860444486141
987,0.183225899934769,0.5,-0.0702028647065163,0.0417196080088615,-0.0534662976861,-0.00698785344138741
988,0.210413053631783,0.5,-0.0392188988626003,0.0705302581191063,-0.0147338174283504,0.0285999942570925
989,0.23088039457798,0.5,-0.0103971268981695,0.0864501297473907,0.0223653540015221,0.0514429397881031
990,0.240731805562973,0.5,0.00772475358098745,0.0923609808087349,0.040467943996191,0.0614584945142269
991,0.239598885178566,0.475215405225754,0.0185126606374979,0.0929994881153107,0.0420876704156399,0.0640735849738121
992,0.236162304878235,0.451146185398102,0.0326121859252453,0.0967738926410675,0.0430559702217579,0.0688135176897049
993,0.238405421376228,0.449440687894821,0.0474610738456249,0.105593107640743,0.0478098578751087,0.0778526365756989
994,0.245145261287689,0.472909331321716,0.052702110260725,0.109586425125599,0.0512519031763077,0.0836670324206352
995,0.247699618339539,0.5,0.0390809141099453,0.0932605788111687,0.044280219823122,0.0759530663490295
996,0.238291844725609,0.5,0.00906301289796829,0.0606238394975662,0.0240893289446831,0.0561081431806087
997,0.214213982224464,0.471328288316727,-0.0270970780402422,0.0309478994458914,-0.00324141979217529,0.0357285477221012
998,0.181760832667351,0.428000032901764,-0.0602614879608154,0.0134395686909556,-0.0323099792003632,0.0184937659651041
999,0.161684602499008,0.404378175735474,-0.0730035752058029,0.0145876556634903,-0.0487203076481819,0.00546082481741905
1000,0.169401898980141,0.405145883560181,-0.0610648170113564,0.0345285534858704,-0.0412288419902325,0.000753378495573998
1001,0.195962280035019,0.408528089523315,-0.0448039025068283,0.0572434440255165,-0.0224152244627476,0.000613280921243131
1002,0.224965453147888,0.407673180103302,-0.0337484814226627,0.0726371333003044,-0.00402778387069702,0.00239143124781549
1003,0.245805397629738,0.413583815097809,-0.021440826356411,0.0852028205990791,0.0139655955135822,0.0106248892843723
1004,0.256480902433395,0.436053901910782,-0.00531031331047416,0.099397324025631,0.0308023579418659,0.0290511660277843
1005,0.261121511459351,0.473951578140259,0.0101889865472913,0.111825659871101,0.0448399297893047,0.0540935136377811
1006,0.258880496025085,0.5,0.0193628128618002,0.114688403904438,0.0522454380989075,0.0712884441018105
1007,0.249791949987412,0.5,0.0217913817614317,0.106881678104401,0.0493122041225433,0.0737348347902298
1008,0.239789485931396,0.492200016975403,0.0195379815995693,0.0967189595103264,0.0403708331286907,0.0697680786252022
1009,0.235890984535217,0.470039695501328,0.0134141650050879,0.0890415608882904,0.0351602397859097,0.0646836459636688
1010,0.241911679506302,0.444800615310669,0.00922135915607214,0.0829070061445236,0.0394255705177784,0.0667315497994423
1011,0.250822961330414,0.421954751014709,0.0104543128982186,0.0780143290758133,0.04662274569273,0.0833077728748322
1012,0.253937661647797,0.401314705610275,0.0091759180650115,0.0726026892662048,0.0418713539838791,0.0945910215377808
1013,0.256249487400055,0.383186042308807,0.00488741416484118,0.0694718062877655,0.0269289929419756,0.0824971124529839
1014,0.261373549699783,0.377162575721741,0.00722273904830217,0.0723904073238373,0.0204912889748812,0.0573958121240139
1015,0.26009613275528,0.385847508907318,0.016009122133255,0.0770505294203758,0.0276928786188364,0.0314991399645805
1016,0.251570194959641,0.408066540956497,0.0250586271286011,0.0851437523961067,0.0409622304141521,0.0178342517465353
1017,0.244255289435387,0.441438645124435,0.030810983851552,0.098431684076786,0.0510296784341335,0.0281648710370064
1018,0.236485362052917,0.468994826078415,0.0316653437912464,0.106944017112255,0.0476832054555416,0.0488161407411098
1019,0.230865925550461,0.475974142551422,0.0356449224054813,0.11363510042429,0.0402316302061081,0.062938965857029
1020,0.241322889924049,0.468025475740433,0.0517630614340305,0.13148196041584,0.0481715947389603,0.0733349397778511
1021,0.272015273571014,0.46196922659874,0.0791859328746796,0.160958126187325,0.072762556374073,0.0916519463062286
1022,0.31218409538269,0.471015721559525,0.112933456897736,0.19466495513916,0.103249311447144,0.127839967608452
1023,0.343667984008789,0.49052307009697,0.140795215964317,0.220457449555397,0.125911146402359,0.175525039434433
1024,0.357672423124313,0.5,0.155463591217995,0.232522055506706,0.137331768870354,0.216287091374397
1025,0.359695702791214,0.5,0.16010582447052,0.23401828110218,0.146597236394882,0.235466420650482
1026,0.361537218093872,0.5,0.154148384928703,0.22552701830864,0.155764624476433,0.227177068591118
1027,0.370828151702881,0.5,0.139691382646561,0.209252893924713,0.15811425447464,0.195598244667053
1028,0.372278422117233,0.5,0.118764206767082,0.182034820318222,0.145040020346642,0.14812844991684
1029,0.350736975669861,0.5,0.0914698764681816,0.140714958310127,0.116225689649582,0.0994347110390663
1030,0.320309340953827,0.478328227996826,0.0682549849152565,0.104724176228046,0.0857774913311005,0.0734990984201431
1031,0.303705364465714,0.453395843505859,0.0617637149989605,0.0987452790141106,0.0700178444385529,0.0852341875433922
1032,0.308215916156769,0.458570182323456,0.0775036513805389,0.124952763319016,0.0765225440263748,0.130731284618378
1033,0.320034563541412,0.488504648208618,0.109582714736462,0.16389824450016,0.100135669112206,0.190553545951843
1034,0.32508260011673,0.5,0.142842695116997,0.196515947580338,0.128075510263443,0.234726622700691
1035,0.332207232713699,0.5,0.167928844690323,0.221757486462593,0.153326719999313,0.241994693875313
1036,0.355855017900467,0.5,0.18322280049324,0.244077488780022,0.174061045050621,0.221570819616318
1037,0.392553895711899,0.497370660305023,0.188070997595787,0.261009067296982,0.185478806495667,0.198709353804588
1038,0.429456949234009,0.494144350290298,0.191290229558945,0.277911961078644,0.191712006926537,0.195334225893021
1039,0.454846501350403,0.5,0.20587569475174,0.301537722349167,0.204161867499352,0.218118697404861
1040,0.461894690990448,0.5,0.228013291954994,0.320616066455841,0.220443487167358,0.250770479440689
1041,0.462720185518265,0.5,0.245996057987213,0.326809853315353,0.234782055020332,0.276522278785706
1042,0.474639266729355,0.5,0.252969026565552,0.321810305118561,0.247200593352318,0.284523695707321
1043,0.495886534452438,0.5,0.24471241235733,0.303817063570023,0.254381090402603,0.267901867628098
1044,0.5,0.5,0.224911868572235,0.277038007974625,0.253341227769852,0.239627480506897
1045,0.5,0.5,0.199372828006744,0.248568430542946,0.238034754991531,0.218729376792908
1046,0.468248158693314,0.5,0.17331837117672,0.225482270121574,0.208772778511047,0.215078696608543
1047,0.435979098081589,0.5,0.15571291744709,0.21913006901741,0.184480458498001,0.233252570033073
1048,0.421431601047516,0.5,0.151316925883293,0.231917753815651,0.179902002215385,0.262160450220108
1049,0.426355183124542,0.5,0.16863676905632,0.263331949710846,0.199992805719376,0.288826793432236
1050,0.444736450910568,0.5,0.211512893438339,0.307336151599884,0.238310500979424,0.311670333147049
1051,0.460142821073532,0.5,0.260877430438995,0.340660691261292,0.272177368402481,0.323660671710968
1052,0.470289796590805,0.5,0.298299252986908,0.353795319795609,0.292739063501358,0.323771804571152
1053,0.484703332185745,0.5,0.316211193799973,0.357758492231369,0.307917982339859,0.320998996496201
1054,0.5,0.5,0.311256855726242,0.357684522867203,0.316859513521194,0.322425663471222
1055,0.5,0.5,0.29741832613945,0.358447045087814,0.319473534822464,0.334752172231674
1056,0.5,0.5,0.297279506921768,0.367349416017532,0.325193762779236,0.349536150693893
1057,0.5,0.5,0.316373288631439,0.381641209125519,0.337452977895737,0.35094091296196
1058,0.5,0.5,0.344206660985947,0.396761804819107,0.352554857730865,0.346503555774689
1059,0.5,0.5,0.36743226647377,0.412688821554184,0.364854097366333,0.353290051221848
1060,0.5,0.5,0.379508227109909,0.4282546043396,0.370686024427414,0.370939761400223
1061,0.5,0.5,0.381323456764221,0.437368452548981,0.370214551687241,0.38421967625618
1062,0.5,0.5,0.375618159770966,0.432704269886017,0.362500071525574,0.382283061742783
1063,0.5,0.5,0.367404639720917,0.417896568775177,0.35286071896553,0.373332858085632
1064,0.5,0.5,0.353917449712753,0.398459017276764,0.349109500646591,0.364374697208405
1065,0.5,0.5,0.325334787368774,0.370313376188278,0.345890015363693,0.347592264413834
1066,0.5,0.5,0.282863885164261,0.333385229110718,0.330401748418808,0.319322317838669
1067,0.5,0.5,0.236742809414864,0.295884162187576,0.297288775444031,0.284475594758987
1068,0.5,0.481402337551117,0.2025176435709,0.271288901567459,0.257760047912598,0.257777184247971
1069,0.5,0.477845937013626,0.19922824203968,0.274102687835693,0.234296336770058,0.259989380836487
1070,0.5,0.499470442533493,0.2280163615942,0.30217981338501,0.235743403434753,0.290586650371552
1071,0.5,0.5,0.271026372909546,0.338112652301788,0.25270077586174,0.332705646753311
1072,0.5,0.5,0.30912372469902,0.366710692644119,0.273698389530182,0.375401884317398
1073,0.5,0.5,0.326726227998734,0.377954214811325,0.286482214927673,0.404229491949081
1074,0.5,0.5,0.32604306936264,0.375178217887878,0.286320179700851,0.409157663583755
1075,0.5,0.5,0.322469830513,0.373096227645874,0.279673486948013,0.399855226278305
1076,0.5,0.5,0.321277469396591,0.375939041376114,0.273770064115524,0.385690480470657
1077,0.5,0.5,0.321214646100998,0.377677142620087,0.279480993747711,0.361625730991364
1078,0.5,0.5,0.315197646617889,0.37130206823349,0.298216819763184,0.321015894412994
1079,0.5,0.484323561191559,0.293802976608276,0.352385103702545,0.308274030685425,0.277205020189285
1080,0.5,0.473594486713409,0.265445381402969,0.326206117868423,0.29535785317421,0.261221021413803
1081,0.5,0.475904136896133,0.245447546243668,0.302870452404022,0.266351252794266,0.279117494821548
1082,0.5,0.479565113782883,0.242318212985992,0.295764565467834,0.236230373382568,0.306065052747726
1083,0.5,0.479149699211121,0.262111455202103,0.316463857889175,0.224374607205391,0.327871948480606
1084,0.5,0.479019463062286,0.299036681652069,0.356253266334534,0.240261510014534,0.34659269452095
1085,0.5,0.487352401018143,0.338662683963776,0.397031605243683,0.27696567773819,0.367417514324188
1086,0.5,0.5,0.371004521846771,0.429380089044571,0.316564202308655,0.392198622226715
1087,0.5,0.5,0.390389233827591,0.446895927190781,0.340079247951508,0.40879899263382
1088,0.5,0.5,0.397253662347794,0.447510182857513,0.346269637346268,0.406095236539841
1089,0.5,0.5,0.392858296632767,0.431609719991684,0.344305247068405,0.389424592256546
1090,0.5,0.488139152526855,0.371850281953812,0.395135790109634,0.329353451728821,0.362129122018814
1091,0.5,0.468005359172821,0.334157168865204,0.346270382404327,0.292444586753845,0.325671166181564
1092,0.5,0.448113054037094,0.291975557804108,0.305143117904663,0.242321774363518,0.291032612323761
1093,0.465281814336777,0.434228509664536,0.261077791452408,0.282405525445938,0.201343759894371,0.263085931539536
1094,0.44843465089798,0.431224644184113,0.253619283437729,0.284158706665039,0.191875442862511,0.243870213627815
1095,0.458197861909866,0.442344009876251,0.266676157712936,0.312032133340836,0.214204952120781,0.238325580954552
1096,0.48411163687706,0.462478011846542,0.285746544599533,0.3539899289608,0.246380358934402,0.244030609726906
1097,0.5,0.476661175489426,0.302790939807892,0.393223881721497,0.271025627851486,0.256725013256073
1098,0.5,0.480469048023224,0.316171556711197,0.418784201145172,0.281712979078293,0.275255173444748
1099,0.5,0.485815286636353,0.328257828950882,0.435185045003891,0.284464448690414,0.309540390968323
1100,0.5,0.499855488538742,0.337794572114944,0.449336320161819,0.289531826972961,0.363383620977402
1101,0.5,0.5,0.336692750453949,0.452234953641891,0.295224756002426,0.40867891907692
1102,0.5,0.5,0.330605715513229,0.44421061873436,0.300270467996597,0.422721713781357
1103,0.5,0.5,0.336874336004257,0.44563040137291,0.311423063278198,0.416579931974411
1104,0.5,0.49400407075882,0.357186764478683,0.46079209446907,0.32722419500351,0.407597601413727
1105,0.5,0.472393661737442,0.370263189077377,0.467102140188217,0.332877576351166,0.397373825311661
1106,0.5,0.44871512055397,0.353519409894943,0.44475245475769,0.311172634363174,0.377419203519821
1107,0.492245197296143,0.420925080776215,0.309080570936203,0.398338675498962,0.260995537042618,0.34476575255394
1108,0.463367134332657,0.397677421569824,0.259223490953445,0.349215596914291,0.204701453447342,0.30335259437561
1109,0.438295692205429,0.382453113794327,0.22761544585228,0.319828063249588,0.170899838209152,0.261693745851517
1110,0.430430233478546,0.37360668182373,0.229427948594093,0.323498606681824,0.176883697509766,0.236937522888184
1111,0.438609302043915,0.371172785758972,0.258676826953888,0.352906316518784,0.218067988753319,0.240667849779129
1112,0.449073672294617,0.372070550918579,0.291434973478317,0.382669746875763,0.264466971158981,0.258972704410553
1113,0.452367037534714,0.374247342348099,0.309581220149994,0.393636107444763,0.285353243350983,0.267648875713348
1114,0.446362733840942,0.379907518625259,0.305896937847137,0.385076135396957,0.273444950580597,0.257015258073807
1115,0.432251453399658,0.391930133104324,0.285613179206848,0.369268923997879,0.243520960211754,0.237617433071136
1116,0.418792724609375,0.409063756465912,0.272203296422958,0.364214092493057,0.223264083266258,0.236199930310249
1117,0.413481891155243,0.423003256320953,0.279156565666199,0.372484862804413,0.22722490131855,0.263583362102509
1118,0.413145959377289,0.42870631814003,0.295964509248734,0.38073793053627,0.245484173297882,0.298002481460571
1119,0.414703875780106,0.427599787712097,0.311418473720551,0.384693831205368,0.265565752983093,0.319452345371246
1120,0.419846504926682,0.416542857885361,0.316615611314774,0.383233070373535,0.277752071619034,0.322992354631424
1121,0.429533749818802,0.395897060632706,0.306521266698837,0.373044818639755,0.277345210313797,0.311774224042892
1122,0.438897311687469,0.381710976362228,0.288668483495712,0.357561200857162,0.272254139184952,0.296578913927078
1123,0.435743153095245,0.380433082580566,0.266263604164124,0.335276514291763,0.262602180242538,0.278139442205429
1124,0.416137486696243,0.373233705759048,0.239548802375793,0.305835902690887,0.241175621747971,0.251237958669662
1125,0.391093462705612,0.346449196338654,0.218637332320213,0.278534024953842,0.219325557351112,0.223771154880524
1126,0.370896279811859,0.312135815620422,0.205958664417267,0.257708609104156,0.213648959994316,0.206730782985687
1127,0.354611068964005,0.28861191868782,0.192706733942032,0.241458922624588,0.217587158083916,0.19961179792881
1128,0.331537514925003,0.279509276151657,0.175536081194878,0.227477118372917,0.207783102989197,0.196129515767097
1129,0.30313640832901,0.283046662807465,0.163207843899727,0.220407068729401,0.179567962884903,0.197671547532082
1130,0.286063641309738,0.29689833521843,0.166914522647858,0.229342058300972,0.154757872223854,0.205664873123169
1131,0.284225434064865,0.308714389801025,0.183809787034988,0.250944644212723,0.147825941443443,0.214447557926178
1132,0.295829892158508,0.317501068115234,0.207501456141472,0.277570277452469,0.162121281027794,0.226807355880737
1133,0.322386533021927,0.336930364370346,0.235155865550041,0.308477520942688,0.197918578982353,0.248468622565269
1134,0.354029685258865,0.360759794712067,0.25512820482254,0.337024956941605,0.23950257897377,0.269397497177124
1135,0.379021018743515,0.371759176254272,0.260059863328934,0.355254143476486,0.271585077047348,0.279451876878738
1136,0.393948286771774,0.362148821353912,0.247587144374847,0.355605721473694,0.288258254528046,0.27471861243248
1137,0.396559745073318,0.327909678220749,0.209650322794914,0.323341846466064,0.279248982667923,0.243139922618866
1138,0.386713325977325,0.277574270963669,0.158421114087105,0.267515003681183,0.248088598251343,0.187821432948112
1139,0.366769343614578,0.232499480247498,0.121746771037579,0.222922578454018,0.212782070040703,0.135882362723351
1140,0.337335616350174,0.208674937486649,0.112025052309036,0.207237049937248,0.180999949574471,0.110496796667576
1141,0.304131150245667,0.214531734585762,0.133286938071251,0.219316631555557,0.160497814416885,0.126295015215874
1142,0.273953288793564,0.244534313678741,0.173447757959366,0.245876461267471,0.157333999872208,0.176203697919846
1143,0.246127739548683,0.27776175737381,0.203006103634834,0.264087527990341,0.16203385591507,0.229536548256874
1144,0.223813056945801,0.3028244972229,0.215739920735359,0.268744707107544,0.171384423971176,0.267617493867874
1145,0.212622478604317,0.316139489412308,0.220162093639374,0.266062319278717,0.186815470457077,0.282022655010223
1146,0.215716630220413,0.313422411680222,0.209958747029305,0.255853205919266,0.198935061693192,0.267115563154221
1147,0.23298567533493,0.295283436775208,0.175193101167679,0.23432083427906,0.195132568478584,0.228857919573784
1148,0.252176284790039,0.261138081550598,0.119172088801861,0.197262808680534,0.169099390506744,0.175170466303825
1149,0.260130941867828,0.22523158788681,0.06803959608078,0.157080695033073,0.137609571218491,0.124459326267242
1150,0.25255873799324,0.208371013402939,0.043379221111536,0.128976508975029,0.118982277810574,0.0993987321853638
1151,0.230183631181717,0.210874959826469,0.0388595201075077,0.110221594572067,0.105361133813858,0.0987653285264969
1152,0.201319202780724,0.226216152310371,0.0459430254995823,0.103195153176785,0.0913418754935265,0.107897363603115
1153,0.177122563123703,0.244829654693604,0.0630024001002312,0.117838084697723,0.0844509080052376,0.121102258563042
1154,0.165585696697235,0.258407920598984,0.0856963917613029,0.15154555439949,0.0886607840657234,0.145254626870155
1155,0.16871939599514,0.268670171499252,0.108002588152885,0.188486024737358,0.104564689099789,0.179527461528778
1156,0.177826166152954,0.272699624300003,0.118574105203152,0.207488238811493,0.12527471780777,0.193637892603874
1157,0.185425743460655,0.264174968004227,0.109087161719799,0.199773997068405,0.137428224086761,0.163621157407761
1158,0.192305132746696,0.24702088534832,0.089273564517498,0.179989248514175,0.137720882892609,0.111956603825092
1159,0.196149751543999,0.226295128464699,0.072542704641819,0.162759020924568,0.131592303514481,0.073436014354229
1160,0.193193972110748,0.202419176697731,0.062054168432951,0.150541931390762,0.122056216001511,0.0587837509810925
1161,0.184393703937531,0.181202560663223,0.0564616844058037,0.14548072218895,0.110349640250206,0.0655954927206039
1162,0.173734620213509,0.168910056352615,0.0523110739886761,0.145248115062714,0.0977098345756531,0.0878952592611313
1163,0.169256657361984,0.163990497589111,0.0501094609498978,0.14672002196312,0.0900540053844452,0.11430337280035
1164,0.174444392323494,0.159882873296738,0.0528133250772953,0.151807323098183,0.0931296497583389,0.130500704050064
1165,0.182400196790695,0.154421225190163,0.0570390671491623,0.155039772391319,0.102134935557842,0.128225207328796
1166,0.188811272382736,0.153465420007706,0.0608956813812256,0.14995314180851,0.111832059919834,0.112100727856159
1167,0.194217801094055,0.158448681235313,0.0653878897428513,0.138859882950783,0.122105345129967,0.0936649292707443
1168,0.199628874659538,0.165235549211502,0.0713222101330757,0.127792954444885,0.134788498282433,0.0846708342432976
1169,0.201669603586197,0.169605493545532,0.0787344202399254,0.119700476527214,0.148944035172462,0.085981197655201
1170,0.188886553049088,0.16218900680542,0.0751576870679855,0.103818640112877,0.150285556912422,0.0777851045131683
1171,0.164677157998085,0.145657554268837,0.0542137026786804,0.0757283046841621,0.133202716708183,0.0535850077867508
1172,0.144242241978645,0.142185851931572,0.0313573926687241,0.0529980808496475,0.109765335917473,0.0402482114732265
1173,0.122081428766251,0.159072145819664,0.0107463244348764,0.0389943011105061,0.0762543976306915,0.0496736094355583
1174,0.0906048715114594,0.176782324910164,-0.016587171703577,0.0212316047400236,0.0280785951763391,0.0592002049088478
1175,0.0662152096629143,0.173046961426735,-0.0497398599982262,0.00123895227443427,-0.0175559371709824,0.0498091913759708
1176,0.0679821595549583,0.14653480052948,-0.0783749595284462,-0.00961631163954735,-0.0453604571521282,0.0324600748717785
1177,0.093382902443409,0.113925524055958,-0.092129722237587,-0.00661827391013503,-0.054733220487833,0.0269677247852087
1178,0.120772868394852,0.0898892357945442,-0.0954442620277405,-0.000906435016077012,-0.0559917911887169,0.0255347471684217
1179,0.130973860621452,0.0829172655940056,-0.0939171314239502,-0.00125743343960494,-0.0526810027658939,0.010923863388598
1180,0.12699843943119,0.0928866937756538,-0.0750445201992989,0.00492712995037436,-0.0304442662745714,-0.009202990680933
1181,0.120118409395218,0.105344109237194,-0.0352043248713017,0.0255572311580181,0.0122692557051778,-0.0208885930478573
1182,0.112924955785275,0.110058665275574,0.00998851284384727,0.0520957782864571,0.0552765801548958,-0.0190250631421804
1183,0.108493097126484,0.118321940302849,0.0489838123321533,0.0807706266641617,0.0864471569657326,0.00682681007310748
1184,0.110074073076248,0.140912726521492,0.0748287737369537,0.109664537012577,0.104391299188137,0.060559120029211
1185,0.114020399749279,0.165558815002441,0.0803325101733208,0.128952845931053,0.108073100447655,0.119801014661789
1186,0.113804221153259,0.171149015426636,0.0630752593278885,0.125622764229774,0.100387237966061,0.150755971670151
1187,0.106539860367775,0.151782304048538,0.0276952683925629,0.0910355970263481,0.085842028260231,0.137118771672249
1188,0.0917661711573601,0.120556034147739,-0.0108141731470823,0.0376124121248722,0.0643102750182152,0.0915287062525749
1189,0.0707096308469772,0.0910421162843704,-0.0378978550434113,-0.00509207881987095,0.0350984707474709,0.0359826944768429
1190,0.0528459884226322,0.066065214574337,-0.0533213391900063,-0.0224782340228558,0.00324030872434378,-0.0166851058602333
1191,0.0485242679715157,0.0464527197182179,-0.0610978454351425,-0.0190861895680428,-0.0215478409081697,-0.0525743663311005
1192,0.0505990795791149,0.0320331193506718,-0.0663322433829308,-0.00827375054359436,-0.0379752889275551,-0.0624640807509422
1193,0.0454490594565868,0.0215972512960434,-0.074745200574398,-0.00346637167967856,-0.0533288232982159,-0.0516045838594437
1194,0.0375115498900414,0.0186101514846087,-0.078734502196312,-0.000918491219636053,-0.0642174407839775,-0.0262091401964426
1195,0.0418762937188149,0.0267301835119724,-0.0677755177021027,0.0106518939137459,-0.0593674592673779,0.00517639564350247
1196,0.0635951608419418,0.0491785258054733,-0.0434423387050629,0.0345648713409901,-0.0345124714076519,0.0378472320735455
1197,0.0880362465977669,0.0798098295927048,-0.0191584397107363,0.0602122135460377,0.000160792318638414,0.0684917122125626
1198,0.100575968623161,0.0977390334010124,-0.0109288999810815,0.0663655400276184,0.0278296153992414,0.0776229798793793
1199,0.109242394566536,0.0937419384717941,-0.014424791559577,0.0531694777309895,0.0472096726298332,0.0619002729654312
1200,0.118182703852654,0.0765184685587883,-0.012842234224081,0.0441511124372482,0.0616819709539413,0.04510098695755
1201,0.11564713716507,0.0591689236462116,-0.00482211587950587,0.0511740185320377,0.0620964244008064,0.0397468060255051
1202,0.100491560995579,0.0577652044594288,-0.00159353937488049,0.062223207205534,0.0438264831900597,0.0425973236560822
1203,0.0772750899195671,0.0783355087041855,-0.0140524888411164,0.0557652600109577,0.0104223527014256,0.0438435785472393
1204,0.0509028397500515,0.101970486342907,-0.0391460284590721,0.0305746458470821,-0.0276964418590069,0.0312646068632603
1205,0.0339152477681637,0.10107097029686,-0.0593081824481487,0.00460077403113246,-0.0484818741679192,0.00191609153989702
1206,0.0272441580891609,0.069178394973278,-0.0678602978587151,-0.0198055524379015,-0.0397541560232639,-0.0355709716677666
1207,0.0201800242066383,0.0240194872021675,-0.0677614733576775,-0.044970091432333,-0.011482154019177,-0.0645524188876152
1208,0.0115973399952054,-0.0108238402754068,-0.0583026669919491,-0.0566497556865215,0.0182283408939838,-0.0725955218076706
1209,0.0104195829480886,-0.0203450936824083,-0.0433076433837414,-0.0476544685661793,0.0372835136950016,-0.0608136616647244
1210,0.0231711082160473,-0.000980092561803758,-0.0272253081202507,-0.0257221702486277,0.0461233146488667,-0.0354893878102303
1211,0.0443919934332371,0.0374348796904087,-0.0129421297460794,7.83595605753362E-05,0.0508280992507935,-0.00280574196949601
1212,0.0582673251628876,0.0677914395928383,-0.013128056190908,0.0144060784950852,0.0479342453181744,0.0219496991485357
1213,0.0510274395346642,0.0690949410200119,-0.0359123423695564,0.00524045946076512,0.0307210888713598,0.0214315038174391
1214,0.0232796464115381,0.0483283139765263,-0.0715682134032249,-0.0231845565140247,0.00200341548770666,-0.00566370459273458
1215,-0.00954527780413628,0.0235865842550993,-0.105442374944687,-0.0577971637248993,-0.0314912870526314,-0.0386699847877026
1216,-0.0286777149885893,0.0112686436623335,-0.119214706122875,-0.074960894882679,-0.0575722716748714,-0.0454863123595715
1217,-0.0250978246331215,0.0205619521439075,-0.100973948836327,-0.0565477572381496,-0.0634847059845924,-0.0204756278544664
1218,-0.00254204194061458,0.0451417453587055,-0.06070551648736,-0.0111493049189448,-0.0495996549725533,0.0179575122892857
1219,0.0304995365440845,0.0763281211256981,-0.0135865053161979,0.0450949929654598,-0.0217801965773106,0.0643447861075401
1220,0.0633408948779106,0.103768825531006,0.028507461771369,0.0981962829828262,0.0118403192609549,0.110711894929409
1221,0.0909731909632683,0.114915460348129,0.0575995966792107,0.129378661513329,0.0447924882173538,0.137215286493301
1222,0.114843033254147,0.115205824375153,0.0762500390410423,0.129738435149193,0.0794936269521713,0.13445457816124
1223,0.124200209975243,0.112632766366005,0.0803213343024254,0.106493458151817,0.10730991512537,0.103577338159084
1224,0.113701306283474,0.102382533252239,0.0594089850783348,0.0726972818374634,0.112569808959961,0.0583344101905823
1225,0.0990292727947235,0.0842398479580879,0.0199888702481985,0.0390792228281498,0.0970334410667419,0.0181222837418318
1226,0.0917074754834175,0.0675148442387581,-0.0179423540830612,0.0149754947051406,0.0722422897815704,-0.00684010470286012
1227,0.087161660194397,0.0571411810815334,-0.0385784693062305,0.00666315667331219,0.0457282103598118,-0.0104195354506373
1228,0.0751187950372696,0.0502466671168804,-0.0404647067189217,0.00838718004524708,0.0220674499869347,0.0071238074451685
1229,0.0549180209636688,0.0538136921823025,-0.032503005117178,0.00963099021464586,0.00509253842756152,0.0385278351604939
1230,0.0350278653204441,0.0819894820451736,-0.0195741765201092,0.0107983471825719,-0.00154058216139674,0.0762025266885757
1231,0.0196077488362789,0.122109435498714,-0.00313126016408205,0.018131734803319,0.00381418387405574,0.107913158833981
1232,0.0127121405676007,0.140462964773178,0.0110304774716496,0.0294007305055857,0.0191774498671293,0.118424795567989
1233,0.0236517004668713,0.126493752002716,0.0221784301102161,0.0411461889743805,0.0462729781866074,0.106044352054596
1234,0.0526472516357899,0.0937157720327377,0.0324047096073627,0.0538827888667583,0.0818272158503532,0.0849008932709694
1235,0.0871690660715103,0.0575507916510105,0.0364268980920315,0.0652718767523766,0.107606776058674,0.0671850144863129
1236,0.111158132553101,0.026209807023406,0.0313779450953007,0.071256048977375,0.109856978058815,0.0510944426059723
1237,0.114922657608986,-0.000986097496934235,0.0237778704613447,0.0676333606243134,0.0924921855330467,0.0283215753734112
1238,0.108019404113293,-0.0186034962534904,0.024611234664917,0.0598444007337093,0.0740259364247322,0.00671784719452262
1239,0.10323703289032,-0.0147343194112182,0.0339551158249378,0.058863889425993,0.0675121247768402,0.00212416262365878
1240,0.0996411889791489,0.0134833734482527,0.038737129420042,0.0621227361261845,0.0665750280022621,0.0134780732914805
1241,0.0971412658691406,0.0590247549116611,0.0350341275334358,0.0633750483393669,0.0670814365148544,0.0331712253391743
1242,0.0930410847067833,0.106605991721153,0.0281817018985748,0.0610432326793671,0.0719243735074997,0.0530050359666348
1243,0.0820848420262337,0.14006020128727,0.019994767382741,0.0547835044562817,0.0801607444882393,0.0625430047512054
1244,0.0747094973921776,0.150098860263824,0.00984226074069738,0.0488062389194965,0.0917808264493942,0.066456101834774
1245,0.0820074677467346,0.133323073387146,-0.00394485844299197,0.042630098760128,0.102512925863266,0.0739522054791451
1246,0.0933045446872711,0.0992787629365921,-0.0193096604198217,0.0311707798391581,0.100667826831341,0.0758958458900452
1247,0.0848774984478951,0.063390739262104,-0.0328459367156029,0.0148042449727654,0.0782211273908615,0.0598111413419247
1248,0.0515635795891285,0.0370989888906479,-0.0440583564341068,0.000182369331014343,0.0413790121674538,0.0334163047373295
1249,0.0195510126650333,0.0355144999921322,-0.0450039394199848,0.00215370068326592,0.0127722751349211,0.0235307440161705
1250,0.0104457754641771,0.0590609908103943,-0.0303489565849304,0.0233505330979824,0.00584997376427054,0.0383849702775478
1251,0.0154395559802651,0.0822070986032486,-0.0139536177739501,0.0420905947685242,0.00661772955209017,0.0502405278384686
1252,0.0187625177204609,0.0861134305596352,-0.0071409628726542,0.0462955646216869,0.00339588080532849,0.0404286198318005
1253,0.0164887011051178,0.0730865374207497,-0.00373197649605572,0.0465958118438721,0.000822064408566803,0.0241310056298971
1254,0.015902902930975,0.0580174438655376,0.00545802293345332,0.0538363792002201,0.00525691313669086,0.0209065116941929
1255,0.0296327956020832,0.0597933530807495,0.0196594148874283,0.067479595541954,0.0214879643172026,0.0310463588684797
1256,0.0545210912823677,0.076880931854248,0.0266896914690733,0.0774722844362259,0.0442191511392593,0.0429615490138531
1257,0.0747153386473656,0.0893066823482513,0.0225990582257509,0.0780146345496178,0.0633851438760757,0.0545028783380985
1258,0.0825216621160507,0.0909866169095039,0.0165145415812731,0.0722003951668739,0.0764399394392967,0.074199415743351
1259,0.0763826295733452,0.0888060256838799,0.00800414569675922,0.0582912564277649,0.0784690827131271,0.0921065285801888
1260,0.0584178790450096,0.0857192426919937,-0.00775643531233072,0.034209530800581,0.0660566166043282,0.0863924399018288
1261,0.0357811786234379,0.080255001783371,-0.0224710237234831,0.00991099886596203,0.0477987565100193,0.0620738416910172
1262,0.0191828049719334,0.0735841393470764,-0.0242986809462309,-0.00150319957174361,0.0340094640851021,0.0378233082592487
1263,0.0178247950971127,0.0730976611375809,-0.0116470782086253,0.00414190022274852,0.0309404451400042,0.0233353096991777
1264,0.0303955338895321,0.0781998634338379,0.00291294162161648,0.0199663937091827,0.0391772575676441,0.0236197467893362
1265,0.0474479831755161,0.0780672058463097,0.00192690070252866,0.0322266183793545,0.0495355613529682,0.0324332565069199
1266,0.054601788520813,0.0721128284931183,-0.0191749446094036,0.0280083920806646,0.0473761931061745,0.0344928801059723
1267,0.0383933112025261,0.0640757828950882,-0.0548433251678944,-0.00298125972039998,0.0188291110098362,0.012875372543931
1268,0.0067156720906496,0.0509886182844639,-0.0975388437509537,-0.0553443990647793,-0.0330590605735779,-0.0338413193821907
1269,-0.0154681839048862,0.0360024012625217,-0.130122199654579,-0.094452790915966,-0.079327754676342,-0.0716953799128532
1270,-0.0165624525398016,0.0245995186269283,-0.136084347963333,-0.0908960998058319,-0.0953804701566696,-0.0704646334052086
1271,0.000691028661094606,0.0196968354284763,-0.113061249256134,-0.0487042814493179,-0.0802161544561386,-0.0353152081370354
1272,0.0304189175367355,0.024555629119277,-0.0695084258913994,0.0109143946319819,-0.0421603135764599,0.0157401598989964
1273,0.0599532872438431,0.031352873891592,-0.0275069512426853,0.0597105212509632,0.00291287805885077,0.0580076836049557
1274,0.078671433031559,0.0336600057780743,-0.00759790372103453,0.080038495361805,0.039186853915453,0.0745403245091438
1275,0.0841006562113762,0.0376859940588474,-0.0111055057495832,0.0767868831753731,0.0608321726322174,0.0725914314389229
1276,0.0719851925969124,0.0450186021625996,-0.0277103446424007,0.0596988759934902,0.0626916885375977,0.0616057701408863
1277,0.0388063304126263,0.0563436523079872,-0.0413227900862694,0.0394019857048988,0.047675933688879,0.0482564121484756
1278,-0.00653466721996665,0.0756377801299095,-0.0409395582973957,0.027371920645237,0.031015157699585,0.044208999723196
1279,-0.0428690165281296,0.101563923060894,-0.0270131547003984,0.0298515819013119,0.0250097792595625,0.0587565265595913
1280,-0.055996123701334,0.128134876489639,-0.00716994423419237,0.0418065153062344,0.0302818547934294,0.0841996073722839
1281,-0.0509810522198677,0.140297830104828,0.00267321476712823,0.0442293174564838,0.0358357317745686,0.0961002260446548
1282,-0.0348229221999645,0.123372465372086,-0.00601572217419744,0.0304543059319258,0.0367104671895504,0.0828583464026451
1283,-0.0121511975303292,0.0887735933065414,-0.0224291849881411,0.014468883164227,0.0427664928138256,0.0520258247852325
1284,0.00385494576767087,0.0600867383182049,-0.0350059419870377,-0.000364400504622608,0.0529608093202114,0.0101438006386161
1285,0.00379811343736947,0.0425167828798294,-0.0429547168314457,-0.0195184294134378,0.050139244645834,-0.0356903113424778
1286,-0.0070041841827333,0.0302183404564857,-0.0490406714379787,-0.0355742163956165,0.0300826858729124,-0.0681338235735893
1287,-0.0173090305179358,0.018668157979846,-0.0560302771627903,-0.0393107086420059,0.00883784517645836,-0.0733357295393944
1288,-0.0175800882279873,0.00725644128397107,-0.0640109404921532,-0.0322419032454491,0.00298059382475913,-0.0570832379162312
1289,-0.00995256658643484,-0.00190530181862414,-0.0705864503979683,-0.0248674675822258,0.00789233483374119,-0.0381953120231628
1290,-0.00410335138440132,-0.00453469576314092,-0.0723744481801987,-0.0233743377029896,0.00769001245498657,-0.0225843600928783
1291,0.00292821112088859,0.00942295417189598,-0.0647202879190445,-0.0173226650804281,0.00473899254575372,0.00285293906927109
1292,0.0157161336392164,0.0378462374210358,-0.052686020731926,0.000312488118652254,0.00806388072669506,0.0343252867460251
1293,0.0261207520961761,0.0656889081001282,-0.0462158247828484,0.0198471713811159,0.015697069466114,0.0537938512861729
1294,0.0255198609083891,0.0909665673971176,-0.0461328849196434,0.0302198342978954,0.022073108702898,0.0634118393063545
1295,0.00857590045779943,0.114193610846996,-0.052716750651598,0.0266951713711023,0.0182380545884371,0.0633121728897095
1296,-0.0226031355559826,0.124785654246807,-0.0624324083328247,0.0153365125879645,0.00378070422448218,0.0443464294075966
1297,-0.0526768304407597,0.118328675627708,-0.0611336939036846,0.012890231795609,-0.00301808235235512,0.0192457064986229
1298,-0.0661092549562454,0.102211385965347,-0.0419751405715942,0.0300749931484461,0.00827290117740631,0.00843382813036442
1299,-0.0557666085660458,0.0855457037687302,-0.0109314545989037,0.0616561397910118,0.0289633311331272,0.0161924529820681
1300,-0.0263580549508333,0.0707031711935997,0.0233392063528299,0.0906993895769119,0.051325049251318,0.0317760333418846
1301,0.00667899614199996,0.0548269860446453,0.0490565225481987,0.0992429256439209,0.0721594095230103,0.038113322108984
1302,0.0290825013071299,0.0388736724853516,0.0494143441319466,0.0769337564706802,0.0809883549809456,0.0271839126944542
1303,0.0303893201053143,0.0255014561116695,0.0160746239125729,0.0271394625306129,0.0661933198571205,0.00680931517854333
1304,0.0147387608885765,0.0180579293519259,-0.030941303819418,-0.0221739262342453,0.0373319014906883,-0.00691347382962704
1305,0.00201993039809167,0.0190462842583656,-0.0581705756485462,-0.0372804775834084,0.0164184980094433,-0.00389701151289046
1306,0.000881884014233947,0.0252690408378839,-0.0547735132277012,-0.0162219237536192,0.0104441391304135,0.01369983330369
1307,0.00617385283112526,0.0388228744268417,-0.0317516289651394,0.0191256199032068,0.016012417152524,0.0376978404819965
1308,0.0132077876478434,0.0652376636862755,-0.00133551412727684,0.0517961606383324,0.032696932554245,0.0600136257708073
1309,0.0195031017065048,0.0979281812906265,0.0284347888082266,0.0740095227956772,0.0570374764502048,0.0755188763141632
1310,0.0232709757983685,0.122879855334759,0.0499354936182499,0.0816194266080856,0.0767156183719635,0.0816185176372528
1311,0.0210479535162449,0.133529081940651,0.0561653114855289,0.0756329372525215,0.0809121951460838,0.0786389410495758
1312,0.0112580554559827,0.130199790000916,0.0472374372184277,0.0634475126862526,0.0703435242176056,0.0677163973450661
1313,0.00496193999424577,0.116004295647144,0.0332715511322021,0.0537264086306095,0.0578098185360432,0.0543981269001961
1314,0.0103564690798521,0.0982435196638107,0.0209801942110062,0.0475227423012257,0.0519586391746998,0.0491381399333477
1315,0.0142539162188768,0.0864028558135033,0.0027668250259012,0.0344871953129768,0.0442050136625767,0.054924950003624
1316,0.00604730425402522,0.0850765332579613,-0.0232411157339811,0.00933540239930153,0.0316037312150002,0.0631560683250427
1317,-0.00773225724697113,0.0869913771748543,-0.0441874973475933,-0.0170697085559368,0.0238604675978422,0.0557246431708336
1318,-0.0193186737596989,0.0845461785793304,-0.0546874292194843,-0.0349679365754128,0.0195820163935423,0.0230799168348312
1319,-0.0276747457683086,0.0740649849176407,-0.062068123370409,-0.047848854213953,0.00818414147943258,-0.0210575349628925
1320,-0.0346094071865082,0.0466242283582687,-0.0718070864677429,-0.0614772289991379,-0.0120501210913062,-0.0576861388981342
1321,-0.0364916995167732,0.0075779864564538,-0.072859562933445,-0.0676952674984932,-0.0262274667620659,-0.075368657708168
1322,-0.0279438998550177,-0.0156786236912012,-0.0486264787614346,-0.0547306500375271,-0.0159075614064932,-0.0681801661849022
1323,-0.0116110490635037,-0.0107703851535916,-0.0108448062092066,-0.0331326201558113,0.0136376889422536,-0.0446009896695614
1324,0.0104816760867834,0.0111566232517362,0.0171759277582169,-0.0177157688885927,0.043331578373909,-0.020235687494278
1325,0.0360308103263378,0.0391322001814842,0.0307600628584623,-0.00725322309881449,0.0635131895542145,0.000229959419812076
1326,0.0559666566550732,0.0672408863902092,0.0287094451487064,-0.00227199355140328,0.071494571864605,0.0187155473977327
1327,0.0647239536046982,0.0928760394454002,0.013852852396667,-0.0028091084677726,0.0696716532111168,0.0368579514324665
1328,0.0586716532707214,0.112568005919456,-0.0017146582249552,-0.00516841979697347,0.059950765222311,0.0475945845246315
1329,0.039146862924099,0.121464774012566,-0.00632570730522275,-0.00704923179000616,0.0482428073883057,0.0450030975043774
1330,0.0214577969163656,0.124870806932449,0.00906156748533249,0.00325112626887858,0.0525328703224659,0.047383189201355
1331,0.0163871496915817,0.129256784915924,0.0367708802223206,0.0300217904150486,0.0741543769836426,0.0676583349704742
1332,0.0182266477495432,0.128094151616097,0.0540377646684647,0.0545883402228355,0.0882939323782921,0.084918275475502
1333,0.0203929431736469,0.117846004664898,0.0547793917357922,0.0644018575549126,0.0842805281281471,0.0814761221408844
1334,0.022706400603056,0.104264259338379,0.0503976121544838,0.0641214102506638,0.0729375034570694,0.0621599741280079
1335,0.0262546110898256,0.0921646803617477,0.044371735304594,0.0581959038972855,0.0610703229904175,0.0423637628555298
1336,0.0333893112838268,0.0854278206825256,0.0331481322646141,0.0487704686820507,0.052087064832449,0.0418967716395855
1337,0.0401475913822651,0.088051050901413,0.0152563918381929,0.0340989790856838,0.0463447719812393,0.0527271889150143
1338,0.0373177230358124,0.0999405682086945,-0.00384962209500372,0.0144248427823186,0.0407193601131439,0.0458956100046635
1339,0.0243197213858366,0.108109839260578,-0.0131525192409754,-0.000603561464231461,0.0359433218836784,0.0205928422510624
1340,0.00896946433931589,0.0967061370611191,-0.00937637500464916,-0.00747518008574843,0.0320552103221416,-0.00379410525783896
1341,0.00252436846494675,0.0694730281829834,0.00124368083197623,-0.00916289538145065,0.0295797884464264,-0.0153282126411796
1342,0.0103438636288047,0.0437076985836029,0.00814170856028795,-0.0071305357851088,0.0281508415937424,-0.0168139133602381
1343,0.0262316726148129,0.0371703989803791,0.00717831961810589,-0.00254762172698975,0.0272044222801924,-0.0131656285375357
1344,0.038769394159317,0.0565354451537132,0.00584393180906773,0.00402982858940959,0.0320929735898972,0.000385743129299954
1345,0.0360799618065357,0.0815463364124298,0.00740218535065651,0.00676963105797768,0.0400473438203335,0.0130889657884836
1346,0.0209667831659317,0.089355431497097,0.0110767539590597,0.00357242044992745,0.0431047827005386,0.00923834927380085
1347,0.0115481372922659,0.0827040150761604,0.0146280191838741,-0.000691473251208663,0.0431250408291817,0.000823296315502375
1348,0.0142338685691357,0.0705590546131134,0.00686968956142664,-0.00836506020277739,0.0429046601057053,-0.00223265844397247
1349,0.0258377809077501,0.0563062392175198,-0.00957680959254503,-0.0151441292837262,0.0464241988956928,-0.00441856309771538
1350,0.0430403463542461,0.0474473759531975,-0.0167564619332552,-0.00872008129954338,0.0572519972920418,-0.00352350994944572
1351,0.0536204241216183,0.0542725399136543,-0.00835060980170965,0.00812819320708513,0.0685276240110397,0.00258719339035451
1352,0.047990832477808,0.077003188431263,0.0148745020851493,0.0257523916661739,0.07349843531847,0.01349026709795
1353,0.0317457541823387,0.0973706617951393,0.0449699275195599,0.0402491502463818,0.0704623237252235,0.0262880995869637
1354,0.0215393956750631,0.101007238030434,0.0662963092327118,0.0517416037619114,0.0612692199647427,0.037766195833683
1355,0.0269751269370317,0.0937016829848289,0.0736743956804276,0.0632843524217606,0.0535028278827667,0.0548849925398827
1356,0.0361084751784801,0.085252158343792,0.0676187723875046,0.0705427452921867,0.047833152115345,0.0765461325645447
1357,0.0370893254876137,0.0851930156350136,0.0477499701082706,0.0616946741938591,0.0387754589319229,0.0850532799959183
1358,0.0324250645935535,0.0983862578868866,0.0208216849714518,0.0359500609338284,0.0304033067077398,0.0739008039236069
1359,0.0237824823707342,0.109363488852978,-0.00632503814995289,0.00509896269068122,0.0270636044442654,0.0540588311851025
1360,0.0104849878698587,0.100913196802139,-0.0329845920205116,-0.0216859597712755,0.0226786341518164,0.0336347185075283
1361,-0.00457799155265093,0.0784652456641197,-0.0559579469263554,-0.0412369668483734,0.0119851334020495,0.00951715651899576
1362,-0.0173590499907732,0.0565691404044628,-0.0690220892429352,-0.0528582111001015,-0.002662209328264,-0.0218593087047338
1363,-0.0211649145931005,0.0451932474970818,-0.0651088282465935,-0.0516622290015221,-0.0111645478755236,-0.0468906164169312
1364,-0.010880159214139,0.0474173128604889,-0.0402431227266788,-0.02898034080863,-0.00258031580597162,-0.0457102917134762
1365,0.00903164222836494,0.0575590915977955,-0.0044553941115737,0.010508555918932,0.0192711893469095,-0.0231956355273724
1366,0.0314326882362366,0.0686017051339149,0.028657017275691,0.0488990470767021,0.0442062169313431,0.00518072675913572
1367,0.0535515397787094,0.0778154283761978,0.0524699129164219,0.0707081034779549,0.0670665875077248,0.0345847196877003
1368,0.0753387808799744,0.0854104310274124,0.0596498548984528,0.0679029375314713,0.0815115571022034,0.0522186458110809
1369,0.0930022895336151,0.093127079308033,0.0477008186280727,0.0439662523567677,0.0851579457521439,0.0464147217571735
1370,0.0946125760674477,0.0983267277479172,0.0227254349738359,0.0119224516674876,0.0782821774482727,0.0313140228390694
1371,0.0785218253731728,0.0988813489675522,-0.00106053974013776,-0.0112719601020217,0.0637308731675148,0.03399957716465
1372,0.0597235113382339,0.100299581885338,-0.00846030469983816,-0.013591393828392,0.0498095415532589,0.0601912215352058
1373,0.0473635382950306,0.106429718434811,-0.00327050220221281,-0.00296911806799471,0.0356349386274815,0.0780954733490944
1374,0.0417170897126198,0.114019647240639,0.00316717522218823,0.00823874771595001,0.0196284484118223,0.0639839023351669
1375,0.0397045500576496,0.115422435104847,0.00901488028466702,0.0194711312651634,0.00976421125233173,0.0366580449044704
1376,0.0351189710199833,0.106261022388935,0.0142934089526534,0.0291718281805515,0.00874568615108728,0.0187293104827404
1377,0.0303103998303413,0.0919814184308052,0.02157361805439,0.0384899564087391,0.0171927753835917,0.0178204253315926
1378,0.0344463884830475,0.0841146633028984,0.0320132896304131,0.0509535595774651,0.0370941869914532,0.0347045958042145
1379,0.0512687191367149,0.0903701633214951,0.0388409681618214,0.0586431697010994,0.0618633963167667,0.0579972714185715
1380,0.075303927063942,0.104750990867615,0.0385678708553314,0.0547924377024174,0.0821013152599335,0.0711667090654373
1381,0.0914077907800674,0.112238690257072,0.0348113961517811,0.043444562703371,0.0928759947419167,0.062256745994091
1382,0.0917556956410408,0.112244382500649,0.0381757728755474,0.0354539006948471,0.0977961197495461,0.0430174097418785
1383,0.0876819044351578,0.117228925228119,0.0590648911893368,0.0432587377727032,0.10827013105154,0.0403045974671841
1384,0.0938849225640297,0.127153545618057,0.0919036865234375,0.067572757601738,0.130842730402946,0.0585862398147583
1385,0.116692706942558,0.13446618616581,0.125102996826172,0.0996590256690979,0.163317531347275,0.0877765193581581
1386,0.14936637878418,0.138531669974327,0.150871768593788,0.129485696554184,0.193332627415657,0.115751177072525
1387,0.176536679267883,0.144473031163216,0.162041306495667,0.146571069955826,0.204137280583382,0.12975113093853
1388,0.188865527510643,0.159996554255486,0.157538548111916,0.14753445982933,0.191928938031197,0.135199829936028
1389,0.182646438479424,0.185075595974922,0.140851125121117,0.136785998940468,0.165126100182533,0.142484992742538
1390,0.16178685426712,0.206863850355148,0.119990482926369,0.124102361500263,0.137770056724548,0.148414999246597
1391,0.142551109194756,0.215477854013443,0.110163748264313,0.122625797986984,0.125153660774231,0.15508721768856
1392,0.136626124382019,0.215739414095879,0.119563862681389,0.134451732039452,0.13075989484787,0.166689530014992
1393,0.141332268714905,0.215149611234665,0.140029415488243,0.149751365184784,0.146059304475784,0.176071166992188
1394,0.154261812567711,0.216832756996155,0.160178765654564,0.16534635424614,0.166082218289375,0.180814176797867
1395,0.175345540046692,0.222132965922356,0.174385145306587,0.180099859833717,0.18966118991375,0.182484060525894
1396,0.198755159974098,0.231135442852974,0.181404769420624,0.186906665563583,0.209753349423409,0.184610366821289
1397,0.213089406490326,0.240723729133606,0.180558010935783,0.183207854628563,0.21664834022522,0.192528903484344
1398,0.207837715744972,0.24302189052105,0.170781865715981,0.172058776021004,0.207505077123642,0.195133328437805
1399,0.189633905887604,0.24064202606678,0.160490870475769,0.160985246300697,0.192633539438248,0.185692459344864
1400,0.174215346574783,0.239957243204117,0.159371063113213,0.157230660319328,0.183649599552155,0.177820444107056
1401,0.167351484298706,0.232381641864777,0.162775501608849,0.158935353159904,0.179092213511467,0.177392542362213
1402,0.171181052923203,0.215821713209152,0.165469005703926,0.162970095872879,0.177206262946129,0.179718866944313
1403,0.181724235415459,0.201878160238266,0.170597910881042,0.170485883951187,0.181244969367981,0.182775661349297
1404,0.189180210232735,0.199560359120369,0.179444774985313,0.181490302085876,0.190268903970718,0.184336856007576
1405,0.194796189665794,0.212829828262329,0.192716419696808,0.19754458963871,0.206541880965233,0.187284290790558
1406,0.203910380601883,0.233732432126999,0.206352338194847,0.213851690292358,0.229486972093582,0.19721594452858
1407,0.216761142015457,0.253193587064743,0.211692541837692,0.220548167824745,0.249461933970451,0.218100279569626
1408,0.231926769018173,0.27010715007782,0.207965701818466,0.219172611832619,0.262622475624084,0.24636510014534
1409,0.245360538363457,0.274418562650681,0.198897331953049,0.212545707821846,0.271384030580521,0.258382976055145
1410,0.251166671514511,0.260990470647812,0.191706508398056,0.198893681168556,0.277387857437134,0.237397819757462
1411,0.244557246565819,0.244609639048576,0.19341915845871,0.181100010871887,0.279163539409637,0.194878652691841
1412,0.227159604430199,0.238569870591164,0.197490051388741,0.165069133043289,0.272372901439667,0.152729541063309
1413,0.207521215081215,0.241713359951973,0.191138222813606,0.156458705663681,0.254995942115784,0.136042952537537
1414,0.188983604311943,0.246215492486954,0.170805677771568,0.154114902019501,0.226687774062157,0.154727011919022
1415,0.169335082173347,0.245139271020889,0.143933340907097,0.150614961981773,0.188918337225914,0.181936845183373
1416,0.155378058552742,0.239325657486916,0.126423090696335,0.149376183748245,0.156367182731628,0.192702978849411
1417,0.154246941208839,0.236179858446121,0.129184871912003,0.158140257000923,0.14750038087368,0.193363085389137
1418,0.161767423152924,0.234507828950882,0.144645750522614,0.172744005918503,0.160530492663383,0.190988451242447
1419,0.174436450004578,0.223451882600784,0.157512605190277,0.184964776039124,0.178801834583282,0.178918823599815
1420,0.189997509121895,0.198926389217377,0.160923942923546,0.188778847455978,0.188640281558037,0.155305415391922
1421,0.201351284980774,0.173179790377617,0.159443229436874,0.185784235596657,0.188895970582962,0.137264475226402
1422,0.206178054213524,0.161534249782562,0.160507723689079,0.185849711298943,0.189997643232346,0.146090194582939
1423,0.209531277418137,0.169523552060127,0.169898241758347,0.196126520633698,0.202328443527222,0.178027048707008
1424,0.218319535255432,0.20016910135746,0.194027096033096,0.218924254179001,0.229802697896957,0.216875150799751
1425,0.231772512197495,0.250014960765839,0.225409120321274,0.244330137968063,0.262669265270233,0.252707779407501
1426,0.23541596531868,0.297547429800034,0.238945320248604,0.249003320932388,0.277259439229965,0.267443269491196
1427,0.220861718058586,0.31617146730423,0.224925488233566,0.2265435308218,0.264366954565048,0.248239904642105
1428,0.199324041604996,0.298256397247314,0.200472190976143,0.197044849395752,0.240303754806519,0.208362266421318
1429,0.18648074567318,0.261204600334167,0.183592304587364,0.176396548748016,0.221193850040436,0.167672842741013
1430,0.187523707747459,0.230175524950027,0.179642409086227,0.162316292524338,0.213332772254944,0.139608412981033
1431,0.192958146333694,0.21390300989151,0.181335657835007,0.147436931729317,0.212500095367432,0.133857816457748
1432,0.194815173745155,0.206310391426086,0.177266031503677,0.133791521191597,0.207245871424675,0.148577034473419
1433,0.197338879108429,0.20088954269886,0.163875848054886,0.126978278160095,0.194111153483391,0.16822162270546
1434,0.199790477752686,0.196080282330513,0.145809635519981,0.128580555319786,0.176263272762299,0.18085452914238
1435,0.199112460017204,0.198395684361458,0.136992961168289,0.147456333041191,0.162818729877472,0.1923758238554
1436,0.197111740708351,0.210984751582146,0.147526353597641,0.186968445777893,0.164892971515656,0.214954763650894
1437,0.19365619122982,0.228247225284576,0.166903510689735,0.226694956421852,0.179204016923904,0.241463556885719
1438,0.190327361226082,0.243790566921234,0.181473046541214,0.245853751897812,0.194396659731865,0.246350109577179
1439,0.188942432403564,0.250158190727234,0.187332108616829,0.24443607032299,0.203078508377075,0.218340426683426
1440,0.190164372324944,0.244305163621902,0.183032795786858,0.232800528407097,0.201975032687187,0.17757610976696
1441,0.195087224245071,0.233383029699326,0.174423292279243,0.221981063485146,0.198410540819168,0.159832566976547
1442,0.199531063437462,0.223322615027428,0.169224545359612,0.217212021350861,0.200733080506325,0.174619123339653
1443,0.197021633386612,0.210803329944611,0.166065022349358,0.213295474648476,0.20300780236721,0.195079565048218
1444,0.187741667032242,0.193541824817657,0.161954715847969,0.205172970890999,0.199053600430489,0.201736956834793
1445,0.176958873867989,0.177919149398804,0.152993351221085,0.19159922003746,0.188609376549721,0.193281307816505
1446,0.170979142189026,0.174480646848679,0.139419719576836,0.175063520669937,0.174951791763306,0.174202397465706
1447,0.168321773409843,0.180836006999016,0.124518021941185,0.157295227050781,0.162287250161171,0.153803646564484
1448,0.159396559000015,0.178686246275902,0.104250237345696,0.132152244448662,0.146001741290092,0.132733657956123
1449,0.145125433802605,0.166613712906837,0.082727313041687,0.102974064648151,0.12540876865387,0.108284369111061
1450,0.131773889064789,0.160948529839516,0.0696965381503105,0.0828616544604301,0.107347145676613,0.0930118188261986
1451,0.12322036921978,0.167722791433334,0.0691492706537247,0.0811703577637672,0.0984660089015961,0.10041419416666
1452,0.126458048820496,0.179977610707283,0.0858339965343475,0.101408436894417,0.107223682105541,0.120639607310295
1453,0.139663681387901,0.184195652604103,0.115891702473164,0.133243843913078,0.132693901658058,0.138114213943481
1454,0.155230015516281,0.177248656749725,0.149201139807701,0.166884988546371,0.164770737290382,0.154056802392006
1455,0.17151914536953,0.170595675706863,0.182008847594261,0.205133602023125,0.195655629038811,0.169567048549652
1456,0.185355737805367,0.171588838100433,0.207546159625053,0.242357552051544,0.215133160352707,0.178722575306892
1457,0.191505759954453,0.180969700217247,0.216634318232536,0.262188702821732,0.213471755385399,0.182344481348991
1458,0.185853183269501,0.191503718495369,0.210906475782394,0.255815982818604,0.194477766752243,0.184288173913956
1459,0.167630568146706,0.191628202795982,0.20163482427597,0.229162856936455,0.172672554850578,0.184695482254028
1460,0.149545535445213,0.187615066766739,0.197241947054863,0.200629621744156,0.162584573030472,0.189784646034241
1461,0.146126180887222,0.193672940135002,0.191229790449142,0.184998884797096,0.168050065636635,0.206871256232262
1462,0.154431506991386,0.207194522023201,0.171230390667915,0.178289040923119,0.177425727248192,0.229670763015747
1463,0.16692490875721,0.220412701368332,0.139879763126373,0.169438615441322,0.181050449609756,0.242519810795784
1464,0.179353058338165,0.22312805056572,0.107000887393951,0.149784550070763,0.177823796868324,0.222905859351158
1465,0.182899937033653,0.194559991359711,0.07381372153759,0.115501023828983,0.162401452660561,0.160644620656967
1466,0.172554418444633,0.134918048977852,0.0471339449286461,0.0828300788998604,0.138342142105103,0.0877996757626534
1467,0.150435745716095,0.0788275524973869,0.0416996218264103,0.0693027228116989,0.119137302041054,0.0458917878568172
1468,0.123077020049095,0.0580651834607124,0.0593513175845146,0.071532167494297,0.106242872774601,0.0427916124463081
1469,0.104498356580734,0.0755712166428566,0.0883315578103065,0.0863164886832237,0.0975563302636147,0.0676804855465889
1470,0.102922759950161,0.110630363225937,0.116125680506229,0.112199641764164,0.0945492014288902,0.104169219732285
1471,0.114820152521133,0.143910869956017,0.142266973853111,0.141374304890633,0.10025729238987,0.136814281344414
1472,0.134226769208908,0.170584708452225,0.17420619726181,0.171089261770248,0.121561571955681,0.163763210177422
1473,0.153832167387009,0.187787845730782,0.206226706504822,0.200875714421272,0.154470816254616,0.186578363180161
1474,0.170752137899399,0.197365447878838,0.225175216794014,0.226637437939644,0.183622404932976,0.203374892473221
1475,0.185129597783089,0.205654859542847,0.225878074765205,0.239769399166107,0.198449239134789,0.214580625295639
1476,0.194014012813568,0.207921400666237,0.208290591835976,0.230898588895798,0.19667661190033,0.221482455730438
1477,0.199185356497765,0.205089241266251,0.181630730628967,0.206222638487816,0.187600925564766,0.224255859851837
1478,0.203830480575562,0.205193087458611,0.157596841454506,0.179230734705925,0.180896431207657,0.219676941633224
1479,0.205043017864227,0.200949653983116,0.135452479124069,0.151643589138985,0.172872111201286,0.20298770070076
1480,0.199658989906311,0.186014145612717,0.113909795880318,0.12512643635273,0.161285996437073,0.180522173643112
1481,0.188093617558479,0.163471102714539,0.0958883091807365,0.105247005820274,0.147445231676102,0.162586241960526
1482,0.172379076480865,0.13280513882637,0.0829250812530518,0.0920683667063713,0.130408048629761,0.145120948553085
1483,0.150993272662163,0.0955071002244949,0.0771937817335129,0.0832447558641434,0.112869426608086,0.119434058666229
1484,0.122712559998035,0.0615575201809406,0.0781852006912231,0.0776519402861595,0.0967367142438889,0.087268240749836
1485,0.0983400419354439,0.0429043807089329,0.0859171450138092,0.0780068337917328,0.0872955322265625,0.0601986311376095
1486,0.0939418897032738,0.0428010486066341,0.100492633879185,0.0866121426224709,0.0967572182416916,0.0501219071447849
1487,0.112005330622196,0.0572062879800797,0.117723181843758,0.0991053655743599,0.126752391457558,0.0615774840116501
1488,0.136366546154022,0.0837632268667221,0.135718315839767,0.109723374247551,0.159892067313194,0.089657761156559
1489,0.144433245062828,0.115516729652882,0.146907329559326,0.111430652439594,0.169441744685173,0.12186748534441
1490,0.13269878923893,0.14457593858242,0.139452680945396,0.100671783089638,0.143670290708542,0.145827025175095
1491,0.119506992399693,0.171483725309372,0.118445307016373,0.0856659784913063,0.102115839719772,0.149161219596863
1492,0.111773326992989,0.187351733446121,0.0978021174669266,0.0742058604955673,0.0690648779273033,0.130506634712219
1493,0.10382929444313,0.183287680149078,0.0869814604520798,0.0718122571706772,0.0533087961375713,0.11688344925642
1494,0.0999796539545059,0.175881013274193,0.092526912689209,0.0855382308363914,0.0585188157856464,0.134155422449112
1495,0.104869194328785,0.175669372081757,0.109421394765377,0.109496183693409,0.0793077647686005,0.166111156344414
1496,0.115951113402843,0.167476832866669,0.124815501272678,0.129633784294128,0.103771060705185,0.184366151690483
1497,0.129353240132332,0.144495189189911,0.129613637924194,0.135491222143173,0.124092616140842,0.184819683432579
1498,0.138220056891441,0.119570679962635,0.117334395647049,0.117701344192028,0.129002913832664,0.163861349225044
1499,0.137289956212044,0.102356016635895,0.0928589254617691,0.0812476351857185,0.113714881241322,0.120311394333839
1500,0.129278764128685,0.0871764495968819,0.0716424733400345,0.0459173768758774,0.08952946215868,0.0745025649666786
1501,0.121693857014179,0.0684941485524178,0.0644048377871513,0.025279788300395,0.0685475170612335,0.0491555966436863
1502,0.114611081779003,0.052222702652216,0.0692823678255081,0.0223609637469053,0.0553052946925163,0.0487142913043499
1503,0.0984149351716042,0.040877241641283,0.0704657584428787,0.0278703644871712,0.0428232438862324,0.0542996823787689
1504,0.0779938101768494,0.0374744310975075,0.0651171505451202,0.0342394635081291,0.0277370605617762,0.0517060607671738
