,AF3,AF4,Fp1,Fp2,AF7,AF8
0,0.0282801445573568,0.0307264048606157,0.00827954243868589,0.00305311940610409,0.0307147242128849,-0.0789920687675476
1,0.0273780934512615,0.0307289194315672,0.00555859040468931,0.000146127727930434,0.0277553424239159,-0.0839980021119118
2,0.0259962230920792,0.0303173288702965,0.0011921722907573,-0.00363050261512399,0.0237664710730314,-0.089547723531723
3,0.0251875761896372,0.0299048032611609,-0.00248865690082312,-0.00641001760959625,0.0213300473988056,-0.093977153301239
4,0.0248496402055025,0.0300642997026443,-0.00399893056601286,-0.00736422324553132,0.0214471407234669,-0.0963411927223206
5,0.0256261304020882,0.0311932545155287,-0.00164682348258793,-0.00613328767940402,0.0251226015388966,-0.0968302562832832
6,0.027849281206727,0.0329645574092865,0.00497120525687933,-0.00287119438871741,0.0322334244847298,-0.0960145816206932
7,0.0298806466162205,0.0347808673977852,0.0130107449367642,0.0015188972465694,0.0393141694366932,-0.0947622582316399
8,0.029416985809803,0.0360538810491562,0.0182279068976641,0.00421505188569427,0.0418449975550175,-0.0954014509916306
9,0.0258819013834,0.03672169521451,0.019034942612052,0.00252434401772916,0.0386718474328518,-0.0995816960930824
10,0.0214902050793171,0.0383889898657799,0.0174360945820808,-0.00155846693087369,0.0321480259299278,-0.104367300868034
11,0.0186739396303892,0.042534276843071,0.015700513496995,-0.00410810997709632,0.0253020077943802,-0.105980552732944
12,0.0180391054600477,0.0484657511115074,0.0148995826020837,-0.00401184847578406,0.0205620732158422,-0.104326479136944
13,0.0190685875713825,0.0543219819664955,0.0157321467995644,-0.00269644614309072,0.0184952840209007,-0.101498112082481
14,0.0213188156485558,0.0592217370867729,0.0188121236860752,-0.00141564069781452,0.0183075182139874,-0.0985855907201767
15,0.0238914396613836,0.063100278377533,0.0229454375803471,-0.0010606354335323,0.0185745507478714,-0.0959529504179955
16,0.0265217199921608,0.0661974623799324,0.0266938041895628,-0.00185069697909057,0.0187746789306402,-0.0935869067907333
17,0.0286455880850554,0.0687655583024025,0.0293782949447632,-0.00380515656434,0.0185236297547817,-0.0913360416889191
18,0.0271512176841497,0.0696415230631828,0.0287643559277058,-0.00863579194992781,0.0148935364559293,-0.0911855101585388
19,0.021493136882782,0.0680473744869232,0.0244349166750908,-0.0160873476415873,0.00700733624398708,-0.0942075327038765
20,0.0159155447036028,0.0658462047576904,0.0202709417790174,-0.0224808193743229,-0.000987947685644031,-0.0976525321602821
21,0.0135407848283648,0.0653136447072029,0.019813621416688,-0.0254680216312408,-0.00541723798960447,-0.0989256501197815
22,0.0139852846041322,0.0670126304030418,0.022683784365654,-0.0253388769924641,-0.0066804513335228,-0.0976665988564491
23,0.015642462298274,0.0701039135456085,0.0261019412428141,-0.0237146746367216,-0.00723150605335832,-0.0947940945625305
24,0.0164933949708939,0.0726663991808891,0.0275289285928011,-0.0233974736183882,-0.00937737431377172,-0.0927379876375198
25,0.0157220792025328,0.0733797922730446,0.0263517070561647,-0.025628961622715,-0.0138646233826876,-0.0930615589022636
26,0.0147967329248786,0.0729956403374672,0.0242750067263842,-0.0283331535756588,-0.0192417148500681,-0.0938510820269585
27,0.01588817499578,0.073253907263279,0.0242788270115852,-0.0284732356667519,-0.0223371889442205,-0.0920326635241508
28,0.0199322067201138,0.0747948512434959,0.028045853599906,-0.0252176467329264,-0.0206494685262442,-0.0871419832110405
29,0.0247998740524054,0.0764171704649925,0.0337747372686863,-0.0212040059268475,-0.0154438763856888,-0.0816948115825653
30,0.0269873924553394,0.0766047388315201,0.0384002402424812,-0.0194946490228176,-0.00984100438654423,-0.0781366676092148
31,0.0263912957161665,0.0751472935080528,0.0411839634180069,-0.0196890439838171,-0.0050274059176445,-0.0763399749994278
32,0.0267183966934681,0.0731950402259827,0.0433121398091316,-0.0192744955420494,-0.000998685020022094,-0.0747680217027664
33,0.029937295243144,0.071741409599781,0.0450713336467743,-0.0179101545363665,0.000987605773843825,-0.0724792629480362
34,0.0335475578904152,0.0709463879466057,0.0451598763465881,-0.0172408502548933,-0.00102966744452715,-0.0690256282687187
35,0.0348011888563633,0.0706070363521576,0.0431492142379284,-0.0174185484647751,-0.00666938349604607,-0.0644078180193901
36,0.0337138585746288,0.0702778548002243,0.040439035743475,-0.0172709915786982,-0.0131194805726409,-0.0596430003643036
37,0.0315932147204876,0.0699091032147408,0.03861178830266,-0.0163459926843643,-0.0181228704750538,-0.0555311180651188
38,0.0300238002091646,0.070273332297802,0.0389040112495422,-0.0142140788957477,-0.0204839818179607,-0.0509120002388954
39,0.0290454290807247,0.0711641013622284,0.040526956319809,-0.0114724757149816,-0.0205308217555285,-0.0453483574092388
40,0.0274173114448786,0.0714729279279709,0.0413121357560158,-0.00952268578112125,-0.0201881881803274,-0.0401002168655396
41,0.0253923181444407,0.0710141509771347,0.0412535779178143,-0.00781410653144121,-0.0206384100019932,-0.0352725125849247
42,0.0241025555878878,0.0702208057045937,0.041649591177702,-0.00508806109428406,-0.0212821457535028,-0.0305224657058716
43,0.0235191434621811,0.0693302527070045,0.0422100573778152,-0.00193797145038843,-0.0220068395137787,-0.0265298467129469
44,0.022202305495739,0.0676030740141869,0.0408598817884922,-0.00110850529745221,-0.0243812408298254,-0.0246375519782305
45,0.0201544668525457,0.064945712685585,0.0370963476598263,-0.00362696591764688,-0.0281517561525106,-0.0247311498969793
46,0.0182262193411589,0.062300331890583,0.0322354286909103,-0.00778308417648077,-0.0320313014090061,-0.0253602415323257
47,0.0159092359244823,0.0596493631601334,0.0272138249129057,-0.0123262945562601,-0.0359721481800079,-0.0262609459459782
48,0.0138227548450232,0.0572737045586109,0.0235153399407864,-0.0157072339206934,-0.0388491861522198,-0.0267273243516684
49,0.0131143257021904,0.0558060929179192,0.0217208079993725,-0.0167347006499767,-0.0399846099317074,-0.0252602808177471
50,0.0136463129892945,0.0548722483217716,0.020763847976923,-0.0162616800516844,-0.0402503497898579,-0.0221684649586678
51,0.0147659936919808,0.0540132485330105,0.0201693903654814,-0.0157602820545435,-0.0398576818406582,-0.0193582754582167
52,0.015365363098681,0.052988987416029,0.0198493059724569,-0.0162485297769308,-0.0388905256986618,-0.0182428620755672
53,0.0143630523234606,0.0513709709048271,0.018994152545929,-0.018184956163168,-0.0384868942201138,-0.0188911166042089
54,0.0124763427302241,0.0496041029691696,0.017675906419754,-0.0204959698021412,-0.0388885326683521,-0.0194149538874626
55,0.0111047979444265,0.048400953412056,0.0168956145644188,-0.0217869617044926,-0.0392708815634251,-0.017836008220911
56,0.00953100807964802,0.0468624010682106,0.016067149117589,-0.023105401545763,-0.0404427163302898,-0.0155368763953447
57,0.00757010839879513,0.0443741492927074,0.0149952545762062,-0.0250135604292154,-0.0421581119298935,-0.013721065595746
58,0.0071346964687109,0.042037695646286,0.0152005897834897,-0.025688486173749,-0.0417784005403519,-0.0108777806162834
59,0.00954949110746384,0.0410356745123863,0.0177542697638273,-0.023580938577652,-0.0380385667085648,-0.00605868874117732
60,0.0138781927525997,0.0412295684218407,0.0215555336326361,-0.0196355432271957,-0.0326086692512035,-0.000494926352985203
61,0.0179056655615568,0.0413713119924068,0.0239882282912731,-0.016534710302949,-0.0283310599625111,0.00367546663619578
62,0.0209937207400799,0.04084437713027,0.0243860129266977,-0.0147725716233253,-0.0259603448212147,0.00613137474283576
63,0.0231490451842546,0.0399964042007923,0.0240835379809141,-0.0132776359096169,-0.0245452784001827,0.00851610023528337
64,0.0236197710037231,0.0389975868165493,0.0237595476210117,-0.0121824499219656,-0.0236524865031242,0.0123373195528984
65,0.0217347536236048,0.03718301653862,0.0224484335631132,-0.012725817039609,-0.0240040179342031,0.0163380242884159
66,0.0177202858030796,0.0341969095170498,0.0196160599589348,-0.0151648558676243,-0.0263061132282019,0.0184229519218206
67,0.0128437271341681,0.0306959506124258,0.0162747595459223,-0.0180695783346891,-0.0297111142426729,0.0193158071488142
68,0.00767343677580357,0.0268637947738171,0.0128312185406685,-0.0211954619735479,-0.0332938469946384,0.0199399627745152
69,0.00212576473131776,0.0225061532109976,0.00944444909691811,-0.0247076023370028,-0.0366155579686165,0.0205517113208771
70,-0.00203334353864193,0.0186091456562281,0.00796505436301231,-0.0261201914399862,-0.03777015209198,0.0227030031383038
71,-0.00221410393714905,0.0168843492865562,0.0103339813649654,-0.022738678380847,-0.0348810516297817,0.0276800245046616
72,0.000365030457032844,0.0170860625803471,0.0147045217454433,-0.0162459705024958,-0.0302328858524561,0.0338011123239994
73,0.00167272670660168,0.0169570930302143,0.0166571866720915,-0.0111237410455942,-0.0286575742065907,0.0378590784966946
74,0.000418482028180733,0.0154329529032111,0.0146383875980973,-0.0095231793820858,-0.0314928814768791,0.039188738912344
75,-0.00205505616031587,0.012930391356349,0.010357329621911,-0.0110196117311716,-0.0363232456147671,0.0387566424906254
76,-0.00496056536212564,0.00984299462288618,0.0056874486617744,-0.0144513286650181,-0.0409044064581394,0.0367492958903313
77,-0.00724274758249521,0.0072311325930059,0.00268873898312449,-0.0174444373697042,-0.0433185696601868,0.0346290618181229
78,-0.00701966416090727,0.0064762900583446,0.0032774992287159,-0.0175618324428797,-0.0419753603637218,0.0350942350924015
79,-0.00435331184417009,0.00770901469513774,0.00651639327406883,-0.0149208707734942,-0.0379569306969643,0.0386233851313591
80,-0.00142275216057897,0.0101142786443233,0.00925908051431179,-0.0117192286998034,-0.0341829098761082,0.0431921146810055
81,0.000157510410645045,0.0126099875196815,0.00966973137110472,-0.00976039748638868,-0.0322955474257469,0.0468786768615246
82,-0.0003013129462488,0.0135766137391329,0.00779479090124369,-0.0100913364440203,-0.0325384736061096,0.0483052134513855
83,-0.00184269761666656,0.0128202000632882,0.00544432271271944,-0.0118413604795933,-0.0336391739547253,0.0478632375597954
84,-0.00305991573259234,0.0119351875036955,0.00474099395796657,-0.0129217831417918,-0.0337333790957928,0.0474385805428028
85,-0.00531407492235303,0.0109286578372121,0.00499316537752748,-0.0139055913314223,-0.0332180708646774,0.0467775352299213
86,-0.00943033304065466,0.00909298658370972,0.0045374808833003,-0.0160373412072659,-0.0333982519805431,0.0454072207212448
87,-0.0123583897948265,0.0074456469155848,0.00389046734198928,-0.0179166924208403,-0.0339070707559586,0.0450856797397137
88,-0.011753392405808,0.00729405367746949,0.00397987337782979,-0.0182054676115513,-0.0339244715869427,0.0465823449194431
89,-0.00975662004202604,0.00833669863641262,0.0035383824724704,-0.0179215855896473,-0.0345753580331802,0.0482711084187031
90,-0.00857354421168566,0.00974767748266459,0.0020426141563803,-0.0175107847899199,-0.0364898219704628,0.0495751686394215
91,-0.00740187661722302,0.0117106223478913,0.00130044599063694,-0.0161639079451561,-0.0378506407141685,0.0514008030295372
92,-0.00555666582658887,0.0144785325974226,0.00182795256841928,-0.0142805026844144,-0.0378347113728523,0.0535750463604927
93,-0.00378950941376388,0.0175212845206261,0.00234236405231059,-0.0125417206436396,-0.0378912054002285,0.0550258792936802
94,-0.00314251449890435,0.0196384508162737,0.00186552735976875,-0.0115518886595964,-0.0396490022540092,0.0545353703200817
95,-0.00337186083197594,0.0203418303281069,0.00104690878652036,-0.0118309175595641,-0.0422785319387913,0.0524089001119137
96,-0.00354557344689965,0.0204010680317879,0.000484376592794433,-0.0132923126220703,-0.0441605746746063,0.0500754453241825
97,-0.00307009951211512,0.0206979718059301,-2.4798238882795E-05,-0.0153567781671882,-0.0454134941101074,0.0479734353721142
98,-0.000266553077381104,0.0223226025700569,0.00144441763404757,-0.0158776361495256,-0.0446948893368244,0.0472641177475452
99,0.00499539356678724,0.0255580097436905,0.00625728257000446,-0.0142565360292792,-0.0404778309166431,0.0485153160989285
100,0.00941023509949446,0.0286656450480223,0.011477836407721,-0.013572514988482,-0.0353333912789822,0.0491416789591312
101,0.0102292373776436,0.0293774455785751,0.0133242029696703,-0.016410494223237,-0.0334729328751564,0.0464028604328632
102,0.00872998777776957,0.0277762655168772,0.0119855245575309,-0.0210626590996981,-0.0355019420385361,0.0416269712150097
103,0.00722625711932778,0.0254158806055784,0.00937200151383877,-0.0249280650168657,-0.0397436171770096,0.0376168191432953
104,0.00589762954041362,0.0230645164847374,0.00588870467618108,-0.0280659273266792,-0.0456105023622513,0.0347402207553387
105,0.0058528590016067,0.0225391481071711,0.00340875284746289,-0.0292040817439556,-0.0508800335228443,0.0343295410275459
106,0.00823586247861385,0.0252754092216492,0.00373951531946659,-0.0267471540719271,-0.0530991964042187,0.0377816669642925
107,0.0124818235635757,0.030377795919776,0.00658378982916474,-0.0213496927171946,-0.0518571995198727,0.0439932942390442
108,0.0171768050640821,0.0359958223998547,0.0110457511618733,-0.0152023658156395,-0.047856155782938,0.0505943261086941
109,0.0196094643324614,0.040030762553215,0.0146232647821307,-0.0121296858415008,-0.0440163686871529,0.0539809018373489
110,0.0195957813411951,0.0426230169832706,0.0163499247282743,-0.0127780335023999,-0.041741918772459,0.0534405559301376
111,0.0195385422557592,0.0453409925103188,0.0178845189511776,-0.014687467366457,-0.039824865758419,0.0515294224023819
112,0.0195884872227907,0.0481173619627953,0.0190789736807346,-0.0177323836833239,-0.0385413579642773,0.0487600453197956
113,0.018547298386693,0.0502891801297665,0.0186881143599749,-0.0228440891951323,-0.0388417951762676,0.043996449559927
114,0.0162658356130123,0.0518506243824959,0.016822524368763,-0.0293966550379992,-0.0408180430531502,0.0372862815856934
115,0.0130889685824513,0.0533388815820217,0.0140790808945894,-0.0361161716282368,-0.0444934405386448,0.0299670267850161
116,0.0096561387181282,0.0554467961192131,0.011299941688776,-0.0421619713306427,-0.0493240803480148,0.0233096368610859
117,0.00813545193523169,0.0592785403132439,0.0107401516288519,-0.0457024946808815,-0.052370298653841,0.01904690079391
118,0.00992837455123663,0.0654843673110008,0.0136611377820373,-0.0448016375303268,-0.0513099431991577,0.019155090674758
119,0.0138543425127864,0.0729071125388145,0.0186387430876493,-0.0404968410730362,-0.0472963973879814,0.0231047477573156
120,0.0178944226354361,0.0794676765799522,0.0234310869127512,-0.0363285019993782,-0.0429252572357655,0.0276145786046982
121,0.0192610751837492,0.0834040865302086,0.0250478778034449,-0.0360475853085518,-0.0419802367687225,0.0283805094659328
122,0.018001614138484,0.085398755967617,0.023231528699398,-0.0393252186477184,-0.0455031022429466,0.024507861584425
123,0.0175971314311028,0.0880727991461754,0.0214270986616611,-0.0423408001661301,-0.049947764724493,0.0197853967547417
124,0.0181701444089413,0.0916654020547867,0.020186448469758,-0.0446383729577065,-0.053949736058712,0.0159925520420074
125,0.0172275993973017,0.0942536592483521,0.0174550991505384,-0.0485634952783585,-0.0589360259473324,0.0112066017463803
126,0.0147288553416729,0.095113605260849,0.0135371498763561,-0.0542542487382889,-0.0646886080503464,0.00483551807701588
127,0.0129068102687597,0.0952788814902306,0.0108344135805964,-0.0592440403997898,-0.0688657909631729,-0.000700315227732062
128,0.0127976220101118,0.0956343114376068,0.0104695353657007,-0.0614436492323875,-0.06985142827034,-0.00342634692788124
129,0.0132350595667958,0.0962419733405113,0.0122850826010108,-0.0604091137647629,-0.0678805187344551,-0.00329171703197062
130,0.0126842679455876,0.096974104642868,0.0168307032436132,-0.0568720027804375,-0.0632212907075882,-0.000983780715614557
131,0.0112643130123615,0.0979046374559402,0.0246443189680576,-0.0522236563265324,-0.0559817142784595,0.00221935682930052
132,0.0119427805766463,0.0996150448918343,0.0343508794903755,-0.0480450578033924,-0.0475689731538296,0.00426702620461583
133,0.0166631750762463,0.102204442024231,0.0418002568185329,-0.0464571490883827,-0.041267491877079,0.00289204996079206
134,0.0228740405291319,0.104630336165428,0.0433233566582203,-0.0486857183277607,-0.0398163124918938,-0.00261672493070364
135,0.0268786251544952,0.105503596365452,0.0394675470888615,-0.0537233203649521,-0.0428120084106922,-0.0111713279038668
136,0.0274732019752264,0.104258693754673,0.0334761887788773,-0.0593012645840645,-0.0476652607321739,-0.0208877194672823
137,0.0269250608980656,0.10220754891634,0.0290558803826571,-0.0623885244131088,-0.0507870279252529,-0.0292166993021965
138,0.0274372939020395,0.100367300212383,0.0275110825896263,-0.0624904707074165,-0.0506390109658241,-0.0361227281391621
139,0.0275160558521748,0.097488708794117,0.025799285620451,-0.0635474324226379,-0.0500220023095608,-0.0453856214880943
140,0.0266169998794794,0.0937771052122116,0.0222857818007469,-0.0662555992603302,-0.0502401441335678,-0.0570206604897976
141,0.0255984906107187,0.0907234326004982,0.0180596467107534,-0.0678205490112305,-0.0501556284725666,-0.0676086097955704
142,0.0253794062882662,0.0888978019356728,0.0150380320847034,-0.0667333975434303,-0.0482333339750767,-0.0753360167145729
143,0.0285237990319729,0.0890076085925102,0.0163036268204451,-0.0616983734071255,-0.0416808724403381,-0.0792940258979797
144,0.0348917730152607,0.0905491039156914,0.0213387925177813,-0.0540713369846344,-0.0311892107129097,-0.0812689512968063
145,0.0405985452234745,0.0915724635124207,0.0256259422749281,-0.0480490177869797,-0.021612886339426,-0.0847148522734642
146,0.0423092357814312,0.0904288068413734,0.0255998950451612,-0.0466982498764992,-0.0167363025248051,-0.0916435122489929
147,0.0399089381098747,0.0865580141544342,0.0215458814054728,-0.0494943000376225,-0.0162059012800455,-0.101884558796883
148,0.0358447805047035,0.0805124565958977,0.0163814127445221,-0.0538441948592663,-0.0166642554104328,-0.113671638071537
149,0.0326397977769375,0.0738551318645477,0.0122560216113925,-0.0572817213833332,-0.015415477566421,-0.124480545520782
150,0.0320883765816689,0.0684495568275452,0.0109447417780757,-0.0568102560937405,-0.0109078930690885,-0.131229370832443
151,0.0340334177017212,0.0644151121377945,0.0134752094745636,-0.051394809037447,-0.0033094969112426,-0.132949560880661
152,0.0368129350244999,0.0604534037411213,0.0181408654898405,-0.0436408631503582,0.00488909147679806,-0.131915003061295
153,0.040535744279623,0.0564081408083439,0.022512711584568,-0.0361888036131859,0.0122832888737321,-0.130460023880005
154,0.0453639999032021,0.0525811947882175,0.0249633304774761,-0.0303057618439198,0.0185077209025621,-0.129515290260315
155,0.0496131516993046,0.0484304912388325,0.0254016816616058,-0.0262125059962273,0.0231907274574041,-0.129022777080536
156,0.0524112097918987,0.0438166037201881,0.0256272926926613,-0.0222673770040274,0.0275532994419336,-0.128069579601288
157,0.0539195239543915,0.0389715991914272,0.0264568198472261,-0.0169866476207972,0.0326688811182976,-0.126443788409233
158,0.0539723969995975,0.0335150621831417,0.0265580005943775,-0.0115000605583191,0.0376710221171379,-0.125283092260361
159,0.0522289015352726,0.0270717572420835,0.0247166212648153,-0.0077195605263114,0.041122741997242,-0.125095367431641
160,0.0488095358014107,0.0193818658590317,0.0216502342373133,-0.00577074149623513,0.042937058955431,-0.125799536705017
161,0.0442622154951096,0.0095240892842412,0.0188780706375837,-0.00558553356677294,0.0438797324895859,-0.128717198967934
162,0.0392360016703606,-0.00238831806927919,0.0167441740632057,-0.00773631408810616,0.0439857095479965,-0.133904159069061
163,0.0344876013696194,-0.0138318287208676,0.0145583227276802,-0.0107854288071394,0.0430543348193169,-0.137466818094254
164,0.029811454936862,-0.0231938473880291,0.0114311706274748,-0.0127766858786345,0.040771845728159,-0.136717364192009
165,0.0248533934354782,-0.0313577130436897,0.00756727810949087,-0.0130608724430203,0.0373649410903454,-0.132787004113197
166,0.0206848550587893,-0.0386590100824833,0.00446736253798008,-0.0107521237805486,0.0345989167690277,-0.12669113278389
167,0.0179709382355213,-0.0442144088447094,0.00309421704150736,-0.00584057299420238,0.0341923944652081,-0.118627645075321
168,0.0161356646567583,-0.048129390925169,0.00320918159559369,0.000276414473773912,0.0364852920174599,-0.109263375401497
169,0.01472975499928,-0.0515645407140255,0.00378113519400358,0.00646894332021475,0.0402779877185822,-0.0994075760245323
170,0.0135838016867638,-0.0553676448762417,0.00368182640522718,0.0118720317259431,0.043875552713871,-0.0895922109484673
171,0.0121937515214086,-0.0600936822593212,0.0023965728469193,0.0153926350176334,0.0464370585978031,-0.0805494636297226
172,0.0106583191081882,-0.0655642151832581,0.000415806687669829,0.017774473875761,0.0479701384902,-0.0727169662714005
173,0.0100463293492794,-0.0709068924188614,-0.00125032430514693,0.0216272454708815,0.048815805464983,-0.0649644359946251
174,0.0103190140798688,-0.0761046782135963,-0.0025911817792803,0.0268868952989578,0.0490995794534683,-0.0563294738531113
175,0.00998686254024506,-0.0818530768156052,-0.00430826283991337,0.0305698961019516,0.048962939530611,-0.0479764528572559
176,0.00844543799757957,-0.0881174206733704,-0.00638896459713578,0.0316191278398037,0.0487366653978825,-0.0413669385015965
177,0.00680212583392859,-0.093901552259922,-0.00813153199851513,0.0319921709597111,0.0489168390631676,-0.0359849780797958
178,0.00530114211142063,-0.0989346355199814,-0.00966711435467005,0.03245585039258,0.0496077202260494,-0.031315054744482
179,0.00274200225248933,-0.103771604597569,-0.0122637683525682,0.0316726490855217,0.0499621070921421,-0.0281038656830788
180,-0.00022024565259926,-0.107819691300392,-0.0157801546156406,0.0304257497191429,0.049992211163044,-0.0252863839268684
181,-0.00210419879294932,-0.110234029591084,-0.0189782530069351,0.0309558659791946,0.0502720028162003,-0.0205817762762308
182,-0.00388781726360321,-0.11183600127697,-0.0223352257162333,0.0326611623167992,0.0495718717575073,-0.0143539868295193
183,-0.00650568446144462,-0.113577850162983,-0.0263344366103411,0.0340336188673973,0.0474045537412167,-0.00811860710382462
184,-0.00796426553279161,-0.114355958998203,-0.0287770386785269,0.0363843776285648,0.0464393235743046,-0.00110127683728933
185,-0.00835764221847057,-0.113983146846294,-0.0293620582669973,0.0394697040319443,0.046555157750845,0.00635425047948956
186,-0.0112557802349329,-0.114837341010571,-0.0313579998910427,0.040020439773798,0.0438873693346977,0.0112284580245614
187,-0.0165349468588829,-0.117398403584957,-0.0350836180150509,0.0382474139332771,0.0388165786862373,0.0131812617182732
188,-0.0202542915940285,-0.119148083031178,-0.0373487435281277,0.0378559641540051,0.0355662293732166,0.0154202012345195
189,-0.0204516816884279,-0.11793490499258,-0.0363207645714283,0.0409441143274307,0.0362800844013691,0.0204834248870611
190,-0.0175947546958923,-0.11347009986639,-0.032434843480587,0.0470488220453262,0.0405904278159142,0.0287810452282429
191,-0.0132328169420362,-0.107713095843792,-0.0277786403894424,0.0536054857075214,0.0462805181741714,0.0384842269122601
192,-0.0108337951824069,-0.104151234030724,-0.0263330824673176,0.0565112866461277,0.0489916764199734,0.0452032461762428
193,-0.0119233848527074,-0.103756174445152,-0.0294315833598375,0.0549087636172771,0.0470697209239006,0.0468793027102947
194,-0.014317449182272,-0.10468664765358,-0.0341812781989574,0.0513654612004757,0.0433442853391171,0.0458575710654259
195,-0.0161252617835999,-0.105127684772015,-0.0381772927939892,0.0481662042438984,0.04063655808568,0.0453183054924011
196,-0.0174173898994923,-0.104197911918163,-0.0409024246037006,0.0466071218252182,0.0397985465824604,0.0466959588229656
197,-0.0187088269740343,-0.102342635393143,-0.042861383408308,0.0464421957731247,0.0398100018501282,0.0490399189293385
198,-0.0183488298207521,-0.0996612086892128,-0.0438257306814194,0.0478430166840553,0.0400312878191471,0.0518979951739311
199,-0.0149958869442344,-0.0954730808734894,-0.0429564490914345,0.0512766018509865,0.0412733480334282,0.0557321384549141
200,-0.0107573820278049,-0.0900592654943466,-0.0409925952553749,0.055110651999712,0.0430936440825462,0.0598399676382542
201,-0.00842758826911449,-0.0847086682915688,-0.0395508632063866,0.0570006147027016,0.043506283313036,0.0629061460494995
202,-0.00866140518337488,-0.0805290415883064,-0.0392415076494217,0.056171391159296,0.0421872958540916,0.064154177904129
203,-0.0110133942216635,-0.0782183185219765,-0.0401755757629871,0.0530753247439861,0.0398239344358444,0.0631769672036171
204,-0.0147481728345156,-0.0778486803174019,-0.0426513478159904,0.0487698316574097,0.0358099304139614,0.0603421628475189
205,-0.0179502759128809,-0.0781767889857292,-0.0457754582166672,0.0451688021421433,0.030597772449255,0.0576200298964977
206,-0.019377576187253,-0.0779644995927811,-0.0481747686862946,0.0433563590049744,0.025963518768549,0.056351114064455
207,-0.0201137270778418,-0.0770096406340599,-0.0498246997594833,0.0427788235247135,0.0220183655619621,0.0557980947196484
208,-0.0209978949278593,-0.0752539709210396,-0.0506107620894909,0.0433932319283485,0.018271567299962,0.0557601116597652
209,-0.0210045240819454,-0.0725999400019646,-0.0494660884141922,0.0459267199039459,0.0159165095537901,0.0573715716600418
210,-0.0196893475949764,-0.0698610693216324,-0.0465365424752235,0.049493134021759,0.0158298518508673,0.0600964762270451
211,-0.0183958224952221,-0.0682915076613426,-0.043832041323185,0.0522640757262707,0.0164863672107458,0.0617245472967625
212,-0.0181669294834137,-0.0678112953901291,-0.0427572540938854,0.0538324043154716,0.0160083584487438,0.0614838562905788
213,-0.0193067211657763,-0.067608579993248,-0.0433078855276108,0.0538643859326839,0.013811313547194,0.0601739585399628
214,-0.0213958732783794,-0.0672359690070152,-0.0450071208178997,0.0521165207028389,0.010508039034903,0.0593084655702114
215,-0.0230896752327681,-0.0666250884532928,-0.0469400435686111,0.0498267114162445,0.00747520383447409,0.0600045695900917
216,-0.024836640805006,-0.066818542778492,-0.0494463331997395,0.0468743517994881,0.00426878733560443,0.0605268105864525
217,-0.0280166789889336,-0.0683414861559868,-0.0533430874347687,0.0425702072679996,-0.000446520920377225,0.0590304508805275
218,-0.0311600472778082,-0.0692034810781479,-0.056780219078064,0.0392043069005013,-0.00541546149179339,0.0578266270458698
219,-0.0316118411719799,-0.0674610584974289,-0.0571274161338806,0.0394199155271053,-0.00817248225212097,0.0597334951162338
220,-0.029224144294858,-0.063789002597332,-0.0544043071568012,0.042595062404871,-0.00810191221535206,0.0639004781842232
221,-0.0264212489128113,-0.0598995722830296,-0.0513830110430717,0.0453401245176792,-0.00703293783590198,0.0680000931024551
222,-0.025488680228591,-0.0567565374076366,-0.0507083125412464,0.0450339466333389,-0.00721884844824672,0.070510059595108
223,-0.0260605942457914,-0.0547193624079227,-0.0518814660608768,0.0423950850963593,-0.00866501592099667,0.0710214972496033
224,-0.0268451850861311,-0.0539872348308563,-0.0529591999948025,0.0390664599835873,-0.0100417099893093,0.0701602250337601
225,-0.0278639327734709,-0.0540752522647381,-0.0530015528202057,0.0359857603907585,-0.0108087221160531,0.069249726831913
226,-0.0286385752260685,-0.0534810051321983,-0.0514575019478798,0.0343896374106407,-0.0107605699449778,0.069756455719471
227,-0.0288842469453812,-0.0520724169909954,-0.0493074133992195,0.0335298962891102,-0.0108186807483435,0.07072664052248
228,-0.0293720494955778,-0.0512047186493874,-0.0480606406927109,0.0313118472695351,-0.0119319027289748,0.0697148367762566
229,-0.0296399667859077,-0.0505421198904514,-0.0470168478786945,0.0284152235835791,-0.0131258629262447,0.0674223601818085
230,-0.028991499915719,-0.0487527549266815,-0.0456752441823483,0.0260586775839329,-0.0142880184575915,0.0658544823527336
231,-0.0286141112446785,-0.0461510308086872,-0.0455494001507759,0.0229059346020222,-0.0170112680643797,0.0643123686313629
232,-0.0294483620673418,-0.0434105098247528,-0.0473772846162319,0.0184787530452013,-0.0211556442081928,0.0621575899422169
233,-0.0303915962576866,-0.0401184968650341,-0.0495031476020813,0.0147318607196212,-0.0237078089267015,0.0604150146245956
234,-0.0297695081681013,-0.0358341932296753,-0.049272608011961,0.0132325738668442,-0.0221501607447863,0.0596214756369591
235,-0.0279142912477255,-0.0308621432632208,-0.0465218685567379,0.0131128476932645,-0.0184840690344572,0.0591291822493076
236,-0.0272431280463934,-0.0262232143431902,-0.0443618074059486,0.0116382725536823,-0.0174328852444887,0.0575429238379002
237,-0.0278721880167723,-0.0219728909432888,-0.0435619056224823,0.00847814045846462,-0.0198352988809347,0.055319219827652
238,-0.0273053925484419,-0.0167835671454668,-0.041397038847208,0.00613665767014027,-0.0224906746298075,0.0545598454773426
239,-0.0253838431090117,-0.0105971805751324,-0.0372796766459942,0.00527385855093598,-0.0243313070386648,0.0552605986595154
240,-0.0245378613471985,-0.00542570510879159,-0.0337612368166447,0.00378093984909356,-0.0272035766392946,0.0552654787898064
241,-0.0254360530525446,-0.00242658611387014,-0.0319442562758923,0.000461076939245686,-0.0311024654656649,0.0536715127527714
242,-0.0266032461076975,-0.000787166354712099,-0.0305959973484278,-0.00347711890935898,-0.0340787656605244,0.0513583943247795
243,-0.0268247276544571,0.000674158683978021,-0.0285023134201765,-0.00614317832514644,-0.0348977223038673,0.0494914315640926
244,-0.0260220170021057,0.00283239758573473,-0.0254297088831663,-0.00648713391274214,-0.0337063707411289,0.0490947216749191
245,-0.0249452441930771,0.00540852919220924,-0.0220071505755186,-0.00476238457486033,-0.0317238532006741,0.0498015396296978
246,-0.0245396513491869,0.00678920885547996,-0.0189048200845718,-0.0023721877951175,-0.030223099514842,0.0498012043535709
247,-0.0253586955368519,0.00616292469203472,-0.0165485944598913,-0.00125347857829183,-0.0298281162977219,0.0485281869769096
248,-0.0271211471408606,0.00424432056024671,-0.0148204686120152,-0.00216441042721272,-0.0298546738922596,0.0473833903670311
249,-0.0303967464715242,0.00116544787306339,-0.0141318952664733,-0.00538339093327522,-0.0306183118373156,0.0463006161153317
250,-0.0336481854319572,-0.00244356249459088,-0.0139511376619339,-0.00958989001810551,-0.0320068709552288,0.0450757667422295
251,-0.0320669747889042,-0.00402192259207368,-0.0116473855450749,-0.0105558373034,-0.0309147778898478,0.0465783663094044
252,-0.0256120804697275,-0.00252973451279104,-0.00739764282479882,-0.0067152651026845,-0.027065260335803,0.0522708036005497
253,-0.0181440114974976,0.000636490876786411,-0.00347641808912158,-0.000216885091504082,-0.0231221560388803,0.0601833239197731
254,-0.0115773258730769,0.00396301783621311,-0.000769275065977126,0.00668339431285858,-0.0202964171767235,0.0680614113807678
255,-0.00836331304162741,0.00516686402261257,-0.00122762774117291,0.0104641802608967,-0.020460681989789,0.0725472718477249
256,-0.00992990750819445,0.00241697020828724,-0.0055383313447237,0.00927894562482834,-0.0242650918662548,0.0713071227073669
257,-0.0125041296705604,-0.0017432450549677,-0.00941228866577148,0.0074360677972436,-0.0273862518370152,0.0680947452783585
258,-0.0131507776677608,-0.00383337703533471,-0.010120578110218,0.00829865504056215,-0.0269350279122591,0.0672262981534004
259,-0.0142185157164931,-0.00476149702444673,-0.0106422640383244,0.00896869692951441,-0.0261547937989235,0.0673938915133476
260,-0.0177378691732883,-0.00697264820337296,-0.0135288247838616,0.00691355345770717,-0.0280246529728174,0.0662234127521515
261,-0.0226229261606932,-0.0111314449459314,-0.0177444759756327,0.00345920026302338,-0.0314394645392895,0.0638675168156624
262,-0.0270428564399481,-0.0164942517876625,-0.021227914839983,0.000679577351547778,-0.0339829809963703,0.0615908466279507
263,-0.0296599268913269,-0.0216684304177761,-0.0227151568979025,-0.000211753809708171,-0.0341782420873642,0.0608767829835415
264,-0.0298021715134382,-0.025838689878583,-0.0223279967904091,0.00115466793067753,-0.0321858488023281,0.062675841152668
265,-0.0277000330388546,-0.0293000526726246,-0.0209535006433725,0.00402700481936336,-0.029034161940217,0.066260039806366
266,-0.0252754092216492,-0.0328620225191116,-0.0200437046587467,0.00624837586656213,-0.0261921584606171,0.0696176588535309
267,-0.0240310430526733,-0.0364820435643196,-0.0205306299030781,0.00675036292523146,-0.0242313332855701,0.072292372584343
268,-0.0230199936777353,-0.0391001328825951,-0.0213040411472321,0.00696082366630435,-0.0220317970961332,0.0758992955088615
269,-0.022046934813261,-0.0409203916788101,-0.0218557957559824,0.00722000794485211,-0.0199167169630528,0.0803817585110664
270,-0.0221173278987408,-0.0434097796678543,-0.0229277387261391,0.00650439783930779,-0.0191792882978916,0.0837133228778839
271,-0.0221252702176571,-0.0465088896453381,-0.0231877602636814,0.00602165656164289,-0.0180973615497351,0.0859264880418777
272,-0.0205764286220074,-0.0489947348833084,-0.0208770148456097,0.00776529731228948,-0.0144953979179263,0.0889042168855667
273,-0.0190268866717815,-0.051265511661768,-0.017394844442606,0.010683392174542,-0.00998210813850164,0.092341385781765
274,-0.0195059143006802,-0.0546864792704582,-0.0149597581475973,0.0121816098690033,-0.0067596766166389,0.0942520648241043
275,-0.0211662780493498,-0.0590380243957043,-0.0137340147048235,0.0114041259512305,-0.00459807692095637,0.0941092073917389
276,-0.0226581953465939,-0.0632441565394402,-0.0136224571615458,0.00852945074439049,-0.00336025399155915,0.0922894850373268
277,-0.0246330946683884,-0.0672849267721176,-0.0155549412593246,0.00364169524982572,-0.00421218713745475,0.0890314728021622
278,-0.0280203316360712,-0.0712880343198776,-0.0198212396353483,-0.00256808404810727,-0.00815187487751246,0.0852220207452774
279,-0.0324691161513329,-0.0744110941886902,-0.0254571288824081,-0.00907782930880785,-0.0151502583175898,0.0817469954490662
280,-0.0363469533622265,-0.0751567557454109,-0.0302866250276566,-0.0144930966198444,-0.0229302775114775,0.0793030112981796
281,-0.0375242605805397,-0.0722543299198151,-0.0318424738943577,-0.0170686710625887,-0.0277957785874605,0.0793126001954079
282,-0.0361675433814526,-0.0664362013339996,-0.0307836476713419,-0.0171263292431831,-0.0293997824192047,0.081555038690567
283,-0.03441271930933,-0.0595258995890617,-0.0297564528882504,-0.0164898876100779,-0.030498830601573,0.0837756916880608
284,-0.0333005078136921,-0.0524981319904327,-0.0293812155723572,-0.0165387410670519,-0.0322975181043148,0.0845518484711647
285,-0.0323310866951942,-0.0454009175300598,-0.0284548904746771,-0.0177697744220495,-0.0338154993951321,0.0845533981919289
286,-0.0302313286811113,-0.0373123548924923,-0.0257817916572094,-0.0185899473726749,-0.0337861217558384,0.0859540849924088
287,-0.0278548020869493,-0.0287698749452829,-0.0227226037532091,-0.0189366657286882,-0.0335801430046558,0.0878848433494568
288,-0.027297941967845,-0.0213935039937496,-0.0217019207775593,-0.0210541561245918,-0.0356212481856346,0.0869040414690971
289,-0.0268735326826572,-0.0144446613267064,-0.0214067120105028,-0.0240543074905872,-0.0384114310145378,0.0834522843360901
290,-0.0234404616057873,-0.00646275049075484,-0.0188344195485115,-0.0253389980643988,-0.0387459546327591,0.0806293487548828
291,-0.0177934970706701,0.00234216568060219,-0.0142464376986027,-0.0249915588647127,-0.0372627452015877,0.0792280584573746
292,-0.0129635790362954,0.0114336665719748,-0.00984116923063993,-0.0238502491265535,-0.0370585098862648,0.0790981650352478
293,-0.0106338048353791,0.0205155108124018,-0.00677499826997519,-0.0225332714617252,-0.0392655357718468,0.079716756939888
294,-0.0110220098868012,0.0284093078225851,-0.00533275539055467,-0.0232981257140636,-0.0432255566120148,0.0778034850955009
295,-0.0127339828759432,0.0344637669622898,-0.00460257194936275,-0.0265695732086897,-0.0474505871534348,0.0717522129416466
296,-0.0128673277795315,0.040042269974947,-0.00213957531377673,-0.0285987053066492,-0.0492737293243408,0.06566421687603
297,-0.00982620846480131,0.0463816411793232,0.00304941996000707,-0.0271204635500908,-0.0475209429860115,0.0634317770600319
298,-0.0054842121899128,0.0525416322052479,0.00836696196347475,-0.0250604953616858,-0.045100960880518,0.0631869062781334
299,-0.00288207153789699,0.0570228770375252,0.0106594627723098,-0.0258702877908945,-0.0455338209867477,0.0610385239124298
300,-0.00424344558268785,0.05910275131464,0.00836052745580673,-0.030713215470314,-0.0500640422105789,0.0549308210611343
301,-0.00851724948734045,0.0595634281635284,0.00319992867298424,-0.0379269570112228,-0.0564917698502541,0.0459101498126984
302,-0.0112605495378375,0.0602015256881714,-0.0003320096002426,-0.043928187340498,-0.0603704154491425,0.0373016782104969
303,-0.0109398309141397,0.0611240975558758,-0.000750904902815819,-0.0476334653794765,-0.0613377802073956,0.0305786952376366
304,-0.00878144614398479,0.0625184550881386,0.000992442364804447,-0.048805758357048,-0.0615916959941387,0.0267996396869421
305,-0.00539342872798443,0.0653882473707199,0.00456848507747054,-0.0469605885446072,-0.0610476434230804,0.0269051324576139
306,-0.00350284134037793,0.0676901414990425,0.00767722260206938,-0.0454888604581356,-0.0607846081256866,0.0270722843706608
307,-0.00590068008750677,0.0664408057928085,0.00770287634804845,-0.0480314828455448,-0.0630348846316338,0.0227874238044024
308,-0.0102967610582709,0.0628513395786285,0.00641624163836241,-0.0523588135838509,-0.0664282590150833,0.0158809199929237
309,-0.0126741826534271,0.0603252872824669,0.00718112289905548,-0.0537458211183548,-0.0679640173912048,0.011148601770401
310,-0.0119916722178459,0.0601782500743866,0.0106587866321206,-0.0505698509514332,-0.0671560168266296,0.0103812897577882
311,-0.0103508178144693,0.0615089498460293,0.0147297894582152,-0.0458390451967716,-0.065808966755867,0.0121231861412525
312,-0.0113056283444166,0.0622428134083748,0.0159793123602867,-0.044880997389555,-0.0660758912563324,0.0127429366111755
313,-0.0147198867052794,0.0612639673054218,0.0139383152127266,-0.0489157773554325,-0.0679101869463921,0.00998685974627733
314,-0.0163140092045069,0.0596072524785995,0.0115343546494842,-0.0539570972323418,-0.0692560598254204,0.00562698626890779
315,-0.0148414084687829,0.0582582354545593,0.0105608683079481,-0.0565812438726425,-0.0689467787742615,0.00237083388492465
316,-0.0123054273426533,0.0573987849056721,0.0116020794957876,-0.0558441989123821,-0.0666128695011139,0.00158837495837361
317,-0.00861982442438602,0.0578603520989418,0.0156291723251343,-0.0514867007732391,-0.0615821480751038,0.00375802791677415
318,-0.0029319659806788,0.0603184811770916,0.0222672950476408,-0.0442673973739147,-0.0545169822871685,0.00839416403323412
319,0.00211994280107319,0.0627268478274345,0.0278998538851738,-0.0377285145223141,-0.0490186959505081,0.0124765206128359
320,0.0035283574834466,0.0625841915607452,0.0292415041476488,-0.0348621569573879,-0.048189889639616,0.013290180824697
321,0.00254179374314845,0.0605135969817638,0.0276937112212181,-0.0344242341816425,-0.0506343394517899,0.0121953468769789
322,0.00150959054008126,0.0583977848291397,0.0263323802500963,-0.0344425924122334,-0.0532757490873337,0.0110875815153122
323,0.000410464737797156,0.0567392371594906,0.0256891585886478,-0.035256952047348,-0.0553759224712849,0.00966470129787922
324,-0.00160614494234324,0.0547474548220634,0.0250404626131058,-0.0374306328594685,-0.0575047694146633,0.00789490528404713
325,-0.00407427782192826,0.0517577715218067,0.024730209261179,-0.0395527221262455,-0.0592754445970058,0.0070485626347363
326,-0.00556429382413626,0.0479698553681374,0.0254612769931555,-0.0394482128322124,-0.0595251582562923,0.00747050996869802
327,-0.00485601229593158,0.0443073101341724,0.0276208743453026,-0.0362128689885139,-0.0571005828678608,0.00846509542316198
328,-0.00192816648632288,0.0414425656199455,0.0307883247733116,-0.0315060541033745,-0.0520286783576012,0.00964108295738697
329,0.00103006139397621,0.0383714623749256,0.0329204425215721,-0.0289878435432911,-0.0465852729976177,0.00976184010505676
330,0.00151659618131816,0.0338171161711216,0.0323955453932285,-0.0301920920610428,-0.0434366501867771,0.00768492231145501
331,-0.000641564081888646,0.0282246377319098,0.0296279359608889,-0.0333407670259476,-0.043342512100935,0.00416215322911739
332,-0.00390073470771313,0.0228118654340506,0.0261146780103445,-0.0363243892788887,-0.0447750613093376,0.000718198134563863
333,-0.00676814513280988,0.0180941801518202,0.0235175713896751,-0.0379674807190895,-0.0453379079699516,-0.00145003816578537
334,-0.00870695058256388,0.0137905525043607,0.0220555383712053,-0.0384332984685898,-0.0444678775966167,-0.00261514447629452
335,-0.0099221458658576,0.00952795520424843,0.0205065794289112,-0.0387339815497398,-0.0432681478559971,-0.00386575656011701
336,-0.0098811611533165,0.00626281509175897,0.0191886723041534,-0.0377120636403561,-0.0415984056890011,-0.00373490597121418
337,-0.00750765344128013,0.00600148225203156,0.0200024228543043,-0.032731220126152,-0.0381748750805855,0.000832644873298705
338,-0.00341785489581525,0.00831687543541193,0.0229860842227936,-0.0251511484384537,-0.0332411155104637,0.00885638408362865
339,-0.000535595347173512,0.00964765436947346,0.0249829161912203,-0.0203319508582354,-0.0297648198902607,0.0147549835965037
340,-0.000913776108063757,0.00771269202232361,0.0234774798154831,-0.0206216219812632,-0.0302642807364464,0.0152036249637604
341,-0.00270165875554085,0.00410722568631172,0.0203363578766584,-0.0225144419819117,-0.0327720530331135,0.0133619103580713
342,-0.00317068374715745,0.00145474716555327,0.0186000000685453,-0.022185705602169,-0.0337420366704464,0.0139811849221587
343,-0.00270878244191408,5.42922498425469E-05,0.0182767454534769,-0.0203194078058004,-0.0329348556697369,0.0169650409370661
344,-0.00245287781581283,-0.000961431942414492,0.0183896478265524,-0.0187590550631285,-0.0315941050648689,0.0199174843728542
345,-0.00240422319620848,-0.00184811896178871,0.0187856815755367,-0.0172946602106094,-0.0301969069987535,0.0223545096814632
346,-0.00369041040539742,-0.00299162860028446,0.0182480532675982,-0.0166581086814404,-0.030013982206583,0.0234800223261118
347,-0.00724266888573766,-0.00473114615306258,0.0156458597630262,-0.0184428934007883,-0.0319837257266045,0.0219416581094265
348,-0.0114312311634421,-0.00688723847270012,0.011918350122869,-0.0222542211413383,-0.0347568802535534,0.018156886100769
349,-0.0129915233701468,-0.0083919670432806,0.00974505394697189,-0.0251147653907537,-0.0348789356648922,0.0150603037327528
350,-0.0103378100320697,-0.00786769576370716,0.0111611755564809,-0.0238769855350256,-0.0301861371845007,0.0153736202046275
351,-0.00612018117681146,-0.00583074614405632,0.0146516133099794,-0.0195437204092741,-0.02352056466043,0.0179899111390114
352,-0.00416155299171805,-0.00411863997578621,0.0168229304254055,-0.0163092445582151,-0.0195187330245972,0.0204287674278021
353,-0.00493642594665289,-0.00346519332379103,0.0165556408464909,-0.0158743131905794,-0.0192772168666124,0.0221006609499455
354,-0.00617977092042565,-0.00327175110578537,0.0157068241387606,-0.016288835555315,-0.0202337559312582,0.0233444515615702
355,-0.00573871610686183,-0.00229470175690949,0.0165210366249084,-0.0151057168841362,-0.0193130895495415,0.0253056567162275
356,-0.00344358966685832,-6.41857041046023E-05,0.0190854202955961,-0.0118892649188638,-0.0161465518176556,0.0287480391561985
357,-0.00115548353642225,0.00225576385855675,0.0213870815932751,-0.00827665906399488,-0.0130365397781134,0.0321150682866573
358,-0.000519078399520367,0.00333510432392359,0.021475113928318,-0.00620660465210676,-0.0117996484041214,0.0333366692066193
359,-0.00112947693560272,0.00326446746475995,0.0193766597658396,-0.00611185468733311,-0.0122282095253468,0.0323866717517376
360,-0.000781935115810484,0.00357674318365753,0.0177494175732136,-0.00585549464449286,-0.0121743716299534,0.0318564847111702
361,0.0011918154777959,0.0047181211411953,0.01847830042243,-0.00381721742451191,-0.009962840937078,0.0332887955009937
362,0.00293269194662571,0.00567137729376554,0.0202825758606195,-0.0014223160687834,-0.00612002611160278,0.034940131008625
363,0.00362015375867486,0.00623776577413082,0.0214141886681318,-0.000603631779085845,-0.00219913455657661,0.0350528247654438
364,0.00509707117453218,0.00721001205965877,0.021797152236104,-0.000778798188548535,0.00080415204865858,0.034533329308033
365,0.00893161073327065,0.00906437449157238,0.0224733203649521,8.05747040431015E-05,0.00328546948730946,0.0353500135242939
366,0.0131877167150378,0.0108485938981175,0.0234345868229866,0.00174522399902344,0.00503142457455397,0.0374364070594311
367,0.0151812834665179,0.0114023694768548,0.0237895976752043,0.00277440552599728,0.00509768584743142,0.0396591611206532
368,0.0150644090026617,0.0107174227014184,0.0236992668360472,0.00308476528152823,0.00402835942804813,0.0416977070271969
369,0.0136365070939064,0.00870029907673597,0.0231176465749741,0.0024084432516247,0.00259903492406011,0.0428372137248516
370,0.0106856878846884,0.00490534165874124,0.0211348365992308,0.000167034260812216,0.000469436636194587,0.0420195460319519
371,0.00682594813406467,0.000101357654784806,0.0181819889694452,-0.0024848016910255,-0.00231507839635015,0.0395098924636841
372,0.00410969275981188,-0.0035592750646174,0.0162849873304367,-0.00306621077470481,-0.00425702519714832,0.0373983010649681
373,0.00420808605849743,-0.004520442802459,0.0168334897607565,-0.000325696601066738,-0.00388766452670097,0.0381820946931839
374,0.00587936816737056,-0.00390695035457611,0.0186030715703964,0.00353264529258013,-0.00227646832354367,0.0412234961986542
375,0.00651517044752836,-0.00409878371283412,0.0197692140936852,0.00538180721923709,-0.00125471991486847,0.0432818755507469
376,0.005351722240448,-0.00615967204794288,0.0199444517493248,0.00435631349682808,-0.00119182479102165,0.042538046836853
377,0.00261051184497774,-0.0101076774299145,0.0185750797390938,0.00124522240366787,-0.00267660384997725,0.03952881321311
378,-0.000818353204522282,-0.0150730824097991,0.0154669862240553,-0.0015401387354359,-0.00580744678154588,0.0362352207303047
379,-0.00293674133718014,-0.0192660372704268,0.0119978878647089,-0.0016633253544569,-0.00850749481469393,0.033996868878603
380,-0.00283424882218242,-0.0219159703701735,0.00974402297288179,-0.000150429099448957,-0.00873829238116741,0.0319682396948338
381,-0.00210986635647714,-0.0239836312830448,0.0083738761022687,0.000254812883213162,-0.00727387284860015,0.0294969119131565
382,-0.00272059510461986,-0.0261764619499445,0.00619453331455588,-0.000977831077761948,-0.00627750670537353,0.0276700835675001
383,-0.00427127722650766,-0.0280346646904945,0.00338535569608212,-0.00224241544492543,-0.00596349686384201,0.02692736312747
384,-0.006067487411201,-0.0295203328132629,0.000417466275393963,-0.00325172441080213,-0.00613226229324937,0.0256553329527378
385,-0.00899260491132736,-0.0315325893461704,-0.004261105787009,-0.00562807638198137,-0.00800824537873268,0.0222765542566776
386,-0.0119137596338987,-0.0335511043667793,-0.00976152345538139,-0.007955152541399,-0.0103145176544786,0.0189078021794558
387,-0.0118598388507962,-0.0336650460958481,-0.0122296698391438,-0.00623003020882607,-0.00925949402153492,0.0197065155953169
388,-0.00922626536339521,-0.0321510806679726,-0.0111402692273259,-0.000931841554120183,-0.00477523682639003,0.0244738627225161
389,-0.00703364703804255,-0.0314846597611904,-0.00933264847844839,0.00384845328517258,-0.000219196372199804,0.0290998462587595
390,-0.00630444940179586,-0.0328835137188435,-0.00830584950745106,0.00633363705128431,0.00305804423987865,0.0312738828361034
391,-0.00682652182877064,-0.0357470065355301,-0.00856102257966995,0.00672424910590053,0.00500318501144648,0.0310754477977753
392,-0.00819822400808334,-0.0388018004596233,-0.00971380434930325,0.00593855511397123,0.00598676642403007,0.0296629872173071
393,-0.00947458297014236,-0.0414679758250713,-0.0104436706751585,0.00496209785342216,0.00730467820540071,0.028104392811656
394,-0.0110592730343342,-0.0449640825390816,-0.0114737739786506,0.00261047901585698,0.00879971217364073,0.025258744135499
395,-0.0129684051498771,-0.0497015155851841,-0.0138077642768621,-0.0014521338744089,0.0101385610178113,0.0205477606505156
396,-0.0124030383303761,-0.0526061803102493,-0.015009555965662,-0.00293555972166359,0.0130892610177398,0.0180200003087521
397,-0.00785857066512108,-0.0512555502355099,-0.0128324581310153,0.00149487832095474,0.0185288041830063,0.0213225334882736
398,-0.00234987027943134,-0.0480002164840698,-0.00959908869117498,0.00840500555932522,0.0239480286836624,0.0275035481899977
399,6.06956855335739E-05,-0.0464390926063061,-0.00901723373681307,0.0121737066656351,0.0258744657039642,0.0316185988485813
400,-0.00211856001988053,-0.0480351336300373,-0.0122951064258814,0.0111506534740329,0.0228543691337109,0.0320676974952221
401,-0.00729608302935958,-0.052079763263464,-0.0177057255059481,0.00771561916917562,0.016942510381341,0.0298531074076891
402,-0.01207943726331,-0.0564795061945915,-0.0219675563275814,0.0050909505225718,0.0124093182384968,0.0273716188967228
403,-0.0140682710334659,-0.0597056560218334,-0.0235642232000828,0.00458670360967517,0.0113085024058819,0.0268673412501812
404,-0.0132069597020745,-0.0613025613129139,-0.0234674196690321,0.00594899337738752,0.0126705216243863,0.0290319062769413
405,-0.011031910777092,-0.0614288337528706,-0.0227026809006929,0.00897640269249678,0.0154467048123479,0.0330510139465332
406,-0.00935076083987951,-0.0610807910561562,-0.0217640474438667,0.0132019491866231,0.0191256199032068,0.0375101752579212
407,-0.00864185392856598,-0.0606460683047771,-0.0209808759391308,0.0175481047481298,0.0227835103869438,0.0417978353798389
408,-0.00871426053345203,-0.0597276128828526,-0.0207058470696211,0.0203986503183842,0.0247430726885796,0.0450567789375782
409,-0.00964760314673185,-0.0589307583868504,-0.0213055945932865,0.0203138086944819,0.024035694077611,0.0456699468195438
410,-0.0115584507584572,-0.059269841760397,-0.0232222657650709,0.0170095581561327,0.0212328098714352,0.0432044006884098
411,-0.013932473026216,-0.0604030676186085,-0.0262315440922976,0.0119453435763717,0.0181338749825954,0.0391742959618568
412,-0.0153272999450564,-0.0611617676913738,-0.0285367015749216,0.00764421140775085,0.0171119756996632,0.0357081927359104
413,-0.0149344466626644,-0.0610081478953362,-0.0284959487617016,0.00560568412765861,0.0192738510668278,0.03376404941082
414,-0.0131110744550824,-0.0599432811141014,-0.0262732543051243,0.00608098460361362,0.0240059979259968,0.033191379159689
415,-0.0116187809035182,-0.0588700734078884,-0.0244562588632107,0.00747013418003917,0.0282606855034828,0.0330485887825489
416,-0.0122529854997993,-0.0586566552519798,-0.0255556274205446,0.0076059615239501,0.0286590624600649,0.0326366275548935
417,-0.0141270561143756,-0.0583331547677517,-0.0282458309084177,0.00711891008540988,0.0261063519865274,0.0325795039534569
418,-0.0154333552345634,-0.0566456876695156,-0.0299546327441931,0.00756074720993638,0.0238670688122511,0.0335064716637135
419,-0.0155913354828954,-0.0534648783504963,-0.0299676507711411,0.00929313432425261,0.023558272048831,0.0355270691215992
420,-0.0148257408291101,-0.0495408847928047,-0.0284811332821846,0.0119823701679707,0.0245949421077967,0.0381330922245979
421,-0.0142651423811913,-0.0459859818220139,-0.0263220965862274,0.0138900419697165,0.025624692440033,0.0398234724998474
422,-0.0143480701372027,-0.0427428111433983,-0.0236516296863556,0.0142852943390608,0.0272389799356461,0.040522925555706
423,-0.0142411049455404,-0.0393158830702305,-0.0206935368478298,0.0141524402424693,0.0297036524862051,0.0410271547734737
424,-0.0139469439163804,-0.0367182269692421,-0.0197435729205608,0.0128430379554629,0.0306103620678186,0.0396955162286758
425,-0.0135292252525687,-0.0358290448784828,-0.0213429927825928,0.0100215338170528,0.0292296260595322,0.0352511405944824
426,-0.012456338852644,-0.035737294703722,-0.0233807917684317,0.00754584325477481,0.0270179249346256,0.0294246096163988
427,-0.0113267274573445,-0.0353616811335087,-0.0250300336629152,0.0062149022705853,0.0241436921060085,0.0241430997848511
428,-0.011226499453187,-0.0341267958283424,-0.0265662409365177,0.00523890042677522,0.0200803633779287,0.0205770544707775
429,-0.011682391166687,-0.0311116725206375,-0.0275043938308954,0.00482364138588309,0.01572310552001,0.0201120693236589
430,-0.0117572657763958,-0.0261195674538612,-0.0273850243538618,0.00554792489856482,0.0123361563310027,0.0226452201604843
431,-0.0111514301970601,-0.0201127342879772,-0.0260676648467779,0.00742794666439295,0.010867795906961,0.0260824263095856
432,-0.00946184154599905,-0.014044126495719,-0.0232843477278948,0.0103445453569293,0.0124292159453034,0.0284940041601658
433,-0.00748328445479274,-0.00867800787091255,-0.0202001724392176,0.0129153169691563,0.0155858555808663,0.0287523735314608
434,-0.00607978040352464,-0.00378992897458375,-0.0182051211595535,0.0142303491011262,0.0175089556723833,0.0273536555469036
435,-0.00508396327495575,0.00106024299748242,-0.0172880589962006,0.0147715741768479,0.0175258852541447,0.0259039681404829
436,-0.00555099546909332,0.0047987368889153,-0.0173722915351391,0.0140470117330551,0.0159425027668476,0.0242772847414017
437,-0.00680013559758663,0.00723645789548755,-0.0172924622893333,0.0126523682847619,0.0145296733826399,0.0222583580762148
438,-0.00525768287479877,0.0101065151393414,-0.0150198489427567,0.0130959236994386,0.0159507244825363,0.0214441064745188
439,-0.000924559833947569,0.0136447828263044,-0.0114651452749968,0.014893158338964,0.0192250106483698,0.0215912330895662
440,0.0024385096039623,0.0163408014923334,-0.0100285457447171,0.014700279571116,0.0205025654286146,0.0202714167535305
441,0.00395990675315261,0.0183443240821362,-0.0113528342917562,0.0122178411111236,0.0188505239784718,0.0175313390791416
442,0.00538712227717042,0.0207926798611879,-0.0128706097602844,0.00975701492279768,0.0169269312173128,0.0152395218610764
443,0.00656864745542407,0.0232904851436615,-0.0132339159026742,0.00779604306444526,0.0163083467632532,0.0133263329043984
444,0.00698783295229077,0.0254230294376612,-0.0125995008274913,0.00629745749756694,0.0170212741941214,0.0112282680347562
445,0.00766892218962312,0.0274376776069403,-0.0110340695828199,0.00595789169892669,0.0188553929328918,0.00916466023772955
446,0.00844724755734205,0.0289547555148602,-0.00962390843778849,0.00587739888578653,0.0196537598967552,0.00648588920012116
447,0.00893857795745134,0.0304648894816637,-0.00861903186887503,0.00543366698548198,0.0185577794909477,0.00374688347801566
448,0.0100344251841307,0.0330598615109921,-0.00682510621845722,0.00539808627218008,0.0176352392882109,0.00292919529601932
449,0.0119004882872105,0.0365805216133595,-0.00408844742923975,0.0059885336086154,0.017447616904974,0.00429095746949315
450,0.0136242965236306,0.0401050671935081,-0.00141554628498852,0.00641556037589908,0.0166209042072296,0.00598777318373322
451,0.0139042604714632,0.0421963408589363,-0.000660511665046215,0.00452737044543028,0.0138770341873169,0.00508087454363704
452,0.0137627255171537,0.0430167354643345,-0.00151928630657494,0.000843581161461771,0.0105042746290565,0.00173108081799001
453,0.0148682640865445,0.0445130914449692,-0.00198866217397153,-0.00128500873688608,0.00814111437648535,-0.000906578439753503
454,0.0151574183255434,0.0467140525579453,-0.00266164727509022,-0.002246965887025,0.00519249308854342,-0.00305714341811836
455,0.0133685516193509,0.0488133616745472,-0.00391399255022407,-0.00378697458654642,0.00167334394063801,-0.00635600322857499
456,0.0123757608234882,0.0516170226037502,-0.0033539708238095,-0.00398758985102177,0.000965391285717487,-0.00891230162233114
457,0.0138012049719691,0.0551607646048069,-0.00029392633587122,-0.00163640116807073,0.00362162454985082,-0.00906968861818314
458,0.0164899080991745,0.058335367590189,0.00382326985709369,0.00194320362061262,0.00728780869394541,-0.00742316851392388
459,0.0189742241054773,0.0599930696189404,0.00770044839009643,0.00471416627988219,0.0100983660668135,-0.00599111616611481
460,0.0190544910728931,0.0580974854528904,0.0083898613229394,0.00305755855515599,0.00958869699388742,-0.00919045694172382
461,0.0161321461200714,0.0524839498102665,0.0045478530228138,-0.00355788180604577,0.00534162204712629,-0.0185049995779991
462,0.0123769491910934,0.0460184887051582,-0.000557270948775113,-0.011088945902884,0.000247047981247306,-0.0298576857894659
463,0.00897809769958258,0.0413894727826118,-0.00398344593122602,-0.0167827364057302,-0.00428486615419388,-0.0388923063874245
464,0.00700590386986732,0.0406025275588036,-0.00431426893919706,-0.0190483182668686,-0.00713449157774448,-0.0425547435879707
465,0.00769796222448349,0.0439378842711449,-0.00118781987112015,-0.0176019594073296,-0.00664002494886518,-0.0407409593462944
466,0.0091994171962142,0.048732154071331,0.00299111567437649,-0.0150399105623364,-0.00414174934849143,-0.0372077934443951
467,0.0092558991163969,0.0524947680532932,0.00599196599796414,-0.0131710581481457,-0.00197448255494237,-0.0345998369157314
468,0.0090512577444315,0.0551035702228546,0.00802488252520561,-0.0118197808042169,-0.000758924521505833,-0.0325432531535625
469,0.0106223924085498,0.0571607537567616,0.00935599952936172,-0.0110905794426799,-0.000761537463404238,-0.0306619051843882
470,0.0125581370666623,0.0584561601281166,0.00862651597708464,-0.0118415644392371,-0.00317567051388323,-0.0302889905869961
471,0.0128073394298553,0.0591992139816284,0.0058589712716639,-0.0136103304103017,-0.00770692154765129,-0.0320966877043247
472,0.0116793783381581,0.0600598752498627,0.00333628593944013,-0.0151626905426383,-0.0120884850621223,-0.0353020839393139
473,0.0109886731952429,0.0616493225097656,0.00351630849763751,-0.0150419604033232,-0.0138672031462193,-0.0379389449954033
474,0.0126228723675013,0.0646777972579002,0.00777401775121689,-0.0119336135685444,-0.0114494524896145,-0.0377504266798496
475,0.0160803887993097,0.0685763359069824,0.0149275371804833,-0.00743497721850872,-0.00588030554354191,-0.0356691777706146
476,0.0194719340652227,0.072224847972393,0.0224562454968691,-0.00415268028154969,0.000243302871240303,-0.0343903340399265
477,0.0217960234731436,0.0755959004163742,0.0282900799065828,-0.00279944599606097,0.00463058426976204,-0.0346373431384563
478,0.0226965248584747,0.0784221366047859,0.0309552345424891,-0.00351352104917169,0.00557039165869355,-0.0361022651195526
479,0.0221009030938149,0.0795479491353035,0.0301997251808643,-0.00669027725234628,0.00332914129830897,-0.0390542782843113
480,0.0199428517371416,0.0782153904438019,0.026871720328927,-0.0122345164418221,-0.000596606289036572,-0.0440900437533855
481,0.0170853640884161,0.075169213116169,0.0228830203413963,-0.0183452535420656,-0.00476543977856636,-0.0507324896752834
482,0.0157809779047966,0.0724226906895638,0.0210205763578415,-0.0215035658329725,-0.00711440853774548,-0.0562325939536095
483,0.0151842664927244,0.0701679512858391,0.0206650327891111,-0.0214847680181265,-0.00872023217380047,-0.0598229542374611
484,0.0127847660332918,0.0674305260181427,0.0193317029625177,-0.0213920772075653,-0.0122719947248697,-0.0637511983513832
485,0.0107439048588276,0.0655643120408058,0.0188923552632332,-0.0213531050831079,-0.0149787655100226,-0.0674877986311913
486,0.0115997260436416,0.0655705779790878,0.021283246576786,-0.0205671023577452,-0.0136176683008671,-0.0693952664732933
487,0.0135059431195259,0.0661696866154671,0.0242632925510406,-0.0205155406147242,-0.0104010412469506,-0.070697121322155
488,0.0146414842456579,0.0667850524187088,0.026092566549778,-0.0212827753275633,-0.00781632401049137,-0.0720226168632507
489,0.0141221862286329,0.0664970576763153,0.0259713511914015,-0.0232766326516867,-0.00711613241583109,-0.0741827860474586
490,0.010841834358871,0.0632576048374176,0.0228309482336044,-0.028612308204174,-0.00937244854867458,-0.0798239409923553
491,0.00695627043023705,0.0584645830094814,0.0188014190644026,-0.034944586455822,-0.0123985661193728,-0.0870145484805107
492,0.00547305773943663,0.0553991198539734,0.0167822558432817,-0.0380362533032894,-0.0136924283578992,-0.0909748300909996
493,0.00646392628550529,0.0547544695436955,0.0168852023780346,-0.0373433716595173,-0.013537622988224,-0.0903959423303604
494,0.00881086103618145,0.0556542873382568,0.0182998925447464,-0.034070048481226,-0.0125968651846051,-0.0862029418349266
495,0.0118647208437324,0.0570630133152008,0.0208997093141079,-0.0292425490915775,-0.0106767863035202,-0.0799966901540756
496,0.0159830208867788,0.0585402697324753,0.0252180676907301,-0.0230354554951191,-0.00707437982782722,-0.0729667246341705
497,0.0201069731265306,0.0595662817358971,0.0299746058881283,-0.0166826229542494,-0.00292726722545922,-0.0668840259313583
498,0.0228209961205721,0.0598377399146557,0.0338020175695419,-0.0114631420001388,0.00121826108079404,-0.0631449595093727
499,0.0239771530032158,0.0595984198153019,0.0369476266205311,-0.00729643972590566,0.00625157123431563,-0.0609735101461411
500,0.022370083257556,0.058194775134325,0.0379864647984505,-0.00538172712549567,0.00956432335078716,-0.0608280636370182
501,0.018708661198616,0.0560762546956539,0.0367730371654034,-0.00524302618578076,0.00928160268813372,-0.0628500208258629
502,0.0159024335443974,0.054788026958704,0.0360275655984879,-0.00462002214044333,0.00751672172918916,-0.0646327957510948
503,0.0138782421126962,0.0539614856243134,0.0362502560019493,-0.00416470225900412,0.00541559187695384,-0.0647284239530563
504,0.011019129306078,0.0522933565080166,0.0358216799795628,-0.00557276234030724,0.00291579030454159,-0.0638885349035263
505,0.00796709675341845,0.0495268143713474,0.0341932587325573,-0.0082815159112215,0.000642728118691593,-0.0629548877477646
506,0.00642678840085864,0.0465017221868038,0.0322379767894745,-0.00997963454574347,-0.000843350193463266,-0.0611613877117634
507,0.0075107729062438,0.0444993376731873,0.0318879447877407,-0.00818499084562063,-0.000565653492230922,-0.0570118948817253
508,0.011002516373992,0.0440035797655582,0.0340164005756378,-0.002684838604182,0.00219361507333815,-0.0503803752362728
509,0.0142560042440891,0.0439372807741165,0.0361086502671242,0.00265966402366757,0.00476811639964581,-0.0437520183622837
510,0.0147405480965972,0.0431011468172073,0.035917092114687,0.00430665351450443,0.00404124101623893,-0.0397444702684879
511,0.0125484075397253,0.041369840502739,0.0341002680361271,0.00269671040587127,0.000785027339588851,-0.0383136570453644
512,0.0091205220669508,0.0391878336668015,0.0315574184060097,-0.000185047116247006,-0.00274636689573526,-0.0384608395397663
513,0.00592760695144534,0.0372569523751736,0.0286095067858696,-0.00280326558277011,-0.00556142721325159,-0.0395767018198967
514,0.0028839900624007,0.0355719067156315,0.0247556064277887,-0.00503089837729931,-0.00875204056501389,-0.0415877774357796
515,-0.00101289781741798,0.0334932059049606,0.0194167792797089,-0.00716861383989453,-0.0136675359681249,-0.044618334621191
516,-0.00551043311133981,0.0311747528612614,0.0135598024353385,-0.00871788151562214,-0.019743213430047,-0.0477046817541122
517,-0.0085607748478651,0.0299596842378378,0.0096201254054904,-0.00849360413849354,-0.0242695454508066,-0.0485220178961754
518,-0.00783733651041985,0.0313958339393139,0.00976665504276752,-0.00515444856137037,-0.024018594995141,-0.0451258197426796
519,-0.00445518689230084,0.0347124822437763,0.0125440787523985,-3.5407723771641E-05,-0.0199121441692114,-0.0389352180063725
520,-0.00122275273315609,0.0373340621590614,0.0147033864632249,0.00388916325755417,-0.0158758144825697,-0.0333736091852188
521,0.00108333630487323,0.0379425175487995,0.0152641721069813,0.00556392222642899,-0.0140202390030026,-0.0300267077982426
522,0.00156531191896647,0.0359831526875496,0.0138384848833084,0.00406582979485393,-0.0149364331737161,-0.0297569241374731
523,-0.00045573161332868,0.0314389318227768,0.0101226503029466,-0.00132326886523515,-0.0181582234799862,-0.0333692841231823
524,-0.00297017977572978,0.0265997014939785,0.00634270021691918,-0.00751306209713221,-0.0215690657496452,-0.0384961329400539
525,-0.00324360653758049,0.0247658956795931,0.00582560058683157,-0.00972740445286036,-0.0225680693984032,-0.0405908860266209
526,-0.00116053747478873,0.0264886692166328,0.00858435593545437,-0.00765292951837182,-0.021057004109025,-0.0388517640531063
527,0.00123289972543716,0.028932748362422,0.0112760988995433,-0.00556517718359828,-0.0194955598562956,-0.0373367145657539
528,0.00340605899691582,0.0303081274032593,0.0124052381142974,-0.00585011532530189,-0.0189708545804024,-0.0382122732698917
529,0.00663837604224682,0.0321150720119476,0.0138511629775167,-0.00638940278440714,-0.0182064920663834,-0.0385149084031582
530,0.0107276486232877,0.0353045798838139,0.0166632402688265,-0.00544820073992014,-0.0162405148148537,-0.0362192913889885
531,0.0136676989495754,0.0383770912885666,0.0193919688463211,-0.00443396391347051,-0.0141801778227091,-0.0335691869258881
532,0.0142904976382852,0.0401278138160706,0.0206851959228516,-0.00484102824702859,-0.0136947203427553,-0.0327014662325382
533,0.0139227723702788,0.0414242632687092,0.0213196352124214,-0.00585052603855729,-0.0140681033954024,-0.0326790474355221
534,0.0145241124555469,0.0438168533146381,0.0228888653218746,-0.00591160589829087,-0.0134255867451429,-0.0317052900791168
535,0.0166406519711018,0.0477980375289917,0.0262954607605934,-0.00420985650271177,-0.0113799143582582,-0.0294229723513126
536,0.0197541024535894,0.0524330101907253,0.0315825715661049,-0.00114714668598026,-0.00829106569290161,-0.0271781776100397
537,0.0224117282778025,0.0560461319983006,0.0369951948523521,0.00109758938197047,-0.00522715831175447,-0.0266906600445509
538,0.0234937574714422,0.0580631755292416,0.0401957370340824,0.000869815936312079,-0.00383114069700241,-0.0277920849621296
539,0.0231062341481447,0.0586993023753166,0.0403504781424999,-0.00159470236394554,-0.00479070609435439,-0.0296981502324343
540,0.0222149882465601,0.0579827576875687,0.0383520163595676,-0.0051887184381485,-0.00704491557553411,-0.0323377698659897
541,0.0210879314690828,0.0560463108122349,0.0350568220019341,-0.00987072661519051,-0.00985061097890139,-0.0362261421978474
542,0.0197803992778063,0.0537901967763901,0.0312120690941811,-0.0155367292463779,-0.0130070205777884,-0.0410047210752964
543,0.0195336733013391,0.0527885779738426,0.0283296518027782,-0.0198916979134083,-0.015193659812212,-0.0442024022340775
544,0.0203475318849087,0.0532136037945747,0.0269762612879276,-0.021771976724267,-0.0158905945718288,-0.0447023212909698
545,0.021278003230691,0.0540138930082321,0.027059230953455,-0.0215239375829697,-0.0153284920379519,-0.0438741892576218
546,0.0222341045737267,0.0542032197117805,0.0284061674028635,-0.0192654225975275,-0.0135503150522709,-0.0434646494686604
547,0.0235372427850962,0.0532572716474533,0.0306788738816977,-0.0163335911929607,-0.0106992851942778,-0.0440826714038849
548,0.0247596297413111,0.051230113953352,0.032952681183815,-0.0151596311479807,-0.00765557400882244,-0.0451712422072887
549,0.0248253177851439,0.0485464110970497,0.0338567830622196,-0.0165214277803898,-0.00602163467556238,-0.0460986495018005
550,0.0237081106752157,0.0462227202951908,0.0336856730282307,-0.0184067655354738,-0.00576465437188745,-0.046201404184103
551,0.0213395711034536,0.0448983907699585,0.0330697223544121,-0.0193328354507685,-0.00579509511590004,-0.0458008460700512
552,0.0180403962731361,0.044450119137764,0.0321265272796154,-0.0192508511245251,-0.00560406781733036,-0.0453895144164562
553,0.0168989691883326,0.0447237826883793,0.0320670753717422,-0.0173136349767447,-0.00454309629276395,-0.0437214486300945
554,0.0201516896486282,0.0454025156795979,0.0338297337293625,-0.0131684634834528,-0.0023169897031039,-0.0399931073188782
555,0.0248120408505201,0.0453045964241028,0.0357829891145229,-0.00925051141530275,-0.000928200199268758,-0.0362942889332771
556,0.0261557456105947,0.0428403541445732,0.034937284886837,-0.0088891563937068,-0.003108388511464,-0.0357249863445759
557,0.0240097995847464,0.0384190678596497,0.0315967053174973,-0.0115664917975664,-0.00724114291369915,-0.0381708666682243
558,0.0227644704282284,0.0348987951874733,0.0300152879208326,-0.0124118253588676,-0.00810189638286829,-0.0396612510085106
559,0.0249712318181992,0.0340614877641201,0.0320477113127708,-0.00869476608932018,-0.00374386669136584,-0.0375092253088951
560,0.0286052878946066,0.0346588864922524,0.0349480323493481,-0.0032521563116461,0.00304167997092009,-0.0333092920482159
561,0.0307812318205833,0.0343401581048965,0.0360136143863201,0.000345306063536555,0.00884348247200251,-0.0296338275074959
562,0.0302117932587862,0.0318379700183868,0.0346320010721684,0.00137154094409198,0.0116440067067742,-0.0273639317601919
563,0.0269808657467365,0.0276833791285753,0.0314336866140366,0.000513201171997935,0.0110363150015473,-0.0262057799845934
564,0.0217658877372742,0.0229884386062622,0.0275077614933252,-0.0017651777015999,0.00799037422984838,-0.0260690413415432
565,0.0157833714038134,0.0184485986828804,0.0238425713032484,-0.00464815087616444,0.00406386703252792,-0.0268408115953207
566,0.0112123526632786,0.0149452919140458,0.0216100923717022,-0.00635930569842458,0.00144137523602694,-0.0268903970718384
567,0.00943740177899599,0.0129209104925394,0.0214953683316708,-0.00606242939829826,0.0014068279415369,-0.0246726926416159
568,0.00838085543364286,0.0109058246016502,0.0217625685036182,-0.00574431009590626,0.00162213039584458,-0.0220791716128588
569,0.00600546784698963,0.00782673340290785,0.0207946989685297,-0.00625856034457684,-0.000115941969852429,-0.021156445145607
570,0.00428759213536978,0.00513060856610537,0.0205062516033649,-0.0046404474414885,-0.00153125042561442,-0.0196374356746674
571,0.00449727801606059,0.00353936641477048,0.0222708992660046,-5.1966511819046E-05,-0.000700838456396014,-0.0159762650728226
572,0.00526954559609294,0.00215120753273368,0.0247760508209467,0.00490093789994717,0.00142720621079206,-0.0121470727026463
573,0.00559671642258763,0.000619042024482042,0.0264997202903032,0.00847415812313557,0.00379156600683928,-0.00986225623637438
574,0.00475041335448623,-0.00130850961431861,0.0258952993899584,0.00982324965298176,0.00494146952405572,-0.00976817775517702
575,0.0031515711452812,-0.0036763867828995,0.0232185050845146,0.00920609850436449,0.00468915142118931,-0.0111532649025321
576,0.00239211949519813,-0.00592003855854273,0.020719587802887,0.00812669284641743,0.00489645171910524,-0.012213259935379
577,0.00298911612480879,-0.00786390993744135,0.0193982161581516,0.00748508190736175,0.00647110398858786,-0.0124918390065432
578,0.00382765871472657,-0.0101622194051743,0.0182610228657722,0.00704631302505732,0.00832078605890274,-0.0133731123059988
579,0.00431989599019289,-0.0127254752442241,0.0168040860444307,0.00688237510621548,0.00942241866141558,-0.0147931212559342
580,0.00486272573471069,-0.0142968446016312,0.0154350241646171,0.00667977752164006,0.00956328678876162,-0.015151659026742
581,0.00464032217860222,-0.0149620119482279,0.0134934242814779,0.00457707373425364,0.00811774935573339,-0.015038083307445
582,0.00377634586766362,-0.0153236156329513,0.0113774742931128,0.00124868331477046,0.00609114021062851,-0.0150384707376361
583,0.00396783603355289,-0.0149395661428571,0.0106850378215313,-0.000380823883460835,0.00573136284947395,-0.0141503186896443
584,0.00519696623086929,-0.0138639388605952,0.0111686792224646,-4.57887981610838E-05,0.00730046164244413,-0.0126293050125241
585,0.00663030846044421,-0.0126187307760119,0.0120711922645569,0.000963623402640224,0.00994166452437639,-0.0114730168133974
586,0.00794502720236778,-0.011205555871129,0.0133313098922372,0.00215032231062651,0.0129109090194106,-0.0108820470049977
587,0.00829239282757044,-0.0095569659024477,0.0143282935023308,0.00325882737524807,0.0150959389284253,-0.0108981719240546
588,0.00691916886717081,-0.00801264401525259,0.0141630293801427,0.00409256666898727,0.0154582681134343,-0.0117951296269894
589,0.00435161544010043,-0.0068870666436851,0.0130310961976647,0.00467649009078741,0.014122249558568,-0.0135382106527686
590,0.00179753173142672,-0.00612030178308487,0.012352759949863,0.00472726859152317,0.0127195231616497,-0.0155275482684374
591,-9.53811759245582E-05,-0.00551466550678015,0.0129521964117885,0.0037604090757668,0.0126941688358784,-0.0170169565826654
592,-0.00121045194100589,-0.00508539052680135,0.0138907488435507,0.001848996267654,0.013365744613111,-0.0178825911134481
593,-0.000665118859615177,-0.00455182325094938,0.0147159025073051,0.000589674804359674,0.0141201931983233,-0.0177482906728983
594,0.0021477525588125,-0.00350525812245905,0.016063567250967,0.00160880316980183,0.015317153185606,-0.0159760322421789
595,0.00587863428518176,-0.0022383090108633,0.017577787861228,0.00406053010374308,0.01622399315238,-0.0132515598088503
596,0.0101399458944798,9.17792713153176E-05,0.0198778305202723,0.0075860065408051,0.0177104398608208,-0.00926534924656153
597,0.0151122491806746,0.00426833098754287,0.023740366101265,0.0121959513053298,0.0212610270828009,-0.00374058121815324
598,0.0186490025371313,0.00810449104756117,0.02695925347507,0.0153470123186708,0.0248270984739065,0.000206908778636716
599,0.0194518845528364,0.00970895029604435,0.0279048401862383,0.0159306488931179,0.0261732302606106,0.000832240912131965
600,0.0191886443644762,0.00986223760992289,0.0278846975415945,0.0162947215139866,0.0262038931250572,0.000422827521106228
601,0.0194305200129747,0.00952485576272011,0.0282288528978825,0.0181260909885168,0.0265878345817328,0.000626206223387271
602,0.0195779819041491,0.00876810308545828,0.0283838901668787,0.0204485692083836,0.0269591771066189,0.00101774674840271
603,0.017834410071373,0.00719062704592943,0.0265447795391083,0.0211462043225765,0.0253055170178413,0.000734875269699842
604,0.0125055415555835,0.0035918764770031,0.0213259290903807,0.0182392243295908,0.0200219042599201,-0.00192008155863732
605,0.00477376440539956,-0.00192708289250731,0.0146604189649224,0.0125856101512909,0.0128805786371231,-0.00709787430241704
606,-0.00109333277214319,-0.00691509013995528,0.0107483193278313,0.00870968028903008,0.00818265415728092,-0.0111805777996778
607,-0.0028135550674051,-0.00977612100541592,0.0108053172007203,0.0094983596354723,0.00768653023988009,-0.0112451883032918
608,-0.00258115236647427,-0.0115780001506209,0.0117681222036481,0.0124607216566801,0.00877833273261786,-0.00907529052346945
609,-0.00344765861518681,-0.0137983849272132,0.0104451095685363,0.0137077337130904,0.00810154341161251,-0.00790795776993036
610,-0.00521323783323169,-0.0160765647888184,0.00758741144090891,0.0134474029764533,0.006156868301332,-0.00756114348769188
611,-0.00639434298500419,-0.01798090711236,0.00578148337081075,0.0137999663129449,0.00570702506229281,-0.00641261786222458
612,-0.00722699845209718,-0.0204450748860836,0.00540742324665189,0.0145705081522465,0.00735398149117827,-0.0050029456615448
613,-0.00804352108389139,-0.0241025369614363,0.0052491994574666,0.015216363593936,0.00991503801196814,-0.00464677717536688
614,-0.00762838078662753,-0.0281643029302359,0.00533909490332007,0.0169879961758852,0.0133482273668051,-0.00507209124043584
615,-0.00520731834694743,-0.0313606075942516,0.00672056432813406,0.0206131022423506,0.0180844441056252,-0.00455500511452556
616,-0.00270525575615466,-0.0336328856647015,0.00820078607648611,0.0242478158324957,0.0222473610192537,-0.0025074565783143
617,-0.00211892742663622,-0.0358460210263729,0.00788436457514763,0.0263206083327532,0.0237248782068491,0.000310952018480748
618,-0.00252841878682375,-0.0380073599517345,0.00735046062618494,0.0282432921230793,0.0237999148666859,0.00422842334955931
619,-0.002909418893978,-0.0400699861347675,0.00841709785163403,0.0308597888797522,0.0243424046784639,0.00856072548776865
620,-0.00421302299946547,-0.0431442148983479,0.00941214524209499,0.0325165539979935,0.0243548303842545,0.0103768920525908
621,-0.00691705569624901,-0.0477536544203758,0.00866554770618677,0.0323613286018372,0.0224172063171864,0.00823855400085449
622,-0.0103370286524296,-0.0531380027532578,0.00650677317753434,0.0309524014592171,0.0188848078250885,0.00353705487214029
623,-0.0130767337977886,-0.0578591004014015,0.00403701746836305,0.0298183299601078,0.01559370290488,-5.14618004672229E-05
624,-0.013774149119854,-0.0607188306748867,0.00214401166886091,0.0308697186410427,0.0143425175920129,0.000545372895430774
625,-0.0130320331081748,-0.0623475573956966,0.000761794624850154,0.0336320735514164,0.0152287408709526,0.00411708978936076
626,-0.012413265183568,-0.0644269287586212,-5.387911642174E-06,0.0364164263010025,0.0171645376831293,0.00722357910126448
627,-0.0125979082658887,-0.0676538348197937,0.000301246764138341,0.0386501662433147,0.0188303124159575,0.00792658608406782
628,-0.0138976974412799,-0.0716729536652565,0.00101480796001852,0.0395746752619743,0.0187052693217993,0.00598620902746916
629,-0.0167664140462875,-0.0763875991106033,0.000414094247389585,0.0382129922509193,0.0157047286629677,0.00133420061320066
630,-0.0209842007607222,-0.0815471708774567,-0.00263859378173947,0.034772265702486,0.0110263200476766,-0.0047469143755734
631,-0.0250369645655155,-0.0856271982192993,-0.00767038157209754,0.0306841060519218,0.00728061189875007,-0.00911390967667103
632,-0.0277847796678543,-0.0876637101173401,-0.0134861469268799,0.0273089334368706,0.00393561972305179,-0.0105020357295871
633,-0.0290953051298857,-0.0881681740283966,-0.0188436936587095,0.0249734483659267,-0.00138688273727894,-0.0101529071107507
634,-0.0276003107428551,-0.0869051292538643,-0.021965716034174,0.0238985344767571,-0.006241325289011,-0.00821001175791025
635,-0.0231446325778961,-0.0839313566684723,-0.0224866420030594,0.0240423921495676,-0.00781286880373955,-0.00520470179617405
636,-0.0191340819001198,-0.081090621650219,-0.0231469012796879,0.0236346665769815,-0.00934933871030808,-0.00404033018276095
637,-0.0174029264599085,-0.0790059566497803,-0.0266491025686264,0.0210485011339188,-0.0134319812059402,-0.00471030408516526
638,-0.0165555626153946,-0.076654851436615,-0.0325850732624531,0.0170978270471096,-0.018694419413805,-0.00490621291100979
639,-0.0155431544408202,-0.0736709013581276,-0.038714874535799,0.0133643113076687,-0.024827504530549,-0.0050998623482883
640,-0.0154574913904071,-0.0711552798748016,-0.0450702905654907,0.0090761398896575,-0.0342241562902927,-0.00764157110825181
641,-0.0175382401794195,-0.0707776769995689,-0.0533572435379028,0.00193842349108309,-0.0478340089321136,-0.0145623255521059
642,-0.0206618253141642,-0.072375126183033,-0.0632116496562958,-0.00808858592063189,-0.0629472881555557,-0.0256034322082996
643,-0.0234778597950935,-0.0743814781308174,-0.0736648216843605,-0.0192534942179918,-0.0773178040981293,-0.0383761674165726
644,-0.0258066598325968,-0.0761032328009605,-0.0841641426086426,-0.030285207554698,-0.0901375487446785,-0.0508914031088352
645,-0.0280097387731075,-0.0776951313018799,-0.0949486792087555,-0.0412425696849823,-0.101995415985584,-0.0628885626792908
646,-0.0300290696322918,-0.0783060118556023,-0.106681309640408,-0.0519722625613213,-0.114312119781971,-0.0739074423909187
647,-0.0307470764964819,-0.0765758007764816,-0.11805585026741,-0.0611585825681686,-0.126106843352318,-0.0827146619558334
648,-0.0303477887064219,-0.0738764926791191,-0.128422781825066,-0.0697691962122917,-0.137108743190765,-0.0906837955117226
649,-0.0292909573763609,-0.0722823292016983,-0.137717679142952,-0.0789625272154808,-0.148011043667793,-0.0992608517408371
650,-0.0272120665758848,-0.0713804364204407,-0.144897624850273,-0.0872210115194321,-0.158257618546486,-0.106630653142929
651,-0.0256457589566708,-0.0706209614872932,-0.151427537202835,-0.094646118581295,-0.169091433286667,-0.112104453146458
652,-0.0263587106019259,-0.0701450854539871,-0.15971277654171,-0.103045500814915,-0.181809142231941,-0.117534793913364
653,-0.0289857741445303,-0.0697291865944862,-0.169810205698013,-0.112840712070465,-0.19521389901638,-0.124257110059261
654,-0.0309664122760296,-0.0682258456945419,-0.179275587201118,-0.122151054441929,-0.206227362155914,-0.131277516484261
655,-0.0291226673871279,-0.0638348162174225,-0.184812068939209,-0.127981290221214,-0.21166780591011,-0.135943427681923
656,-0.0234872065484524,-0.0564126931130886,-0.186177670955658,-0.129417404532433,-0.211808502674103,-0.137100607156754
657,-0.0172899197787046,-0.0482245944440365,-0.18638502061367,-0.128745079040527,-0.210435524582863,-0.136776715517044
658,-0.0141939334571362,-0.0426102429628372,-0.189218237996101,-0.130603730678558,-0.211954042315483,-0.139063835144043
659,-0.0149942999705672,-0.0408429466187954,-0.19563564658165,-0.137468546628952,-0.217121198773384,-0.145502790808678
660,-0.0164091438055038,-0.0404269061982632,-0.201936677098274,-0.146056920289993,-0.22187876701355,-0.152492061257362
661,-0.0158434137701988,-0.0389252863824368,-0.204555585980415,-0.152154117822647,-0.222799032926559,-0.15667799115181
662,-0.0140359485521913,-0.0367033779621124,-0.203330963850021,-0.155082672834396,-0.219941630959511,-0.15854911506176
663,-0.0125110009685159,-0.0348723158240318,-0.199776470661163,-0.156550139188766,-0.214853465557098,-0.160074457526207
664,-0.0110524138435721,-0.0334353446960449,-0.195274233818054,-0.158180698752403,-0.208724305033684,-0.162410721182823
665,-0.00815131422132254,-0.0317273400723934,-0.190498858690262,-0.15993469953537,-0.202250793576241,-0.164677247405052
666,-0.00438757752999663,-0.0296253226697445,-0.186294540762901,-0.161147236824036,-0.196942925453186,-0.165535971522331
667,-0.00286681926809251,-0.0277871731668711,-0.184396341443062,-0.162136867642403,-0.195042937994003,-0.165351510047913
668,-0.00456770835444331,-0.0260912124067545,-0.185035333037376,-0.162936478853226,-0.196024641394615,-0.164352551102638
669,-0.00782224908471107,-0.0242248326539993,-0.186429753899574,-0.163520038127899,-0.19669683277607,-0.162696808576584
670,-0.0115893473848701,-0.0233239531517029,-0.187260434031487,-0.164675325155258,-0.195316165685654,-0.161702215671539
671,-0.0140634318813682,-0.0233490373939276,-0.185441985726357,-0.164411395788193,-0.190414384007454,-0.16060970723629
672,-0.0136268781498075,-0.0226211547851563,-0.179143115878105,-0.159738793969154,-0.181201472878456,-0.156823709607124
673,-0.0113443415611982,-0.0205988585948944,-0.169838353991508,-0.152125924825668,-0.169654190540314,-0.149990022182465
674,-0.0093582971021533,-0.0178622920066118,-0.160877600312233,-0.144981622695923,-0.158621177077293,-0.142309039831162
675,-0.0089906295761466,-0.0152241373434663,-0.154695764183998,-0.139913395047188,-0.149994269013405,-0.136351615190506
676,-0.0099396575242281,-0.0131698800250888,-0.151503250002861,-0.137458711862564,-0.143913820385933,-0.132888719439507
677,-0.0108034955337644,-0.0113394791260362,-0.149757817387581,-0.136715292930603,-0.139007747173309,-0.130012676119804
678,-0.00977801624685526,-0.00894884578883648,-0.146879866719246,-0.134657084941864,-0.133065596222878,-0.124882116913795
679,-0.0071574985049665,-0.00616605160757899,-0.141491711139679,-0.12983900308609,-0.125308707356453,-0.117119379341602
680,-0.0055903890170157,-0.00378246046602726,-0.134068369865417,-0.123011812567711,-0.116595804691315,-0.108172938227654
681,-0.00627304380759597,-0.00217217300087214,-0.125756099820137,-0.114971183240414,-0.108334735035896,-0.0990540161728859
682,-0.0077297673560679,-0.00159420655108988,-0.11840596050024,-0.107654608786106,-0.102221421897411,-0.0917318090796471
683,-0.00891624763607979,-0.00203738617710769,-0.113813698291779,-0.103495508432388,-0.0984635278582573,-0.0884947925806046
684,-0.00975544005632401,-0.00212568766437471,-0.111106127500534,-0.101185843348503,-0.0941582843661308,-0.087568998336792
685,-0.00913253892213106,0.000207538047106937,-0.1069650426507,-0.0963391810655594,-0.0860088691115379,-0.0840791910886765
686,-0.00635670544579625,0.00514899753034115,-0.0998510867357254,-0.0870211720466614,-0.0747305676341057,-0.0756575092673302
687,-0.00188110861927271,0.0112543385475874,-0.0903766229748726,-0.0742876604199409,-0.0628817453980446,-0.0633790343999863
688,0.00328592001460493,0.0171055495738983,-0.0796871930360794,-0.0603917986154556,-0.0517727173864841,-0.0498678684234619
689,0.00705931335687637,0.0212248004972935,-0.0699798539280891,-0.048687856644392,-0.0428654029965401,-0.0384058430790901
690,0.00701914727687836,0.0219788104295731,-0.0640330836176872,-0.0424865819513798,-0.038168266415596,-0.0321100428700447
691,0.00398673443123698,0.0198214594274759,-0.0614161938428879,-0.0406897664070129,-0.0362743809819222,-0.0303493794053793
692,0.000691605790052563,0.0169191230088472,-0.0590959675610065,-0.0390673503279686,-0.0332432426512241,-0.0295353718101978
693,-0.00247235991992056,0.0141031388193369,-0.0561584830284119,-0.0364305227994919,-0.0285369735211134,-0.0283617377281189
694,-0.00483863241970539,0.0118369059637189,-0.0522719658911228,-0.0329020619392395,-0.0230634678155184,-0.0262050814926624
695,-0.00503948424011469,0.0105610452592373,-0.0467820540070534,-0.0282667502760887,-0.0165600422769785,-0.0223707295954227
696,-0.003860451746732,0.0101197334006429,-0.0405941493809223,-0.0235636737197638,-0.00962002482265234,-0.0177341736853123
697,-0.00340418727137148,0.0103125497698784,-0.0354819037020206,-0.0201417859643698,-0.00367895234376192,-0.013344400562346
698,-0.0063074785284698,0.00937173888087273,-0.0340259969234467,-0.0199108552187681,-0.00118005671538413,-0.011235130019486
699,-0.0122134117409587,0.00622794637456536,-0.0357269644737244,-0.0221001245081425,-0.00199772627092898,-0.0116029819473624
700,-0.0146345049142838,0.00427046325057745,-0.0334392562508583,-0.0196748469024897,0.000944307306781411,-0.00875680148601532
701,-0.00905056856572628,0.00673735467717052,-0.022024979814887,-0.00799000263214111,0.0133682396262884,0.00136751658283174
702,-0.000311939453240484,0.0114967981353402,-0.00653443951159716,0.00719918543472886,0.0300946701318026,0.0139266857877374
703,0.00490982690826058,0.0149843981489539,0.00512579595670104,0.0182516146451235,0.0425925590097904,0.0227076970040798
704,0.0060369367711246,0.0168858431279659,0.011424046009779,0.0244709402322769,0.0492179244756699,0.027959855273366
705,0.0056875953450799,0.0182244759052992,0.0149936238303781,0.0284774992614985,0.0525902137160301,0.032399982213974
706,0.00634252605959773,0.019362598657608,0.0183308403939009,0.032550860196352,0.0558945573866367,0.0372832790017128
707,0.00906372256577015,0.0200512502342463,0.022627355530858,0.0380156487226486,0.0618497990071774,0.042195338755846
708,0.0118646416813135,0.0191066917032003,0.0271197818219662,0.0437024757266045,0.0696275159716606,0.0455106273293495
709,0.0109680090099573,0.0151906544342637,0.0295518059283495,0.0464512705802917,0.0748389735817909,0.0460980981588364
710,0.00583819719031453,0.00920972041785717,0.0293208919465542,0.0454450771212578,0.0756282061338425,0.0450477749109268
711,-0.000340822269208729,0.00364339398220181,0.028201038017869,0.0430649891495705,0.0740870833396912,0.0444128923118114
712,-0.00580859975889325,-0.000678428157698363,0.0269551388919353,0.0409284643828869,0.0713299661874771,0.0443974435329437
713,-0.0100788548588753,-0.0039570783264935,0.0256384052336216,0.0397062189877033,0.0679735764861107,0.0448042750358582
714,-0.012976111844182,-0.00661185011267662,0.0242574010044336,0.0392725020647049,0.0648245587944984,0.0454408898949623
715,-0.0149774327874184,-0.0092524467036128,0.0231942720711231,0.0393971912562847,0.0628972426056862,0.0459516569972038
716,-0.014888247475028,-0.010968909598887,0.0248418729752302,0.0422793105244637,0.0654576495289803,0.0482913590967655
717,-0.0110674053430557,-0.0100455107167363,0.0310603529214859,0.0503872260451317,0.0745208337903023,0.0553052723407745
718,-0.0052408273331821,-0.00733414897695184,0.0395605452358723,0.0614949651062489,0.0863950774073601,0.0656421035528183
719,-0.00151405693031847,-0.00641297409310937,0.0454090498387814,0.0696872472763062,0.0948632434010506,0.0738144591450691
720,-0.00151144061237574,-0.00915818382054567,0.0467641539871693,0.0724487528204918,0.0980595797300339,0.0770345404744148
721,-0.00382514367811382,-0.0142624629661441,0.0453216731548309,0.07180205732584,0.0980910807847977,0.0771898776292801
722,-0.00622232165187597,-0.0192545037716627,0.0435821376740932,0.0710509121417999,0.0975143015384674,0.077422633767128
723,-0.00728267664089799,-0.0226632002741098,0.0437512621283531,0.0726021379232407,0.0986870229244232,0.0794999450445175
724,-0.00798736698925495,-0.0255632977932692,0.0452555008232594,0.0752101466059685,0.10168345272541,0.0819553881883621
725,-0.00920430663973093,-0.0291310772299767,0.0463800616562366,0.076452262699604,0.104832731187344,0.0827411934733391
726,-0.00982702616602182,-0.0322779826819897,0.0476826652884483,0.0770450457930565,0.107600443065166,0.0829134732484818
727,-0.00902488082647324,-0.0336497128009796,0.050462894141674,0.0790820941329002,0.110851056873798,0.0847364664077759
728,-0.00749913090839982,-0.0336834564805031,0.0541246458888054,0.0824658423662186,0.115399412810802,0.0882200002670288
729,-0.00657198159024119,-0.0339020304381847,0.0567082092165947,0.0853270962834358,0.120457842946053,0.0916082486510277
730,-0.00670715468004346,-0.0351983457803726,0.0574407353997231,0.0865686163306236,0.124111168086529,0.0937695130705833
731,-0.00736108841374516,-0.0375801660120487,0.0574559979140759,0.0864759385585785,0.125433713197708,0.0945300087332726
732,-0.00772543950006366,-0.0408331751823425,0.0580832771956921,0.0862080827355385,0.12541401386261,0.0943772345781326
733,-0.00753316516056657,-0.0445113405585289,0.0593103170394897,0.0864922553300858,0.125366315245628,0.0941491425037384
734,-0.00756379449740052,-0.0480813235044479,0.0599431768059731,0.0864089578390121,0.125364929437637,0.0939744338393211
735,-0.0078808581456542,-0.0510705374181271,0.0597148537635803,0.0854793563485146,0.125698387622833,0.0934757515788078
736,-0.0081398393958807,-0.0536023750901222,0.0590388812124729,0.0843923762440681,0.12663060426712,0.0921992734074593
737,-0.00885364692658186,-0.0562977157533169,0.0575454346835613,0.0838552191853523,0.12747298181057,0.090426005423069
738,-0.00894964672625065,-0.0581276714801788,0.0563594326376915,0.0858335345983505,0.128920584917068,0.090478777885437
739,-0.00736191030591726,-0.0577424615621567,0.0572813674807549,0.0909643545746803,0.131718829274178,0.0937196984887123
740,-0.00627715047448874,-0.0565229468047619,0.059008251875639,0.0954978168010712,0.134041965007782,0.0978074371814728
741,-0.007823103107512,-0.0567216090857983,0.0590633042156696,0.0960353165864944,0.134244576096535,0.0997262373566628
742,-0.00984547007828951,-0.0580287575721741,0.0584063865244389,0.0945701599121094,0.134488508105278,0.0995443984866142
743,-0.00829295441508293,-0.0579487159848213,0.0599496215581894,0.095606841146946,0.13809722661972,0.100312948226929
744,-0.00390723021700978,-0.0560026839375496,0.062637522816658,0.0990148782730103,0.142799273133278,0.103170841932297
745,-0.000447993050329387,-0.0538097210228443,0.0635632127523422,0.101410180330276,0.144386276602745,0.106317706406116
746,0.00161431008018553,-0.0516967587172985,0.0634312108159065,0.102313287556171,0.144135564565659,0.109094448387623
747,0.00254274206236005,-0.0500025562942028,0.0630631595849991,0.101936437189579,0.143810942769051,0.110830634832382
748,0.00174070557113737,-0.049691092222929,0.0617197640240192,0.0996862053871155,0.142451599240303,0.110337801277637
749,-0.000191154715139419,-0.0506064184010029,0.0594719722867012,0.0963469296693802,0.139694824814796,0.108107753098011
750,-0.00284865358844399,-0.0522331595420837,0.0560651980340481,0.0924963727593422,0.135655865073204,0.104719661176205
751,-0.00571600906550884,-0.0542008280754089,0.051872193813324,0.0883797481656075,0.131451100111008,0.100607454776764
752,-0.00828317180275917,-0.0562703423202038,0.0481025017797947,0.0846522748470306,0.128078833222389,0.0964401662349701
753,-0.00958302151411772,-0.0574379377067089,0.0465067625045776,0.0830486044287682,0.126678735017776,0.0939216688275337
754,-0.00770639209076762,-0.056235745549202,0.0486949793994427,0.0850968137383461,0.129458874464035,0.0953688248991966
755,-0.00289366440847516,-0.052790179848671,0.0532896853983402,0.0891525372862816,0.135448709130287,0.0998905524611473
756,0.00276066898368299,-0.0482424423098564,0.0578595176339149,0.0929634794592857,0.141156241297722,0.10439370572567
757,0.00679376814514399,-0.0442141592502594,0.0608599707484245,0.0954408794641495,0.14414744079113,0.106973178684711
758,0.008262456394732,-0.0415416285395622,0.0622957982122898,0.0966805294156075,0.144850730895996,0.108234293758869
759,0.00819503888487816,-0.0400490425527096,0.063026636838913,0.096862681210041,0.144780725240707,0.108571335673332
760,0.00752922287210822,-0.0398060381412506,0.0630109310150146,0.0951628237962723,0.144047051668167,0.106621958315372
761,0.0062768398784101,-0.0405485741794109,0.0617001615464687,0.0912967026233673,0.142258003354073,0.102125234901905
762,0.00406902050599456,-0.0417542904615402,0.058970358222723,0.0858520567417145,0.139304056763649,0.0961374789476395
763,0.00227917172014713,-0.0424158126115799,0.0566055849194527,0.0809660404920578,0.137024626135826,0.0909234806895256
764,0.00278121628798544,-0.0413899086415768,0.0569076612591743,0.0792833045125008,0.13787305355072,0.0890164822340012
765,0.00423518009483814,-0.0397714860737324,0.0588260143995285,0.0798918679356575,0.140344068408012,0.0893817022442818
766,0.00408352445811033,-0.0397296249866486,0.0594241954386234,0.0798551291227341,0.140989661216736,0.0889669954776764
767,0.00338368932716548,-0.0404473803937435,0.0592300146818161,0.0796844437718391,0.140335872769356,0.0883426889777184
768,0.00485511729493737,-0.0395023189485073,0.0609038285911083,0.0815561562776566,0.141390681266785,0.0900160446763039
769,0.00854146014899015,-0.0368120074272156,0.0646772906184196,0.0852287337183952,0.144624382257462,0.0934747233986855
770,0.0118111623451114,-0.0345277078449726,0.0681183114647865,0.0880694910883904,0.147140488028526,0.0953310951590538
771,0.011747925542295,-0.0342622697353363,0.0684441924095154,0.0869795829057693,0.145857393741608,0.0929168611764908
772,0.00819595251232386,-0.0354846343398094,0.0650911554694176,0.0813898220658302,0.140809074044228,0.0869108140468597
773,0.00360160158015788,-0.0369434989988804,0.0599455907940865,0.0740361511707306,0.134255811572075,0.080190896987915
774,-0.000229965909966268,-0.037686612457037,0.0553082935512066,0.0687309578061104,0.127957910299301,0.075484111905098
775,-0.00349041260778904,-0.0375282354652882,0.0522329285740852,0.0667629688978195,0.122432708740234,0.0728682428598404
776,-0.00711559923365712,-0.0374501049518585,0.0504064597189426,0.0656775310635567,0.117872171103954,0.070310153067112
777,-0.0104865860193968,-0.0373685508966446,0.0494868755340576,0.0638452991843224,0.115069098770618,0.0681047439575195
778,-0.0125005235895514,-0.0360850319266319,0.0494491867721081,0.0625893250107765,0.114474177360535,0.0678730979561806
779,-0.013388603925705,-0.0334713086485863,0.0497946254909039,0.0629761070013046,0.114934787154198,0.06940096616745
780,-0.0126328719779849,-0.0300427731126547,0.0499359667301178,0.0647069662809372,0.114639364182949,0.0719044357538223
781,-0.0092971995472908,-0.0261529684066772,0.0499658584594727,0.0672637969255447,0.112859666347504,0.0750499367713928
782,-0.00459145242348313,-0.0225218627601862,0.0502995364367962,0.0700055584311485,0.109953485429287,0.0779017582535744
783,-0.000752503692638129,-0.0201993733644485,0.0508382394909859,0.0718447715044022,0.106248050928116,0.078651450574398
784,0.000965436454862356,-0.0195585954934359,0.0509844496846199,0.0719199031591415,0.101795971393585,0.0767249837517738
785,-0.000321284402161837,-0.020603759214282,0.0498684011399746,0.0696657672524452,0.0966417491436005,0.0728961005806923
786,-0.00436667026951909,-0.0228378996253014,0.0474508106708527,0.0653747022151947,0.0915641263127327,0.0679383426904678
787,-0.00858583115041256,-0.0246462747454643,0.0453447327017784,0.0608894899487495,0.0881805494427681,0.0631521344184875
788,-0.0102928383275867,-0.0244981478899717,0.0454456880688667,0.0582803338766098,0.0878909751772881,0.0602052919566631
789,-0.00896091759204865,-0.0218951106071472,0.0483021512627602,0.0587714463472366,0.090689480304718,0.0601857788860798
790,-0.00621632253751159,-0.017767496407032,0.0526048541069031,0.0618310458958149,0.0946898087859154,0.0624243654310703
791,-0.00434521259739995,-0.0142116835340858,0.0562080889940262,0.0649074986577034,0.0973844677209854,0.0641136541962624
792,-0.00477671669796109,-0.0131654432043433,0.0572464875876904,0.0652798563241959,0.096938818693161,0.0628064051270485
793,-0.00570286205038428,-0.0136159425601363,0.0567404441535473,0.0641839280724525,0.0948327034711838,0.0603912025690079
794,-0.00402671564370394,-0.0127809913828969,0.0574292279779911,0.0649340152740479,0.0944416671991348,0.0603627823293209
795,-0.000727918406482786,-0.0111917853355408,0.0587360225617886,0.0664879009127617,0.0952136516571045,0.0619733184576035
796,0.00121985678561032,-0.011222505941987,0.0590129382908344,0.0661361068487167,0.0948554053902626,0.0622714385390282
797,0.00200442876666784,-0.0126211177557707,0.0596703551709652,0.0651069283485413,0.0948396399617195,0.0610346272587776
798,0.00388343632221222,-0.0133019909262657,0.0626453086733818,0.0661634802818298,0.0974580049514771,0.0606714300811291
799,0.00617882050573826,-0.0128954909741879,0.0659202188253403,0.0682114213705063,0.100091196596622,0.0615091994404793
800,0.00611752504482865,-0.0128398584201932,0.0656514912843704,0.0677916556596756,0.0986226424574852,0.0609191097319126
801,0.00413853675127029,-0.0134608559310436,0.0619750991463661,0.0644333586096764,0.093584880232811,0.0580762475728989
802,0.00293761002831161,-0.0137019604444504,0.058280847966671,0.0609130151569843,0.0881268531084061,0.0549358762800694
803,0.00225239200517535,-0.0137555738911033,0.055563647300005,0.0587096512317657,0.0830104127526283,0.0521429665386677
804,0.000988213461823761,-0.0145220709964633,0.0529361516237259,0.0580011978745461,0.0782561451196671,0.0497188977897167
805,0.0012852072250098,-0.0150514896959066,0.0518727824091911,0.0601869188249111,0.0758392438292503,0.0496373847126961
806,0.00466639781370759,-0.0140853757038713,0.0541368834674358,0.0649422109127045,0.0766853466629982,0.0532048158347607
807,0.00962982885539532,-0.0119384098798037,0.0587944202125072,0.0699301362037659,0.0796728655695915,0.0593263208866119
808,0.0136549333110452,-0.00983270257711411,0.0627403780817986,0.0730854049324989,0.0826318264007568,0.0647967904806137
809,0.0147598972544074,-0.00882687233388424,0.0627503395080566,0.0727425515651703,0.0824743360280991,0.0663952007889748
810,0.0132708605378866,-0.00845483038574457,0.0592162981629372,0.0697657540440559,0.0782193094491959,0.064660333096981
811,0.0113203870132566,-0.00749944522976875,0.0556713715195656,0.0670819208025932,0.0726887136697769,0.0625005662441254
812,0.010991994291544,-0.00564112048596144,0.0543999336659908,0.0666278228163719,0.0695153921842575,0.0617828816175461
813,0.0122020468115807,-0.00353050604462624,0.0546173602342606,0.0677897334098816,0.0691513121128082,0.0619970113039017
814,0.0131601393222809,-0.00237240269780159,0.0545354895293713,0.0684071406722069,0.069664254784584,0.0610707029700279
815,0.0139941042289138,-0.00277754757553339,0.0542927943170071,0.0681873932480812,0.0704490393400192,0.0589802749454975
816,0.0146680353209376,-0.00475237518548965,0.0538741499185562,0.0673249363899231,0.0708594173192978,0.0566048361361027
817,0.0133944414556026,-0.00787711329758167,0.0516252443194389,0.0647966712713242,0.0697071105241776,0.0532059744000435
818,0.0102759413421154,-0.0112443137913942,0.0473142750561237,0.0606134459376335,0.0673108175396919,0.0486126877367496
819,0.0073208287358284,-0.0141133526340127,0.0428856238722801,0.0561033971607685,0.0647120997309685,0.0441993698477745
820,0.00627910485491157,-0.0152001865208149,0.040763683617115,0.053390696644783,0.0633344948291779,0.0420465096831322
821,0.00611376902088523,-0.0143773136660457,0.0400496385991573,0.0525992251932621,0.0619719251990318,0.0420612618327141
822,0.00410965271294117,-0.0135180503129959,0.0371954329311848,0.0513053834438324,0.0569530017673969,0.0417092591524124
823,0.00149997009430081,-0.0129040265455842,0.033036895096302,0.0502060018479824,0.0496244803071022,0.0409100763499737
824,0.000678036245517433,-0.0121973343193531,0.0304722618311644,0.0513821244239807,0.0439349412918091,0.0402069464325905
825,0.000655437877867371,-0.0119908386841416,0.0296749044209719,0.0532029345631599,0.0408568754792213,0.0383947715163231
826,0.000910190807189792,-0.0112285418435931,0.0312120392918587,0.0542091950774193,0.0414609685540199,0.0372958853840828
827,0.00265815947204828,-0.00862991623580456,0.0354111343622208,0.055472943931818,0.0456610061228275,0.0396554805338383
828,0.00535509036853909,-0.00594009645283222,0.0394681692123413,0.0564703904092312,0.0493373870849609,0.0430974327027798
829,0.00771190272644162,-0.00487586949020624,0.0411639027297497,0.0562087446451187,0.0501260422170162,0.0448238216340542
830,0.00967364851385355,-0.00440341234207153,0.0413423292338848,0.0555149577558041,0.049959622323513,0.0454711280763149
831,0.0103761190548539,-0.00382331060245633,0.0402462035417557,0.0539400316774845,0.0495140105485916,0.0447044037282467
832,0.00879488419741392,-0.00372290727682412,0.037117063999176,0.0503558441996574,0.047564473003149,0.0414545238018036
833,0.00684538902714849,-0.00340916612185538,0.0337982028722763,0.0463394075632095,0.0452253185212612,0.0375991314649582
834,0.00708824070170522,-0.00129194802138954,0.0331076197326183,0.0445981994271278,0.0446611382067204,0.0365100838243961
835,0.00866204965859652,0.00222518993541598,0.0342700965702534,0.0450813584029675,0.0449533015489578,0.0384146012365818
836,0.0103032728657126,0.00578093528747559,0.0353628098964691,0.0468841157853603,0.0446023643016815,0.0413384921848774
837,0.0122430752962828,0.00871769338846207,0.0362687148153782,0.0497939400374889,0.0438749901950359,0.0442135892808437
838,0.0131584024056792,0.00979802012443542,0.0364294908940792,0.0515207052230835,0.042035274207592,0.0454209558665752
839,0.0116838337853551,0.00852593779563904,0.0351703315973282,0.0502588301897049,0.0383189097046852,0.043828260153532
840,0.00927350670099258,0.00687907449901104,0.0334048718214035,0.0478971190750599,0.0343857631087303,0.0412680357694626
841,0.00777397491037846,0.00665690004825592,0.032193660736084,0.0465194173157215,0.0318343080580235,0.0397701635956764
842,0.00671346951276064,0.00755106844007969,0.0312918201088905,0.0457777604460716,0.0303289014846087,0.0391439646482468
843,0.0053916429169476,0.00855545792728662,0.0298097562044859,0.0446067228913307,0.0291508994996548,0.0385231859982014
844,0.00411628419533372,0.0087427357211709,0.0269128773361444,0.0420168749988079,0.0270999185740948,0.0366867072880268
845,0.00316548417322338,0.00800178572535515,0.0228845477104187,0.0384386107325554,0.0236725937575102,0.0329412408173084
846,0.00263347313739359,0.00721576809883118,0.0190554559230804,0.0354995504021645,0.0203165803104639,0.0282050203531981
847,0.00348586868494749,0.00776940025389194,0.0173806119710207,0.0341201312839985,0.0194192063063383,0.0250203441828489
848,0.00672313477844,0.0106756752356887,0.019100658595562,0.0346987694501877,0.0219693053513765,0.026415791362524
849,0.00987455900758505,0.0142180472612381,0.0216377004981041,0.0354810021817684,0.0246926750987768,0.0306669194251299
850,0.010052178055048,0.0162039585411549,0.0221834927797318,0.0343494080007076,0.0245580207556486,0.0329768657684326
851,0.00830460153520107,0.017338577657938,0.0217627715319395,0.03245909512043,0.0227730274200439,0.0326733700931072
852,0.00701634539291263,0.0191806554794312,0.0223145335912704,0.0322091206908226,0.0218321848660707,0.0323420166969299
853,0.00612970581278205,0.0212121438235044,0.0232090465724468,0.0330707915127277,0.0218689814209938,0.0323762930929661
854,0.00432520965114236,0.0218213386833668,0.0226376093924046,0.0325977467000484,0.0212433133274317,0.0309618301689625
855,0.00233224686235189,0.0216581597924232,0.0211878083646297,0.0308267436921597,0.0204202421009541,0.0282418951392174
856,0.00157137715723366,0.0224699154496193,0.0203999895602465,0.0290396045893431,0.0208557397127151,0.0257513523101807
857,0.00176173739600927,0.0238097421824932,0.0199873354285955,0.0270740240812302,0.0218463838100433,0.0233056619763374
858,0.00174589199014008,0.0243719276040792,0.0188679620623589,0.0245854146778584,0.0213595200330019,0.0198411587625742
859,0.00193147093523294,0.0243482198566198,0.0178628638386726,0.0223087333142757,0.0191609207540751,0.0159681178629398
860,0.00289818434976041,0.0241040401160717,0.0177459474653006,0.0200079213827848,0.0163122788071632,0.0124827148392797
861,0.00352985691279173,0.0233339015394449,0.017256835475564,0.0166055578738451,0.013163142837584,0.00901037640869617
862,0.00293359905481339,0.021656084805727,0.0157167259603739,0.0121753551065922,0.0095818629488349,0.00481751654297113
863,0.00096322491299361,0.0186940990388393,0.0129586802795529,0.00685907062143087,0.00448833778500557,-0.00166837929282337
864,-0.000890124880243093,0.0159326754510403,0.00993757508695126,0.00210971222259104,-0.00176832906436175,-0.0101625500246882
865,-0.000462771189631894,0.0160705018788576,0.0086642624810338,0.000369848217815161,-0.00658382056280971,-0.0167517382651567
866,0.00164491112809628,0.0188144501298666,0.00859341025352478,0.00107373716309667,-0.00907851941883564,-0.0188441555947065
867,0.00339231011457741,0.021347776055336,0.00826759822666645,0.00176828249823302,-0.010240588337183,-0.0187915358692408
868,0.00370274554006755,0.0223665777593851,0.00854294933378696,0.00122853112407029,-0.0119240982457995,-0.0206633284687996
869,0.00190841092262417,0.0221092794090509,0.00895368866622448,-0.00124407943803817,-0.0169590841978788,-0.0259648561477661
870,-0.000814167375210673,0.0214000809937716,0.00694870669394732,-0.00595948984846473,-0.0241462402045727,-0.0328426621854305
871,-0.0021422894205898,0.0216577835381031,0.00154521607328206,-0.011931543238461,-0.0298415496945381,-0.0383761450648308
872,-0.00167142564896494,0.0236364807933569,-0.00596295576542616,-0.0176602080464363,-0.034140020608902,-0.0413615517318249
873,-0.000437972485087812,0.0268716309219599,-0.0133417705073953,-0.0223016832023859,-0.0389892309904099,-0.043175283819437
874,0.000295266305329278,0.0299105029553175,-0.0200725439935923,-0.0268003717064857,-0.0459469072520733,-0.0468373037874699
875,0.00183775136247277,0.0319381803274155,-0.0250140354037285,-0.0316841267049313,-0.0535016767680645,-0.0538005866110325
876,0.00566990347579122,0.0330217741429806,-0.0267320778220892,-0.036462914198637,-0.0600046999752522,-0.0633928403258324
877,0.00929561350494623,0.0334082655608654,-0.0283597595989704,-0.0423103794455528,-0.0682309716939926,-0.0742330700159073
878,0.00957365613430738,0.0337619669735432,-0.0341354161500931,-0.0505046173930168,-0.0814512297511101,-0.0843008011579514
879,0.00565662421286106,0.0339091122150421,-0.0445130355656147,-0.060488123446703,-0.0998499393463135,-0.0931725353002548
880,-0.000128390689496882,0.0335621684789658,-0.0562485791742802,-0.0702305436134338,-0.118851602077484,-0.102173209190369
881,-0.00516327004879713,0.0330284088850021,-0.0666667222976685,-0.0798908248543739,-0.133913636207581,-0.112864829599857
882,-0.00877452082931995,0.0321688205003738,-0.0769499763846397,-0.0929340347647667,-0.146304532885551,-0.126829370856285
883,-0.00901344232261181,0.0319181345403194,-0.0884595587849617,-0.109020709991455,-0.158443227410316,-0.142439365386963
884,-0.00441543571650982,0.0340475887060165,-0.100214384496212,-0.123337656259537,-0.170589536428452,-0.155491679906845
885,0.00237368396483362,0.0380038544535637,-0.111210286617279,-0.134300798177719,-0.182818472385406,-0.165868908166885
886,0.0077107110992074,0.0413250103592873,-0.121311709284782,-0.144062176346779,-0.194365724921227,-0.176821425557137
887,0.0103447865694761,0.0426116995513439,-0.130348548293114,-0.153551131486893,-0.204087689518929,-0.188683927059174
888,0.0103831617161632,0.0424446500837803,-0.138297230005264,-0.161955237388611,-0.213170439004898,-0.199412599205971
889,0.00813911110162735,0.0422676280140877,-0.145816639065742,-0.169088095426559,-0.223839208483696,-0.208412647247314
890,0.00516213476657867,0.0429733134806156,-0.153904289007187,-0.175524681806564,-0.235950395464897,-0.216128781437874
891,0.00380040192976594,0.0444959551095963,-0.162683591246605,-0.181445822119713,-0.247334241867065,-0.222842022776604
892,0.00504800258204341,0.0464675761759281,-0.170591697096825,-0.186989516019821,-0.25600665807724,-0.228464484214783
893,0.007340541575104,0.0479249097406864,-0.176825687289238,-0.193399041891098,-0.261953443288803,-0.233273610472679
894,0.00819881912320852,0.047218669205904,-0.182991862297058,-0.202320486307144,-0.267053693532944,-0.239132151007652
895,0.0077292425557971,0.0444883182644844,-0.189325958490372,-0.212432309985161,-0.271687686443329,-0.246321439743042
896,0.00856977328658104,0.042245477437973,-0.192893385887146,-0.21934412419796,-0.273801922798157,-0.251335918903351
897,0.0122440615668893,0.0419874601066113,-0.191812634468079,-0.221126094460487,-0.271877288818359,-0.252084642648697
898,0.0170425046235323,0.0427055172622204,-0.187837198376656,-0.220412895083427,-0.266805857419968,-0.25089168548584
899,0.019533783197403,0.0425816178321838,-0.184510722756386,-0.221012875437737,-0.261726975440979,-0.251308292150497
900,0.0183267313987017,0.0407120622694492,-0.184094041585922,-0.224463135004044,-0.259519040584564,-0.255027145147324
901,0.0156237939372659,0.0380399376153946,-0.185743659734726,-0.228855207562447,-0.259554386138916,-0.260187953710556
902,0.0131800444796681,0.0353578589856625,-0.188418626785278,-0.232977166771889,-0.260191202163696,-0.26411959528923
903,0.0106659410521388,0.0329056456685066,-0.192071095108986,-0.236912056803703,-0.261398881673813,-0.266220927238464
904,0.00938342325389385,0.0324322246015072,-0.194004639983177,-0.236651927232742,-0.261301070451736,-0.265672385692596
905,0.0106941955164075,0.0340761877596378,-0.191838562488556,-0.230045273900032,-0.257204622030258,-0.262661069631577
906,0.0128306746482849,0.0351669676601887,-0.187701195478439,-0.222964391112328,-0.249519288539886,-0.260064333677292
907,0.014277252368629,0.0344938822090626,-0.18353570997715,-0.219962924718857,-0.239843025803566,-0.259001761674881
908,0.015688817948103,0.0329583436250687,-0.178578823804855,-0.218932792544365,-0.229417502880096,-0.257407009601593
909,0.0172016527503729,0.0311544239521027,-0.173063769936562,-0.217160642147064,-0.21986997127533,-0.254143923521042
910,0.019125048071146,0.0296435356140137,-0.167299196124077,-0.213421240448952,-0.210821822285652,-0.249589964747429
911,0.022765826433897,0.0294453650712967,-0.159777522087097,-0.206190511584282,-0.200246050953865,-0.242955327033997
912,0.026439044624567,0.029629435390234,-0.151540234684944,-0.196984738111496,-0.189827337861061,-0.234726622700691
913,0.026548033580184,0.0280681252479553,-0.145998522639275,-0.190245926380157,-0.183516353368759,-0.228029862046242
914,0.0238597337156534,0.0252874959260225,-0.142999455332756,-0.186500757932663,-0.180652841925621,-0.223518684506416
915,0.0222050845623016,0.023193160071969,-0.139523923397064,-0.182336524128914,-0.177126288414001,-0.218860104680061
916,0.0227873530238867,0.0222420487552881,-0.134221598505974,-0.175887748599052,-0.171130686998367,-0.212315589189529
917,0.0241486635059118,0.0220232680439949,-0.128144130110741,-0.16810467839241,-0.16359481215477,-0.203338742256165
918,0.0256600826978683,0.022498345002532,-0.122185073792934,-0.159973993897438,-0.154977679252625,-0.191948667168617
919,0.0282714813947678,0.0240173079073429,-0.115734927356243,-0.15129092335701,-0.14432567358017,-0.178869858384132
920,0.0313727967441082,0.0254235826432705,-0.109466686844826,-0.143316388130188,-0.132558435201645,-0.166925489902496
921,0.0330913215875626,0.0252024624496698,-0.104392603039742,-0.137444421648979,-0.121962361037731,-0.158345654606819
922,0.0321194045245647,0.0235109496861696,-0.100039780139923,-0.13320916891098,-0.114209927618504,-0.152238771319389
923,0.0278674159198999,0.0208128355443478,-0.0962970852851868,-0.130024552345276,-0.110331192612648,-0.147294521331787
924,0.022599782794714,0.0182079765945673,-0.0921083316206932,-0.126089692115784,-0.107958577573299,-0.141832053661346
925,0.0189700778573751,0.016556354239583,-0.0866636633872986,-0.120363101363182,-0.103612169623375,-0.135177478194237
926,0.0161308031529188,0.0145135289058089,-0.081753671169281,-0.114983700215817,-0.0974272638559341,-0.12920518219471
927,0.0130033493041992,0.0115345530211926,-0.077946163713932,-0.110850669443607,-0.0910903215408325,-0.123543187975883
928,0.0103425635024905,0.00958835612982512,-0.0738935768604279,-0.105715371668339,-0.0850716829299927,-0.115928277373314
929,0.00807883683592081,0.00924205780029297,-0.0696668550372124,-0.097687304019928,-0.0792424455285072,-0.107133440673351
930,0.00601669494062662,0.00914971064776182,-0.0650633499026299,-0.0877929478883743,-0.0726552382111549,-0.0986555218696594
931,0.00475888000801206,0.00895238481462002,-0.0592918880283833,-0.0792697742581367,-0.06449094414711,-0.0902277678251266
932,0.0042799306102097,0.00885147135704756,-0.0527578704059124,-0.073174923658371,-0.0550191178917885,-0.0810950249433517
933,0.00496153207495809,0.00925696082413197,-0.0455506183207035,-0.066601000726223,-0.0442620478570461,-0.0700854808092117
934,0.00738831656053662,0.0108470134437084,-0.0380999930202961,-0.0574959367513657,-0.0332436189055443,-0.0572709552943707
935,0.01058479398489,0.0132394535467029,-0.031660970300436,-0.0469680838286877,-0.0240340493619442,-0.0447781272232533
936,0.0130913686007261,0.0149529539048672,-0.0266364347189665,-0.0369258783757687,-0.0172140616923571,-0.0343176238238811
937,0.0143363066017628,0.0151355480775237,-0.0226579811424017,-0.0283774994313717,-0.0118500525131822,-0.0258047990500927
938,0.0136119769886136,0.0142164705321193,-0.0200220793485641,-0.0219868700951338,-0.00774169946089387,-0.0186019726097584
939,0.0100680207833648,0.0124142076820135,-0.0193613711744547,-0.0186996702104807,-0.00575770530849695,-0.0132076516747475
940,0.00529586430639029,0.0103835202753544,-0.0187340602278709,-0.0169807896018028,-0.00443310709670186,-0.00848508812487125
941,0.00199055392295122,0.0100087178871036,-0.0153391528874636,-0.0129241170361638,-0.000660167075693607,-0.00068348553031683
942,0.000398889183998108,0.0117645366117358,-0.00967255048453808,-0.00532952370122075,0.0055797309614718,0.0108068529516459
943,-0.000858215964399278,0.0140118123963475,-0.00400824053213,0.00378386909142137,0.0117274513468146,0.0225307289510965
944,-0.00192043522838503,0.0158969815820456,0.00134701502975076,0.0134401069954038,0.0169281531125307,0.0325400866568089
945,-0.00195608427748084,0.0175688657909632,0.00725363800302148,0.0232443902641535,0.0222169905900955,0.0407244898378849
946,-0.00149312952999026,0.018312644213438,0.0135103818029165,0.0316351801156998,0.0286930073052645,0.0462103895843029
947,-0.00145245739258826,0.0175720322877169,0.0196145493537188,0.0377840921282768,0.036865696310997,0.0492016971111298
948,-0.00142752181272954,0.0155634051188827,0.0244638938456774,0.0415005758404732,0.0447517707943916,0.0514586269855499
949,-0.000152288004755974,0.0132705280557275,0.0276222955435514,0.0444154962897301,0.0504394620656967,0.0553283244371414
950,0.00205934070982039,0.0117922099307179,0.0306279510259628,0.0492664836347103,0.0546857751905918,0.062002319842577
951,0.0033683564979583,0.0111820176243782,0.0348728336393833,0.0564905926585197,0.0586638748645782,0.0701891332864761
952,0.00334068341180682,0.0110079664736986,0.040210634469986,0.0645341575145721,0.0629081279039383,0.0781321972608566
953,0.00157864426728338,0.0101033039391041,0.0441583953797817,0.070148691534996,0.0659739002585411,0.0838032141327858
954,-0.00252439128234982,0.00755075737833977,0.0449134223163128,0.0712269395589828,0.0662392899394035,0.0857784748077393
955,-0.00759705854579806,0.00409845914691687,0.0446802712976933,0.0696554481983185,0.0649743899703026,0.0853955522179604
956,-0.0116225471720099,0.00133207917679101,0.0462333671748638,0.0686758607625961,0.0643835440278053,0.0854561030864716
957,-0.0133965369313955,0.000664369203150272,0.0498344786465168,0.0704851597547531,0.0662066489458084,0.0879648551344872
958,-0.0129736457020044,0.00221772957593203,0.0545077621936798,0.0758415088057518,0.0713016241788864,0.093290664255619
959,-0.0113042844459414,0.00499255815520883,0.0595575571060181,0.0838679149746895,0.0787516459822655,0.100351355969906
960,-0.0091349370777607,0.00815529376268387,0.0646256878972054,0.0925548076629639,0.0866691917181015,0.107657432556152
961,-0.00731097720563412,0.0108330426737666,0.0693924054503441,0.0998132154345512,0.0931512787938118,0.114307060837746
962,-0.00735682994127274,0.0113698551431298,0.0727088078856468,0.103159360587597,0.096466951072216,0.1185712069273
963,-0.00963160954415798,0.00917200651019812,0.0733044743537903,0.101479433476925,0.0968395173549652,0.11878777295351
964,-0.0111695900559425,0.00723549071699381,0.0731697306036949,0.0988721549510956,0.0981380045413971,0.117765910923481
965,-0.00966988690197468,0.00847945362329483,0.0752365663647652,0.100182481110096,0.102972388267517,0.119566604495049
966,-0.00773980189114809,0.0113213416188955,0.0783729702234268,0.104828953742981,0.108533822000027,0.123297393321991
967,-0.0081716338172555,0.0131803350523114,0.0809041634202003,0.110253497958183,0.112458437681198,0.12603984773159
968,-0.010175540111959,0.0137758227065206,0.0834038034081459,0.114827305078506,0.115564331412315,0.127216339111328
969,-0.0121525907889009,0.01349894143641,0.0854262560606003,0.116681069135666,0.11778137087822,0.127601146697998
970,-0.0131287425756454,0.0131639903411269,0.0861421152949333,0.115466237068176,0.118614226579666,0.127827078104019
971,-0.0121391890570521,0.0143756000325084,0.086685486137867,0.115149267017841,0.119482591748238,0.129044339060783
972,-0.00945184845477343,0.0169532280415297,0.0880889743566513,0.119430758059025,0.121669270098209,0.131640404462814
973,-0.00676151597872376,0.0187297724187374,0.090072013437748,0.125335216522217,0.124863617122173,0.133878096938133
974,-0.00411948515102267,0.0192124135792255,0.0932436063885689,0.128897920250893,0.129256591200829,0.135512828826904
975,-0.000828283198643476,0.0194120295345783,0.0978969559073448,0.130499392747879,0.13447792828083,0.13761642575264
976,0.00143110402859747,0.0191522166132927,0.101978249847889,0.130708068609238,0.13807612657547,0.138925865292549
977,0.000649956637062132,0.0176571570336819,0.103297241032124,0.128774091601372,0.137983769178391,0.13728229701519
978,-0.00238242070190609,0.0148659953847528,0.102035269141197,0.125555068254471,0.135118320584297,0.132705613970757
979,-0.00481952214613557,0.0114024663344026,0.100792646408081,0.123196609318256,0.132692515850067,0.127420336008072
980,-0.00551342777907848,0.00805177539587021,0.100981079041958,0.121370196342468,0.131821051239967,0.123431354761124
981,-0.0059384792111814,0.00528813106939197,0.101010367274284,0.118343569338322,0.130551844835281,0.121408611536026
982,-0.0070308749563992,0.00338982371613383,0.0998718217015266,0.115107074379921,0.127883940935135,0.121527507901192
983,-0.00750995147973299,0.00300508760847151,0.0991926714777946,0.114812806248665,0.125669166445732,0.1242481097579
984,-0.00643263012170792,0.00436809426173568,0.100566312670708,0.118535362184048,0.126166790723801,0.128839284181595
985,-0.00574213173240423,0.00597863318398595,0.10298403352499,0.123322822153568,0.12905715405941,0.132194593548775
986,-0.00619866838678718,0.00673279166221619,0.104883328080177,0.126224413514137,0.132681250572205,0.132751554250717
987,-0.00499640125781298,0.00737043749541044,0.106205515563488,0.127296835184097,0.136366456747055,0.132703989744186
988,-0.000638469064142555,0.00875818450003862,0.107604153454304,0.128083109855652,0.139988511800766,0.134660258889198
989,0.00452421279624105,0.0106586189940572,0.109042771160603,0.128989472985268,0.14263604581356,0.138256251811981
990,0.00706666940823197,0.0115622263401747,0.109013713896275,0.128102853894234,0.142775923013687,0.14026939868927
991,0.00577879976481199,0.0100290821865201,0.106298707425594,0.124004021286964,0.139665752649307,0.13831453025341
