,AF3,AF4,Fp1,Fp2,AF7,AF8
0,0.000218030792893842,-0.00767964730039239,0.0121407704427838,0.00455480115488172,-0.00649766810238361,0.0511280000209808
1,-0.00157379754818976,-0.0107207791879773,0.00922560598701239,0.000702989753335714,-0.00838083494454622,0.0497028529644012
2,-0.00306607712991536,-0.013813765719533,0.00552763789892197,-0.00339359138160944,-0.0118438126519322,0.0474777482450008
3,-0.00411674100905657,-0.0165513008832932,0.00121929519809783,-0.00665003107860684,-0.0168458931148052,0.0451088473200798
4,-0.00502660265192389,-0.018478175625205,-0.00237418944016099,-0.0086109796538949,-0.0212986469268799,0.0430418215692043
5,-0.0055172317661345,-0.019503740593791,-0.00363318389281631,-0.00870246347039938,-0.0225530434399843,0.0418707802891731
6,-0.00420825136825442,-0.0195903051644564,-0.00205506943166256,-0.00619494821876287,-0.0195643436163664,0.04242192953825
7,-0.00127763708587736,-0.0191189683973789,0.0009622085490264,-0.00199028267525136,-0.0143760610371828,0.0445487722754478
8,0.000115927810838912,-0.0192160494625568,0.00266714883036911,0.00100753677543253,-0.0111782029271126,0.0464713424444199
9,-0.00255145924165845,-0.0207497049123049,0.00131574540864676,0.000569793628528714,-0.0122442813590169,0.0462340712547302
10,-0.00835711322724819,-0.023609260097146,-0.00214040069840848,-0.00276382057927549,-0.0156940184533596,0.0439503267407417
11,-0.0139106027781963,-0.0265952832996845,-0.0043937242589891,-0.00603541545569897,-0.0169964116066694,0.0423680953681469
12,-0.015416038222611,-0.0281508415937424,-0.00263094110414386,-0.00624218536540866,-0.0133590893819928,0.0443311966955662
13,-0.0126131223514676,-0.0286913011223078,0.00118132482748479,-0.00450656656175852,-0.00766870751976967,0.0482799895107746
14,-0.00876189582049847,-0.0296802949160337,0.00316554494202137,-0.00389461452141404,-0.00411523459479213,0.0506246760487556
15,-0.00567314820364118,-0.0306913051754236,0.00356343691237271,-0.00349425221793354,-0.00243245484307408,0.0519677959382534
16,-0.00432531209662557,-0.0314749293029308,0.00345350010320544,-0.00225468608550727,-0.00141294789500535,0.0535020790994167
17,-0.00463150348514318,-0.0323148369789124,0.00268681952729821,-0.00114829197991639,-0.00077863730257377,0.054178211838007
18,-0.00509192468598485,-0.032942283898592,0.00112020515371114,-0.000570126285310835,-0.000440472387708724,0.0534578710794449
19,-0.00625964999198914,-0.0340105034410954,-0.00211330619640648,-0.00149930862244219,-0.00178286165464669,0.0509863682091236
20,-0.00878803804516792,-0.0356524288654327,-0.00668376730754972,-0.00412596855312586,-0.00565909966826439,0.0477271489799023
21,-0.0108730066567659,-0.0359918773174286,-0.0106541765853763,-0.00606197025626898,-0.0104430662468076,0.0470678992569447
22,-0.0102358609437943,-0.0334823951125145,-0.0117692388594151,-0.004669772926718,-0.0128507725894451,0.0509503372013569
23,-0.00732873845845461,-0.0296113081276417,-0.00967677403241396,-0.00038140729884617,-0.0117346327751875,0.0569908432662487
24,-0.00493055814877152,-0.0273429844528437,-0.00713659729808569,0.0035191245842725,-0.0100168529897928,0.0612857788801193
25,-0.00410050293430686,-0.027489161118865,-0.00644677365198731,0.0047531807795167,-0.0100482124835253,0.0621858276426792
26,-0.00321718095801771,-0.0285624749958515,-0.00659101130440831,0.00419241655617952,-0.0103405462577939,0.0610007271170616
27,-0.00157802493777126,-0.0294892769306898,-0.00606032647192478,0.00352785503491759,-0.00894664786756039,0.0595488287508488
28,-0.000344467640388757,-0.0303209330886602,-0.00504099437966943,0.00340596958994865,-0.00603271275758743,0.0584340840578079
29,-0.000510196317918599,-0.0314835719764233,-0.00423562759533525,0.00333299348130822,-0.00316132931038737,0.0570697076618671
30,-0.00232015619985759,-0.0331367701292038,-0.00429903995245695,0.00216167187318206,-0.00190560275223106,0.0546371787786484
31,-0.0048290784470737,-0.0345290750265121,-0.00530437054112554,0.000180138318683021,-0.0021535768173635,0.0518480315804482
32,-0.00702566467225552,-0.0350351184606552,-0.00698287365958095,-0.00141265708953142,-0.0031245150603354,0.0496777221560478
33,-0.0095723569393158,-0.0350842699408531,-0.0100152110680938,-0.00303075602278113,-0.00546612124890089,0.0473602190613747
34,-0.0137955062091351,-0.035608883947134,-0.0157072078436613,-0.00638950010761619,-0.0106875291094184,0.0434760823845863
35,-0.0193995796144009,-0.0369369089603424,-0.0231493506580591,-0.0115980105474591,-0.0181837528944016,0.0385180823504925
36,-0.0229483861476183,-0.0377677083015442,-0.0274176672101021,-0.0148506555706263,-0.0231840312480927,0.0361436083912849
37,-0.0214471556246281,-0.0367262177169323,-0.0248748939484358,-0.0125352405011654,-0.0216089747846127,0.0391679741442204
38,-0.0169264879077673,-0.0347014591097832,-0.0186263006180525,-0.00677742622792721,-0.0156006701290607,0.0451671555638313
39,-0.0128513388335705,-0.0329893864691257,-0.013495753519237,-0.00149163289461285,-0.00962104462087154,0.0503906980156899
40,-0.0106304436922073,-0.031661044806242,-0.0112675921991467,0.00199361052364111,-0.00636971555650234,0.0536893457174301
41,-0.00933254137635231,-0.0297251269221306,-0.0102908285334706,0.00545627437531948,-0.00511698750779033,0.0567397810518742
42,-0.00723894964903593,-0.026311881840229,-0.0074597536586225,0.0113070569932461,-0.00275847362354398,0.061653196811676
43,-0.0053587956354022,-0.0234751161187887,-0.00271014380268753,0.0177550707012415,0.00109124975278974,0.0663501098752022
44,-0.00483517581596971,-0.0239721201360226,0.00292261177673936,0.0218293517827988,0.00582299288362265,0.0670073106884956
45,-0.00492486590519547,-0.0279171746224165,0.00852098036557436,0.0215915683656931,0.0113467294722795,0.0615027062594891
46,-0.00577381020411849,-0.0337457247078419,0.0102793592959642,0.0149130364879966,0.0146037237718701,0.0492035113275051
47,-0.00656014308333397,-0.0385826379060745,0.00614112708717585,0.00436308654025197,0.0136923054233193,0.0337370373308659
48,-0.00498113129287958,-0.0399791076779366,-0.00059433764545247,-0.00371043127961457,0.0114626903086901,0.0212993640452623
49,-0.0010975314071402,-0.0381332598626614,-0.00635983794927597,-0.00632659904658794,0.0104938372969627,0.0143426824361086
50,0.00349157582968473,-0.0344625413417816,-0.00982704479247332,-0.00424963794648647,0.0112545574083924,0.0113030271604657
51,0.00791552104055882,-0.0304839145392179,-0.0105868000537157,0.000423904391936958,0.013717477209866,0.0100482488051057
52,0.0111062424257398,-0.0276629831641912,-0.00963822565972805,0.00526243448257446,0.0166317224502563,0.00939979031682014
53,0.0113401291891932,-0.0272388756275177,-0.00957382749766111,0.00756600638851523,0.0177901275455952,0.00721971550956368
54,0.00837058294564486,-0.0294851642102003,-0.0119186071678996,0.00581399956718087,0.016650915145874,0.00100830756127834
55,0.00503081502392888,-0.0320516787469387,-0.0146674159914255,0.00314105488359928,0.0157650411128998,-0.00682923430576921
56,0.00450999941676855,-0.032334242016077,-0.0145203396677971,0.00413275556638837,0.0182816516608,-0.0119708934798837
57,0.00632990850135684,-0.0310770086944103,-0.0118329497054219,0.00810498371720314,0.0235310569405556,-0.015484631061554
58,0.00811074953526258,-0.0301283989101648,-0.0102105205878615,0.011013756506145,0.0280411597341299,-0.0209573525935411
59,0.00847624335438013,-0.0298617798835039,-0.0123827792704105,0.0105145992711186,0.0293288379907608,-0.0293292142450809
60,0.00611031893640757,-0.030671427026391,-0.0187353808432817,0.00661960430443287,0.0267506781965494,-0.0397074408829212
61,0.00132699811365455,-0.0328504405915737,-0.0265139862895012,0.00186903832945973,0.0232215002179146,-0.0503815561532974
62,-0.00213193939998746,-0.0347431153059006,-0.0312407035380602,8.52532029966824E-05,0.0232510454952717,-0.058660127222538
63,-0.000675847928505391,-0.034069336950779,-0.0313057899475098,0.00249675707891583,0.0274967215955257,-0.0627734214067459
64,0.00594085082411766,-0.0300489831715822,-0.0278671644628048,0.00825120415538549,0.0346019268035889,-0.062922365963459
65,0.014918296597898,-0.0239972099661827,-0.0223911851644516,0.0162755940109491,0.043626319617033,-0.0610586553812027
66,0.022735234349966,-0.0183408968150616,-0.0167097561061382,0.0238789021968842,0.0526535585522652,-0.0601470433175564
67,0.0277839452028275,-0.0144056277349591,-0.0126588195562363,0.0276511460542679,0.0599255785346031,-0.0620544664561749
68,0.0305748991668224,-0.0118260569870472,-0.0111682396382093,0.0266738645732403,0.0649821162223816,-0.0666319727897644
69,0.0322136208415031,-0.00984249264001846,-0.0117876036092639,0.0231506116688252,0.0678121149539948,-0.0725428611040115
70,0.0333529487252235,-0.00774991326034069,-0.0131143014878035,0.0204106606543064,0.0686608925461769,-0.0780645459890366
71,0.0338767729699612,-0.00514122378081083,-0.0143761727958918,0.0197861343622208,0.06824791431427,-0.0825512558221817
72,0.0330982133746147,-0.00258961506187916,-0.0158983711153269,0.0196977350860834,0.0672478526830673,-0.0873484760522842
73,0.0309083256870508,-0.000794033170677722,-0.0176751147955656,0.0187424924224615,0.0663941502571106,-0.0938032940030098
74,0.0285774599760771,0.000552971672732383,-0.0190271306782961,0.0172566119581461,0.0664422735571861,-0.101657442748547
75,0.0278734359890223,0.00254110945388675,-0.0194185171276331,0.0165369212627411,0.0672438964247704,-0.109337411820889
76,0.0291093811392784,0.00553914858028293,-0.0194650590419769,0.0174786038696766,0.0675000846385956,-0.115680284798145
77,0.0313066281378269,0.0088531244546175,-0.01958435960114,0.0197162739932537,0.066779263317585,-0.120330177247524
78,0.0333191081881523,0.0118258018046618,-0.018737256526947,0.0227439198642969,0.0664131790399551,-0.121870316565037
79,0.0340553931891918,0.0137302419170737,-0.0162808373570442,0.0266272537410259,0.0675133615732193,-0.118968918919563
80,0.0330060906708241,0.0135575672611594,-0.0128608671948314,0.0307720452547073,0.0698506310582161,-0.113572098314762
81,0.0309429187327623,0.0114148585125804,-0.00891971122473478,0.0342669785022736,0.0730746537446976,-0.108958646655083
82,0.028451832011342,0.007940623909235,-0.00480727106332779,0.0362061597406864,0.076754130423069,-0.106948271393776
83,0.0250392481684685,0.00296897254884243,-0.00225228676572442,0.0349869690835476,0.0793387368321419,-0.108490936458111
84,0.0225904248654842,-0.00223243818618357,-0.00137037900276482,0.0317814983427525,0.0810087844729424,-0.111550763249397
85,0.0234731528908014,-0.00559570221230388,-0.000458578171674162,0.029843108728528,0.0831354558467865,-0.112474583089352
86,0.0261720009148121,-0.00710733374580741,0.000191331200767308,0.0294961854815483,0.0842580571770668,-0.110765881836414
87,0.0281167142093182,-0.0076545043848455,-0.000473315652925521,0.0294112581759691,0.0824214294552803,-0.107674084603786
88,0.0283336546272039,-0.00758362235501409,-0.00208395021036267,0.0292388889938593,0.0782376304268837,-0.103737607598305
89,0.0274627208709717,-0.00685557955875993,-0.00301672937348485,0.0296601671725512,0.0739798247814178,-0.0990146398544312
90,0.026118878275156,-0.00631541199982166,-0.00311510148458183,0.0300124268978834,0.070541724562645,-0.094881996512413
91,0.0237574186176062,-0.00767157413065434,-0.00428529735654593,0.0281672012060881,0.0668358877301216,-0.093555860221386
92,0.0210287943482399,-0.0108697228133678,-0.00644610589370131,0.0245428197085857,0.0629042312502861,-0.0945148468017578
93,0.0199362728744745,-0.0138564184308052,-0.0073374891653657,0.022138599306345,0.0602899603545666,-0.094628244638443
94,0.0207175519317389,-0.0155151821672916,-0.00617220578715205,0.0222005881369114,0.0595680810511112,-0.0919436737895012
95,0.0213523507118225,-0.0165188312530518,-0.00463895872235298,0.022669643163681,0.059717383235693,-0.0875279083848
96,0.0214015897363424,-0.0169717352837324,-0.00348152313381433,0.0226927492767572,0.0608134232461452,-0.0824871733784676
97,0.0208837613463402,-0.0172651335597038,-0.00332693918608129,0.0222316142171621,0.0618216954171658,-0.0780038461089134
98,0.0190829057246447,-0.0183908715844154,-0.00519035663455725,0.0207051485776901,0.0606398694217205,-0.0754460245370865
99,0.0180200673639774,-0.0192113202065229,-0.0065962434746325,0.0205676481127739,0.0595329478383064,-0.0729965195059776
100,0.0191199406981468,-0.0184800568968058,-0.00535380560904741,0.0228846855461597,0.0604869797825813,-0.0693617612123489
101,0.0219054818153381,-0.0160556342452765,-0.00150797876995057,0.025743531063199,0.0627860352396965,-0.0648850947618485
102,0.0259971376508474,-0.0121824098750949,0.00410714279860258,0.0285436101257801,0.0661640986800194,-0.0589476823806763
103,0.0293718185275793,-0.00878344848752022,0.00849921908229589,0.0303707905113697,0.0687769204378128,-0.0531162545084953
104,0.0300551149994135,-0.00757655687630177,0.0095252925530076,0.0299148671329021,0.0681872442364693,-0.0502140335738659
105,0.0277830865234137,-0.00799006968736649,0.00748847657814622,0.0271513741463423,0.0639242976903915,-0.0504146292805672
106,0.0234181582927704,-0.00880065467208624,0.00369933317415416,0.0229958985000849,0.0573696829378605,-0.0519912280142307
107,0.0194738246500492,-0.00901095010340214,0.000938149576541036,0.019488699734211,0.0516671575605869,-0.0528734177350998
108,0.0181192643940449,-0.00787495821714401,0.00111620663665235,0.0178806241601706,0.0489848107099533,-0.0520397387444973
109,0.0186186786741018,-0.00581088429316878,0.00261250487528741,0.0169530231505632,0.0479076877236366,-0.0505254082381725
110,0.0183789934962988,-0.0042678602039814,0.00235377554781735,0.0149047579616308,0.0452014617621899,-0.0502725727856159
111,0.0162396170198917,-0.00416526384651661,-0.000158856870257296,0.0115423416718841,0.0399676337838173,-0.0518437810242176
112,0.0136369438841939,-0.00488052517175674,-0.00249383202753961,0.00844685453921556,0.0345868803560734,-0.0537491738796234
113,0.0118978563696146,-0.00531574757769704,-0.00305345375090837,0.0071632326580584,0.0308373868465424,-0.0543629825115204
114,0.0110605927184224,-0.00504436902701855,-0.0020595055539161,0.00781193329021335,0.0287409201264381,-0.0532491207122803
115,0.0114510711282492,-0.00397396320477128,0.000342342187650502,0.0100051891058683,0.0284703765064478,-0.0502955801784992
116,0.0124852750450373,-0.00265560089610517,0.0033491114154458,0.0124864662066102,0.0293848998844624,-0.0459812432527542
117,0.0123139666393399,-0.00194249837659299,0.00572586013004184,0.0136326868087053,0.0303267780691385,-0.0415438860654831
118,0.0117137674242258,-0.00134288764093071,0.00800239574164152,0.0147237656638026,0.0316225439310074,-0.0369039587676525
119,0.0127923600375652,-0.000241766916587949,0.0100934356451035,0.0172520764172077,0.0328111089766026,-0.032223854213953
120,0.0151359550654888,0.000999846844933927,0.0103760659694672,0.0195716209709644,0.0326533056795597,-0.0290627889335155
121,0.0172498691827059,0.00234123878180981,0.00898829009383917,0.0199510511010885,0.0318930931389332,-0.027340168133378
122,0.0176511406898499,0.00344579154625535,0.00678404187783599,0.0180037282407284,0.0306760556995869,-0.0262787900865078
123,0.0152419582009315,0.00335484021343291,0.00355338142253459,0.0141125861555338,0.0274775046855211,-0.02644132822752
124,0.011133024469018,0.00221312372013927,0.000174367727595381,0.0104279005900025,0.0230097863823175,-0.0277202967554331
125,0.00766581064090133,0.000997777213342488,-0.00160031591076404,0.00868705939501524,0.0194704793393612,-0.0292338486760855
126,0.00598784117028117,-6.8462330091279E-05,-0.00142503157258034,0.00789242889732122,0.0173136945813894,-0.0303990356624126
127,0.00643237913027406,-0.000786725431680679,0.000611926545388997,0.00787975545972586,0.0170199107378721,-0.0292888376861811
128,0.00849796272814274,-0.000755262968596071,0.00421205069869757,0.00979156140238047,0.0190979093313217,-0.0243151821196079
129,0.0104669444262981,-0.000380555138690397,0.00825060345232487,0.0130384853109717,0.0222021490335464,-0.0170691683888435
130,0.0104748476296663,-0.000750596111174673,0.0110090207308531,0.0151644870638847,0.0240217819809914,-0.011040317825973
131,0.0073026386089623,-0.00333817722275853,0.00986684300005436,0.0129110105335712,0.0219764932990074,-0.00952108018100262
132,0.00215891539119184,-0.00829444918781519,0.00467673549428582,0.00615506572648883,0.0159147176891565,-0.0124477203935385
133,-0.00230887904763222,-0.0138086043298244,-0.00131784821860492,-0.00152660591993481,0.00896026100963354,-0.0168642438948154
134,-0.00564746093004942,-0.0185316354036331,-0.006401970051229,-0.00798057019710541,0.00318617094308138,-0.0212701428681612
135,-0.00836927909404039,-0.0223130099475384,-0.0103251468390226,-0.0123949134722352,-0.000980962649919093,-0.0249445158988237
136,-0.00865858606994152,-0.0241980850696564,-0.0106836017221212,-0.0123539492487907,-0.00158949685283005,-0.0253101997077465
137,-0.00590756768360734,-0.0233250167220831,-0.00675683189183474,-0.00748097570613027,0.00161275546997786,-0.020865535363555
138,-0.00302840396761894,-0.0209772884845734,-0.00223703496158123,-0.00129115988966078,0.00489154877141118,-0.0139215309172869
139,-0.000342882529366761,-0.0180970523506403,0.00164993235375732,0.00448029488325119,0.00754687655717134,-0.00660717068240047
140,0.00407768180593848,-0.0145722767338157,0.00650686677545309,0.010223189368844,0.0119670322164893,0.000684091879520565
141,0.00867645721882582,-0.0115171261131763,0.0107396757230163,0.0143865058198571,0.0165479090064764,0.00639110337942839
142,0.0100428462028503,-0.0104810753837228,0.0112316608428955,0.0146991210058331,0.0173453707247972,0.00873041246086359
143,0.00673062121495605,-0.0119868945330381,0.00698066223412752,0.0107282372191548,0.0131933866068721,0.00729247462004423
144,0.000649066467303783,-0.0150840813294053,0.000193338157259859,0.00468919519335032,0.00658883713185787,0.00342414947226644
145,-0.00428006192669272,-0.017733458429575,-0.00481540150940418,0.000259157823165879,0.00173754303250462,0.000264077738393098
146,-0.00613386044278741,-0.018584530800581,-0.00626757927238941,-0.000962449121288955,0.000204788710107096,-9.71667468547821E-05
147,-0.00602852320298553,-0.0177684761583805,-0.00614954764023423,-0.000136244416353293,-0.000594871351495385,0.00171012571081519
148,-0.00633852882310748,-0.0168180987238884,-0.00727996882051229,0.00031167347333394,-0.0039434777572751,0.00318749854341149
149,-0.00861778948456049,-0.017180172726512,-0.0103747043758631,-0.00124443264212459,-0.00995754543691874,0.00281321676447988
150,-0.0112614436075091,-0.0176768396049738,-0.0125038092955947,-0.00265218433924019,-0.0148011548444629,0.0031720707193017
151,-0.0116141140460968,-0.0162698905915022,-0.0107964677736163,-0.000784307660069317,-0.0154301142320037,0.00738368928432465
152,-0.0103709325194359,-0.0135930785909295,-0.00732912542298436,0.00337850674986839,-0.0139134936034679,0.0136892758309841
153,-0.0100943120196462,-0.0115615576505661,-0.0061156777665019,0.00668921554461122,-0.013822260312736,0.017879331484437
154,-0.0113154696300626,-0.0104088913649321,-0.00718929758295417,0.00789260491728783,-0.0153789827600122,0.0191584881395102
155,-0.0129155581817031,-0.00917545892298222,-0.00842683017253876,0.00759420823305845,-0.0173384714871645,0.0203434657305479
156,-0.0136734060943127,-0.00750844646245241,-0.00882057007402182,0.00760117080062628,-0.0190619453787804,0.0239480398595333
157,-0.0134057179093361,-0.00636374764144421,-0.00820269342511892,0.00887078512459993,-0.0202112123370171,0.0293377079069614
158,-0.0136845726519823,-0.00717455428093672,-0.00770640978589654,0.00902872066944838,-0.0216701496392488,0.0331172905862331
159,-0.015078742057085,-0.00950984563678503,-0.00813132990151644,0.00625173421576619,-0.0237243734300137,0.0335720404982567
160,-0.0166648272424936,-0.0116222146898508,-0.00922416988760233,0.00177941319998354,-0.0256258007138968,0.0319224186241627
161,-0.018767423927784,-0.0132866427302361,-0.0113618578761816,-0.00334422173909843,-0.0280542150139809,0.0290306713432074
162,-0.0214737448841333,-0.0150605691596866,-0.014083843678236,-0.00839516334235668,-0.030744569376111,0.0252722967416048
163,-0.0234439503401518,-0.0167400985956192,-0.0160308256745338,-0.0122805666178465,-0.0320508927106857,0.0214255508035421
164,-0.0232245903462172,-0.0175524260848761,-0.0160549841821194,-0.0140438666567206,-0.0312862880527973,0.0188477300107479
165,-0.02012624964118,-0.0166744943708181,-0.0131516391411424,-0.0126594863831997,-0.0280271042138338,0.019373644143343
166,-0.0150692379102111,-0.0139579297974706,-0.00734997820109129,-0.00808851607143879,-0.0220074392855167,0.023457832634449
167,-0.0101985530927777,-0.0103088384494185,-0.000203341624001041,-0.00224237376824021,-0.014694731682539,0.0292293857783079
168,-0.00782635621726513,-0.00760601041838527,0.00437885988503695,0.00123355945106596,-0.0107392827048898,0.0332587845623493
169,-0.00821066647768021,-0.00690405769273639,0.00342384306713939,0.000217601962503977,-0.0134884789586067,0.0334727875888348
170,-0.00945449806749821,-0.00716387806460261,-0.000673965492751449,-0.00318127637729049,-0.020255895331502,0.031335785984993
171,-0.0107703460380435,-0.00729350745677948,-0.00395045708864927,-0.00608116900548339,-0.0265426691621542,0.0290104746818542
172,-0.0127916494384408,-0.00779996998608112,-0.00595942744985223,-0.00867479294538498,-0.030742634087801,0.0263378601521254
173,-0.0153193064033985,-0.00916097871959209,-0.00793636310845613,-0.0118397725746036,-0.0329448170959949,0.0230306703597307
174,-0.0168658420443535,-0.0102437324821949,-0.00949026923626661,-0.0140956845134497,-0.0331105068325996,0.0211004596203566
175,-0.0163208115845919,-0.0101700890809298,-0.0100358221679926,-0.0142310345545411,-0.0319682992994785,0.0219557825475931
176,-0.013980126939714,-0.00941898766905069,-0.00998140033334494,-0.0131028816103935,-0.0307199824601412,0.0243630316108465
177,-0.0107733448967338,-0.00836108438670635,-0.00934353563934565,-0.0114042013883591,-0.0297870337963104,0.0267701223492622
178,-0.00846744235605001,-0.00749583309516311,-0.00891830027103424,-0.00973956845700741,-0.0302730891853571,0.0281738359481096
179,-0.00903730001300573,-0.00787625089287758,-0.010447459295392,-0.00972739420831203,-0.0338021852076054,0.0275313891470432
180,-0.0114670637995005,-0.00925844442099333,-0.013051544316113,-0.0116114066913724,-0.0387522876262665,0.0252112951129675
181,-0.0133732547983527,-0.0104566067457199,-0.014769702218473,-0.0140147348865867,-0.0420354567468166,0.0227159131318331
182,-0.0148176923394203,-0.0115284193307161,-0.0160799697041512,-0.016402879729867,-0.0435814708471298,0.0201442297548056
183,-0.0162181053310633,-0.0126773016527295,-0.0168268997222185,-0.018406055867672,-0.0441438034176826,0.0175484996289015
184,-0.0166231822222471,-0.0128942867740989,-0.0153900356963277,-0.0191334281116724,-0.0434937924146652,0.0169578846544027
185,-0.0154820242896676,-0.0114198122173548,-0.0120313838124275,-0.0181187391281128,-0.0417278409004211,0.019981250166893
186,-0.0129299955442548,-0.00857320986688137,-0.0081178518012166,-0.0153819397091866,-0.0390001609921455,0.0259482562541962
187,-0.00960625614970922,-0.00525464629754424,-0.00422642659395933,-0.0112781934440136,-0.0355352126061916,0.0330957397818565
188,-0.0076906206086278,-0.00334544572979212,-0.0015652027213946,-0.00765809277072549,-0.0329578183591366,0.0388478860259056
189,-0.00909205991774797,-0.00446294713765383,-0.00194098928477615,-0.00682082679122686,-0.0333961360156536,0.0410200171172619
190,-0.0123271821066737,-0.00776417646557093,-0.00451802369207144,-0.00798644870519638,-0.0361045077443123,0.0403884314000607
191,-0.0151179237291217,-0.0115772318094969,-0.00721822632476687,-0.00931842066347599,-0.0388643965125084,0.0387085564434528
192,-0.0169705711305141,-0.015020520426333,-0.00947664771229029,-0.010509280487895,-0.040773157030344,0.0368142686784267
193,-0.017436757683754,-0.0172266606241465,-0.0105093531310558,-0.010821545496583,-0.0410333536565304,0.0356902033090591
194,-0.0171913970261812,-0.0184209253638983,-0.0106077510863543,-0.0108273131772876,-0.0403865948319435,0.0348468273878098
195,-0.016963567584753,-0.0192509032785892,-0.0106300879269838,-0.011638187803328,-0.0397880040109158,0.0339181087911129
196,-0.01488989405334,-0.0186726860702038,-0.00889340415596962,-0.0110423350706697,-0.0372085571289063,0.035659346729517
197,-0.0117674637585878,-0.0169789344072342,-0.00617969734594226,-0.00877252500504255,-0.0334056429564953,0.0401027463376522
198,-0.0107091125100851,-0.0160707607865334,-0.00540647935122252,-0.00718841934576631,-0.0317295789718628,0.0439157634973526
199,-0.0112858843058348,-0.0161276534199715,-0.00585075234994292,-0.0059987329877913,-0.0318139232695103,0.0466694012284279
200,-0.0127554060891271,-0.0173287559300661,-0.00704488484188914,-0.00586098060011864,-0.0329470932483673,0.0479754284024239
201,-0.0151457535102963,-0.0198124535381794,-0.00943049881607294,-0.00777126383036375,-0.0349924080073833,0.0467712171375752
202,-0.0171876084059477,-0.0220172684639692,-0.0109996339306235,-0.00944757275283337,-0.0359376072883606,0.0448836572468281
203,-0.0187692064791918,-0.0235077496618032,-0.0107415514066815,-0.00965309981256723,-0.0352446809411049,0.0438331514596939
204,-0.0203586239367723,-0.0250488352030516,-0.00996266677975655,-0.00936018396168947,-0.0340538844466209,0.0433640964329243
205,-0.0207335669547319,-0.0260675549507141,-0.00901859346777201,-0.00843443907797337,-0.0318294540047646,0.0438877828419209
206,-0.0196388345211744,-0.02624929882586,-0.0081147700548172,-0.00650040293112397,-0.0285156108438969,0.0454798825085163
207,-0.0187812056392431,-0.0265060905367136,-0.00784638989716768,-0.00447206106036901,-0.0260002315044403,0.0468919351696968
208,-0.0193464420735836,-0.0276024434715509,-0.0080375736579299,-0.0037144054658711,-0.0253942497074604,0.0472904816269875
209,-0.0217973552644253,-0.0298846811056137,-0.00936699379235506,-0.00512932287529111,-0.0266017783433199,0.0469423532485962
210,-0.0252848472446203,-0.0325785875320435,-0.0121510149911046,-0.00772029627114534,-0.0283483061939478,0.0468498542904854
211,-0.0278064366430044,-0.0343503095209599,-0.0148592907935381,-0.00923719815909863,-0.0290068667382002,0.0480629652738571
212,-0.0289429891854525,-0.0353581793606281,-0.0165977980941534,-0.00883576925843954,-0.0287838019430637,0.0503351464867592
213,-0.0294049046933651,-0.0363577306270599,-0.0176666732877493,-0.00718799885362387,-0.0285501256585121,0.0521692633628845
214,-0.02921855263412,-0.0374602489173412,-0.0180988050997257,-0.00547722633928061,-0.0280602872371674,0.0522646047174931
215,-0.0288866851478815,-0.0389270298182964,-0.018282737582922,-0.00507509196177125,-0.0276764389127493,0.0502135641872883
216,-0.0295390412211418,-0.0404974035918713,-0.0190114099532366,-0.00612932769581676,-0.0284920055419207,0.0471772104501724
217,-0.0309296902269125,-0.041046392172575,-0.0198911614716053,-0.00711007183417678,-0.0296858474612236,0.0455277822911739
218,-0.0320995710790157,-0.0405683778226376,-0.0204694028943777,-0.00708930054679513,-0.0302464626729488,0.0461571142077446
219,-0.0336390510201454,-0.0409480519592762,-0.0217363256961107,-0.00743754440918565,-0.0316701792180538,0.0470130108296871
220,-0.035759475082159,-0.0436192788183689,-0.0239166412502527,-0.00927304942160845,-0.0347685180604458,0.0459184795618057
221,-0.0365951508283615,-0.0475490652024746,-0.0252643674612045,-0.0109272841364145,-0.0376630090177059,0.0439990013837814
222,-0.0342201218008995,-0.0503512248396873,-0.0235718823969364,-0.00937909167259932,-0.0374776646494865,0.045126274228096
223,-0.0291969291865826,-0.0514567494392395,-0.0191862415522337,-0.0043315258808434,-0.0333925932645798,0.0506536439061165
224,-0.0256114024668932,-0.0532851926982403,-0.0161647237837315,-0.000114784073957708,-0.0287208687514067,0.0561457388103008
225,-0.0269680265337229,-0.0575434267520905,-0.0168920308351517,-0.000102740625152364,-0.0263015329837799,0.057302463799715
226,-0.0304906312376261,-0.0621698945760727,-0.0180124156177044,-0.00140362174715847,-0.0238958448171616,0.0564840249717236
227,-0.0312094744294882,-0.065091073513031,-0.0164117962121964,-0.000147726692375727,-0.0188934486359358,0.0580158531665802
228,-0.0296903438866138,-0.0674721673130989,-0.0139450188726187,0.0031732227653265,-0.012815116904676,0.0618548579514027
229,-0.0279398374259472,-0.0698578432202339,-0.011097471229732,0.00885886419564486,-0.00668816594406962,0.0673021301627159
230,-0.0256998185068369,-0.0716498196125031,-0.00593724893406034,0.017576090991497,0.000287674251012504,0.0735771581530571
231,-0.0239385180175304,-0.0742161720991135,-0.00088871835032478,0.0242202039808035,0.00612335605546832,0.0760121271014214
232,-0.0240173563361168,-0.0788250043988228,-0.00152339565102011,0.0230139698833227,0.00685760146006942,0.0707221701741219
233,-0.025439539924264,-0.0843564495444298,-0.00944794435054064,0.0153928101062775,0.00191929959692061,0.0601147823035717
234,-0.0272493027150631,-0.0895523130893707,-0.0210104491561651,0.00722900731489062,-0.00522668985649943,0.0492004975676537
235,-0.0288405325263739,-0.0942393690347672,-0.0314536541700363,0.00249104690738022,-0.0107849165797234,0.0405340194702148
236,-0.0297495108097792,-0.09808050096035,-0.0381935462355614,0.00147869414649904,-0.0128739010542631,0.0343187749385834
237,-0.0305004678666592,-0.101030252873898,-0.0424151755869389,0.00200755055993795,-0.0124009661376476,0.0290658436715603
238,-0.0311433523893356,-0.103267639875412,-0.0457642525434494,0.00240689376369119,-0.0105430632829666,0.0231061261147261
239,-0.0301400944590569,-0.104758702218533,-0.0471194572746754,0.0028910362161696,-0.00631550652906299,0.0170138534158468
240,-0.0268940627574921,-0.105817273259163,-0.0459530986845493,0.00406342465430498,0.000482815608847886,0.0124452244490385
241,-0.0228638909757137,-0.10699263215065,-0.0439279899001122,0.0058795684017241,0.00790373515337706,0.00942016486078501
242,-0.0194697212427855,-0.108539462089539,-0.0422475077211857,0.00822554249316454,0.0146297086030245,0.00678834831342101
243,-0.0167435836046934,-0.110118091106415,-0.0408374667167664,0.0113457851111889,0.02091184258461,0.00373160606250167
244,-0.014150801114738,-0.111224517226219,-0.0395145751535892,0.0152299487963319,0.0272919908165932,-6.65189654682763E-05
245,-0.0128185208886862,-0.112296245992184,-0.0397992320358753,0.0180541444569826,0.0321086645126343,-0.00554243242368102
246,-0.0147426864132285,-0.113983318209648,-0.043367326259613,0.0177623685449362,0.0329392664134502,-0.013620562851429
247,-0.0193083081394434,-0.115864261984825,-0.0491596758365631,0.0152737963944674,0.0308799836784601,-0.0230598375201225
248,-0.0231106784194708,-0.116988085210323,-0.0539199076592922,0.0139415571466088,0.0298915840685368,-0.0309361405670643
249,-0.0231016129255295,-0.116376921534538,-0.054559126496315,0.0166556779295206,0.0329886116087437,-0.0351927988231182
250,-0.019383367151022,-0.113814510405064,-0.0511344410479069,0.0230237059295177,0.0393915139138699,-0.0360285751521587
251,-0.0148212118074298,-0.110773913562298,-0.0471096001565456,0.0294549465179443,0.0456827767193317,-0.0359380804002285
252,-0.0113775925710797,-0.109034568071365,-0.0450350008904934,0.0335113704204559,0.0506681613624096,-0.0375970602035522
253,-0.00867822673171759,-0.108994849026203,-0.0441277176141739,0.03608263656497,0.0561564899981022,-0.0409643091261387
254,-0.00714956503361464,-0.110394880175591,-0.0439805462956429,0.0372321084141731,0.0617367513477802,-0.0455543957650661
255,-0.00730807706713676,-0.112364068627357,-0.0449810661375523,0.0363287627696991,0.0653338134288788,-0.0511791370809078
256,-0.00856062304228544,-0.114179782569408,-0.0467782989144325,0.0342478230595589,0.0667316764593124,-0.0571858026087284
257,-0.0101075209677219,-0.11592024564743,-0.0486444197595119,0.0323634967207909,0.0671460181474686,-0.0634867399930954
258,-0.00997559074312449,-0.116535060107708,-0.0487296395003796,0.0329128839075565,0.0684773847460747,-0.0689137279987335
259,-0.00769833428785205,-0.114858813583851,-0.0472242422401905,0.0366333350539207,0.0705988332629204,-0.0725124627351761
260,-0.00512175122275949,-0.111886143684387,-0.0464227013289928,0.0415591187775135,0.0719156563282013,-0.0754620730876923
261,-0.00294959428720176,-0.109087638556957,-0.0461968630552292,0.045789297670126,0.0728421732783318,-0.0784038603305817
262,-0.00160843029152602,-0.106970243155956,-0.046068612486124,0.0476830266416073,0.0735752880573273,-0.0811255574226379
263,-0.0013769700890407,-0.105287089943886,-0.0462314859032631,0.0470526814460754,0.0736974403262138,-0.0835955962538719
264,-0.000552929181139916,-0.102752961218357,-0.045039027929306,0.046695776283741,0.0748442187905312,-0.0849806815385818
265,0.00171097565907985,-0.0989539176225662,-0.0417152568697929,0.0486254282295704,0.0780694335699081,-0.0846990942955017
266,0.00429096817970276,-0.0950955748558044,-0.0372481569647789,0.0523336715996265,0.0828026980161667,-0.0830444991588593
267,0.00655010202899575,-0.0919935926795006,-0.0317104198038578,0.0569744966924191,0.0889021158218384,-0.080581933259964
268,0.00814838893711567,-0.0898573249578476,-0.0250685457140207,0.0616550594568253,0.0955399125814438,-0.0784733518958092
269,0.00818324740976095,-0.0888831689953804,-0.0189942382276058,0.064657062292099,0.100388467311859,-0.0779262855648994
270,0.00582407275214791,-0.0893422737717628,-0.015979802235961,0.0640074089169502,0.100944340229034,-0.0796271488070488
271,0.00177181779872626,-0.0907621905207634,-0.016280323266983,0.0601426810026169,0.0971750020980835,-0.0827916264533997
272,-0.00213370751589537,-0.0918130129575729,-0.0178981032222509,0.0558182410895824,0.0916921719908714,-0.0852927193045616
273,-0.00467975391075015,-0.0916850045323372,-0.0192595105618238,0.0528837032616138,0.0867297425866127,-0.0858602374792099
274,-0.00562246982008219,-0.0899601131677628,-0.0197439305484295,0.051754217594862,0.0831625908613205,-0.0841686651110649
275,-0.0059245633892715,-0.0867806077003479,-0.0195088908076286,0.0516989901661873,0.0809397324919701,-0.0807100236415863
276,-0.00569115858525038,-0.0828873217105865,-0.0181259103119373,0.051875788718462,0.080622673034668,-0.0767737627029419
277,-0.00430980511009693,-0.0788204669952393,-0.0153893958777189,0.051845695823431,0.0822455734014511,-0.0736283287405968
278,-0.00276267086155713,-0.0750808790326118,-0.0128667671233416,0.0512060225009918,0.0836536139249802,-0.071812704205513
279,-0.00117145047988743,-0.0713924244046211,-0.0108598517253995,0.0511616505682468,0.0839431881904602,-0.0697844699025154
280,0.00157797615975142,-0.0667983442544937,-0.00816188659518957,0.0531644411385059,0.0836639180779457,-0.0658596307039261
281,0.00572456419467926,-0.0611365288496017,-0.00449358811601996,0.0568935163319111,0.0828343853354454,-0.060284212231636
282,0.0097112413495779,-0.0556906536221504,-0.000852001190651208,0.0604265108704567,0.0814390927553177,-0.0544067695736885
283,0.0112175233662128,-0.0517856441438198,0.00182269467040896,0.0618776381015778,0.0798775479197502,-0.0495577603578568
284,0.0103149497881532,-0.0494013801217079,0.00358932046219707,0.0612702406942844,0.0783902853727341,-0.046569436788559
285,0.00868478510528803,-0.0482128970324993,0.00412818137556314,0.0586420744657516,0.0759480744600296,-0.0462250038981438
286,0.00695885298773646,-0.0477959401905537,0.00277160876430571,0.0537263788282871,0.07183438539505,-0.0478876270353794
287,0.00556334294378757,-0.0471830070018768,0.000173698499565944,0.0481059327721596,0.0672221630811691,-0.0494563654065132
288,0.00472918897867203,-0.0459713414311409,-0.00265850056894124,0.043360996991396,0.0630166977643967,-0.0503295473754406
289,0.00341756851412356,-0.0444891527295113,-0.0056502902880311,0.0392967686057091,0.0586688742041588,-0.0511629320681095
290,0.00142234156373888,-0.0424220785498619,-0.00789309851825237,0.0359849669039249,0.0546247214078903,-0.0512494631111622
291,0.000339731195708737,-0.0390322208404541,-0.00756734423339367,0.0345156230032444,0.0527895875275135,-0.04915776476264
292,0.00138341751880944,-0.0345202572643757,-0.00427578389644623,0.0350656136870384,0.0537736788392067,-0.0451913140714169
293,0.00340269552543759,-0.0303169991821051,0.00019301802967675,0.0358414947986603,0.0555321909487247,-0.0416944101452827
294,0.00450274394825101,-0.0274707656353712,0.00366017571650445,0.0353892743587494,0.0557026863098145,-0.0404854118824005
295,0.00534793082624674,-0.0250446349382401,0.00630890484899282,0.0348158963024616,0.0550763346254826,-0.0405356921255589
296,0.00692472606897354,-0.022088211029768,0.00912142358720303,0.0350401811301708,0.0553582683205605,-0.0401601940393448
297,0.00850903987884521,-0.0190699771046638,0.0116222715005279,0.0354425497353077,0.0556914582848549,-0.0388352796435356
298,0.00910566281527281,-0.0169177874922752,0.0127518074586988,0.0350642800331116,0.0539892390370369,-0.0368982627987862
299,0.00781945046037436,-0.0161753632128239,0.0118655106052756,0.0327988788485527,0.0494606606662273,-0.0356697514653206
300,0.00473744282498956,-0.0163577422499657,0.00930813513696194,0.0286682471632957,0.0430313609540462,-0.0358072780072689
301,0.00134131102822721,-0.0164220575243235,0.00634942669421434,0.0241711623966694,0.0364522859454155,-0.0362983904778957
302,-5.92331707593985E-05,-0.0149712227284908,0.00558680715039372,0.0220297761261463,0.0326997898519039,-0.035051129758358
303,0.000879376195371151,-0.0117527255788445,0.00787486415356398,0.0230119396001101,0.0325093194842339,-0.0319474302232265
304,0.00153982685878873,-0.00855918601155281,0.00989082641899586,0.0236539039760828,0.0320772342383862,-0.0303001031279564
305,4.03930380343809E-06,-0.00667747249826789,0.00841447804123163,0.0210391711443663,0.0282070301473141,-0.0323487669229507
306,-0.00233679218217731,-0.00522243231534958,0.00469006318598986,0.0171646010130644,0.0225600134581327,-0.0359695218503475
307,-0.00357411964796484,-0.00294431857764721,0.00199921638704836,0.014985996298492,0.0180971026420593,-0.038287665694952
308,-0.00574918277561665,-0.00071477860910818,-0.000238723194343038,0.012673232704401,0.0129251712933183,-0.0399911627173424
309,-0.00980954058468342,0.00079713249579072,-0.0029505982529372,0.00924796238541603,0.00592029700055718,-0.041371613740921
310,-0.0120542822405696,0.00288764876313508,-0.00335156754590571,0.00807458814233541,0.00145936070475727,-0.040169034153223
311,-0.0113601740449667,0.00565405143424869,-0.00101278652437031,0.00883366353809834,0.00107468583155423,-0.0371290631592274
312,-0.00934454053640366,0.00852672290056944,0.00184882862959057,0.00859772972762585,0.00241999421268702,-0.0343215577304363
313,-0.0055528748780489,0.0129643315449357,0.00542602501809597,0.00881942640990019,0.0048890607431531,-0.030057055875659
314,0.000573477824218571,0.0202704090625048,0.011108310893178,0.0124425822868943,0.00918573793023825,-0.0224425699561834
315,0.00660060765221715,0.0284355748444796,0.0173346847295761,0.0178976077586412,0.0140523677691817,-0.0139256343245506
316,0.0086653083562851,0.0341352708637714,0.0199750736355782,0.0203816238790751,0.0155724212527275,-0.00866374373435974
317,0.00620124069973826,0.0370608791708946,0.0180272590368986,0.0187300648540258,0.0121509442105889,-0.00682790437713265
318,0.00134390161838382,0.0387028679251671,0.013928497210145,0.0151111837476492,0.00646730745211244,-0.00626953179016709
319,-0.00423028785735369,0.0396612510085106,0.00992651749402285,0.010733837261796,0.00207536038942635,-0.00683351140469313
320,-0.00734624220058322,0.0412105768918991,0.00906075630337,0.00797986052930355,0.00195788918063045,-0.00752982776612043
321,-0.00549388583749533,0.0446854159235954,0.0124732935801148,0.00886929221451283,0.00554943876340985,-0.00619702972471714
322,-0.000893254647962749,0.0493878647685051,0.0169782694429159,0.0114874364808202,0.00858998484909534,-0.00293474108912051
323,0.00297637050971389,0.0538190901279449,0.020125973969698,0.0132152829319239,0.00883445888757706,0.000735111359972507
324,0.00506077986210585,0.0572914928197861,0.0221008248627186,0.0133118350058794,0.0072953118942678,0.00387408491224051
325,0.00674717547371984,0.0604079104959965,0.0241561289876699,0.0128592345863581,0.00599699607118964,0.00684133544564247
326,0.00885024946182966,0.0635967180132866,0.0266827307641506,0.0126146506518126,0.00513655738905072,0.00940422620624304
327,0.00963482819497585,0.0656139627099037,0.0275209285318851,0.0111732203513384,0.00220609549432993,0.00926124956458807
328,0.00857500266283751,0.0656400471925735,0.025605745613575,0.00785925891250372,-0.00317615224048495,0.00549435336142778
329,0.00788400880992413,0.0650042518973351,0.0235575698316097,0.00417064549401402,-0.00778018357232213,0.00118587317410856
330,0.00801431387662888,0.0649892464280128,0.0229750070720911,0.000925724976696074,-0.0102607123553753,-0.00035688080242835
331,0.00731677329167724,0.065549448132515,0.0229036901146173,-0.00207838625647128,-0.0120657803490758,0.000800146313849837
332,0.00592566514387727,0.0666134282946587,0.023123862221837,-0.00429643550887704,-0.0135354204103351,0.00292285368777812
333,0.0045307818800211,0.0677541345357895,0.023333640769124,-0.00595270050689578,-0.0148826604709029,0.0041181119158864
334,0.003017314709723,0.0681680515408516,0.0229185651987791,-0.00791801232844591,-0.0169529002159834,0.00345951435156167
335,0.00201488146558404,0.0681959688663483,0.0226250644773245,-0.00951629318296909,-0.019044442102313,0.00207487936131656
336,0.00230240705423057,0.0687970146536827,0.0233637653291225,-0.0096491863951087,-0.019807567819953,0.00157692469656467
337,0.00318463053554296,0.069841630756855,0.0246882010251284,-0.00893328990787268,-0.0194619484245777,0.00210269913077354
338,0.00323950313031673,0.0701180323958397,0.0253242570906878,-0.00966917723417282,-0.0194938331842422,0.00187650159932673
339,0.00300036789849401,0.0693560764193535,0.0253162570297718,-0.0125076817348599,-0.0203513838350773,-1.92116749531124E-06
340,0.00309723359532654,0.0684533640742302,0.0254151057451963,-0.0153975458815694,-0.021867485716939,-0.00204215804114938
341,0.00242462358437479,0.0677901729941368,0.0253453776240349,-0.0167069789022207,-0.0242117941379547,-0.00289081688970327
342,0.00150853861123323,0.0676197037100792,0.0253031123429537,-0.0164060518145561,-0.0259569585323334,-0.0022707455791533
343,0.00153726304415613,0.0682525783777237,0.0254553835839033,-0.0159108582884073,-0.0259993951767683,-0.000991004519164562
344,0.00109149806667119,0.0690491050481796,0.0242393929511309,-0.017038319259882,-0.0265350677073002,-0.000652314221952111
345,-0.000507906544953585,0.069695957005024,0.0214606132358313,-0.0190731398761272,-0.0286125261336565,-0.000853621982969344
346,-0.00170040014199913,0.0706480666995049,0.0188485998660326,-0.0201221406459808,-0.0302181150764227,-0.000413366360589862
347,-0.00196730811148882,0.0717005729675293,0.0170624759048224,-0.0203819274902344,-0.0303661804646254,-0.000284268317045644
348,-0.00161197723355144,0.072451077401638,0.0165358260273933,-0.0209889989346266,-0.0293464139103889,-0.000873637618497014
349,-0.00112974073272198,0.0728708729147911,0.0173435658216476,-0.0222786888480186,-0.0277992617338896,-0.000897355377674103
350,-0.000349201407516375,0.0736135244369507,0.0195278283208609,-0.0225474070757627,-0.0260264463722706,0.00109050364699215
351,0.00194611097685993,0.0754249691963196,0.02364207431674,-0.0202687084674835,-0.0238170996308327,0.00568031100556254
352,0.00504469685256481,0.0775968432426453,0.0275366045534611,-0.0182701293379068,-0.0228096414357424,0.0109485778957605
353,0.00707727810367942,0.0794978365302086,0.0284659285098314,-0.019425593316555,-0.0251435302197933,0.014338169246912
354,0.0077329408377409,0.0816482827067375,0.0276168547570705,-0.0217479895800352,-0.0302017498761415,0.0156961251050234
355,0.00770627241581678,0.0837533921003342,0.0281537529081106,-0.0224087182432413,-0.0352655425667763,0.015424064360559
356,0.00771214859560132,0.0844822749495506,0.0307988058775663,-0.0215825252234936,-0.0382878929376602,0.0123667130246758
357,0.0077918260358274,0.0833171978592873,0.0326168872416019,-0.0219245478510857,-0.0400981269776821,0.00576324108988047
358,0.00735539477318525,0.0814651772379875,0.0304740779101849,-0.0256449095904827,-0.0432347171008587,-0.00200488069094718
359,0.00614256877452135,0.0800627395510674,0.0245224796235561,-0.0321330577135086,-0.0487999618053436,-0.00799334142357111
360,0.00536515982821584,0.079343244433403,0.01847879961133,-0.0382013730704784,-0.0545314587652683,-0.0117504335939884
361,0.0067216893658042,0.0801752135157585,0.0159456916153431,-0.0403942540287972,-0.0575110614299774,-0.0131819183006883
362,0.0095829339697957,0.0830828621983528,0.0157965738326311,-0.0389283560216427,-0.0585515014827251,-0.0122162839397788
363,0.0117517234757543,0.0866013392806053,0.0143548827618361,-0.0377999618649483,-0.0600954107940197,-0.0109724001958966
364,0.012492991052568,0.0888993814587593,0.0109486589208245,-0.0399285107851028,-0.0626722723245621,-0.0123614771291614
365,0.0128406714648008,0.089838020503521,0.0073360069654882,-0.0443875528872013,-0.0657246336340904,-0.0164047852158546
366,0.0130658345296979,0.0897433385252953,0.00343160633929074,-0.0493310242891312,-0.0698196738958359,-0.0218637194484472
367,0.012579976581037,0.0886300057172775,-0.000814276514574885,-0.0542448051273823,-0.0757563039660454,-0.0290328282862902
368,0.0124735357239842,0.0879488363862038,-0.00255116634070873,-0.0572458542883396,-0.08148243278265,-0.0362289175391197
369,0.0138011118397117,0.0891410037875175,-0.000868707429617643,-0.0566077940165997,-0.0843560546636581,-0.0401736162602901
370,0.015663705766201,0.0912728309631348,0.0013705100864172,-0.0546254329383373,-0.0850236713886261,-0.0413923785090446
371,0.0167446415871382,0.0922284573316574,0.00101493753027171,-0.0558635555207729,-0.0865857526659966,-0.0447087660431862
372,0.0166137423366308,0.0911991819739342,-0.00414753239601851,-0.0633814781904221,-0.0920834913849831,-0.0544862002134323
373,0.0164086762815714,0.0896824076771736,-0.0145184267312288,-0.0758188143372536,-0.102069340646267,-0.0695691332221031
374,0.0168246179819107,0.0887169539928436,-0.0283861309289932,-0.0892128497362137,-0.114766351878643,-0.0857238322496414
375,0.0176181383430958,0.0879627838730812,-0.04173793643713,-0.0999469310045242,-0.126679748296738,-0.0998646020889282
376,0.0190228316932917,0.0873766914010048,-0.0506997890770435,-0.106389060616493,-0.133762672543526,-0.110939487814903
377,0.020465100184083,0.0864658951759338,-0.0556698516011238,-0.11024484038353,-0.135560870170593,-0.12057325989008
378,0.0213754065334797,0.0848964676260948,-0.0585612878203392,-0.113469116389751,-0.134636357426643,-0.130051866173744
379,0.022302258759737,0.083470843732357,-0.0601510256528854,-0.11611495167017,-0.133493542671204,-0.138563483953476
380,0.0229690484702587,0.0825022310018539,-0.0628847628831863,-0.118869125843048,-0.1350287348032,-0.146117329597473
381,0.0220578946173191,0.0810751169919968,-0.0700062364339828,-0.124320477247238,-0.141403824090958,-0.154774591326714
382,0.0204621944576502,0.0793414860963821,-0.0802591145038605,-0.132720857858658,-0.150254979729652,-0.164578795433044
383,0.0208563655614853,0.0793445482850075,-0.0886169373989105,-0.139952152967453,-0.15640552341938,-0.171579524874687
384,0.0224979929625988,0.0813606083393097,-0.0931376442313194,-0.143115803599358,-0.158677041530609,-0.173567235469818
385,0.0231870356947184,0.0830907821655273,-0.0947659537196159,-0.142746940255165,-0.158363774418831,-0.17248560488224
386,0.0233475398272276,0.0829670131206512,-0.0939220860600472,-0.140667229890823,-0.155449762940407,-0.171072438359261
387,0.023030623793602,0.0808284133672714,-0.0925962850451469,-0.139960393309593,-0.151929244399071,-0.172053575515747
388,0.0218492038547993,0.0777052640914917,-0.0936656817793846,-0.143119469285011,-0.150809019804001,-0.176955044269562
389,0.0207335613667965,0.0755510702729225,-0.0984101668000221,-0.149906352162361,-0.153208091855049,-0.184296280145645
390,0.0199991147965193,0.0750555694103241,-0.106550239026546,-0.158346846699715,-0.158935368061066,-0.191621944308281
391,0.0192042905837297,0.0753170698881149,-0.115714877843857,-0.165690734982491,-0.165741205215454,-0.197377681732178
392,0.0189124625176191,0.0758826360106468,-0.121567785739899,-0.168949171900749,-0.169343739748001,-0.200259283185005
393,0.0203295536339283,0.0766950845718384,-0.120957344770432,-0.167214140295982,-0.166672438383102,-0.199547618627548
394,0.0227278005331755,0.076899491250515,-0.115563295781612,-0.163053661584854,-0.15940323472023,-0.196456775069237
395,0.0244129337370396,0.0759296119213104,-0.109386630356312,-0.159052401781082,-0.151414334774017,-0.192924797534943
396,0.025591641664505,0.0742532536387444,-0.104100748896599,-0.155286192893982,-0.144521981477737,-0.189489349722862
397,0.0267263073474169,0.0723296031355858,-0.0997879356145859,-0.151425734162331,-0.138802513480186,-0.185952246189117
398,0.0281074978411198,0.0706147849559784,-0.0956239253282547,-0.146916449069977,-0.132430046796799,-0.181989446282387
399,0.0298013146966696,0.069441482424736,-0.0912230908870697,-0.141823843121529,-0.124385736882687,-0.178087413311005
400,0.0301375743001699,0.0684191212058067,-0.0886651501059532,-0.138576656579971,-0.117585562169552,-0.176262706518173
401,0.0289386138319969,0.0677802637219429,-0.0887004360556602,-0.138115838170052,-0.1139305382967,-0.176574721932411
402,0.0282051600515842,0.0681048259139061,-0.0890789702534676,-0.138495147228241,-0.111533910036087,-0.176618084311485
403,0.028987867757678,0.0692605525255203,-0.0867519378662109,-0.137131676077843,-0.106942482292652,-0.174373134970665
404,0.0302597507834435,0.0706858783960342,-0.0807040855288506,-0.13300085067749,-0.098517119884491,-0.169825360178947
405,0.0301815010607243,0.0711066648364067,-0.0736836791038513,-0.128093406558037,-0.0890539288520813,-0.164986535906792
406,0.0291826296597719,0.0699265375733376,-0.0686322152614594,-0.124350391328335,-0.0821180418133736,-0.160984262824059
407,0.0304259303957224,0.0691117942333221,-0.0645156502723694,-0.119865208864212,-0.0767918825149536,-0.155879750847816
408,0.0350467525422573,0.0704149231314659,-0.0590749345719814,-0.11219584196806,-0.0706063657999039,-0.148137435317039
409,0.0397899448871613,0.0725682899355888,-0.0536163412034512,-0.103685058653355,-0.0645364373922348,-0.140427440404892
410,0.0419264137744904,0.0739405527710915,-0.0503679066896439,-0.0978135913610458,-0.060206051915884,-0.135503277182579
411,0.0410104282200336,0.0736935585737228,-0.0498580522835255,-0.0954346880316734,-0.0580231547355652,-0.133426919579506
412,0.0375693067908287,0.0716154202818871,-0.0509473755955696,-0.0954565852880478,-0.0572575479745865,-0.133213758468628
413,0.033582404255867,0.0694630965590477,-0.0501115620136261,-0.0941446200013161,-0.0547961033880711,-0.131673112511635
414,0.0309851430356503,0.069043442606926,-0.0444071441888809,-0.0876574441790581,-0.0479868724942207,-0.125527396798134
415,0.0300586577504873,0.0697757229208946,-0.0353148393332958,-0.0768276154994965,-0.0378605835139751,-0.11626373976469
416,0.0302741192281246,0.070108525454998,-0.0266370102763176,-0.0659342482686043,-0.0270267203450203,-0.108136095106602
417,0.0309689063578844,0.0697032883763313,-0.0202121920883656,-0.0584199950098991,-0.0172355566173792,-0.103363923728466
418,0.0319680273532867,0.0695247575640678,-0.0153358737006783,-0.0542184412479401,-0.00888166576623917,-0.100056305527687
419,0.0330763347446918,0.0699095129966736,-0.0113473040983081,-0.0513066574931145,-0.0019376672571525,-0.0955392941832542
420,0.0331320054829121,0.0700476095080376,-0.00862679909914732,-0.0489336550235748,0.00286845467053354,-0.0906037390232086
421,0.0326298624277115,0.0702970996499062,-0.00582300312817097,-0.0453778207302094,0.00673171738162637,-0.0859983563423157
422,0.0332714766263962,0.0717156305909157,-0.000896665384061635,-0.038330402225256,0.011980539187789,-0.0804829820990562
423,0.0345772057771683,0.073379747569561,0.00563272461295128,-0.0293451212346554,0.0187047366052866,-0.0742603987455368
424,0.0340991877019405,0.0728261843323708,0.011096672154963,-0.0227939281612635,0.0248151943087578,-0.0697401762008667
425,0.0304888244718313,0.0691994056105614,0.0134285287931561,-0.0206380616873503,0.028176287189126,-0.0686757490038872
426,0.0259424559772015,0.0647657886147499,0.0136096691712737,-0.0204637572169304,0.0293304696679115,-0.069454737007618
427,0.0234854854643345,0.0625412911176682,0.0135450065135956,-0.0189442113041878,0.0300188083201647,-0.0683234855532646
428,0.0228861086070538,0.062565341591835,0.0134002426639199,-0.0154865486547351,0.0306728463619947,-0.0642281174659729
429,0.0224547740072012,0.0622523501515388,0.0136482017114758,-0.0112640634179115,0.0319843739271164,-0.0593205317854881
430,0.0224805418401957,0.0605411157011986,0.0162521693855524,-0.00613913265988231,0.0359704084694386,-0.0544810704886913
431,0.0238224789500237,0.0584942735731602,0.0218691881746054,0.000590531446505338,0.0434701219201088,-0.0490402765572071
432,0.0268321689218283,0.0571447908878326,0.0299982726573944,0.00908206310123205,0.0536516755819321,-0.0423611290752888
433,0.0314566530287266,0.0566227585077286,0.040029801428318,0.0189263597130775,0.065100371837616,-0.0346895083785057
434,0.036063838750124,0.0564070865511894,0.0495365560054779,0.0281851012259722,0.0752923637628555,-0.0279608070850372
435,0.0386983677744865,0.0562906935811043,0.0557788871228695,0.0349073000252247,0.081782191991806,-0.0233834069222212
436,0.0384599044919014,0.0559460259974003,0.0575959756970406,0.0380436517298222,0.0835313573479652,-0.0211336240172386
437,0.0364435128867626,0.0550987087190151,0.0563751645386219,0.0384256206452847,0.0821106284856796,-0.0208242349326611
438,0.0347878076136112,0.0541873648762703,0.0554542578756809,0.0387891605496407,0.0807426497340202,-0.0206588115543127
439,0.0341691263020039,0.0531848222017288,0.0569579228758812,0.0407628156244755,0.0813451185822487,-0.0194788202643394
440,0.0340150073170662,0.0513603277504444,0.0602600425481796,0.0439266227185726,0.0837695375084877,-0.0179443396627903
441,0.033544335514307,0.0485486388206482,0.0632535368204117,0.0469949766993523,0.0866605788469315,-0.0176241397857666
442,0.0330699793994427,0.0458074621856213,0.0659541562199593,0.0496340915560722,0.0898105055093765,-0.0184887424111366
443,0.0325972698628902,0.044003251940012,0.0686132609844208,0.0511393211781979,0.0926180332899094,-0.0192745793610811
444,0.0316805839538574,0.0436556451022625,0.0699257776141167,0.0510030351579189,0.093418300151825,-0.0189908500760794
445,0.0311275199055672,0.0455125756561756,0.0700668096542358,0.0510910376906395,0.0923586264252663,-0.0160806924104691
446,0.0306695979088545,0.0488916262984276,0.0696799904108047,0.05218505859375,0.090397872030735,-0.0105311935767531
447,0.0297498740255833,0.0523081049323082,0.0701323822140694,0.053901270031929,0.0894893407821655,-0.00402022758498788
448,0.0299688912928104,0.0557776130735874,0.0743086785078049,0.0578337162733078,0.0925450772047043,0.00339584029279649
449,0.0321412608027458,0.0596773326396942,0.0823658481240273,0.0644392296671867,0.0992573276162148,0.0117186196148396
450,0.0340544320642948,0.0627435818314552,0.090247817337513,0.0700620859861374,0.105452165007591,0.017810083925724
451,0.0346353128552437,0.0642224550247192,0.0951002687215805,0.0725984573364258,0.10826450586319,0.0201435908675194
452,0.0357855372130871,0.0655524805188179,0.0976436212658882,0.0743236020207405,0.108120270073414,0.0217864345759153
453,0.037221934646368,0.0670175552368164,0.0977220386266708,0.0754260271787643,0.105057060718536,0.0235925391316414
454,0.036157451570034,0.066423237323761,0.0941906422376633,0.0736680403351784,0.0987694784998894,0.0233638565987349
455,0.0327109545469284,0.0625884160399437,0.0891954973340034,0.070830374956131,0.091948464512825,0.0227036345750093
456,0.0291312783956528,0.0562051311135292,0.0863584354519844,0.0706433057785034,0.0881811678409576,0.0250793285667896
457,0.0262040533125401,0.0481692515313625,0.0868602097034454,0.0736209154129028,0.0886282101273537,0.0302867796272039
458,0.0233324393630028,0.0394895300269127,0.0890180915594101,0.0775806456804276,0.0916611924767494,0.0363081470131874
459,0.0192521549761295,0.0311646834015846,0.0894084721803665,0.0792515724897385,0.0934813916683197,0.0415041260421276
460,0.0143472580239177,0.0241599772125483,0.0867497175931931,0.077644020318985,0.0919854119420052,0.0455065481364727
461,0.0108510721474886,0.0191852543503046,0.0831202194094658,0.0749733597040176,0.0886271521449089,0.0494824163615704
462,0.0085451602935791,0.0157950147986412,0.0795511677861214,0.0721053928136826,0.0844338312745094,0.0533456206321716
463,0.00589578598737717,0.013415320776403,0.0758728757500649,0.0688536092638969,0.0797735974192619,0.0564472302794456
464,0.00381469563581049,0.0123696653172374,0.073375940322876,0.0671240389347076,0.0769152790307999,0.0597855187952518
465,0.00388139276765287,0.0129063157364726,0.0735441371798515,0.0687882825732231,0.0778546035289764,0.0642769113183022
466,0.00658177817240357,0.0148254949599504,0.0770843997597694,0.0736069530248642,0.0825418159365654,0.0707627981901169
467,0.0104651274159551,0.0169944539666176,0.082147590816021,0.0789533257484436,0.0884198993444443,0.079342857003212
468,0.0133106866851449,0.0177644770592451,0.084872841835022,0.081846110522747,0.0919211506843567,0.0877366811037064
469,0.0142485722899437,0.016273295506835,0.083528071641922,0.0815874710679054,0.0914918705821037,0.0934059992432594
470,0.0131163438782096,0.0124272694811225,0.0789466798305511,0.0786000564694405,0.0878022313117981,0.0952003821730614
471,0.011035424657166,0.00738643575459719,0.0739929899573326,0.0745870396494865,0.0838810354471207,0.0944431647658348
472,0.00984785985201597,0.00324737746268511,0.0718929842114449,0.072359599173069,0.083078421652317,0.0945985838770866
473,0.00937206484377384,0.0010983245447278,0.0726508870720863,0.0722127333283424,0.0849950239062309,0.0968050956726074
474,0.0083373012021184,0.000350310554495081,0.0738132745027542,0.0722660347819328,0.0865993574261665,0.0989679247140884
475,0.00686555076390505,-8.261417679023E-05,0.0737762376666069,0.0714950785040855,0.0861948803067207,0.0995210036635399
476,0.00588250020518899,-0.000573894998524338,0.0726853832602501,0.0701545551419258,0.0842807218432426,0.0990049540996552
477,0.00586974481120706,-0.000918998848646879,0.0715228691697121,0.0692095458507538,0.0819895640015602,0.098869800567627
478,0.00553644634783268,-0.00158589286729693,0.0697401016950607,0.0678562670946121,0.0788017734885216,0.0988704636693001
479,0.00329978996887803,-0.00316466577351093,0.0663006380200386,0.0644650980830193,0.0740793794393539,0.0979462116956711
480,-0.000213875129702501,-0.00533846765756607,0.0623546540737152,0.060115423053503,0.0690811350941658,0.0966903269290924
481,-0.00407991837710142,-0.0075500919483602,0.0593102537095547,0.0567243732511997,0.0645375773310661,0.0964431092143059
482,-0.0067979502491653,-0.00841054320335388,0.0583979710936546,0.056020513176918,0.0612857080996037,0.0991220399737358
483,-0.00615269364789128,-0.00688296929001808,0.0607010386884212,0.058811578899622,0.0609537549316883,0.10541120916605
484,-0.00207135477103293,-0.00389656657353044,0.0655614212155342,0.0636735185980797,0.0636940822005272,0.113126762211323
485,0.00239213113673031,-0.0010867485543713,0.0701314434409142,0.0681761428713799,0.0669633150100708,0.119404003024101
486,0.00378773408010602,0.000121185905300081,0.0712288841605186,0.070250540971756,0.0675312578678131,0.122267797589302
487,0.00217154948040843,-0.00129423395264894,0.0688614249229431,0.0690884292125702,0.0653379783034325,0.120863489806652
488,-0.00046969871618785,-0.00516238482668996,0.0652171820402145,0.0649422854185104,0.0624890923500061,0.116402052342892
489,-0.00229571806266904,-0.00878606643527746,0.0627478733658791,0.0610591508448124,0.0611758418381214,0.11375417560339
490,-0.00212724832817912,-0.00963701400905848,0.0631570890545845,0.0614661835134029,0.0619222782552242,0.11679395288229
491,-0.0012568305246532,-0.00878853257745504,0.0648571848869324,0.0645111277699471,0.0621757656335831,0.123034626245499
492,-0.00247222906909883,-0.00893575139343739,0.0644413903355598,0.0652791410684586,0.0591875463724136,0.127182990312576
493,-0.00567784160375595,-0.0107263494282961,0.0618235617876053,0.0633079186081886,0.0541930347681046,0.127756342291832
494,-0.00738459546118975,-0.0125904958695173,0.0601871758699417,0.0619820617139339,0.0513781569898129,0.127562865614891
495,-0.00596744660288095,-0.0130784520879388,0.061039786785841,0.0627043843269348,0.0521267279982567,0.129059553146362
496,-0.00299311452545226,-0.0116281863301992,0.0633078366518021,0.0647817403078079,0.0544042102992535,0.132782444357872
497,-0.00104502984322608,-0.00938515923917294,0.064793735742569,0.0663535222411156,0.0556478947401047,0.136874124407768
498,-0.00210236595012248,-0.00878772139549255,0.0636892318725586,0.0651541873812675,0.0543659292161465,0.13814052939415
499,-0.00707763666287065,-0.0114370556548238,0.0593161731958389,0.0601382218301296,0.0497855879366398,0.135046735405922
500,-0.0149857699871063,-0.0165567342191935,0.0526121743023396,0.0525628849864006,0.0424007028341293,0.129077687859535
501,-0.0216622315347195,-0.0209084339439869,0.0469805374741554,0.0466235615313053,0.0360475890338421,0.12431462854147
502,-0.0232774876058102,-0.0219208523631096,0.0453753955662251,0.0455780848860741,0.0345213301479816,0.123583860695362
503,-0.0204383675009012,-0.0203341841697693,0.0470274724066257,0.0480845831334591,0.0367452763020992,0.125811278820038
504,-0.0175233446061611,-0.0188250336796045,0.048204593360424,0.0501540154218674,0.0380551554262638,0.127866640686989
505,-0.0172939207404852,-0.0184193775057793,0.0468537881970406,0.050294816493988,0.0364277772605419,0.128166705369949
506,-0.0185689777135849,-0.0183749161660671,0.0444887913763523,0.0496518313884735,0.0336113311350346,0.127253174781799
507,-0.0201122276484966,-0.0186810567975044,0.0426478013396263,0.04796377196908,0.0307304691523314,0.125527381896973
508,-0.0206850841641426,-0.0186343491077423,0.0424058064818382,0.046070784330368,0.0289301425218582,0.124932013452053
509,-0.0190009009093046,-0.0168505664914846,0.0443759597837925,0.0463317483663559,0.0294939484447241,0.127724558115005
510,-0.0169157385826111,-0.014186218380928,0.0463431067764759,0.047622311860323,0.0305003877729177,0.131686925888062
511,-0.0167252887040377,-0.0117970164865255,0.0462016873061657,0.0478299632668495,0.0294421352446079,0.13398665189743
512,-0.0179784260690212,-0.00919966399669647,0.044569618999958,0.0473967678844929,0.0266975145787001,0.13518138229847
513,-0.0190973654389381,-0.00565701350569725,0.0430164113640785,0.0474020428955555,0.0239912588149309,0.136779934167862
514,-0.0199765264987946,-0.0017158193513751,0.0420282408595085,0.0471277087926865,0.0216730553656816,0.13835945725441
515,-0.0220235344022512,0.0010204907739535,0.0405331067740917,0.0451069958508015,0.018624572083354,0.138286396861076
516,-0.0247946996241808,0.00219333171844482,0.0384393483400345,0.0421293079853058,0.0153009379282594,0.136860191822052
517,-0.0257672443985939,0.00297774979844689,0.0376447699964046,0.040324442088604,0.0139618730172515,0.135651290416718
518,-0.0241495184600353,0.00425770971924067,0.0392803177237511,0.0402652621269226,0.0153833646327257,0.134929329156876
519,-0.0223785396665335,0.00545613467693329,0.0419033654034138,0.0404524952173233,0.0178311038762331,0.133390814065933
520,-0.0219556093215942,0.00583111029118299,0.0442184805870056,0.0402088649570942,0.0196484569460154,0.130866542458534
521,-0.0217079073190689,0.00537971034646034,0.0456504784524441,0.039559431374073,0.0196727775037289,0.128143116831779
522,-0.0208234693855047,0.00446982821449637,0.0451779216527939,0.0377786606550217,0.0171634666621685,0.125094816088676
523,-0.02003463357687,0.00387960276566446,0.0428407229483128,0.0350709781050682,0.0130759226158261,0.12192627042532
524,-0.0205534305423498,0.00404703011736274,0.0393464826047421,0.0320085249841213,0.00832561869174242,0.119002841413021
525,-0.0212762989103794,0.00540244439616799,0.0364647768437862,0.0298048853874207,0.00423419428989291,0.116907671093941
526,-0.0200519226491451,0.00833517406135798,0.0364345349371433,0.0299315825104713,0.00307225738652051,0.116208098828793
527,-0.0170846823602915,0.012095944955945,0.0388343408703804,0.0317678600549698,0.00492856185883284,0.116685420274735
528,-0.0148452399298549,0.0148035595193505,0.040335226804018,0.0324812792241573,0.00645984103903174,0.11686298251152
529,-0.0154684279114008,0.0152435600757599,0.0385166704654694,0.0300250183790922,0.00457808375358582,0.114505350589752
530,-0.0180058050900698,0.0142697412520647,0.0352102890610695,0.0257300809025764,0.000534853956196457,0.10969265550375
531,-0.0208106655627489,0.0130384769290686,0.0329028628766537,0.0210337042808533,-0.00315946107730269,0.104733102023602
532,-0.0237831547856331,0.0122024239972234,0.0315275453031063,0.0162132512778044,-0.00614045327529311,0.101459659636021
533,-0.0264722555875778,0.0122829852625728,0.0307735372334719,0.0122397737577558,-0.00868471246212721,0.0999656692147255
534,-0.0281274728477001,0.0130864679813385,0.0304289162158966,0.00944535899907351,-0.0113369449973106,0.0989276096224785
535,-0.0284027885645628,0.0141539415344596,0.0300456508994102,0.00781265180557966,-0.0143979843705893,0.0977343022823334
536,-0.0265876911580563,0.0156082501634955,0.0303381253033876,0.00816296599805355,-0.0163118168711662,0.097643181681633
537,-0.0229443907737732,0.017732996493578,0.0320439860224724,0.0102223046123981,-0.0155624765902758,0.099335566163063
538,-0.0195883810520172,0.0199891291558743,0.0341083891689777,0.0118988901376724,-0.0134919928386807,0.101061843335629
539,-0.0176723506301641,0.0216284282505512,0.0352176651358604,0.0118027478456497,-0.0120794689282775,0.101126372814178
540,-0.0160028468817472,0.0230703242123127,0.0362561084330082,0.0110532138496637,-0.0105870636180043,0.100292026996613
541,-0.0139358239248395,0.0247190836817026,0.0383212342858315,0.0108842952176929,-0.00833418779075146,0.0998966619372368
542,-0.0133642191067338,0.0255465637892485,0.0396864451467991,0.0100364247336984,-0.00773901818320155,0.0989945083856583
543,-0.0159827265888453,0.0245044454932213,0.0381408743560314,0.00685896910727024,-0.010662061162293,0.0955174714326859
544,-0.0205685626715422,0.0218461845070124,0.0337837152183056,0.0016563234385103,-0.0157708618789911,0.0895316749811172
545,-0.0243824347853661,0.0191785003989935,0.0286654643714428,-0.00355439772829413,-0.0204651914536953,0.0836629718542099
546,-0.0254371948540211,0.0184833370149136,0.0254007261246443,-0.00593375507742167,-0.0224264655262232,0.0810046121478081
547,-0.0242668315768242,0.0197817236185074,0.0244837030768394,-0.00505589414387941,-0.0217544250190258,0.0817544758319855
548,-0.0226850360631943,0.0214376244693995,0.0243782680481672,-0.00337386108003557,-0.0205182116478682,0.0834330171346664
549,-0.0211206637322903,0.0227724425494671,0.0245486740022898,-0.00224293465726078,-0.0191729702055454,0.084603525698185
550,-0.0197574738413095,0.024015836417675,0.0252869836986065,-0.00186998711433262,-0.0173848252743483,0.08491151034832
551,-0.0184919871389866,0.0253428388386965,0.0266986824572086,-0.00217649200931191,-0.0155259408056736,0.0845689997076988
552,-0.0165700688958168,0.0268098060041666,0.0286710578948259,-0.00246972544118762,-0.0138348704203963,0.0843213424086571
553,-0.0145820053294301,0.0279349461197853,0.0302025880664587,-0.0026714785490185,-0.0129972314462066,0.0838584825396538
554,-0.013486017473042,0.0283229127526283,0.0304215885698795,-0.00246558664366603,-0.0139538580551744,0.082852877676487
555,-0.0134593155235052,0.0283767823129892,0.0295094046741724,-0.00113767222501338,-0.0168124530464411,0.0816553458571434
556,-0.0147291840985417,0.0280770026147366,0.0278766881674528,-0.000368496199371293,-0.020935345441103,0.0793251767754555
557,-0.0163019336760044,0.0274609681218863,0.0264101848006248,-0.00203574425540864,-0.0242124050855637,0.076029546558857
558,-0.0166070256382227,0.0273879189044237,0.025660265237093,-0.00535793742164969,-0.0244159679859877,0.0739404410123825
559,-0.0158970039337873,0.0278594791889191,0.0250544808804989,-0.00893065799027681,-0.0220336448401213,0.0732060819864273
560,-0.0147192515432835,0.0282955579459667,0.0248166285455227,-0.011196443811059,-0.0185900181531906,0.0730063915252686
561,-0.0128882536664605,0.028636796399951,0.0258891321718693,-0.0109992614015937,-0.014645273797214,0.0736931636929512
562,-0.0106839397922158,0.0290390234440565,0.0278833042830229,-0.00896286778151989,-0.0108520891517401,0.075481154024601
563,-0.00928771309554577,0.0293157249689102,0.0289039891213179,-0.00730562349781394,-0.00887790229171515,0.0772355422377586
564,-0.00960888434201479,0.0291631426662207,0.0278675630688667,-0.0078674079850316,-0.00986654125154018,0.0773807018995285
565,-0.0108005907386541,0.0290417782962322,0.0260621793568134,-0.0096917012706399,-0.0124477380886674,0.0759123414754868
566,-0.0113630192354321,0.0294831022620201,0.0251682922244072,-0.0106283016502857,-0.0144712189212441,0.0741657540202141
567,-0.0113564841449261,0.0299067925661802,0.0246495064347982,-0.0108833936974406,-0.0161044560372829,0.072294294834137
568,-0.0110886273905635,0.0300608463585377,0.0238212775439024,-0.0111955041065812,-0.0177272297441959,0.0700089856982231
569,-0.00932816974818707,0.031123423948884,0.0240806676447392,-0.0103019867092371,-0.0176873654127121,0.0691312327980995
570,-0.00638985680416226,0.0329911708831787,0.0252815559506416,-0.00888082478195429,-0.0160583555698395,0.0697219520807266
571,-0.00454172166064382,0.0342885330319405,0.0255448073148727,-0.00937691424041986,-0.0148593187332153,0.0691692158579826
572,-0.0047487742267549,0.0350550264120102,0.0245162844657898,-0.0116436313837767,-0.0147445108741522,0.0668268650770187
573,-0.0060314848087728,0.0359512344002724,0.0231828577816486,-0.0135141164064407,-0.014937449246645,0.0641145631670952
574,-0.00756321847438812,0.0362500473856926,0.0217475909739733,-0.0143296793103218,-0.0152506632730365,0.0615601241588593
575,-0.00976559147238731,0.0347930006682873,0.0193185787647963,-0.0153330089524388,-0.0166714321821928,0.0583058744668961
576,-0.0121970036998391,0.032386377453804,0.0165727958083153,-0.016393069177866,-0.0188866406679153,0.0547251291573048
577,-0.0136863309890032,0.0310132149606943,0.0149749713018537,-0.0163130518049002,-0.0207022484391928,0.0525088310241699
578,-0.0151121867820621,0.0308448430150747,0.013356750831008,-0.0159075278788805,-0.0230880994349718,0.0514459162950516
579,-0.0172693934291601,0.0310459304600954,0.0107287485152483,-0.015943419188261,-0.0263608228415251,0.0504381284117699
580,-0.0172861069440842,0.0329113230109215,0.0101540507748723,-0.0135290818288922,-0.0267902780324221,0.0513458773493767
581,-0.0139651326462626,0.0369136072695255,0.0129239056259394,-0.00778041733428836,-0.0230451058596373,0.0550677254796028
582,-0.0118528734892607,0.0398929305374622,0.0142991105094552,-0.00380009785294533,-0.0203227046877146,0.0579959042370319
583,-0.0137659031897783,0.0397832542657852,0.0111834537237883,-0.00455402908846736,-0.0221798811107874,0.0580694600939751
584,-0.016345014795661,0.0385586060583591,0.00726094795390964,-0.00669133616611362,-0.0251982975751162,0.0574811324477196
585,-0.0169978011399508,0.0382685661315918,0.00626165000721812,-0.0072105866856873,-0.0254099145531654,0.057488776743412
586,-0.0176030527800322,0.0376711040735245,0.00665281852707267,-0.00762583734467626,-0.0240144114941359,0.0561703070998192
587,-0.0187121629714966,0.0354968085885048,0.00659314915537834,-0.00905086845159531,-0.0231293439865112,0.0531466454267502
588,-0.0185391567647457,0.0329152420163155,0.00652722083032131,-0.010267318226397,-0.0227202083915472,0.0505414120852947
589,-0.0176052041351795,0.0306802596896887,0.00599627289921045,-0.0113523146137595,-0.0234978850930929,0.0485532470047474
590,-0.0178558267652988,0.02843845076859,0.00407435512170196,-0.0127395205199718,-0.0266108959913254,0.0463906824588776
591,-0.0202479530125856,0.0256405994296074,0.000262866902630776,-0.0146280899643898,-0.0322567597031593,0.0437360070645809
592,-0.0233346316963434,0.0225295480340719,-0.0041416366584599,-0.0165605656802654,-0.0380721464753151,0.0409892126917839
593,-0.0233708117157221,0.0210538133978844,-0.00496530812233686,-0.0155160939320922,-0.0390492305159569,0.0407637096941471
594,-0.0196423344314098,0.0219630841165781,-0.000661036872770637,-0.0101631451398134,-0.0341617129743099,0.0443975478410721
595,-0.0158595126122236,0.0232737511396408,0.00489832647144794,-0.00404065381735563,-0.0285415127873421,0.0491889379918575
596,-0.0142300380393863,0.0234952699393034,0.00796018075197935,-0.000821114226710051,-0.0262790061533451,0.052349828183651
597,-0.0128395268693566,0.0235319659113884,0.0088829267770052,-0.000108468324469868,-0.0260121859610081,0.0540084578096867
598,-0.00971060339361429,0.0245644766837358,0.0096500227227807,0.000402999779907987,-0.0248792208731174,0.0554266162216663
599,-0.00608597090467811,0.0258167814463377,0.0102962134405971,0.00107954966370016,-0.023239754140377,0.0563625916838646
600,-0.00462000910192728,0.025070970878005,0.00885098986327648,-5.34484934178181E-05,-0.0237791575491428,0.0544767007231712
601,-0.00649440381675959,0.0212563928216696,0.00389416422694921,-0.00414587697014213,-0.027982585132122,0.0484225265681744
602,-0.0100859506055713,0.016133688390255,-0.002513169310987,-0.00902507361024618,-0.0337511636316776,0.0408849790692329
603,-0.0130291040986776,0.0118975006043911,-0.00694792252033949,-0.0125484336167574,-0.0378297232091427,0.0354079157114029
604,-0.0146954022347927,0.00899615697562695,-0.00853811949491501,-0.0148010728880763,-0.0392098501324654,0.0334813445806503
605,-0.0152205964550376,0.00731402914971113,-0.00787741504609585,-0.0155056212097406,-0.0383541435003281,0.035571463406086
606,-0.0145322540774941,0.0068763168528676,-0.00521343015134335,-0.0137797622010112,-0.0354994907975197,0.0408920869231224
607,-0.0131036033853889,0.00699801184237003,-0.00148757616989315,-0.01055065728724,-0.0312158111482859,0.0465949513018131
608,-0.0126617755740881,0.00628067832440138,0.000681590754538774,-0.00903298705816269,-0.0284074954688549,0.0487110242247581
609,-0.0134840020909905,0.00498146982863545,0.000204179988941178,-0.010063923895359,-0.0289127081632614,0.0468140095472336
610,-0.013977438211441,0.00456530647352338,-0.00193744665011764,-0.0113643174991012,-0.0312444735318422,0.0443542301654816
611,-0.0143581330776215,0.00456191878765821,-0.00571069028228521,-0.0123328166082501,-0.0343652665615082,0.0425168015062809
612,-0.0150268794968724,0.00411091558635235,-0.0102367680519819,-0.0133525971323252,-0.0372311137616634,0.0403203330934048
613,-0.0153511082753539,0.0034052471164614,-0.0140405632555485,-0.0147083979099989,-0.0387765467166901,0.0370454788208008
614,-0.0158063285052776,0.00241605332121253,-0.0174450855702162,-0.0171875115483999,-0.0397854745388031,0.0320469848811626
615,-0.0160768199712038,0.00189060275442898,-0.0199551898986101,-0.0192988626658916,-0.0399871245026588,0.0273867715150118
616,-0.0151863433420658,0.00253103137947619,-0.0205760337412357,-0.0190670508891344,-0.0384952090680599,0.0260683353990316
617,-0.0142749985679984,0.00343814585357904,-0.020185224711895,-0.0179969221353531,-0.0364882051944733,0.027062701061368
618,-0.0148212444037199,0.00399758480489254,-0.019724115729332,-0.0179761499166489,-0.0351175218820572,0.0280174184590578
619,-0.0160662326961756,0.00435550976544619,-0.0196301508694887,-0.0191016551107168,-0.0347445830702782,0.0283467378467321
620,-0.0163855887949467,0.00422621797770262,-0.0207161065191031,-0.0216938592493534,-0.0362011380493641,0.0272930692881346
621,-0.0156456176191568,0.00330108101479709,-0.0230052806437016,-0.0259139239788055,-0.0396552234888077,0.0239872355014086
622,-0.0145548423752189,0.00208680471405387,-0.0250290613621473,-0.0304685477167368,-0.0435401424765587,0.0193815063685179
623,-0.0137032940983772,0.00116026995237917,-0.0259432345628738,-0.0340689085423946,-0.0465137995779514,0.0147758219391108
624,-0.0133193517103791,0.000526547315530479,-0.0259019955992699,-0.0357726812362671,-0.0481770262122154,0.0108548998832703
625,-0.0129041457548738,0.000392505928175524,-0.0247929114848375,-0.0346261449158192,-0.0484485775232315,0.00852805376052856
626,-0.0123838884755969,0.000951110909227282,-0.0232451613992453,-0.0320139639079571,-0.0482825413346291,0.00738143175840378
627,-0.0121751567348838,0.00185244262684137,-0.0217935629189014,-0.0307106263935566,-0.0483210422098637,0.00638268375769258
628,-0.0120426397770643,0.00291113136336207,-0.0197721067816019,-0.0309967491775751,-0.047621663659811,0.00660168845206499
629,-0.0114611703902483,0.0043405843898654,-0.0170282162725925,-0.031198738142848,-0.0453745201230049,0.0091946953907609
630,-0.0096814688295126,0.00662258546799421,-0.0138396443799138,-0.0302379578351974,-0.0416168905794621,0.013095592148602
631,-0.00655392091721296,0.00997920893132687,-0.0105898696929216,-0.0284033082425594,-0.0370259620249271,0.0167712848633528
632,-0.00399904511868954,0.0133538627997041,-0.00895354244858027,-0.0273035932332277,-0.0336652547121048,0.0188496001064777
633,-0.00333674182184041,0.0157409328967333,-0.00983082875609398,-0.0276125557720661,-0.0331069454550743,0.0189423859119415
634,-0.00326354382559657,0.0175217036157846,-0.0116934068500996,-0.0280627869069576,-0.0343200713396072,0.0183432977646589
635,-0.00281941425055265,0.01880226098001,-0.0133000193163753,-0.0282636992633343,-0.0356856472790241,0.017432389780879
636,-0.00255060172639787,0.0191271547228098,-0.0148231685161591,-0.0288857985287905,-0.0368385948240757,0.0154268518090248
637,-0.00229504751041532,0.0192120485007763,-0.0156662072986364,-0.0290254838764668,-0.0376615822315216,0.0130988815799356
638,-0.00200426834635437,0.0197187438607216,-0.0155565906316042,-0.0280706770718098,-0.0388458222150803,0.0115131800994277
639,-0.00211902265436947,0.0201605390757322,-0.0154889710247517,-0.0271225851029158,-0.0410697795450687,0.0105104316025972
640,-0.00219383835792542,0.0204454027116299,-0.015934007242322,-0.0268514882773161,-0.0436587743461132,0.010059935040772
641,-0.00209810631349683,0.020990202203393,-0.0173501446843147,-0.0276498086750507,-0.0466739982366562,0.00979814026504755
642,-0.00284029613249004,0.0215137898921967,-0.0204143077135086,-0.0304430816322565,-0.0509978905320168,0.00828931294381619
643,-0.00575607316568494,0.020858708769083,-0.0252525005489588,-0.0360772758722305,-0.0568044036626816,0.00367079302668571
644,-0.00983609724789858,0.0190766118466854,-0.0298912655562162,-0.0424783527851105,-0.062035895884037,-0.0029629385098815
645,-0.011441552080214,0.0183146204799414,-0.0305663160979748,-0.044366255402565,-0.0631879791617393,-0.00645895814523101
646,-0.00947676412761211,0.0194931607693434,-0.0268355011940002,-0.0403182283043861,-0.0598236620426178,-0.00460872426629066
647,-0.00674743670970201,0.0212335810065269,-0.0229143053293228,-0.0351662002503872,-0.0552246533334255,-0.00129396317061037
648,-0.00468962313607335,0.0227839536964893,-0.0213867761194706,-0.032641839236021,-0.0517485328018665,1.83242045750376E-05
649,-0.00286247860640287,0.0237037502229214,-0.0215525832027197,-0.0330146960914135,-0.0501536466181278,-0.000497700646519661
650,-0.00123649882152677,0.0236564464867115,-0.022747540846467,-0.0350616872310638,-0.050332710146904,-0.000695954135153443
651,0.000678574026096612,0.0237085521221161,-0.0241164360195398,-0.036330733448267,-0.0503002554178238,0.00145461538340896
652,0.00226932368241251,0.0239530820399523,-0.0251756124198437,-0.0362428836524487,-0.048973698168993,0.00467784469947219
653,0.00220977701246738,0.023338045924902,-0.0260610207915306,-0.0363575108349323,-0.0469684191048145,0.00612649461254478
654,0.000442733144154772,0.0216595903038979,-0.0270271096378565,-0.037765059620142,-0.0452779121696949,0.00513176852837205
655,-0.00325867976062,0.0187450312077999,-0.0295344050973654,-0.0415374226868153,-0.0459006913006306,0.00169628753792495
656,-0.0075227259658277,0.0151310078799725,-0.0333065465092659,-0.0463479459285736,-0.0486628264188766,-0.00293051940388978
657,-0.00806572940200567,0.0135683938860893,-0.0340727120637894,-0.0468548834323883,-0.0489680916070938,-0.0039750337600708
658,-0.00329960789531469,0.0159659367054701,-0.0291590858250856,-0.0407157577574253,-0.0438597910106182,0.0015002068830654
659,0.00338754616677761,0.0204849392175674,-0.0213047806173563,-0.031993642449379,-0.0363124385476112,0.0101824495941401
660,0.0082028629258275,0.0238977205008268,-0.0148593997582793,-0.0257313288748264,-0.0310146939009428,0.0168933030217886
661,0.0103540830314159,0.0248440094292164,-0.0117265749722719,-0.0234059188514948,-0.0291527528315783,0.019683824852109
662,0.0107014989480376,0.023793226107955,-0.0119279287755489,-0.0236552376300097,-0.0294201951473951,0.0195172764360905
663,0.00888250675052404,0.0212993547320366,-0.0156623851507902,-0.0258048363029957,-0.0319508649408817,0.0171951055526733
664,0.00475416053086519,0.0180374458432198,-0.0216905642300844,-0.0292847510427237,-0.0367839895188808,0.0133899208158255
665,-1.95655084098689E-05,0.0149901462718844,-0.0268611609935761,-0.0322867855429649,-0.0415701791644096,0.0096654798835516
666,-0.00334149016998708,0.0128265675157309,-0.0288344360888004,-0.0331231243908405,-0.0435557179152966,0.00787424389272928
667,-0.00430739065632224,0.011965049430728,-0.02765160985291,-0.0312250908464193,-0.0426029860973358,0.00892679300159216
668,-0.00391770945861936,0.0122322058305144,-0.0253423377871513,-0.0278089977800846,-0.0413521341979504,0.0116620035842061
669,-0.00303585012443364,0.0131368972361088,-0.0229218211025,-0.0239863712340593,-0.0409009493887424,0.014529318548739
670,-0.0015186385717243,0.0146359773352742,-0.01978306658566,-0.0198142360895872,-0.0397419482469559,0.0175880696624517
671,-0.000198548208572902,0.0162258315831423,-0.0166400279849768,-0.0164452511817217,-0.0376339815557003,0.0206649471074343
672,0.000106978666735813,0.0166987329721451,-0.0149935847148299,-0.01504937838763,-0.0356055498123169,0.0220427196472883
673,0.000379531120415777,0.0157014559954405,-0.0145123200491071,-0.0150774586945772,-0.0336452201008797,0.0209143869578838
674,0.00157749839127064,0.0142935002222657,-0.013791742734611,-0.0154766719788313,-0.0315920077264309,0.0192879177629948
675,0.00272941426374018,0.0135392136871815,-0.0131018124520779,-0.0158978998661041,-0.0302859172224998,0.0194899644702673
676,0.00120924552902579,0.012600683607161,-0.0149475103244185,-0.0178346559405327,-0.0314310155808926,0.0199014972895384
677,-0.00441458960995078,0.00939328782260418,-0.020695872604847,-0.0230923611670733,-0.0358175225555897,0.0168580785393715
678,-0.0110945906490088,0.0043912916444242,-0.0269126482307911,-0.0293333549052477,-0.0405422225594521,0.0115422336384654
679,-0.0149498712271452,0.000365480897016823,-0.0298450402915478,-0.0328356139361858,-0.042474415153265,0.00824186950922012
680,-0.0159706510603428,-0.00169674342032522,-0.0303552355617285,-0.0334904119372368,-0.0423320233821869,0.0077766147442162
681,-0.0145522728562355,-0.00179771811235696,-0.0290591511875391,-0.0310823749750853,-0.0406024046242237,0.00999287609010935
682,-0.0106330830603838,-0.000147435566759668,-0.0251610372215509,-0.0247112419456244,-0.0366403050720692,0.0156652275472879
683,-0.00613650213927031,0.0015438252594322,-0.0202185250818729,-0.0163572505116463,-0.0316739901900291,0.0236708465963602
684,-0.00331144686788321,0.00159900088328868,-0.0171325840055943,-0.00975425541400909,-0.0279818195849657,0.0307925250381231
685,-0.00277537060901523,-0.000499927089549601,-0.0170192625373602,-0.00712748290970922,-0.0266572386026382,0.034229714423418
686,-0.00267330394126475,-0.00396616850048304,-0.0173537749797106,-0.00661860220134258,-0.0259346384555101,0.0351318381726742
687,-0.00184659496881068,-0.00769256521016359,-0.0161542613059282,-0.00598002225160599,-0.0243273638188839,0.0356559380888939
688,-0.00295380549505353,-0.0121998889371753,-0.0160229131579399,-0.00704254303127527,-0.0238098595291376,0.0339836925268173
689,-0.00698280287906528,-0.0177176855504513,-0.0182465650141239,-0.0100056594237685,-0.0247854068875313,0.0294233914464712
690,-0.0104529848322272,-0.0222809817641974,-0.0199012979865074,-0.0109708625823259,-0.0243427511304617,0.0259713679552078
691,-0.0111918058246374,-0.0247488543391228,-0.0192610118538141,-0.00896094646304846,-0.0217548310756683,0.0259482115507126
692,-0.0103204268962145,-0.0262693092226982,-0.0174112394452095,-0.00647867890074849,-0.0187515877187252,0.0275710690766573
693,-0.00926272757351398,-0.0279233008623123,-0.0157834924757481,-0.00467991828918457,-0.0162943881005049,0.0291268341243267
694,-0.00851840153336525,-0.0302167013287544,-0.0150261651724577,-0.00357763795182109,-0.0148704368621111,0.0300115346908569
695,-0.00795891974121332,-0.0336203873157501,-0.0149787524715066,-0.00309332739561796,-0.0147978821769357,0.0303336549550295
696,-0.00795438699424267,-0.0381262451410294,-0.0154867265373468,-0.0031239006202668,-0.0159977097064257,0.030700484290719
697,-0.00945083424448967,-0.0431447848677635,-0.0168873500078917,-0.00419093435630202,-0.0182525105774403,0.0308513063937426
698,-0.0119881238788366,-0.0480507574975491,-0.0188109334558249,-0.0059874770231545,-0.0207006670534611,0.030660405755043
699,-0.0144948791712523,-0.0531640388071537,-0.0207086652517319,-0.00766288954764605,-0.0228208340704441,0.0304719470441341
700,-0.0159978307783604,-0.0584503039717674,-0.0219106320291758,-0.00813919864594936,-0.0238099787384272,0.030960850417614
701,-0.0162468794733286,-0.0631623119115829,-0.022000240162015,-0.00671038823202252,-0.0229446794837713,0.03232192248106
702,-0.0169049147516489,-0.0677330940961838,-0.0222868863493204,-0.00470188912004232,-0.0217566452920437,0.032832209020853
703,-0.0184288006275892,-0.0730108991265297,-0.0230810083448887,-0.00309627805836499,-0.021159065887332,0.0314265266060829
704,-0.0195518229156733,-0.0787685438990593,-0.0232953000813723,-0.00157184386625886,-0.0201487354934216,0.0297944266349077
705,-0.0202739145606756,-0.0842315256595612,-0.0234617087990046,-0.000710544816683978,-0.0184563416987658,0.0298927593976259
706,-0.0209073796868324,-0.0885222032666206,-0.0240011904388666,-0.00097763747908175,-0.0158139076083899,0.0320754460990429
707,-0.0208452548831701,-0.0908677950501442,-0.0234503354877234,-0.000870101735927165,-0.0107335168868303,0.0358849912881851
708,-0.0205563362687826,-0.0923565551638603,-0.0218936819583178,-0.000429978128522635,-0.00417450768873096,0.0390496142208576
709,-0.0212802812457085,-0.0950111150741577,-0.0218878667801619,-0.00199802801944315,-0.000621313345618546,0.0387888289988041
710,-0.0214822273701429,-0.0979361981153488,-0.0234490744769573,-0.00395708484575152,-0.0011220492888242,0.0372068732976913
711,-0.0190574191510677,-0.0988753288984299,-0.0241960920393467,-0.0025000108871609,-0.00221985392272472,0.0389279387891293
712,-0.016485383734107,-0.0985555797815323,-0.0250433031469584,0.000346813467331231,-0.00330913392826915,0.0429587066173553
713,-0.0166379939764738,-0.0987532138824463,-0.0276804938912392,0.00078670826042071,-0.00568404467776418,0.0453322939574718
714,-0.0184110589325428,-0.0994287431240082,-0.0308482777327299,-0.000436523696407676,-0.00863485876470804,0.0456842333078384
715,-0.0198390912264585,-0.100182890892029,-0.0333691351115704,-0.00144174206070602,-0.0113858608528972,0.0453791245818138
716,-0.0200222078710794,-0.100837990641594,-0.0349022448062897,-0.00148345751222223,-0.0131505476310849,0.0451829209923744
717,-0.0191761795431376,-0.100774176418781,-0.0352166034281254,-0.000551051227375865,-0.0128187229856849,0.0454541146755219
718,-0.0183066762983799,-0.0998976156115532,-0.0349472649395466,0.000320577761158347,-0.0106970751658082,0.0458554774522781
719,-0.0180482566356659,-0.0988768115639687,-0.0346679463982582,0.000507449207361788,-0.00785376131534576,0.0461010150611401
720,-0.0177184287458658,-0.0976285561919212,-0.0335390232503414,0.00112955830991268,-0.00468176696449518,0.0469705536961555
721,-0.0167387183755636,-0.0956500247120857,-0.0316755510866642,0.00301587232388556,-0.00218412629328668,0.0491724014282227
722,-0.0162159837782383,-0.0936251580715179,-0.0309752821922302,0.00489325681701303,-0.00184543966315687,0.0512034483253956
723,-0.0166803263127804,-0.0928646922111511,-0.0316208750009537,0.00493570975959301,-0.0032941980753094,0.0506768934428692
724,-0.0167208556085825,-0.0928527638316154,-0.0319065600633621,0.00365140987560153,-0.00445667374879122,0.048598688095808
725,-0.0159351639449596,-0.0919303596019745,-0.0313984714448452,0.00255948607809842,-0.00458059646189213,0.0473972819745541
726,-0.0165551416575909,-0.0903347283601761,-0.0319499932229519,0.000658180972095579,-0.00596031406894326,0.0462108552455902
727,-0.0199972707778215,-0.0893093571066856,-0.0347562469542027,-0.00303960382007062,-0.0100759202614427,0.043545126914978
728,-0.0236214604228735,-0.0884955227375031,-0.0373033098876476,-0.0063006691634655,-0.0135809788480401,0.0408063419163227
729,-0.0235619284212589,-0.0862990692257881,-0.0360734760761261,-0.00648555485531688,-0.0121868988499045,0.0402401797473431
730,-0.0198792275041342,-0.0823808461427689,-0.0315557904541492,-0.00393264275044203,-0.00693336362019181,0.0414970405399799
731,-0.0164571683853865,-0.0785130336880684,-0.0279316287487745,-0.00144646991975605,-0.00309091503731906,0.0420578308403492
732,-0.0153137352317572,-0.0758377984166145,-0.0272237956523895,-0.000647647655569017,-0.0028010222595185,0.0412500016391277
733,-0.0142698055133224,-0.073295459151268,-0.0265397485345602,-2.6152954887948E-05,-0.00286133959889412,0.0412851497530937
734,-0.0124312611296773,-0.0704620331525803,-0.0241179317235947,0.00103610137011856,-0.00159951997920871,0.0426409021019936
735,-0.0117387259379029,-0.0682729184627533,-0.0217805057764053,0.0011517534730956,-0.000889835995621979,0.0432945154607296
736,-0.012340429238975,-0.0665413811802864,-0.019991846755147,0.00079563946928829,-0.00129533500876278,0.0430850945413113
737,-0.0129502667114139,-0.0646290704607964,-0.0180899985134602,0.0010640915716067,-0.00208641029894352,0.0432885736227036
738,-0.0134412851184607,-0.0628680512309074,-0.0166484843939543,0.00137788685970008,-0.00312451063655317,0.0441189780831337
739,-0.0134970564395189,-0.0612018965184689,-0.0154759958386421,0.00170899042859674,-0.0035935768391937,0.0456071496009827
740,-0.0135231604799628,-0.0599251724779606,-0.0147219020873308,0.00162322167307138,-0.00366601161658764,0.0466865487396717
741,-0.0146469259634614,-0.0596999861299992,-0.0154636232182384,0.000211895734537393,-0.00429890304803848,0.0460905246436596
742,-0.0159730222076178,-0.0595443360507488,-0.0167853217571974,-0.0012986637884751,-0.00456060422584414,0.0448547266423702
743,-0.0171141643077135,-0.0588385052978992,-0.0176964923739433,-0.0022148524876684,-0.00495092011988163,0.0434393435716629
744,-0.0181313529610634,-0.0576451271772385,-0.0175584070384502,-0.00215177843347192,-0.00636834092438221,0.0422522574663162
745,-0.0176501572132111,-0.0553274489939213,-0.0150160863995552,1.31659735416179E-05,-0.00708633055910468,0.0430454611778259
746,-0.0157669577747583,-0.0524027682840824,-0.0108868610113859,0.00315963407047093,-0.00681061670184135,0.045363076031208
747,-0.0135280098766088,-0.0501443855464458,-0.00729501247406006,0.00567868817597628,-0.00676989741623402,0.0474605560302734
748,-0.0116836298257113,-0.0491912700235844,-0.00562290381640196,0.00678473198786378,-0.00755107030272484,0.048158623278141
749,-0.0105269653722644,-0.049189105629921,-0.00581372948363423,0.00654483633115888,-0.00878992956131697,0.0472462773323059
750,-0.00877005234360695,-0.0486444570124149,-0.00619534635916352,0.00715930201113224,-0.00888367369771004,0.0462832264602184
751,-0.00678908638656139,-0.0478055588901043,-0.00700418651103973,0.00814066641032696,-0.00831928756088018,0.0443534478545189
752,-0.00637934263795614,-0.047955971211195,-0.0091835604980588,0.00654055597260594,-0.00838889554142952,0.0396033078432083
753,-0.0068971524015069,-0.0480283498764038,-0.0112155713140965,0.00357980187982321,-0.00787180848419666,0.0350778363645077
754,-0.00746714742854238,-0.0470138676464558,-0.0116795562207699,0.00202341261319816,-0.00606493838131428,0.0338067077100277
755,-0.00850526336580515,-0.0458497367799282,-0.0111011760309339,0.00125103467144072,-0.00401693722233176,0.0341411605477333
756,-0.00921297073364258,-0.0450047217309475,-0.0104442834854126,0.000116313058242667,-0.00226654973812401,0.0343352034687996
757,-0.00855336338281631,-0.0440329052507877,-0.0100083127617836,-0.000637169636320323,-0.000918863748665899,0.0350329577922821
758,-0.00701290834695101,-0.0432602874934673,-0.00984876602888107,-0.000291344855213538,-0.000228410048293881,0.0364559516310692
759,-0.00568691967055202,-0.0432485528290272,-0.0100688515231013,0.000765907869208604,-0.00025621650274843,0.0377009995281696
760,-0.0053471215069294,-0.0434822514653206,-0.0105642192065716,0.00169929279945791,-0.000821259571239352,0.0384357199072838
761,-0.0052356063388288,-0.0428985692560673,-0.0102705033496022,0.00290857790969312,-0.00068498303880915,0.0397356338799
762,-0.00417188880965114,-0.0410897172987461,-0.00833567976951599,0.00543107837438583,0.00106946192681789,0.0425928309559822
763,-0.00262258411385119,-0.0387782752513886,-0.00577798672020435,0.00876814685761929,0.00335724651813507,0.0460186637938023
764,-0.00201454176567495,-0.037237461656332,-0.00420508533716202,0.0114533742889762,0.00463365996256471,0.0481626763939857
765,-0.00334307830780745,-0.0375277101993561,-0.00452279159799218,0.0122908698394895,0.00409207353368402,0.0482938922941685
766,-0.00660504912957549,-0.0402407236397266,-0.00715739000588655,0.010249013081193,0.00160183070693165,0.0463126040995121
767,-0.0107310907915235,-0.0445220768451691,-0.0113780749961734,0.00560207851231098,-0.00194620271213353,0.0427597239613533
768,-0.0143214669078588,-0.0482649356126785,-0.0154397739097476,0.000440040195826441,-0.00523098884150386,0.0391494445502758
769,-0.016442259773612,-0.0503397732973099,-0.0183144919574261,-0.0031204023398459,-0.0075273341499269,0.0367690101265907
770,-0.0169605724513531,-0.0510830692946911,-0.019949659705162,-0.00428890762850642,-0.00909813959151506,0.0359293781220913
771,-0.0159606356173754,-0.0509917624294758,-0.0201190635561943,-0.00383484014309943,-0.0102440556511283,0.0362439900636673
772,-0.0134519441053271,-0.0500203371047974,-0.0187134779989719,-0.00302685634233058,-0.0101337414234877,0.0374800823628902
773,-0.010727166198194,-0.0483162328600883,-0.0171613283455372,-0.00296696089208126,-0.00876540783792734,0.0389150492846966
774,-0.0104856481775641,-0.0471180230379105,-0.0180887822061777,-0.00520055554807186,-0.00862846244126558,0.0383240431547165
775,-0.0139489928260446,-0.0472862161695957,-0.0225371662527323,-0.0104106310755014,-0.0118846958503127,0.0340455994009972
776,-0.0174547135829926,-0.0469574593007565,-0.026682497933507,-0.0148957958444953,-0.0155565878376365,0.0289122238755226
777,-0.0162969548255205,-0.0440270565450192,-0.0257207229733467,-0.0140936383977532,-0.0144473854452372,0.027458131313324
778,-0.0114458240568638,-0.0395930334925652,-0.0206564515829086,-0.00961472652852535,-0.00894589256495237,0.0293058976531029
779,-0.00714355288073421,-0.0357748419046402,-0.015895402058959,-0.00607152376323938,-0.00366142322309315,0.030948594212532
780,-0.00547428289428353,-0.033098578453064,-0.0138193359598517,-0.00522732175886631,-0.00179516861680895,0.0306363608688116
781,-0.00558984978124499,-0.0306603368371725,-0.0138459568843246,-0.00601591356098652,-0.00303268549032509,0.029052060097456
782,-0.00648551341146231,-0.027913648635149,-0.0148632694035769,-0.00743552250787616,-0.0054210526868701,0.0271347183734179
783,-0.00792799703776836,-0.0253055710345507,-0.016271885484457,-0.0096218129619956,-0.00801348965615034,0.0249685235321522
784,-0.00885840132832527,-0.0225583799183369,-0.016734691336751,-0.0117138754576445,-0.00999954156577587,0.0233411770313978
785,-0.00874973554164171,-0.0189564023166895,-0.0157236810773611,-0.0124805765226483,-0.0107715511694551,0.0229267794638872
786,-0.00817740429192781,-0.0144163845106959,-0.0141465635970235,-0.0121033797040582,-0.0106894290074706,0.0230742990970612
787,-0.00675982749089599,-0.00866986904293299,-0.0120705785229802,-0.0108507461845875,-0.00957391038537025,0.0236147865653038
788,-0.00467877369374037,-0.00189592561218888,-0.00996945053339005,-0.00978811644017696,-0.00785226374864578,0.0237443428486586
789,-0.00367645337246358,0.00484074559062719,-0.00938238482922316,-0.0104712210595608,-0.00749770645052195,0.0215844046324492
790,-0.00377659010700881,0.0112623702734709,-0.00978433340787888,-0.0118586765602231,-0.00888991076499224,0.0176898054778576
791,-0.00447671953588724,0.0169018898159266,-0.0105229457840323,-0.0135450726374984,-0.011766305193305,0.0131629975512624
792,-0.00620956299826503,0.0209286157041788,-0.0125063955783844,-0.017156183719635,-0.0163591802120209,0.00773551454767585
793,-0.0079297348856926,0.0242606364190578,-0.0150052318349481,-0.0219997093081474,-0.021116241812706,0.00246222014538944
794,-0.0075984769500792,0.0288172289729118,-0.0155031271278858,-0.025204710662365,-0.023406844586134,-0.000581737142056227
795,-0.00473659578710794,0.0354908630251884,-0.012637703679502,-0.0250249747186899,-0.0221959389746189,-0.000702850520610809
796,-0.00154374353587627,0.0430343374609947,-0.00831292197108269,-0.0229907222092152,-0.0198184922337532,-0.000208658457268029
797,-0.00040427828207612,0.0494414195418358,-0.00553416227921844,-0.0217066798359156,-0.0193881765007973,-0.00234977016225457
798,-0.00160548184067011,0.053995531052351,-0.0045892964117229,-0.0220062881708145,-0.0208534970879555,-0.00748889055103064
799,-0.00380103569477797,0.0571372583508492,-0.00381317688152194,-0.0239440631121397,-0.0226987358182669,-0.0132912406697869
800,-0.00463117891922593,0.0603723637759686,-0.00271575176157057,-0.0267415344715118,-0.0253559295088053,-0.0167632922530174
801,-0.00261281756684184,0.0654827579855919,-0.00192902644630522,-0.0287819318473339,-0.0293473415076733,-0.0165189802646637
802,0.000723486009519547,0.0720279961824417,-0.00190846063196659,-0.030042476952076,-0.033363189548254,-0.014638545922935
803,0.00348551757633686,0.0784453600645065,-0.00188598746899515,-0.0307634547352791,-0.0355490371584892,-0.0137032214552164
804,0.00567010883241892,0.0843035504221916,-0.00059999740915373,-0.0302839409559965,-0.0355789586901665,-0.0142024662345648
805,0.00783825293183327,0.0899972915649414,0.00198289449326694,-0.0289080385118723,-0.0344853773713112,-0.0155262118205428
806,0.0109220612794161,0.0965273454785347,0.00567057682201266,-0.0269154142588377,-0.0320965796709061,-0.0163820758461952
807,0.0147576984018087,0.103784769773483,0.0099958274513483,-0.0245377402752638,-0.0283942222595215,-0.0163389928638935
808,0.0172920227050781,0.10998147726059,0.0136538157239556,-0.0229775942862034,-0.0250606834888458,-0.016879316419363
809,0.0169053561985493,0.114066533744335,0.0157489646226168,-0.02311010658741,-0.0236573908478022,-0.0194695014506578
810,0.0142020611092448,0.116537973284721,0.0167057998478413,-0.024473812431097,-0.023996951058507,-0.0237038992345333
811,0.0108360918238759,0.117702901363373,0.0170410051941872,-0.0270179975777864,-0.0250850114971399,-0.0288793705403805
812,0.00798858888447285,0.117610231041908,0.0165359620004892,-0.0313887298107147,-0.0265470910817385,-0.0349472500383854
813,0.00713789695873857,0.117555737495422,0.0162612907588482,-0.0357608087360859,-0.0272827800363302,-0.0402276106178761
814,0.00877684820443392,0.118861868977547,0.0175385996699333,-0.0376235246658325,-0.0266072321683168,-0.0428902059793472
815,0.0109936064109206,0.121068358421326,0.0191791914403439,-0.0376219004392624,-0.026219779625535,-0.0439913161098957
816,0.0120715592056513,0.12252289056778,0.0195988398045301,-0.0374001190066338,-0.0270219519734383,-0.0458278134465218
817,0.0123789561912417,0.122247219085693,0.0196604505181313,-0.036953292787075,-0.02724614366889,-0.0488674975931644
818,0.0126070957630873,0.120382346212864,0.0206288862973452,-0.036004476249218,-0.0260627847164869,-0.0516000799834728
819,0.0130799626931548,0.117796532809734,0.0222858414053917,-0.0346763655543327,-0.0241842605173588,-0.0523760505020618
820,0.0142144178971648,0.115838155150414,0.0240715257823467,-0.0328701958060265,-0.021799286827445,-0.0506411381065845
821,0.0156444404274225,0.114936582744122,0.0252597033977509,-0.0310307312756777,-0.0198160111904144,-0.0476478189229965
822,0.0176907349377871,0.114928163588047,0.026390478014946,-0.0287746395915747,-0.0182473622262478,-0.0444802418351173
823,0.0200262535363436,0.114969931542873,0.0278137382119894,-0.0259946640580893,-0.0169091392308474,-0.0417673103511333
824,0.0198741164058447,0.112973533570766,0.0274794697761536,-0.0248272009193897,-0.0179175473749638,-0.0411391519010067
825,0.016548253595829,0.108103290200233,0.0247488878667355,-0.0260395277291536,-0.0215303655713797,-0.0430004857480526
826,0.0120998499915004,0.101501367986202,0.0210616625845432,-0.0283143389970064,-0.025620523840189,-0.0461020395159721
827,0.00813434552401304,0.0947332680225372,0.0176153518259525,-0.0300270952284336,-0.0288146398961544,-0.0489113517105579
828,0.00555734522640705,0.0887768864631653,0.0154966050758958,-0.0300407875329256,-0.0303266849368811,-0.0500021912157536
829,0.00438195886090398,0.0835418552160263,0.0152858002111316,-0.0286886915564537,-0.0300756003707647,-0.0485447011888027
830,0.00478271162137389,0.0791465789079666,0.0173230711370707,-0.0255338158458471,-0.028271272778511,-0.0434311702847481
831,0.00766552798449993,0.0760663524270058,0.0217393822968006,-0.0194498430937529,-0.0245591420680285,-0.0346450507640839
832,0.0111104603856802,0.0725761204957962,0.0256561804562807,-0.013288707472384,-0.0204219482839108,-0.0265150982886553
833,0.0118630258366466,0.066384844481945,0.0256891399621964,-0.0108379684388638,-0.0182871390134096,-0.0229636114090681
834,0.0106634087860584,0.0588493421673775,0.0236136969178915,-0.0102682393044233,-0.0168263129889965,-0.0215493831783533
835,0.00970845390111208,0.0526816323399544,0.022786570712924,-0.00815042667090893,-0.0135795939713717,-0.0184142403304577
836,0.00883104559034109,0.0476853847503662,0.0230296645313501,-0.00488518411293626,-0.00953699462115765,-0.0136220995336771
837,0.0068433890119195,0.0418548993766308,0.0225676689296961,-0.00269796932116151,-0.00712946942076087,-0.00956801325082779
838,0.00325504713691771,0.0343216881155968,0.0201772153377533,-0.00305529637262225,-0.00773996068164706,-0.00829316582530737
839,-0.00125259906053543,0.0261248201131821,0.0156287886202335,-0.00543627981096506,-0.0110533460974693,-0.00929487776011229
840,-0.0038160951808095,0.0198528654873371,0.0122242094948888,-0.00590488314628601,-0.0132511090487242,-0.00865394715219736
841,-0.00181386806070805,0.0173242073506117,0.0140941077843308,-0.0011771114077419,-0.0103395571932197,-0.00327033759094775
842,0.00246342364698648,0.0167134124785662,0.0192260462790728,0.00561270257458091,-0.00404563313350081,0.00422455044463277
843,0.00533139985054731,0.0152601273730397,0.0230847354978323,0.00988898146897554,0.00191837491001934,0.00984359253197908
844,0.00618313206359744,0.0123186651617289,0.0244520884007216,0.0111789992079139,0.00605551619082689,0.0129036353901029
845,0.00506194541230798,0.0078335702419281,0.0232743658125401,0.00982848927378654,0.00716930162161589,0.0130520965903997
846,0.00194810691755265,0.00234754057601094,0.0197128653526306,0.00581757677718997,0.00485522439703345,0.0101824840530753
847,-0.00111330067738891,-0.0019770881626755,0.0160747542977333,0.00160885660443455,0.00152032298501581,0.00717149348929524
848,-0.00187378295231611,-0.0037942323833704,0.0146753070876002,0.00023999709810596,-4.98665394843556E-05,0.00683796824887395
849,-0.00050149456365034,-0.00414726324379444,0.014927857555449,0.00164027267601341,0.000429906154749915,0.008721555583179
850,0.00166949594859034,-0.00407504476606846,0.0154623277485371,0.00452687032520771,0.00176894769538194,0.0116333840414882
851,0.00297257443889976,-0.00384574453346431,0.0156292617321014,0.00769179128110409,0.00237104971893132,0.0146341007202864
852,0.00165723112877458,-0.00443157088011503,0.0144365401938558,0.00887776259332895,0.000799268076661974,0.0157509502023458
853,-0.00192408275324851,-0.00651107169687748,0.0118018398061395,0.00727742491289973,-0.00227759382687509,0.0142283141613007
854,-0.00598808890208602,-0.00927879381924868,0.00872706528753042,0.00457786675542593,-0.00514513440430164,0.0119483713060617
855,-0.00973945483565331,-0.0114412978291512,0.00602431874722242,0.00281752087175846,-0.00721947103738785,0.010958950035274
856,-0.0121635058894753,-0.0120089845731854,0.00565112102776766,0.00342767126858234,-0.00705588143318892,0.0122390547767282
857,-0.0127951456233859,-0.0115453004837036,0.00789981335401535,0.00515233818441629,-0.00433759111911058,0.0153601383790374
858,-0.0132036088034511,-0.0120230037719011,0.00966812670230865,0.00533673260360956,-0.00211863778531551,0.0182291548699141
859,-0.012958450242877,-0.0130609376356006,0.0110006500035524,0.00535042537376285,-0.000912086572498083,0.0205932222306728
860,-0.00922240316867828,-0.0118516711518168,0.0148451989516616,0.00843687262386084,0.00218708370812237,0.0250783991068602
861,-0.00322669930756092,-0.0084294443950057,0.019331656396389,0.0127605441957712,0.00592662021517754,0.0312155149877071
862,0.000443131662905216,-0.00599539885297418,0.0198745708912611,0.0135643891990185,0.00586886610835791,0.0346821174025536
863,0.00101677025668323,-0.0058932350948453,0.0169517509639263,0.0107274074107409,0.00250037154182792,0.0338300168514252
864,0.000376739335479215,-0.00723208487033844,0.0136950714513659,0.00755642633885145,-0.00113354821223766,0.0305034704506397
865,-0.00137755635660142,-0.00980598293244839,0.010527147911489,0.00483886245638132,-0.00464569684118032,0.0258975736796856
866,-0.00378611241467297,-0.0132524594664574,0.00742943584918976,0.00211840611882508,-0.00739705795422196,0.0208864435553551
867,-0.0043032611720264,-0.0156480092555285,0.00639453204348683,0.00135710462927818,-0.00693753315135837,0.0182487629354
868,-0.00118367851246148,-0.0153678152710199,0.00934324227273464,0.00487650465220213,-0.00171506893821061,0.0205109044909477
869,0.00256919558160007,-0.0141315246000886,0.0136874336749315,0.0102188996970654,0.0049647893756628,0.0250373650342226
870,0.00236064777709544,-0.0148987965658307,0.0147386528551579,0.0126097882166505,0.00770375737920403,0.0270833112299442
871,-0.00153045065235347,-0.0173849109560251,0.0127994604408741,0.0115391295403242,0.00641178386285901,0.0262472685426474
872,-0.00596782425418496,-0.0198270175606012,0.0103491060435772,0.00880719162523746,0.00375704420730472,0.0237147267907858
873,-0.00853186286985874,-0.021393995732069,0.00783551298081875,0.00596269126981497,0.000671473273541778,0.0206015557050705
874,-0.00835608318448067,-0.0213483925908804,0.00597030762583017,0.00521357171237469,-0.00184991862624884,0.0196300111711025
875,-0.00709501933306456,-0.0194329563528299,0.00512629700824618,0.00669940700754523,-0.00348703935742378,0.0217500776052475
876,-0.0067197154276073,-0.016413863748312,0.00434872368350625,0.0084304129704833,-0.00555158266797662,0.0248454585671425
877,-0.00745220994576812,-0.0132428426295519,0.00302127888426185,0.00958489254117012,-0.00854009203612804,0.0269257854670286
878,-0.00867986865341663,-0.0104239424690604,0.00161167909391224,0.011018143966794,-0.0110720209777355,0.028411952778697
879,-0.00938547868281603,-0.00803377851843834,0.00226946594193578,0.0149610107764602,-0.0111223319545388,0.0317014493048191
880,-0.00960040185600519,-0.00677976338192821,0.00603501219302416,0.0211984217166901,-0.00880004558712244,0.0359341390430927
881,-0.00941734947264194,-0.00738827744498849,0.0111531866714358,0.0254856068640947,-0.00510191218927503,0.0361716076731682
882,-0.00906228926032782,-0.00965986866503954,0.0134034678339958,0.0233428496867418,-0.00244244211353362,0.0288496576249599
883,-0.00937685370445251,-0.0123402569442987,0.00953584350645542,0.0148114515468478,-0.00399006437510252,0.0155753688886762
884,-0.00809190515428782,-0.0125864939764142,0.00304339034482837,0.00619363319128752,-0.00690941978245974,0.00283921975642443
885,-0.0038326783105731,-0.00946608744561672,-0.00196036952547729,0.00198388658463955,-0.00762546714395285,-0.00549210142344236
886,0.000694726943038404,-0.0056079481728375,-0.00584886036813259,0.0013233742211014,-0.00712746288627386,-0.0113132894039154
887,0.00390541297383606,-0.00314838369376957,-0.00833195261657238,0.00342037319205701,-0.0053313709795475,-0.0160887446254492
888,0.00653834454715252,-0.00224928953684866,-0.00818951148539782,0.00758229987695813,-0.000570035830605775,-0.0193775445222855
889,0.00954756699502468,-0.00197506416589022,-0.00576599780470133,0.0129559151828289,0.00719098653644323,-0.0209172945469618
890,0.0133631676435471,-0.00142407766543329,-0.00194686686154455,0.0196535065770149,0.0166262667626143,-0.0211818106472492
891,0.016831886023283,-0.00178769556805491,0.00129516515880823,0.0257765036076307,0.0253651700913906,-0.0229818131774664
892,0.0188134033232927,-0.00450256885960698,0.00212547113187611,0.0293007008731365,0.0314418897032738,-0.0286275930702686
893,0.0201550982892513,-0.00905001070350409,0.00119774753693491,0.031044639647007,0.0355762951076031,-0.0369201935827732
894,0.0202169492840767,-0.0154822589829564,-0.00151162419933826,0.0306547600775957,0.0379915311932564,-0.0470769479870796
895,0.0174719542264938,-0.0240365993231535,-0.00646737776696682,0.0277122631669044,0.0378711968660355,-0.0588606558740139
896,0.0138204451650381,-0.0328825302422047,-0.0117942532524467,0.024848023429513,0.0369214676320553,-0.0699821189045906
897,0.012458891607821,-0.0395385473966599,-0.0158556420356035,0.0246357191354036,0.0372502505779266,-0.0776328891515732
898,0.0137509256601334,-0.0433793552219868,-0.018993753939867,0.0274414960294962,0.0384965948760509,-0.0806103870272636
899,0.015795549377799,-0.0461507961153984,-0.0212952774018049,0.0317754559218884,0.0401170551776886,-0.0807161256670952
900,0.0167228039354086,-0.049773920327425,-0.0225757099688053,0.0355505719780922,0.042105745524168,-0.0813740715384483
901,0.0163032282143831,-0.0539568513631821,-0.0226661581546068,0.0388422645628452,0.0446609519422054,-0.0831478238105774
902,0.0158828217536211,-0.0573390163481236,-0.020660262554884,0.0431551523506641,0.0489286445081234,-0.0835773572325706
903,0.0154923535883427,-0.0606667473912239,-0.0172452013939619,0.0473641939461231,0.0547410249710083,-0.0825433060526848
904,0.0149753345176578,-0.0652916729450226,-0.0131150698289275,0.0505553781986237,0.0616221651434898,-0.0811390727758408
905,0.0146513432264328,-0.0712213441729546,-0.00864348560571671,0.0532472208142281,0.0686536133289337,-0.0791621655225754
906,0.0138447741046548,-0.0779522731900215,-0.0060751591809094,0.0544318631291389,0.0730597153306007,-0.0770699307322502
907,0.0133489705622196,-0.0837942585349083,-0.0054463529959321,0.0548555478453636,0.0744137018918991,-0.0740557834506035
908,0.014411230571568,-0.0869730040431023,-0.00466693891212344,0.0566462017595768,0.0744567513465881,-0.0684583485126495
909,0.0155418058857322,-0.0882880836725235,-0.00403003860265017,0.0585495792329311,0.0737088993191719,-0.0619014054536819
910,0.0154556082561612,-0.089496448636055,-0.00431405054405332,0.0588932074606419,0.0725976899266243,-0.0566429309546947
911,0.0151414796710014,-0.0911200121045113,-0.00500192958861589,0.0585406124591827,0.0718188583850861,-0.0524979718029499
912,0.0147556010633707,-0.0937874019145966,-0.00647573452442884,0.0575730353593826,0.0706635564565659,-0.0498040765523911
913,0.0140644703060389,-0.0975521728396416,-0.00847502984106541,0.0556663535535336,0.0691566094756126,-0.0490267351269722
914,0.0133373085409403,-0.101389266550541,-0.0100587075576186,0.0534124411642551,0.0680732950568199,-0.0495715476572514
915,0.0125061869621277,-0.10458143055439,-0.0112091647461057,0.0520137138664722,0.0670980587601662,-0.0503200851380825
916,0.0119324177503586,-0.106733098626137,-0.0114432591944933,0.0522983074188232,0.0664307326078415,-0.0494515784084797
917,0.0111950514838099,-0.108065821230412,-0.0112045919522643,0.052335150539875,0.0658230036497116,-0.0467614606022835
918,0.00923600606620312,-0.109060160815716,-0.0119067495688796,0.0503408722579479,0.0642158761620522,-0.0437943339347839
919,0.00702796317636967,-0.109381921589375,-0.0133085623383522,0.0474499128758907,0.062103908509016,-0.0412379540503025
920,0.00580629426985979,-0.108552113175392,-0.0153482230380178,0.0444791130721569,0.0598249658942223,-0.0392046421766281
921,0.0047625987790525,-0.106822401285172,-0.0191397909075022,0.0412157736718655,0.056219432502985,-0.0377461090683937
922,0.00339265260845423,-0.104527369141579,-0.024015424773097,0.0385426580905914,0.0514925792813301,-0.0361836366355419
923,0.00207197014242411,-0.102004200220108,-0.0277748666703701,0.0370176658034325,0.0473770797252655,-0.0342039614915848
924,0.00155300553888083,-0.0991943627595901,-0.0281603671610355,0.0372293218970299,0.0457590594887733,-0.0310186203569174
925,0.00200148019939661,-0.0957458168268204,-0.0250491201877594,0.0395225062966347,0.0466401055455208,-0.0259608663618565
926,0.00207510427571833,-0.0921153873205185,-0.0215206257998943,0.0415389649569988,0.0474920310080051,-0.0208690389990807
927,0.00112045055720955,-0.0891432836651802,-0.0200160089880228,0.040858693420887,0.046926386654377,-0.0177457388490438
928,0.00017580519488547,-0.0865887925028801,-0.019691314548254,0.0382402613759041,0.0458229891955853,-0.0160830654203892
929,-5.34461978531908E-05,-0.0834577158093452,-0.0189591273665428,0.0357518829405308,0.044560369104147,-0.0147932516410947
930,-0.00128435378428549,-0.0801270827651024,-0.0191393941640854,0.0332368314266205,0.0413165092468262,-0.0152154741808772
931,-0.00457105413079262,-0.0771123692393303,-0.0213486533612013,0.0304571501910686,0.0357167012989521,-0.0175767727196217
932,-0.00778194656595588,-0.0737274512648582,-0.0235460326075554,0.0286666266620159,0.0308895297348499,-0.0190874040126801
933,-0.00917212199419737,-0.0696152374148369,-0.0238606426864862,0.028094008564949,0.029132878407836,-0.0184348355978727
934,-0.00870654638856649,-0.064746156334877,-0.021895881742239,0.0287882406264544,0.0300691574811935,-0.0159311126917601
935,-0.00770125212147832,-0.0600272826850414,-0.0192079097032547,0.0297593902796507,0.0310629699379206,-0.0129675893113017
936,-0.00788323953747749,-0.0570065937936306,-0.0183124057948589,0.0287041217088699,0.0293550956994295,-0.0120139149948955
937,-0.00804618652909994,-0.0549406111240387,-0.0183887928724289,0.0266938619315624,0.0265623293817043,-0.0127413021400571
938,-0.00586419273167849,-0.052053414285183,-0.0166017822921276,0.026417164131999,0.0262143760919571,-0.0127957630902529
939,-0.00120661943219602,-0.0477745495736599,-0.012023757211864,0.0281485840678215,0.0289883259683847,-0.0107371704652905
940,0.00409077107906342,-0.0424062609672546,-0.00635946681722999,0.0307074002921581,0.032916359603405,-0.00639005564153194
941,0.00771921826526523,-0.0369075909256935,-0.0021691806614399,0.0326985009014606,0.0352971740067005,-0.00147584173828363
942,0.00968339573591948,-0.0317341759800911,0.000455930043244734,0.0337631292641163,0.0358217991888523,0.00229563843458891
943,0.0115151470527053,-0.0265172496438026,0.00320153660140932,0.0344355329871178,0.0363564193248749,0.0046742339618504
944,0.0122958198189735,-0.0216060131788254,0.0051668775267899,0.0338952951133251,0.0362633243203163,0.00493788113817573
945,0.0099832434207201,-0.0177425052970648,0.00411393120884895,0.0306376237422228,0.0337123014032841,0.00231554033234715
946,0.00480064144358039,-0.0149705344811082,0.000468011188786477,0.0248150583356619,0.0290860030800104,-0.00259083672426641
947,-0.00104620435740799,-0.0131381461396813,-0.00393511820584536,0.0176798570901155,0.0229604654014111,-0.00868640094995499
948,-0.00522837648168206,-0.0118181286379695,-0.00777935003861785,0.0109175611287355,0.0158801786601543,-0.0143250003457069
949,-0.00757730659097433,-0.0105406502261758,-0.0104485126212239,0.00629657600075006,0.00895255990326405,-0.0178874805569649
950,-0.00787465181201696,-0.0083266431465745,-0.010416348464787,0.00583482254296541,0.00442141806706786,-0.0180079154670238
951,-0.00506602693349123,-0.00385426846332848,-0.00642816862091422,0.0100639220327139,0.00403603445738554,-0.014370241202414
952,-0.000988208339549601,0.00168257299810648,-0.00109766819514334,0.0152378585189581,0.00543181877583265,-0.0100597869604826
953,0.00161220843438059,0.00541207520291209,0.00199971068650484,0.0170198064297438,0.00540829403325915,-0.00872447341680527
954,0.00273839361034334,0.00676983734592795,0.00242678984068334,0.0155008221045136,0.00388413015753031,-0.00990079343318939
955,0.00375156733207405,0.00766995549201965,0.00192769605200738,0.0139891868457198,0.00250039575621486,-0.0103614497929811
956,0.00396872544661164,0.00883798766881227,0.0011293669231236,0.0132486969232559,0.00150472589302808,-0.00986268278211355
957,0.00188936933409423,0.00888923555612564,-0.000821379129774868,0.0108432974666357,-0.000480034679640085,-0.0110795935615897
958,-0.00100567191839218,0.00771748134866357,-0.00289363437332213,0.00725069455802441,-0.00268296641297638,-0.0132913673296571
959,-0.00231421459466219,0.00698533141985536,-0.00286986562423408,0.00545035302639008,-0.00284583540633321,-0.0134015595540404
960,-0.00194851297419518,0.00734181934967637,-0.00105566123966128,0.00596271315589547,-0.0014003673568368,-0.0113099971786141
961,-0.000959090772084892,0.00793822016566992,0.000591179123148322,0.00726831192150712,-0.000618813617620617,-0.00881463382393122
962,0.000414576468756422,0.00815713312476873,0.00135836121626198,0.00847246684134007,-0.00131420942489058,-0.00640332512557507
963,0.00151849654503167,0.00779440207406878,0.000887972302734852,0.00900643598288298,-0.0032986004371196,-0.00441901618614793
964,0.00134104746393859,0.00679109944030643,-0.000617342418991029,0.00853495579212904,-0.005996348336339,-0.00336295622400939
965,-1.18527595986961E-05,0.00529367243871093,-0.00166063942015171,0.00749996630474925,-0.00811704900115728,-0.003033202374354
966,-0.00233449810184538,0.0030686364043504,-0.00154212291818112,0.00647098431363702,-0.00936221424490213,-0.00355909042991698
967,-0.00506858434528112,0.000258823158219457,-0.000496177235618234,0.00604187045246363,-0.0105430986732244,-0.00455762492492795
968,-0.00735651794821024,-0.00253003789111972,0.000641786667983979,0.00558617152273655,-0.0120710674673319,-0.00559118669480085
969,-0.0083595160394907,-0.00461884168908,0.0016085549723357,0.00481270765885711,-0.0127491503953934,-0.00633375206962228
970,-0.00755117367953062,-0.00547618791460991,0.00300900335423648,0.00519476318731904,-0.0117416428402066,-0.00586213916540146
971,-0.00588804017752409,-0.0054648770019412,0.00454427720978856,0.00642994372174144,-0.0103198410943151,-0.00426360825076699
972,-0.00512585742399096,-0.00530876778066158,0.00493372371420264,0.00601784558966756,-0.00997983943670988,-0.0023905613925308
973,-0.00553969806060195,-0.0051051564514637,0.00382731971330941,0.0037837065756321,-0.0106800124049187,0.000452536100056022
974,-0.00634634168818593,-0.0052527547813952,0.00203373841941357,0.00141495547723025,-0.011458064429462,0.00417555216699839
975,-0.00702151143923402,-0.00631540874019265,0.000503804534673691,-0.000318258214974776,-0.0115160243585706,0.00656769564375281
976,-0.00648064911365509,-0.00725746853277087,0.00023491978936363,-0.000265107286395505,-0.0104787284508348,0.00763845862820745
977,-0.00501573923975229,-0.00742091936990619,0.000127956329379231,0.00127173727378249,-0.0101345153525472,0.00809789076447487
978,-0.00410531181842089,-0.00768126547336578,-0.00140950758941472,0.00234485557302833,-0.011804417707026,0.00740206521004438
979,-0.00383248087018728,-0.0089195379987359,-0.00370770436711609,0.00225595035590231,-0.0133387381210923,0.00572769436985254
980,-0.00321280490607023,-0.0110671771690249,-0.00493276678025723,0.0018667314434424,-0.0117016769945621,0.00397116877138615
981,-0.00163671688642353,-0.0129733365029097,-0.00367027381435037,0.00224612723104656,-0.00642112316563725,0.00305376993492246
