,AF3,AF4,Fp1,Fp2,AF7,AF8
0,-0.00913641788065434,0.0104128057137132,0.00846732407808304,-0.0107945566996932,-0.00302476831711829,0.00729070417582989
1,-0.00597845017910004,0.0116947535425425,0.0113689033314586,-0.00665254704654217,0.00173666910268366,0.0111964223906398
2,-0.00304862763732672,0.0135196344926953,0.0152191519737244,-0.000851318007335067,0.00741768954321742,0.0157496836036444
3,-0.00376398395746946,0.0143384505063295,0.0157216470688581,0.00163719768170267,0.00896742474287748,0.0167152211070061
4,-0.00802046339958906,0.0136647894978523,0.01233836915344,-0.000203216026420705,0.00557226082310081,0.0135723520070314
5,-0.0118159111589193,0.0130058685317636,0.00894394051283598,-0.00256341090425849,0.00154671876225621,0.00985485594719648
6,-0.0133743556216359,0.0132965603843331,0.00775184435769916,-0.00299327564425766,-0.000647777342237532,0.00739802932366729
7,-0.0136487213894725,0.0138617567718029,0.00803609285503626,-0.00195731688290834,-0.00192100903950632,0.00573680363595486
8,-0.0134440921247005,0.0136840865015984,0.00863800197839737,-0.00071048439713195,-0.00302889780141413,0.00430443696677685
9,-0.0134881054982543,0.0124082053080201,0.00854829046875238,-0.000661931175272912,-0.00413713231682777,0.0023809252306819
10,-0.0139923822134733,0.010518753901124,0.00767215481027961,-0.00180579663719982,-0.00519946590065956,0.000145387501106597
11,-0.0151583068072796,0.00861826352775097,0.00603536749258637,-0.00302473246119916,-0.0067070908844471,-0.00127248396165669
12,-0.0168101601302624,0.00733610475435853,0.00412742281332612,-0.00308813923038542,-0.00880258530378342,-0.000853603472933173
13,-0.0180756244808435,0.00674570491537452,0.00302959280088544,-0.00130961241666228,-0.0106470622122288,0.00117682828567922
14,-0.0190128888934851,0.00563590740785003,0.00263660354539752,0.0011212247190997,-0.0116887697950006,0.00268871756270528
15,-0.0202435962855816,0.00317826704122126,0.00290391966700554,0.00237475545145571,-0.0110744712874293,0.00246537802740932
16,-0.0207277629524469,0.00110219430644065,0.00493954448029399,0.00308779650367796,-0.00779039738699794,0.00342203094623983
17,-0.0184554699808359,0.00171205238439143,0.0084566967561841,0.00525210378691554,-0.00329412962310016,0.00874617602676153
18,-0.0141992028802633,0.00410581985488534,0.0110059399157763,0.0083307484164834,-0.000862206798046827,0.0163873247802258
19,-0.0107195824384689,0.005813367664814,0.0111748222261667,0.0106154195964336,-0.00161813921295106,0.02256765589118
20,-0.0101873306557536,0.00535723380744457,0.00865389872342348,0.0108361998572946,-0.00535665405914187,0.0252692364156246
21,-0.0126161621883512,0.00257641007192433,0.00437578791752458,0.00894300360232592,-0.0108636161312461,0.024356672540307
22,-0.0157739836722612,-0.00123034731950611,0.000803104136139154,0.0064122574403882,-0.0155374621972442,0.0215331744402647
23,-0.017146660014987,-0.00395991699770093,-0.0001912360166898,0.00511465314775705,-0.0173715092241764,0.0193151384592056
24,-0.0157663691788912,-0.00451671937480569,0.00139981554821134,0.00632568588480353,-0.015854436904192,0.0195883214473724
25,-0.0145777482539415,-0.00501605030149221,0.00207145186141133,0.00732405995950103,-0.0144675895571709,0.0200360845774412
26,-0.0162198338657618,-0.00772095005959272,-0.000701879383996129,0.00480947596952319,-0.0164115391671658,0.0173079613596201
27,-0.018758000805974,-0.0114078214392066,-0.00445387791842222,0.00047821065527387,-0.019169095903635,0.0126427300274372
28,-0.0190515499562025,-0.0134613802656531,-0.00535501772537827,-0.00148963346146047,-0.0183738078922033,0.00980083271861076
29,-0.016502482816577,-0.0133244171738625,-0.00264343712478876,0.000469087855890393,-0.0132096130400896,0.0103155495598912
30,-0.0137967169284821,-0.0129887973889709,0.000385468389140442,0.0032379706390202,-0.00747712422162294,0.0116371158510447
31,-0.0128115499392152,-0.0135374134406447,0.00151529838331044,0.00413629505783319,-0.00432383362203836,0.0115083307027817
32,-0.0132842380553484,-0.0145610151812434,0.00109552918002009,0.00348676997236907,-0.0042222342453897,0.00987065676599741
33,-0.0149677973240614,-0.0161054152995348,-0.00051458366215229,0.0020660690497607,-0.00659498758614063,0.00675880210474133
34,-0.0166425574570894,-0.0180106554180384,-0.00170921953395009,0.00111436774022877,-0.00860884040594101,0.00332464440725744
35,-0.0160810388624668,-0.019121091812849,-9.29827147047035E-05,0.00207163393497467,-0.00651625730097294,0.00245186174288392
36,-0.0119855180382729,-0.0181848257780075,0.00477487687021494,0.00552615476772189,0.000662058941088617,0.00651242164894938
37,-0.00655001355335116,-0.0161054600030184,0.00990520045161247,0.00956837087869644,0.00866730324923992,0.013279209844768
38,-0.00399678433313966,-0.0156012112274766,0.011649776250124,0.0111281340941787,0.0117032779380679,0.0171872824430466
39,-0.00486332597211003,-0.0175487622618675,0.0101311895996332,0.0097490968182683,0.00923952739685774,0.0161312744021416
40,-0.00618747854605317,-0.0198349393904209,0.00791433267295361,0.00738943042233586,0.0050027915276587,0.0131442276760936
41,-0.00694124726578593,-0.0209244769066572,0.00601578131318092,0.00535628432407975,0.00108228006865829,0.011186589486897
42,-0.00864776503294706,-0.0217622704803944,0.00361420260742307,0.00296409451402724,-0.0031548198312521,0.00976588670164347
43,-0.0115724727511406,-0.0233629159629345,0.000561170920263976,1.30076823552372E-05,-0.00759430415928364,0.00787642784416676
44,-0.0148511584848166,-0.0257606934756041,-0.00253231101669371,-0.00292722182348371,-0.0109672723338008,0.00528541440144181
45,-0.0180342253297567,-0.0285534225404263,-0.00546741066500545,-0.00563447270542383,-0.0129160713404417,0.00197522412054241
46,-0.0201084390282631,-0.0306092146784067,-0.00731201935559511,-0.00670855259522796,-0.0131668541580439,-0.000585050205700099
47,-0.020019456744194,-0.0305657722055912,-0.00614626845344901,-0.00446962798014283,-0.0104851201176643,-0.000431219465099275
48,-0.0177081972360611,-0.0280838012695313,-0.00105570361483842,0.00124996423255652,-0.00426332606002688,0.00338324788026512
49,-0.0142272040247917,-0.024434894323349,0.00583979487419128,0.00834492314606905,0.00316476472653449,0.00949143245816231
50,-0.0119402185082436,-0.0221141260117292,0.00996707193553448,0.0124775571748614,0.00717082805931568,0.0135037191212177
51,-0.0114328367635608,-0.0220154002308846,0.010067424736917,0.012495388276875,0.0069388672709465,0.0132032781839371
52,-0.010759599506855,-0.0226118508726358,0.00919278059154749,0.0117580648511648,0.00570144038647413,0.0110826687887311
53,-0.0103356810286641,-0.0233681611716747,0.00768086826428771,0.0108625963330269,0.00350843532942235,0.00851370114833117
54,-0.0111580844968557,-0.0244501587003469,0.00450674211606383,0.00894043873995543,-0.000167822407092899,0.00548262242227793
55,-0.0107884220778942,-0.0244668032974005,0.00261740060523152,0.00925601925700903,-0.00169415096752346,0.00471925316378474
56,-0.00859379675239325,-0.0232489667832851,0.00369207933545113,0.0129538541659713,0.000122926940093748,0.00703318556770682
57,-0.00764052523300052,-0.0228000115603209,0.00492175715044141,0.0159919671714306,0.00182075123302639,0.00879852660000324
58,-0.00858192518353462,-0.0235411114990711,0.00478161964565516,0.0167343150824308,0.00230593979358673,0.00861698482185602
59,-0.00934436544775963,-0.0240772161632776,0.00446514179930091,0.0173345301300287,0.00358168547973037,0.00855245161801577
60,-0.0090455450117588,-0.02397814206779,0.00496000610291958,0.0186174660921097,0.00626223254948854,0.00936080235987902
61,-0.00808621570467949,-0.0234658289700747,0.00635973131284118,0.0193057917058468,0.00917667057365179,0.0106860008090734
62,-0.00770361721515656,-0.0224086586385965,0.00731758726760745,0.0180786307901144,0.0105112129822373,0.0123642217367888
63,-0.00981407333165407,-0.0215785875916481,0.00552775524556637,0.0137256197631359,0.00821255519986153,0.0125012071803212
64,-0.013809422031045,-0.0216419417411089,0.00130881043151021,0.00737538887187839,0.00296427635475993,0.0102487076073885
65,-0.0162532720714808,-0.0214050095528364,-0.00181860919110477,0.00345923146232963,-0.00126540788915008,0.00859955511987209
66,-0.0153451701626182,-0.0197062641382217,-0.00131628080271184,0.00479623442515731,-0.00152249145321548,0.0100311590358615
67,-0.0131792845204473,-0.0178389251232147,0.001335644046776,0.00864026974886656,0.000961477344390005,0.0120421955361962
68,-0.0126452213153243,-0.0175730288028717,0.00333836465142667,0.0106537882238626,0.00315868714824319,0.010767986997962
69,-0.0133415265008807,-0.0182755775749683,0.00456852419301867,0.010228781029582,0.0045020910911262,0.00668508419767022
70,-0.0123407132923603,-0.0180441252887249,0.0067185265943408,0.00957088731229305,0.00678485911339521,0.00299339299090207
71,-0.00869734119623899,-0.0162929017096758,0.00992976687848568,0.0103540513664484,0.010418183170259,0.00162736733909696
72,-0.00571519928053021,-0.0149071533232927,0.0114818383008242,0.0111685348674655,0.0119602540507913,0.00120930559933186
73,-0.00573181733489037,-0.0152014372870326,0.0102415075525641,0.0103859268128872,0.00975123047828674,-0.000222140763071366
74,-0.00748066138476133,-0.0161302853375673,0.00811281986534595,0.0082075372338295,0.00642839446663857,-0.00234281597658992
75,-0.00949039589613676,-0.0168502982705832,0.00622796220704913,0.00482628075405955,0.00389299169182777,-0.00452979933470488
76,-0.0103417485952377,-0.0168284736573696,0.00517318258062005,0.00161055056378245,0.00289566558785737,-0.00605069845914841
77,-0.00946629047393799,-0.0155656635761261,0.00556957721710205,0.000123012272524647,0.00343613722361624,-0.006200369913131
78,-0.00777091272175312,-0.0134907774627209,0.00724751548841596,0.000474877946544439,0.00472022267058492,-0.00513638509437442
79,-0.00574452755972743,-0.0112339956685901,0.00969467125833035,0.00247436901554465,0.0064585511572659,-0.00295077753253281
80,-0.00435145013034344,-0.0101243862882257,0.0112053193151951,0.00448036892339587,0.00729006854817271,-0.00120009295642376
81,-0.00488971453160048,-0.0118254730477929,0.0099541824311018,0.00411373190581799,0.00577908987179399,-0.0024204570800066
82,-0.00605221791192889,-0.0153179559856653,0.00749247660860419,0.00249996432103217,0.00409808428958058,-0.00546733569353819
83,-0.00685553392395377,-0.0184355601668358,0.00572162866592407,0.00203255494125187,0.00410849135369062,-0.00777407921850681
84,-0.00822321698069572,-0.0203688144683838,0.00452658627182245,0.00294701615348458,0.00448153354227543,-0.008978221565485
85,-0.00913587398827076,-0.0205987188965082,0.00412515830248594,0.00468993652611971,0.00424360763281584,-0.00855707656592131
86,-0.00828964170068502,-0.018692996352911,0.00429675914347172,0.00640118354931474,0.00349070341326296,-0.00582813937216997
87,-0.00583061622455716,-0.0145173417404294,0.00521645694971085,0.00846531148999929,0.00369306863285601,-0.00114186899736524
88,-0.00318407826125622,-0.00935893505811691,0.00655072508379817,0.0106375152245164,0.005266806576401,0.00338250421918929
89,-0.00276395934633911,-0.00560333579778671,0.00594755308702588,0.0103001398965716,0.00503457197919488,0.004948440939188
90,-0.00433103879913688,-0.00356377591378987,0.00339620537124574,0.00762039190158248,0.00163532921578735,0.00402470584958792
91,-0.00500584719702601,-0.00148499628994614,0.00193161831703037,0.00603736098855734,-0.00175030995160341,0.00376811646856368
92,-0.00430763885378838,0.000829650554805994,0.00245962431654334,0.00625482574105263,-0.00324562867172062,0.00471257092431188
93,-0.00481059355661273,0.00163123745005578,0.00259461859241128,0.00554851721972227,-0.00475637568160892,0.00423997640609741
94,-0.00675022881478071,0.000986125436611474,0.0016704493900761,0.00385042512789369,-0.00678354129195213,0.00230995379388332
95,-0.00798368081450462,0.00041426028474234,0.00115368235856295,0.00337106944061816,-0.0076822773553431,0.00118839158676565
96,-0.00862490758299828,-0.000159396615345031,0.000755552027840167,0.00369493383914232,-0.00768106384202838,0.000945491832681
97,-0.00974187534302473,-0.0010893726721406,-0.000183610318345018,0.00364958471618593,-0.00785291753709316,0.000980552169494331
98,-0.0111200287938118,-0.00185511820018291,-0.00111688207834959,0.00320103764533997,-0.00820869393646717,0.00130925292614847
99,-0.0127565460279584,-0.00255657266825438,-0.00214577536098659,0.00209312117658556,-0.00908726640045643,0.0013141519157216
100,-0.0152438748627901,-0.00399919040501118,-0.00415786122903228,-3.15908437187318E-05,-0.0115498779341578,0.000476498942589387
101,-0.0183033607900143,-0.00646269880235195,-0.0072535453364253,-0.00283754104748368,-0.0156883727759123,-0.001235909643583
102,-0.0201455485075712,-0.00882898643612862,-0.00981713924556971,-0.00505891069769859,-0.0193543657660484,-0.00308496248908341
103,-0.0194081533700228,-0.00974382553249598,-0.0103479875251651,-0.00588959874585271,-0.0203995313495398,-0.0041753794066608
104,-0.0166846327483654,-0.00941241718828678,-0.0090970117598772,-0.00569742219522595,-0.0186901967972517,-0.00478505669161677
105,-0.0135178677737713,-0.00894263759255409,-0.00692126480862498,-0.00490525690838695,-0.0152317844331265,-0.0052154092118144
106,-0.0110340993851423,-0.00878790486603975,-0.00450902059674263,-0.00391856674104929,-0.0115794120356441,-0.00533195398747921
107,-0.00915808416903019,-0.00837319809943438,-0.00215947115793824,-0.00284218299202621,-0.00886911991983652,-0.00531334197148681
108,-0.00697718886658549,-0.00696384161710739,0.000582250824663788,-0.000797637330833822,-0.00682253623381257,-0.00475518452003598
109,-0.00410701055079699,-0.0044201179407537,0.00421173963695765,0.00315925083123147,-0.00430889055132866,-0.00236138515174389
110,-0.00165087322238833,-0.00138735596556216,0.00839685648679733,0.00856365915387869,-0.000595835677813739,0.00189032487105578
111,-0.000918924051802605,0.000918719277251512,0.0129811018705368,0.0142928827553988,0.00443784520030022,0.00682817632332444
112,-0.00230075209401548,0.00115510984323919,0.0176325049251318,0.0191632807254791,0.00984617788344622,0.0113537022843957
113,-0.00510567286983132,-0.00128170265816152,0.0205041542649269,0.0205495283007622,0.0133314114063978,0.0122574120759964
114,-0.00662420690059662,-0.0043261582031846,0.0199870597571135,0.0169123914092779,0.0135893067345023,0.00677466485649347
115,-0.00446542585268617,-0.00451843254268169,0.0162613410502672,0.010897415690124,0.0114552974700928,-0.00195061240810901
116,0.000654900155495852,-0.00123400264419615,0.0115894554182887,0.00653254333883524,0.00954814441502094,-0.00872309133410454
117,0.00676374370232224,0.0033715246245265,0.00951195042580366,0.00622652843594551,0.011254670098424,-0.0119149228557944
118,0.011264655739069,0.00662053190171719,0.0103819333016872,0.00913820881396532,0.0160146430134773,-0.0135067645460367
119,0.0121238315477967,0.00707243848592043,0.0112337516620755,0.0122988419607282,0.0200299397110939,-0.0161671973764896
120,0.0101612331345677,0.00545710185542703,0.0104708690196276,0.0144809754565358,0.0219977051019669,-0.0203656163066626
121,0.00662239687517285,0.00246687605977058,0.0080667519941926,0.0157747510820627,0.022634344175458,-0.0255842618644238
122,0.00273996731266379,-0.00160587730351835,0.00519927637651563,0.0167366992682219,0.0237767696380615,-0.0311092305928469
123,0.000386135885491967,-0.00581929832696915,0.00382795347832143,0.018323702737689,0.0274795331060886,-0.036073375493288
124,0.000155733709107153,-0.00943183712661266,0.00451782485470176,0.0205658003687859,0.0337866246700287,-0.0405814200639725
125,0.00170952081680298,-0.012027794495225,0.00616118125617504,0.0230370480567217,0.0413274355232716,-0.0449705943465233
126,0.00430793315172195,-0.0135964406654239,0.00687431124970317,0.0253716539591551,0.0477521009743214,-0.0492669120430946
127,0.0065709063783288,-0.0145970359444618,0.00580982491374016,0.0273600872606039,0.0514927506446838,-0.0533487163484097
128,0.00658020609989762,-0.0159334149211645,0.00272175041027367,0.0281113088130951,0.0521051473915577,-0.0582893267273903
129,0.00462618889287114,-0.017986848950386,-0.00170085416175425,0.0276131145656109,0.0504420474171638,-0.0644265711307526
130,0.00395763339474797,-0.0197701752185822,-0.00501880934461951,0.0280162319540977,0.0495129972696304,-0.069281592965126
131,0.00569503055885434,-0.0209273174405098,-0.00655412627384067,0.0299826804548502,0.05058778449893,-0.0719618648290634
132,0.00821508001536131,-0.0223582927137613,-0.00755209336057305,0.0320470333099365,0.0525200255215168,-0.0740251615643501
133,0.010824560187757,-0.0241579581052065,-0.00835638679563999,0.0335197485983372,0.0549267828464508,-0.0758762136101723
134,0.0139565002173185,-0.0253480970859528,-0.0083548417314887,0.0351050533354282,0.0581260770559311,-0.0767023116350174
135,0.0168795697391033,-0.0261986125260592,-0.00814009550958872,0.036231879144907,0.0613429807126522,-0.0778008699417114
136,0.0187807530164719,-0.0273624714463949,-0.00872860103845596,0.0362843349575996,0.0637370645999908,-0.0808874294161797
137,0.0213268995285034,-0.0273807011544704,-0.00855029467493296,0.0382448099553585,0.0670148953795433,-0.0835563018918037
138,0.0257870517671108,-0.025221323594451,-0.00584033224731684,0.0440493933856487,0.0728469416499138,-0.0829294994473457
139,0.0297618713229895,-0.0227529834955931,-0.00241580768488348,0.0495633482933044,0.0789070129394531,-0.0803016126155853
140,0.0310861170291901,-0.0219422858208418,-0.000363831466529518,0.0508029609918594,0.0828233808279037,-0.0779968500137329
141,0.0311394333839417,-0.0222190283238888,0.00150404055602849,0.0497896000742912,0.0854666978120804,-0.0758192390203476
142,0.0315644703805447,-0.0223136655986309,0.00388971972279251,0.0493891425430775,0.0872753113508224,-0.0731783583760262
143,0.0331028029322624,-0.0214523207396269,0.00582931004464626,0.0500225834548473,0.0880545079708099,-0.0700680911540985
144,0.0355837643146515,-0.0195493642240763,0.00669158110395074,0.0507847592234612,0.0878981947898865,-0.0670819729566574
145,0.0366702191531658,-0.0182560868561268,0.00531092053279281,0.0493604950606823,0.0854032635688782,-0.0665113180875778
146,0.0352204702794552,-0.0188439078629017,0.00170263298787177,0.0450894460082054,0.0803062990307808,-0.0691298022866249
147,0.0332424752414227,-0.020393829792738,-0.00173336616717279,0.0404627770185471,0.0756604298949242,-0.0721098929643631
148,0.0317745842039585,-0.0218156781047583,-0.00359202758409083,0.037302128970623,0.0735208243131638,-0.0729750543832779
149,0.0299264062196016,-0.0229663792997599,-0.00451132748275995,0.0350025556981564,0.0726139768958092,-0.0722260326147079
150,0.0280318092554808,-0.0238722320646048,-0.00547292036935687,0.0328115448355675,0.0708118230104446,-0.0710403844714165
151,0.0269943401217461,-0.0245582647621632,-0.00717653753235936,0.0309617966413498,0.067233607172966,-0.0693703889846802
152,0.0265200510621071,-0.0250429566949606,-0.00946050882339478,0.0299958530813456,0.0629528313875198,-0.0665059611201286
153,0.0261623132973909,-0.0252948515117168,-0.0113116754218936,0.0302669163793325,0.0596202500164509,-0.0623713657259941
154,0.0258310437202454,-0.0255164448171854,-0.0120613509789109,0.0318308621644974,0.057630330324173,-0.057812761515379
155,0.0250631906092167,-0.0261063147336245,-0.011996422894299,0.0341734550893307,0.0563728399574757,-0.0536982156336308
156,0.0241655930876732,-0.0267992522567511,-0.0113171339035034,0.0363925285637379,0.0555721186101437,-0.0498733855783939
157,0.0245434734970331,-0.026790352538228,-0.00967110879719257,0.0378844626247883,0.0554717741906643,-0.0456783808767796
158,0.0253998711705208,-0.0268833786249161,-0.00810209196060896,0.037657268345356,0.0550310537219048,-0.0424211882054806
159,0.0237731318920851,-0.0292718652635813,-0.00903476774692535,0.0345063656568527,0.0519641526043415,-0.0426643379032612
160,0.0203775558620691,-0.0337951071560383,-0.0117368549108505,0.0305991712957621,0.04732845723629,-0.0453607887029648
161,0.0190997812896967,-0.0380220972001553,-0.012831942178309,0.0294293686747551,0.044755607843399,-0.0467292591929436
162,0.0209142621606588,-0.0404511317610741,-0.0114540793001652,0.0307869501411915,0.0448823012411594,-0.0446312241256237
163,0.0243668556213379,-0.0408710278570652,-0.00856298580765724,0.0336007140576839,0.0465276539325714,-0.0384276546537876
164,0.0274936482310295,-0.0404310375452042,-0.00542151648551226,0.036908682435751,0.0487850569188595,-0.0300987679511309
165,0.0288028977811337,-0.0404869467020035,-0.00322553422302008,0.0391952693462372,0.0507753677666187,-0.0230602081865072
166,0.0286112148314714,-0.0408299937844276,-0.00233977381139994,0.0401759147644043,0.0518627911806107,-0.0184380579739809
167,0.0268992315977812,-0.041365098208189,-0.00343876029364765,0.0392292961478233,0.0510475598275661,-0.0164912268519402
168,0.0233472138643265,-0.0423127897083759,-0.00635110819712281,0.0360748209059238,0.0484738796949387,-0.017039779573679
169,0.0190031435340643,-0.0431614443659782,-0.00955391023308039,0.0318300649523735,0.0458283200860024,-0.0190333463251591
170,0.0156845916062593,-0.0431835055351257,-0.0114078996703029,0.0283650178462267,0.0447467118501663,-0.0206531435251236
171,0.0146090956404805,-0.0421365238726139,-0.0111633120104671,0.0273441448807716,0.0457179397344589,-0.0198845695704222
172,0.0146455708891153,-0.0410323776304722,-0.0108832959085703,0.0272620692849159,0.0467023886740208,-0.0175237637013197
173,0.0146608324721456,-0.0403499528765678,-0.0120976343750954,0.026509840041399,0.0464205332100391,-0.0150513844564557
174,0.014740914106369,-0.0396237596869469,-0.0136820208281279,0.025749433785677,0.0454975180327892,-0.0125963911414146
175,0.0148426620289683,-0.0389115028083324,-0.014477513730526,0.0253594964742661,0.0442759469151497,-0.010675503872335
176,0.0162269081920385,-0.0378258004784584,-0.0131857562810183,0.0261214300990105,0.0445335321128368,-0.00896004401147366
177,0.0188244376331568,-0.0363868959248066,-0.0104054613038898,0.0277950223535299,0.0465532355010509,-0.00670179771259427
178,0.0200486909598112,-0.0356777310371399,-0.00903094466775656,0.0284849628806114,0.0470807440578938,-0.00443247333168983
179,0.0197111051529646,-0.0355693213641644,-0.00943517591804266,0.028167212381959,0.0448739565908909,-0.00274605304002762
180,0.0192138832062483,-0.0351882986724377,-0.0101858964189887,0.0279888175427914,0.0413736216723919,-0.00159438222181052
181,0.0184291135519743,-0.0346086919307709,-0.0111820278689265,0.0281957071274519,0.0377111732959747,-0.000820809160359204
182,0.0166908856481314,-0.0343699939548969,-0.0129637522622943,0.0280274972319603,0.0342385284602642,-0.000793384737335145
183,0.0141017353162169,-0.0345486216247082,-0.0154062826186419,0.0266143120825291,0.030859125778079,-0.00177812157198787
184,0.0115731786936522,-0.0345755890011787,-0.0175647791475058,0.0245435927063227,0.0276616550981998,-0.00303063355386257
185,0.00976851582527161,-0.0340819135308266,-0.0185727030038834,0.022992730140686,0.0252957083284855,-0.00366765609942377
186,0.00843099132180214,-0.0335492342710495,-0.0185613874346018,0.0216595325618982,0.0239624697715044,-0.00397136900573969
187,0.00642040371894836,-0.0340992510318756,-0.0190919674932957,0.0187965650111437,0.0220830515027046,-0.00546453008428216
188,0.00436162017285824,-0.0351799800992012,-0.0200614500790834,0.0153844123706222,0.0199232622981071,-0.00735319731757045
189,0.00468207290396094,-0.0345716960728168,-0.0188855156302452,0.0151432063430548,0.0201998632401228,-0.00656770030036569
190,0.00689392304047942,-0.032185897231102,-0.0154292220249772,0.0176782328635454,0.0222441274672747,-0.00332072889432311
191,0.00911790877580643,-0.0292088631540537,-0.0116168791428208,0.0197484251111746,0.024023275822401,0.000589579634834081
192,0.0107565242797136,-0.0264340993016958,-0.00861354172229767,0.0202098656445742,0.0255437679588795,0.00476605305448174
193,0.0102969631552696,-0.0254817437380552,-0.00796106271445751,0.0181222856044769,0.0258275177329779,0.0073478864505887
194,0.00691875768825412,-0.0267552677541971,-0.0101533606648445,0.0131831914186478,0.0240687374025583,0.00681526074185967
195,0.00250422861427069,-0.028377678245306,-0.0132295498624444,0.00763455498963594,0.0216086190193892,0.0048657706938684
196,-0.00115203449968249,-0.0291569028049707,-0.0159203205257654,0.00327040767297149,0.0190446525812149,0.00311261019669473
197,-0.00294937985017896,-0.0288157965987921,-0.0174661614000797,0.00119091954547912,0.0165228042751551,0.00258770398795605
198,-0.00226014689542353,-0.0265785362571478,-0.016307283192873,0.0030771791934967,0.0150587111711502,0.0052628512494266
199,-0.000667222368065268,-0.0226956959813833,-0.0130531992763281,0.00776074407622218,0.0145757338032126,0.0108864540234208
200,0.000593130476772785,-0.01832639798522,-0.0091604283079505,0.0124181779101491,0.0154637256637216,0.017385371029377
201,0.00169537321198732,-0.0146900825202465,-0.00546873081475496,0.0153260789811611,0.0179284922778606,0.0229576900601387
202,0.00225624116137624,-0.0130416788160801,-0.00369431241415441,0.015082105062902,0.0192702207714319,0.0257844664156437
203,0.00239404127933085,-0.0125997066497803,-0.00394339114427567,0.0125073427334428,0.0181245487183332,0.0259883999824524
204,0.00156273972243071,-0.0120331821963191,-0.00523158209398389,0.00892505329102278,0.0150929456576705,0.0244787856936455
205,-0.000828370859380811,-0.0111801419407129,-0.00685402983799577,0.00483439862728119,0.0108101591467857,0.0221007373183966
206,-0.00258414982818067,-0.00905704684555531,-0.00688055530190468,0.00253189937211573,0.00766725046560168,0.0212619379162788
207,-0.00284008658491075,-0.0054075145162642,-0.00557018490508199,0.00244723609648645,0.00628090370446444,0.0224978998303413
208,-0.00468863733112812,-0.00254840985871851,-0.00671993289142847,0.000546537106856704,0.00312895281240344,0.0223535858094692
209,-0.00929827895015478,-0.00168607011437416,-0.0111888097599149,-0.00487801199778914,-0.00276212161406875,0.0190453603863716
210,-0.012882555834949,-0.000673717819154263,-0.0143814459443092,-0.00897085666656494,-0.0064974376000464,0.0168035943061113
211,-0.0126874689012766,0.00247905449941754,-0.012660481967032,-0.00717474147677422,-0.0044137523509562,0.0200687535107136
212,-0.0107035990804434,0.00698232091963291,-0.00731333252042532,-0.00100821582600474,0.00142468302510679,0.0272177327424288
213,-0.00924354512244463,0.0108313923701644,-0.0013708327896893,0.00492597837001085,0.00732545787468553,0.0326223038136959
214,-0.00821856688708067,0.0131732579320669,0.0025495917070657,0.00645223632454872,0.0105910347774625,0.0313278660178185
215,-0.00693984469398856,0.015021288767457,0.00260564754717052,0.00219966284930706,0.00965042971074581,0.0227850452065468
216,-0.00458186911419034,0.0183191224932671,-0.000588262977544218,-0.00473158527165651,0.00565479183569551,0.0115067334845662
217,-0.000945402716752142,0.0237908512353897,-0.00524459220468998,-0.0101197948679328,0.00134501175489277,0.00217847875319421
218,0.00286845536902547,0.0302605535835028,-0.00999733339995146,-0.012172032147646,-0.00125306181143969,-0.00406956067308784
219,0.00553874345496297,0.0359584540128708,-0.0135541167110205,-0.0123862521722913,-0.00169116491451859,-0.0089563112705946
220,0.0073249526321888,0.0404725149273872,-0.0149849765002728,-0.0131486840546131,-0.000375808449462056,-0.0141952252015471
221,0.0100295599550009,0.0451092272996902,-0.0144250290468335,-0.0147098544985056,0.00239436118863523,-0.0195646453648806
222,0.0135520603507757,0.0501956082880497,-0.0142133142799139,-0.0170305669307709,0.00493626901879907,-0.0250772312283516
223,0.0153008028864861,0.0540940873324871,-0.0172430109232664,-0.0210838317871094,0.00474577024579048,-0.0325925536453724
224,0.0141771649941802,0.0556028187274933,-0.0228784903883934,-0.0269769821316004,0.00233574281446636,-0.0437931828200817
225,0.0131910787895322,0.0563213899731636,-0.0267805904150009,-0.0317030809819698,0.00159227009862661,-0.0562714412808418
226,0.0147198215126991,0.0583958812057972,-0.027543755248189,-0.0335301160812378,0.00343508180230856,-0.0669525340199471
227,0.0177575666457415,0.0620502233505249,-0.0279189180582762,-0.0348106399178505,0.0053510726429522,-0.0764141231775284
228,0.0215738620609045,0.0668908879160881,-0.0288157109171152,-0.0362039394676685,0.00676561892032623,-0.0848845839500427
229,0.025064880028367,0.0716038718819618,-0.0299888625741005,-0.0375772826373577,0.00733265792950988,-0.0930131450295448
230,0.0268836989998817,0.0751320496201515,-0.0319884233176708,-0.0402587987482548,0.00598896248266101,-0.102201022207737
231,0.0277252178639174,0.0786289125680923,-0.0342688336968422,-0.0438711382448673,0.00366918416693807,-0.111184298992157
232,0.0280951727181673,0.0830125585198402,-0.0361531376838684,-0.0471229590475559,0.00159534125123173,-0.118824683129787
233,0.027330681681633,0.0873179957270622,-0.0379632599651814,-0.0497223772108555,-0.000326789770042524,-0.125884845852852
234,0.0260875765234232,0.0907073616981506,-0.039272952824831,-0.0516401939094067,-0.00139339943416417,-0.133154854178429
235,0.02652982249856,0.0940966829657555,-0.0388365052640438,-0.0526194125413895,-0.000245016213739291,-0.140651658177376
236,0.0301422718912363,0.0991803184151649,-0.036562979221344,-0.0526613779366016,0.00309381983242929,-0.147633537650108
237,0.0361952483654022,0.106498949229717,-0.0341538153588772,-0.0526413358747959,0.00722786691039801,-0.153513386845589
238,0.0414548739790916,0.114287734031677,-0.0340443029999733,-0.0544173717498779,0.0100047709420323,-0.159172907471657
239,0.0437897332012653,0.120844468474388,-0.0356350615620613,-0.0572464056313038,0.0108492504805326,-0.164558663964272
240,0.0439281836152077,0.126478791236877,-0.0359918139874935,-0.0576538555324078,0.0110359182581306,-0.168338596820831
241,0.0428043976426125,0.131684884428978,-0.0345476903021336,-0.0551903136074543,0.0109534310176969,-0.171377182006836
242,0.0414678193628788,0.136922895908356,-0.0316841937601566,-0.0522917099297047,0.0105413235723972,-0.174563929438591
243,0.0418383404612541,0.143037706613541,-0.0272312574088573,-0.0503870509564877,0.0102133378386498,-0.176532715559006
244,0.0439139008522034,0.149154663085938,-0.0228779464960098,-0.0500857196748257,0.00896915700286627,-0.17714561522007
245,0.0449874773621559,0.153067782521248,-0.0207480750977993,-0.0516715198755264,0.00505092926323414,-0.1784987449646
246,0.0444221720099449,0.154919654130936,-0.019540136680007,-0.0527986809611321,-0.000317966565489769,-0.180234909057617
247,0.0431372858583927,0.155814468860626,-0.0176672544330359,-0.0519739352166653,-0.00490031624212861,-0.180886298418045
248,0.0414366759359837,0.155745476484299,-0.015518763102591,-0.0508962720632553,-0.00774025684222579,-0.180649742484093
249,0.0404866226017475,0.155042737722397,-0.0128758559003472,-0.0496752448379993,-0.00801626034080982,-0.178717836737633
250,0.0408965721726418,0.153753712773323,-0.00946541968733072,-0.0468074828386307,-0.00606191670522094,-0.174021825194359
251,0.0420681573450565,0.151333495974541,-0.00551362801343203,-0.0421634428203106,-0.00303157838061452,-0.166977271437645
252,0.0432999283075333,0.147632196545601,-0.00122401467524469,-0.0370171591639519,0.000377567950636148,-0.15913887321949
253,0.0436345860362053,0.142600744962692,0.00250530778430402,-0.0328940264880657,0.00288312742486596,-0.152195915579796
254,0.0418983995914459,0.135401651263237,0.00399224041029811,-0.0311612244695425,0.0027515736874193,-0.147397488355637
255,0.0378422550857067,0.125155508518219,0.00262732710689306,-0.0319115035235882,0.000248214899329469,-0.145043388009071
256,0.0324115827679634,0.112409323453903,-0.000669709290377796,-0.0332966968417168,-0.00291041750460863,-0.143705636262894
257,0.0272659100592136,0.0990121960639954,-0.0043864999897778,-0.0331497602164745,-0.00531757529824972,-0.141053915023804
258,0.0237317644059658,0.0865509510040283,-0.00694280257448554,-0.0305806361138821,-0.00598708586767316,-0.136049419641495
259,0.0213658194988966,0.0750884339213371,-0.0080361096188426,-0.0263761654496193,-0.00548150390386581,-0.129312470555305
260,0.0197935495525599,0.0645851343870163,-0.00782035570591688,-0.0210457593202591,-0.00458363350480795,-0.120320215821266
261,0.0199231654405594,0.0556496679782867,-0.00559298181906343,-0.0142098171636462,-0.00236892187967896,-0.108270466327667
262,0.0213256571441889,0.0476350821554661,-0.00139319070149213,-0.00686128530651331,0.00155141798313707,-0.0949319452047348
263,0.0214789640158415,0.0387282557785511,0.00242572138085961,-0.00134180579334497,0.00508398050442338,-0.0833799913525581
264,0.0193035956472158,0.0282621271908283,0.00373251759447157,0.00169684668071568,0.00621603103354573,-0.0751425921916962
265,0.0167511776089668,0.0170667991042137,0.00322976498864591,0.00379440723918378,0.00575301609933376,-0.0688780397176743
266,0.0147492168471217,0.00552223203703761,0.00150316231884062,0.00500215403735638,0.00488100666552782,-0.063002921640873
267,0.0114049362018704,-0.0070320195518434,-0.00243588606826961,0.00378615129739046,0.00296119111590087,-0.057891383767128
268,0.00600683176890016,-0.0204859934747219,-0.00783950742334127,0.000945711741223931,0.000200150709133595,-0.0537623539566994
269,0.000243793765548617,-0.0334289819002151,-0.0123239373788238,-0.00126775517128408,-0.00167546980082989,-0.0497497022151947
270,-0.00518700527027249,-0.0450373627245426,-0.0156773757189512,-0.00314216897822917,-0.00272868573665619,-0.0459370389580727
271,-0.0113065978512168,-0.0558720603585243,-0.020096791908145,-0.00690346909686923,-0.00524108437821269,-0.0438327230513096
272,-0.0178439412266016,-0.065944492816925,-0.0261145774275064,-0.0120892878621817,-0.00980604439973831,-0.0433174893260002
273,-0.0219917744398117,-0.0734022185206413,-0.0303266830742359,-0.0145609518513083,-0.0133859179913998,-0.040922436863184
274,-0.0213426444679499,-0.0765775218605995,-0.0291739236563444,-0.0116677461192012,-0.0128728253766894,-0.0333074182271957
275,-0.0168220493942499,-0.0758098363876343,-0.0235611982643604,-0.00475418567657471,-0.00856216251850128,-0.0207122433930635
276,-0.0120830126106739,-0.0734186768531799,-0.0180846583098173,0.00228863023221493,-0.00393663672730327,-0.00723488442599773
277,-0.0099393418058753,-0.0722275078296661,-0.0163083150982857,0.00540605187416077,-0.0021178238093853,0.00225137383677065
278,-0.0103060184046626,-0.0729753375053406,-0.0181987807154655,0.00409960094839334,-0.00298087624832988,0.00671967724338174
279,-0.0117568327113986,-0.0744566842913628,-0.021770965307951,0.00132839940488338,-0.00493728835135698,0.00882603880017996
280,-0.0130547918379307,-0.0755476281046867,-0.0250639878213406,-0.000316949764965102,-0.00645597698166966,0.0111540770158172
281,-0.0135179553180933,-0.0758169069886208,-0.0268312841653824,-0.000387419015169144,-0.00644862418994308,0.014795976690948
282,-0.0125694824382663,-0.0746748223900795,-0.0260720103979111,0.0014327869284898,-0.00470987893640995,0.0207078997045755
283,-0.0105218021199107,-0.0717477947473526,-0.0229542553424835,0.00535655813291669,-0.00222765561193228,0.0290522389113903
284,-0.0095555055886507,-0.0683334916830063,-0.0201868992298841,0.00890614464879036,-0.00159451016224921,0.0369094163179398
285,-0.0108017968013883,-0.065512016415596,-0.0194797497242689,0.0101518295705318,-0.00385066005401313,0.0420001782476902
286,-0.0131218526512384,-0.0628742203116417,-0.0195698253810406,0.010106947273016,-0.00709935277700424,0.0455492325127125
287,-0.0157868135720491,-0.0604017488658428,-0.0199754349887371,0.00906592234969139,-0.0103248003870249,0.0481754988431931
288,-0.0186058953404427,-0.0581477433443069,-0.0211404915899038,0.00702887307852507,-0.0137454057112336,0.0496212393045425
289,-0.0210581421852112,-0.0557787083089352,-0.0223225764930248,0.00510170264169574,-0.0168680604547262,0.0505945235490799
290,-0.0238340366631746,-0.0537995360791683,-0.0237952098250389,0.00280487048439682,-0.0202687121927738,0.05070785805583
291,-0.0281370207667351,-0.0525983758270741,-0.02678875438869,-0.00100148224737495,-0.0251745693385601,0.0488822162151337
292,-0.0319211371243,-0.0506146512925625,-0.0288705453276634,-0.00337132066488266,-0.0287467148154974,0.0475135669112206
293,-0.0323091521859169,-0.0463941283524036,-0.0265730321407318,-0.000438365270383656,-0.0273841414600611,0.0498014278709888
294,-0.0299632102251053,-0.0411147549748421,-0.0215952973812819,0.0050776656717062,-0.0232575517147779,0.0542332194745541
295,-0.0262747146189213,-0.036313071846962,-0.0176721308380365,0.00766784278675914,-0.0200540125370026,0.0583577193319798
296,-0.0225296653807163,-0.0323585718870163,-0.0162945855408907,0.00610749237239361,-0.0192133672535419,0.0618374608457088
297,-0.0204209052026272,-0.0295893866568804,-0.0171147361397743,0.00251123053021729,-0.0209551714360714,0.0644040554761887
298,-0.01936393417418,-0.0277631040662527,-0.0182056091725826,-0.00051416119094938,-0.0233567673712969,0.0662027448415756
299,-0.0177076403051615,-0.0261196866631508,-0.0176023915410042,-0.00159813975915313,-0.0244426168501377,0.0679498836398125
300,-0.0152970105409622,-0.0245968513190746,-0.0154613079503179,-0.0011381225194782,-0.0248334389179945,0.069785512983799
301,-0.0128164682537317,-0.0234250165522099,-0.013035349547863,-9.17454890441149E-05,-0.0256454851478338,0.0713812708854675
302,-0.0110228834673762,-0.0225218273699284,-0.0110873579978943,0.000683251477312297,-0.0268661342561245,0.0721365287899971
303,-0.0100757135078311,-0.0215313490480185,-0.00946691259741783,0.000790126505307853,-0.027741014957428,0.0718056857585907
304,-0.00895194709300995,-0.0198497753590345,-0.00722189014777541,0.000935181102249771,-0.0272982288151979,0.0714826136827469
305,-0.00783976726233959,-0.0176753215491772,-0.0049187308177352,0.000906317960470915,-0.0264258533716202,0.0715597420930862
306,-0.00832157116383314,-0.0159205812960863,-0.00433649774640799,-0.000803591334261,-0.0271329078823328,0.0707494542002678
307,-0.00980001594871283,-0.0142681831493974,-0.00506834220141172,-0.00366468331776559,-0.0290158465504646,0.0690514966845512
308,-0.0107346773147583,-0.0118302451446652,-0.00568624120205641,-0.00644151447340846,-0.0305741298943758,0.0675505623221397
309,-0.012112021446228,-0.00932805612683296,-0.00678052613511682,-0.0100638689473271,-0.0326046273112297,0.0659048035740852
310,-0.015549729578197,-0.00789777282625437,-0.00972089264541864,-0.0152180064469576,-0.0369810350239277,0.0634640082716942
311,-0.0202614665031433,-0.00688846968114376,-0.0136676914989948,-0.0203155279159546,-0.0433151572942734,0.0608981996774673
312,-0.0246002413332462,-0.0054173874668777,-0.0166456811130047,-0.0240827463567257,-0.0496990457177162,0.0587108880281448
313,-0.026941392570734,-0.00297744618728757,-0.0170715022832155,-0.0256804656237364,-0.0540564879775047,0.0579987950623035
314,-0.0261808056384325,0.00126330647617579,-0.0144757591187954,-0.0243266001343727,-0.0552485026419163,0.0603172183036804
315,-0.0240008253604174,0.0065120323561132,-0.0111907655373216,-0.0223261527717113,-0.055191021412611,0.063505232334137
316,-0.0219913851469755,0.0112227825447917,-0.00863949209451675,-0.0219541415572166,-0.0550373569130898,0.0645895898342133
317,-0.0195411238819361,0.0155064091086388,-0.00556762749329209,-0.0215975362807512,-0.0534015595912933,0.0643843710422516
318,-0.0164171755313873,0.0203790813684464,-0.0017784993397072,-0.0191047191619873,-0.0503163076937199,0.0651560425758362
319,-0.0128141026943922,0.0264013316482306,0.0019284033915028,-0.0152671048417687,-0.0470121614634991,0.0676688328385353
320,-0.00953158270567656,0.0325584709644318,0.00443253014236689,-0.0129468701779842,-0.0448379442095757,0.0701262429356575
321,-0.00839207507669926,0.0366652235388756,0.00410493323579431,-0.0137349450960755,-0.0455297231674194,0.0696759298443794
322,-0.00995852053165436,0.0373407267034054,0.000986934290267527,-0.0174720026552677,-0.0492858961224556,0.0650170147418976
323,-0.0121817318722606,0.0357857421040535,-0.00196742825210094,-0.0225702300667763,-0.0532430186867714,0.0587141402065754
324,-0.0136713581159711,0.033867534250021,-0.0033133146353066,-0.0271450951695442,-0.055791687220335,0.0545965135097504
325,-0.0151271317154169,0.031547524034977,-0.00452657788991928,-0.0306339301168919,-0.0584047771990299,0.0532376691699028
326,-0.016536382958293,0.0285735055804253,-0.0058220811188221,-0.0331914387643337,-0.0612928085029125,0.0532649494707584
327,-0.0169519260525703,0.0257834941148758,-0.0059816762804985,-0.034848652780056,-0.0631501451134682,0.0539705865085125
328,-0.0153823597356677,0.0244287606328726,-0.00407074065878987,-0.0346200540661812,-0.0628928691148758,0.055936872959137
329,-0.0116537790745497,0.0244505386799574,-0.000326236040564254,-0.0320613570511341,-0.0600923970341682,0.0593834258615971
330,-0.00729522760957479,0.0243586786091328,0.00378350354731083,-0.0284173171967268,-0.0561302304267883,0.0635014548897743
331,-0.00439094007015228,0.023131987079978,0.00648428173735738,-0.0254320576786995,-0.0536863803863525,0.0671672001481056
332,-0.00272067193873227,0.021312803030014,0.00780337629839778,-0.023446723818779,-0.0531512014567852,0.0702139884233475
333,-0.00073160178726539,0.0198526810854673,0.00922528747469187,-0.0217528063803911,-0.0530607849359512,0.0732315629720688
334,0.00173917855136096,0.0189357716590166,0.0112978303804994,-0.0201005022972822,-0.0527218915522099,0.0759824439883232
335,0.00346578890457749,0.0182374063879251,0.0129411434754729,-0.0188676286488771,-0.0525434501469135,0.0776696726679802
336,0.0027917877305299,0.0171317178755999,0.0125494543462992,-0.0192121919244528,-0.0539197809994221,0.0777289494872093
337,0.000126647981232964,0.0157343652099371,0.0106460815295577,-0.0209561940282583,-0.0566360987722874,0.0771666467189789
338,-0.00342773157171905,0.013932891190052,0.00799018424004316,-0.0235473290085793,-0.0597855821251869,0.0762870982289314
339,-0.00729241129010916,0.0112900026142597,0.00503639271482825,-0.0265440549701452,-0.0626556873321533,0.0745964422821999
340,-0.00973343290388584,0.00884488970041275,0.00391722377389669,-0.0275959353893995,-0.0632753893733025,0.0740508735179901
341,-0.0110375331714749,0.00668837642297149,0.00424553966149688,-0.0270040221512318,-0.0624600648880005,0.0747438296675682
342,-0.0130802011117339,0.00359470141120255,0.00363690638914704,-0.0275005269795656,-0.0627000853419304,0.0740851238369942
343,-0.0156789757311344,-0.000259565917076543,0.00224433117546141,-0.0287110656499863,-0.063472144305706,0.0720258802175522
344,-0.0177519917488098,-0.00390674127265811,0.00131482514552772,-0.0289478600025177,-0.0634792521595955,0.0703816339373589
345,-0.0184822548180819,-0.00693132216110826,0.00135761220008135,-0.0282621625810862,-0.0627623349428177,0.0704190135002136
346,-0.0177830141037703,-0.00958296190947294,0.0019186552381143,-0.0273775551468134,-0.0618128404021263,0.0727072954177856
347,-0.0165746193379164,-0.0126216309145093,0.00208055507391691,-0.0264280755072832,-0.0608716197311878,0.0765484273433685
348,-0.0149137275293469,-0.0162863451987505,0.0027413999196142,-0.0242060739547014,-0.058524027466774,0.0809850767254829
349,-0.0118041140958667,-0.019569393247366,0.00571882678195834,-0.0192723888903856,-0.0528451129794121,0.0862675830721855
350,-0.00889511965215206,-0.0227705352008343,0.00892665516585112,-0.0143743269145489,-0.0462535358965397,0.0907961949706078
351,-0.00862489640712738,-0.0274340324103832,0.00910811778157949,-0.0132511965930462,-0.0426102057099342,0.0923986807465553
352,-0.00985961873084307,-0.0329005606472492,0.00719552533701062,-0.0149774067103863,-0.0417362973093987,0.092255562543869
353,-0.0114442780613899,-0.0376307517290115,0.00452647404745221,-0.0177046339958906,-0.0425470285117626,0.0916249006986618
354,-0.0143461264669895,-0.0413755103945732,0.000560517248231918,-0.0212626419961452,-0.0452112406492233,0.0897857174277306
355,-0.0183228477835655,-0.0441145524382591,-0.00416036928072572,-0.0252287965267897,-0.0492443293333054,0.086554616689682
356,-0.0217365920543671,-0.0453445613384247,-0.0080212140455842,-0.0286067724227905,-0.0533346235752106,0.0834368243813515
357,-0.0238936021924019,-0.0449110195040703,-0.0101630119606853,-0.0310013312846422,-0.0563500560820103,0.0816072523593903
358,-0.025014765560627,-0.0433700270950794,-0.0103618735447526,-0.0322136171162128,-0.0577047578990459,0.0809675827622414
359,-0.0255170613527298,-0.0411515906453133,-0.00866710022091866,-0.0320792980492115,-0.0572708174586296,0.0811415612697601
360,-0.0259357336908579,-0.0384975373744965,-0.0062769022770226,-0.0316785760223866,-0.0561533346772194,0.081197090446949
361,-0.0256762877106667,-0.0354658998548985,-0.00451247021555901,-0.0319151841104031,-0.0560461021959782,0.0803566947579384
362,-0.0236472189426422,-0.0320444591343403,-0.00328254839405417,-0.0323772542178631,-0.0571355856955051,0.0793533995747566
363,-0.0208916235715151,-0.0288833044469357,-0.00258550606667995,-0.0333198681473732,-0.0588218383491039,0.0787278190255165
364,-0.0194225367158651,-0.0263421107083559,-0.00315051362849772,-0.0356045253574848,-0.0607844814658165,0.0776488110423088
365,-0.0190100036561489,-0.0232311487197876,-0.00427916832268238,-0.0383796095848084,-0.0621519610285759,0.076181672513485
366,-0.0181586518883705,-0.0185734257102013,-0.00430551450699568,-0.0402934774756432,-0.0621148161590099,0.0752690061926842
367,-0.0170830935239792,-0.013581614010036,-0.00342095294035971,-0.0417095124721527,-0.0613405816257,0.0745115205645561
368,-0.0165865495800972,-0.00961557030677795,-0.00280705676414073,-0.0430412702262402,-0.0610442794859409,0.0734272450208664
369,-0.0159894749522209,-0.00616973266005516,-0.00211586663499475,-0.0433839112520218,-0.0610135234892368,0.0729247778654099
370,-0.014439694583416,-0.0024575951974839,-0.00028098130133003,-0.0420494414865971,-0.0599575042724609,0.0735899284482002
371,-0.012951691634953,0.000547256844583899,0.00199182471260428,-0.0402623564004898,-0.0581014864146709,0.0741608813405037
372,-0.0125779109075665,0.00183163257315755,0.00389718636870384,-0.0389628224074841,-0.0559865720570087,0.0740463808178902
373,-0.0124259768053889,0.00250620045699179,0.00678589195013046,-0.0364736877381802,-0.0526596494019032,0.0751416459679604
374,-0.0122086014598608,0.00342638627626002,0.0111477058380842,-0.0314606502652168,-0.048874918371439,0.0781914964318275
375,-0.0128502324223518,0.00389846577309072,0.0153374187648296,-0.0251792389899492,-0.0471881926059723,0.0811459794640541
376,-0.0143037019297481,0.00403759256005287,0.0172895677387714,-0.0208055227994919,-0.0489675588905811,0.0820874273777008
377,-0.0159363318234682,0.00498478440567851,0.0147957904264331,-0.0217416398227215,-0.0542428307235241,0.0806941688060761
378,-0.0168730448931456,0.00719777029007673,0.00783900264650583,-0.0278162509202957,-0.0612314939498901,0.0777516737580299
379,-0.016690680757165,0.0095406835898757,-0.000643465435132384,-0.0358614772558212,-0.0674899742007256,0.0742577090859413
380,-0.0165097005665302,0.0101006980985403,-0.00799395050853491,-0.0439658090472221,-0.0724893510341644,0.0706584230065346
381,-0.0168557707220316,0.00871153548359871,-0.0127564072608948,-0.050885483622551,-0.0761934891343117,0.0680277198553085
382,-0.0176157392561436,0.00670132134109735,-0.0150516191497445,-0.0555809512734413,-0.0784153714776039,0.0677191987633705
383,-0.0191797781735659,0.00496294442564249,-0.0158831514418125,-0.0578650534152985,-0.0793405920267105,0.0700285583734512
384,-0.0221102088689804,0.00323970452882349,-0.0158709064126015,-0.0578114129602909,-0.079800009727478,0.0745578184723854
385,-0.0270599406212568,0.000449492858024314,-0.0160641930997372,-0.0562971793115139,-0.0816160067915916,0.0798712968826294
386,-0.0320806950330734,-0.00270130834542215,-0.0156983193010092,-0.0532428175210953,-0.0835767015814781,0.0852305814623833
387,-0.0336236953735352,-0.00388364330865443,-0.0124212456867099,-0.04736353084445,-0.0822128057479858,0.0913838446140289
388,-0.0316692441701889,-0.00265207001939416,-0.00695656286552548,-0.0398740954697132,-0.0781082585453987,0.0974203199148178
389,-0.0286110322922468,-0.000589512812439352,-0.00189912458881736,-0.0339595451951027,-0.074164591729641,0.100934706628323
390,-0.0261129345744848,0.000658000470139086,0.00127175007946789,-0.0320292972028255,-0.0718157142400742,0.100551843643188
391,-0.0242632795125246,0.00074209290323779,0.00266371457837522,-0.0341271795332432,-0.0704938694834709,0.0972067639231682
392,-0.0223703403025866,6.18530684732832E-05,0.00319603085517883,-0.0379392318427563,-0.0688705593347549,0.0930469036102295
393,-0.0207973271608353,-0.00150638585910201,0.00319193280301988,-0.0408908240497112,-0.067037969827652,0.0893660634756088
394,-0.0199439562857151,-0.00341008673422039,0.00369443139061332,-0.0408569574356079,-0.0649832636117935,0.0874875113368034
395,-0.0202515423297882,-0.00516438670456409,0.00535282585769892,-0.0385246947407722,-0.0627697259187698,0.0870351493358612
396,-0.0226775482296944,-0.00801155995577574,0.00661655655130744,-0.0372166335582733,-0.0615484416484833,0.0850283801555634
397,-0.0273889787495136,-0.0128301782533526,0.00608209846541286,-0.03802839666605,-0.0619981922209263,0.08035559207201
398,-0.0323329530656338,-0.0180738531053066,0.00543912686407566,-0.0384248867630959,-0.0623478777706623,0.0756756067276001
399,-0.0340152196586132,-0.0214825328439474,0.00799398869276047,-0.0355743952095509,-0.0593211725354195,0.074491411447525
400,-0.032198965549469,-0.0233119241893291,0.012874249368906,-0.0306667182594538,-0.0538376793265343,0.0765860378742218
401,-0.0303672961890697,-0.0255692452192307,0.0156704690307379,-0.0274843871593475,-0.0499240681529045,0.0783048644661903
402,-0.0309725627303123,-0.0291444659233093,0.0142866596579552,-0.0277795400470495,-0.0488313548266888,0.0773190632462502
403,-0.0330326557159424,-0.0329219065606594,0.0105755273252726,-0.0300470627844334,-0.0489564314484596,0.0748207792639732
404,-0.0341409407556057,-0.0347557850182056,0.0078020142391324,-0.031102554872632,-0.0485445596277714,0.073709562420845
405,-0.0340455062687397,-0.0339231304824352,0.00713153975084424,-0.029337415471673,-0.0478121638298035,0.0748077929019928
406,-0.034682173281908,-0.0320060402154922,0.00699621066451073,-0.0264838971197605,-0.0484311915934086,0.0756615400314331
407,-0.0362146273255348,-0.0304499790072441,0.00639979913830757,-0.025000162422657,-0.0502155460417271,0.0745737627148628
408,-0.036880150437355,-0.0290341023355722,0.00608208402991295,-0.0253099612891674,-0.0513394922018051,0.0728998705744743
409,-0.0369616523385048,-0.0276024080812931,0.005919701885432,-0.0270228590816259,-0.0519724637269974,0.0712855160236359
410,-0.0371798500418663,-0.0259121134877205,0.00615390995517373,-0.0286823287606239,-0.0522916652262211,0.0697667226195335
411,-0.0361433029174805,-0.0227528922259808,0.00874575972557068,-0.0274014044553041,-0.0503581576049328,0.07042346149683
412,-0.0329431183636189,-0.0179958418011665,0.0145474104210734,-0.0221244022250175,-0.0452493540942669,0.0743878185749054
413,-0.0292265638709068,-0.0133939906954765,0.0216191429644823,-0.0150896217674017,-0.0389814525842667,0.0796802565455437
414,-0.0274248849600554,-0.0106657156720757,0.0267396774142981,-0.00960845965892076,-0.0348365977406502,0.0834087282419205
415,-0.0274367891252041,-0.00977985933423042,0.0285931471735239,-0.00694772647693753,-0.0338898301124573,0.0842834413051605
416,-0.0275878570973873,-0.00988876167684793,0.0278794337064028,-0.00673285778611898,-0.0348138362169266,0.0821445137262344
417,-0.0268929712474346,-0.0102939754724503,0.0259999539703131,-0.00794663466513157,-0.0355034843087196,0.0777758285403252
418,-0.0258852373808622,-0.0108532710000873,0.0237343031913042,-0.00967059470713139,-0.0353186726570129,0.0723695680499077
419,-0.0252593364566565,-0.0113943321630359,0.0218149404972792,-0.0107123693451285,-0.0347742326557636,0.0670398324728012
420,-0.0240457057952881,-0.0108301863074303,0.0219213515520096,-0.00919591169804335,-0.033174179494381,0.0637959167361259
421,-0.0222442056983709,-0.00911985151469707,0.0237030982971191,-0.00611243629828095,-0.0308256968855858,0.0632869899272919
422,-0.0218428131192923,-0.00793778616935015,0.0244802907109261,-0.00501079531386495,-0.0298504717648029,0.0631847530603409
423,-0.0235900655388832,-0.00816546753048897,0.0228825863450766,-0.00744577590376139,-0.0310928039252758,0.0608617253601551
424,-0.0256806071847677,-0.0084046209231019,0.0203908178955317,-0.0113989319652319,-0.0331440530717373,0.056619543582201
425,-0.0270907357335091,-0.00730759417638183,0.0182755719870329,-0.0148661360144615,-0.0353384576737881,0.051796305924654
426,-0.0276634581387043,-0.00457522226497531,0.0172132737934589,-0.0164711568504572,-0.0374999679625034,0.0478878282010555
427,-0.0257146712392569,7.8538805610151E-06,0.018936213105917,-0.0138650629669428,-0.0373828746378422,0.0475116074085236
428,-0.0219490826129913,0.00519726146012545,0.0224892273545265,-0.00880378019064665,-0.0343597829341888,0.0494145788252354
429,-0.0200379136949778,0.0092068649828434,0.0243714228272438,-0.00647689355537295,-0.0313199833035469,0.0490100309252739
430,-0.0202289652079344,0.0121564418077469,0.023850416764617,-0.00777666363865137,-0.030321067199111,0.0453754812479019
431,-0.0196643397212029,0.0150414640083909,0.0223325118422508,-0.00991854444146156,-0.0313698276877403,0.0409405790269375
432,-0.0164654031395912,0.0188622251152992,0.0217777844518423,-0.0100998934358358,-0.032616101205349,0.0384027101099491
433,-0.0109956888481975,0.0237677302211523,0.0237060096114874,-0.00743270432576537,-0.0319534316658974,0.0383475162088871
434,-0.00580217875540257,0.0282861739397049,0.0267511494457722,-0.00408867094665766,-0.0299715176224709,0.0384947620332241
435,-0.00309836724773049,0.030959689989686,0.028580080717802,-0.00262487749569118,-0.0285029280930758,0.0368150621652603
436,-0.00368510419502854,0.0310455448925495,0.0278202667832375,-0.00389303453266621,-0.0292336419224739,0.0325017645955086
437,-0.00638318434357643,0.0286767184734344,0.0252238344401121,-0.00656008627265692,-0.0317943058907986,0.0265402738004923
438,-0.00868454948067665,0.0243651811033487,0.0232740044593811,-0.00882385484874249,-0.0333823896944523,0.0213081501424313
439,-0.00937015749514103,0.0189893115311861,0.0231100898236036,-0.00980408675968647,-0.0320479720830917,0.0186880342662334
440,-0.00819196831434965,0.0145182115957141,0.0245587918907404,-0.00846174452453852,-0.0274652224034071,0.0194331295788288
441,-0.00551102822646499,0.012111222371459,0.0267754569649696,-0.00475283805280924,-0.020854115486145,0.0222351290285587
442,-0.00239289295859635,0.0112713733687997,0.0289586018770933,0.000263844063738361,-0.0144685860723257,0.0251717492938042
443,-0.00103877123910934,0.0102789094671607,0.0298201180994511,0.00417641317471862,-0.0111638754606247,0.0260605942457914
444,-0.00281341979280114,0.00783492065966129,0.0278687812387943,0.00398607272654772,-0.0121161183342338,0.0233595799654722
445,-0.00480246124789119,0.00555414706468582,0.0250935852527618,0.0010681850835681,-0.0135605623945594,0.0195637717843056
446,-0.00561440084129572,0.00446465285494924,0.0230246409773827,-0.00204759417101741,-0.0133747979998589,0.0164255388081074
447,-0.00777804385870695,0.00322909443639219,0.0200718995183706,-0.00545417470857501,-0.0144123565405607,0.012614356353879
448,-0.011867674998939,0.00143006211146712,0.0159069336950779,-0.00889681745320559,-0.0178154408931732,0.00802265852689743
449,-0.0161643698811531,-0.000220207846723497,0.0117422081530094,-0.0118683474138379,-0.0213441271334887,0.0033199773170054
450,-0.0190082211047411,-0.00102692621294409,0.00886584725230932,-0.0139721399173141,-0.02250587195158,-0.000616508070379496
451,-0.0204482637345791,-0.00156232167501003,0.0070249573327601,-0.0156859997659922,-0.0215874426066875,-0.00370464893057942
452,-0.0214376449584961,-0.00283032213337719,0.00514264311641455,-0.0177167095243931,-0.0202248618006706,-0.00675333430990577
453,-0.022035738453269,-0.00439136289060116,0.00349421403370798,-0.019198851659894,-0.0187285989522934,-0.00944312755018473
454,-0.0214109141379595,-0.00509394379332662,0.0033799062948674,-0.0187644492834806,-0.0164891220629215,-0.0106948325410485
455,-0.0189243946224451,-0.00431933673098683,0.00543773081153631,-0.0160884819924831,-0.013104347512126,-0.0101107507944107
456,-0.0157715640962124,-0.00274250679649413,0.00806920789182186,-0.0130833787843585,-0.00955179613083601,-0.00908284820616245
457,-0.0136854890733957,-0.00139652902726084,0.00954910460859537,-0.0116721717640758,-0.00718047516420484,-0.00896419398486614
458,-0.0128091368824244,-0.000147532424307428,0.0102743124589324,-0.0113617517054081,-0.00642576767131686,-0.00912052765488625
459,-0.012017029337585,0.00128183467313647,0.0114365173503757,-0.0107408137992024,-0.00645550154149532,-0.00864632427692413
460,-0.0112661719322205,0.00155657262075692,0.0125664379447699,-0.0103842727839947,-0.00659820064902306,-0.0091890711337328
461,-0.0107365306466818,0.000305006076814607,0.0131565360352397,-0.0110277272760868,-0.00636012898758054,-0.0119882551953197
462,-0.00922880508005619,-0.000146331454743631,0.0145771540701389,-0.0110632153227925,-0.00458465702831745,-0.0145399272441864
463,-0.00663517182692885,0.00157559791114181,0.0173734873533249,-0.00950124580413103,-0.00135321787092835,-0.0147140454500914
464,-0.00332584651187062,0.00517335999757051,0.0212974138557911,-0.00588646158576012,0.00288407248444855,-0.0118478443473578
465,-0.000272017059614882,0.00965531636029482,0.0248774942010641,-0.00102191348560154,0.00661264779046178,-0.00687571289017797
466,0.00024916825350374,0.0129786655306816,0.0254100169986486,0.00163808581419289,0.00727877486497164,-0.00365291559137404
467,-0.00199386617168784,0.0136202173307538,0.022777633741498,0.0002578770800028,0.00534639274701476,-0.00504873367026448
468,-0.00493285059928894,0.0121515104547143,0.0192984137684107,-0.0030350461602211,0.00327640236355364,-0.00987233780324459
469,-0.00616796873509884,0.0107695274055004,0.017848614603281,-0.00449336459860206,0.00324752554297447,-0.0145516786724329
470,-0.00456325290724635,0.0109637640416622,0.0202323701232672,-0.00254837865941226,0.00643803412094712,-0.0166644714772701
471,-0.00188232504297048,0.0120504954829812,0.0245171617716551,0.000964094535447657,0.0108411842957139,-0.0165626257658005
472,-0.000630251888651401,0.012510547414422,0.0266663488000631,0.0031914166174829,0.0129784792661667,-0.016476521268487
473,-0.000621052517089993,0.0119803017005324,0.0254959743469954,0.00309041514992714,0.0125441467389464,-0.017933489754796
474,-2.01734164875234E-05,0.0112512176856399,0.0230758748948574,0.00158587587065995,0.0119383577257395,-0.0204718932509422
475,0.00172747089527547,0.0110334074124694,0.021229388192296,-0.000141435084515251,0.0127621283754706,-0.0232305303215981
476,0.00397306866943836,0.0117388078942895,0.0207956563681364,-0.000494380539748818,0.0152082135900855,-0.0249554086476564
477,0.00546685140579939,0.0128837749361992,0.0215064138174057,0.00124936585780233,0.0177766811102629,-0.0249941647052765
478,0.00525608984753489,0.0136317405849695,0.0222255252301693,0.0038803149946034,0.0187438577413559,-0.0242598429322243
479,0.00346423895098269,0.0137950982898474,0.0221525318920612,0.00560492137447,0.0180709343403578,-0.0243226047605276
480,0.000617486366536468,0.0131468242034316,0.0209442581981421,0.00539333326742053,0.0161743573844433,-0.0262824147939682
481,-0.00207490613684058,0.011917432770133,0.0191586557775736,0.00437425402924418,0.0136818531900644,-0.0290361251682043
482,-0.00386080448515713,0.0104847969487309,0.0168808195739985,0.00342383282259107,0.0107479495927691,-0.0315269231796265
483,-0.00454495334997773,0.00884449854493141,0.0140621922910213,0.00242641218937933,0.0074961599893868,-0.0337456874549389
484,-0.00363116315566003,0.00756980571895838,0.0119829066097736,0.00217073294334114,0.00519494526088238,-0.0348016209900379
485,-0.00246503413654864,0.00661797029897571,0.0105657782405615,0.00196746760047972,0.00392746552824974,-0.0351914390921593
486,-0.00234614894725382,0.00557165406644344,0.00910632312297821,0.000637499499134719,0.00334027013741434,-0.0363618247210979
487,-0.00176768144592643,0.0053397323936224,0.00866800919175148,-0.000306000263663009,0.00463245436549187,-0.0373096317052841
488,0.000210273574339226,0.00625549023970962,0.00965030957013369,0.000571209995541722,0.00771688530221581,-0.0365937985479832
489,0.0026322896592319,0.0077771870419383,0.0111415954306722,0.00285925273783505,0.0106714395806193,-0.0344720482826233
490,0.00470734760165215,0.00969653949141502,0.0125416722148657,0.00573292793706059,0.012415299192071,-0.0319386832416058
491,0.00682637933641672,0.0118392696604133,0.0142181217670441,0.0087600676342845,0.0137594174593687,-0.0295996312052011
492,0.00935639254748821,0.0138308582827449,0.0165621172636747,0.0116330469027162,0.0158103387802839,-0.0280599538236856
493,0.0112408176064491,0.0150794042274356,0.0188212879002094,0.0138557218015194,0.0179791320115328,-0.0280069224536419
494,0.0119537189602852,0.0157790556550026,0.0208070706576109,0.0156960505992174,0.0195689219981432,-0.0284941457211971
495,0.0123491501435637,0.0167051795870066,0.0234378054738045,0.0179359205067158,0.021731685847044,-0.028358144685626
496,0.0120017044246197,0.0175254456698895,0.0265512689948082,0.0200054198503494,0.0255299210548401,-0.028775529935956
497,0.0105555485934019,0.0175819750875235,0.0296079218387604,0.0210963077843189,0.03018350712955,-0.0308497454971075
498,0.00984538439661264,0.0168552305549383,0.0322037748992443,0.0211659204214811,0.0331872515380383,-0.0343612320721149
499,0.0114085888490081,0.0158104505389929,0.0337777137756348,0.0205877386033535,0.033163420855999,-0.0385713204741478
500,0.0131683303043246,0.0145350992679596,0.0334898978471756,0.0190551783889532,0.0304637625813484,-0.0434942878782749
501,0.0113737136125565,0.0121592031791806,0.0304035358130932,0.0150351645424962,0.0251794774085283,-0.05059864372015
502,0.00603535305708647,0.00863849092274904,0.0256799031049013,0.00887717679142952,0.0187214016914368,-0.0590645782649517
503,-0.000273489858955145,0.00484715448692441,0.0211731642484665,0.0028426491189748,0.0130584640428424,-0.0664529353380203
504,-0.00443375948816538,0.00216520577669144,0.0187028516083956,-0.000321221043122932,0.0105244126170874,-0.0714189633727074
505,-0.00442221574485302,0.00134290265850723,0.0194150041788816,0.000366770982509479,0.0126552917063236,-0.0739098191261292
506,-0.00139373098500073,0.00155719253234565,0.0221926886588335,0.00318065006285906,0.0175985619425774,-0.0747809857130051
507,0.00205037463456392,0.00205146730877459,0.0250134281814098,0.00634997570887208,0.0221104472875595,-0.0746476426720619
508,0.00424849847331643,0.00256878905929625,0.0266672391444445,0.00902529247105122,0.0246600899845362,-0.0739945694804192
509,0.00553424842655659,0.00295256730169058,0.027638265863061,0.0113914338871837,0.0262274853885174,-0.0733871087431908
510,0.00681424885988235,0.00289593799971044,0.0287016034126282,0.0137368533760309,0.0275590252131224,-0.0734694451093674
511,0.0080019049346447,0.00206644227728248,0.029320664703846,0.0150143364444375,0.0276952832937241,-0.0747150033712387
512,0.00923736393451691,0.001172129297629,0.029241506010294,0.0148380286991596,0.0269154440611601,-0.076158232986927
513,0.0115912267938256,0.00124501145910472,0.0297702215611935,0.015048555098474,0.0277120638638735,-0.0755487009882927
514,0.0143628912046552,0.00145098648499697,0.0308443102985621,0.0158245004713535,0.0303372573107481,-0.0731879994273186
515,0.0165341850370169,0.00133655744139105,0.0319998450577259,0.0163998156785965,0.0335693918168545,-0.0707250237464905
516,0.017808860167861,0.00145044852979481,0.0332557447254658,0.0165533348917961,0.0365947335958481,-0.0687751993536949
517,0.0167055353522301,0.000932391500100493,0.032907385379076,0.0148876057937741,0.0372118167579174,-0.0688331574201584
518,0.0141141032800078,-6.19490456301719E-05,0.0314247310161591,0.0125979473814368,0.0357703417539597,-0.0704517066478729
519,0.0124043598771095,-0.00022503430955112,0.0310578774660826,0.0120140658691525,0.0348355583846569,-0.0718060955405235
520,0.0113168563693762,0.00058063812321052,0.0312342420220375,0.012375196442008,0.0345954708755016,-0.0735140219330788
521,0.00969256833195686,0.00190396967809647,0.0305151659995317,0.0128918820992112,0.0345475859940052,-0.0762129724025726
522,0.00753485597670078,0.0033027702011168,0.0291299726814032,0.0137675497680902,0.0350820794701576,-0.0788734778761864
523,0.00661954516544938,0.00566045986488461,0.0289304181933403,0.015603045001626,0.0370142497122288,-0.0789299830794334
524,0.00788655504584312,0.00995816383510828,0.0306000746786594,0.0185670983046293,0.0400156788527966,-0.075334720313549
525,0.00963570922613144,0.0145595176145434,0.0317802876234055,0.0207759849727154,0.0417526103556156,-0.0717149004340172
526,0.011206922121346,0.0178645588457584,0.0310345478355885,0.021413454785943,0.0411015562713146,-0.0708092078566551
527,0.0128630260005593,0.0200842749327421,0.0290253330022097,0.0212883241474628,0.0385352075099945,-0.0717632472515106
528,0.0141982967033982,0.0221996419131756,0.0263720843940973,0.0209226533770561,0.0343743599951267,-0.0731497704982758
529,0.015721507370472,0.0255117490887642,0.0240703895688057,0.0211444739252329,0.0297812130302191,-0.0737246125936508
530,0.0176976397633553,0.0302900802344084,0.0227690152823925,0.0219639260321856,0.0261459294706583,-0.0735754519701004
531,0.0194834992289543,0.0356308929622173,0.0218282341957092,0.0223513431847095,0.0236948020756245,-0.0739771872758865
532,0.0201876740902662,0.0400948524475098,0.0199581179767847,0.0208793394267559,0.0211146418005228,-0.076508104801178
533,0.0194698795676231,0.0429570078849792,0.0169753525406122,0.0172825921326876,0.0173828154802322,-0.0816238075494766
534,0.0183932408690453,0.0448800548911095,0.0141822546720505,0.0132936937734485,0.0135567346587777,-0.0874773561954498
535,0.0179485455155373,0.0469398871064186,0.0124379452317953,0.0103081213310361,0.0106274746358395,-0.0916830897331238
536,0.018294308334589,0.0501762814819813,0.0120317405089736,0.00867557898163795,0.00845757499337196,-0.093166172504425
537,0.0200007222592831,0.0553262159228325,0.0136477267369628,0.00889421626925468,0.00752141466364264,-0.0921246632933617
538,0.023271769285202,0.0621069855988026,0.0171769745647907,0.0112143354490399,0.00803869776427746,-0.0896509736776352
539,0.0259998273104429,0.0686890035867691,0.0203563999384642,0.0137737160548568,0.0078201349824667,-0.0884042978286743
540,0.0269805733114481,0.0738057419657707,0.0222616177052259,0.015086779370904,0.00574788963422179,-0.0905779302120209
541,0.0271328128874302,0.0778699368238449,0.0234068538993597,0.0153652122244239,0.00306693464517593,-0.0957064479589462
542,0.0261117424815893,0.0808936581015587,0.0218478050082922,0.0126970652490854,-0.000954821240156889,-0.102933324873447
543,0.0237697176635265,0.08221235871315,0.0170490834861994,0.0051917233504355,-0.00728021003305912,-0.11218448728323
544,0.0221829097718,0.0826988741755486,0.0122267073020339,-0.00426427740603685,-0.0138030732050538,-0.120854429900646
545,0.0233450811356306,0.0849114581942558,0.0091383708640933,-0.0113744353875518,-0.0180955789983273,-0.124313436448574
546,0.0264440923929214,0.0893567875027657,0.00649555819109082,-0.015772482380271,-0.020481389015913,-0.122532285749912
547,0.0302630104124546,0.094684399664402,0.00556158274412155,-0.0173601005226374,-0.0218165162950754,-0.119281180202961
548,0.0347964204847813,0.100888386368752,0.00882603600621223,-0.0141435572877526,-0.0224290024489164,-0.116051614284515
549,0.0381330549716949,0.107489414513111,0.0124355591833591,-0.00914351362735033,-0.0246352590620518,-0.11372709274292
550,0.0376727357506752,0.11217425763607,0.0102494955062866,-0.00956669263541698,-0.0313575714826584,-0.115158081054688
551,0.0337559953331947,0.113452285528183,0.00226102466695011,-0.0170786119997501,-0.0424590259790421,-0.121587701141834
552,0.0295848250389099,0.112376309931278,-0.00584335811436176,-0.0262814108282328,-0.0538801178336143,-0.130488842725754
553,0.0281262267380953,0.110867857933044,-0.00981067772954702,-0.032313983887434,-0.062038104981184,-0.139088481664658
554,0.0302946977317333,0.109466850757599,-0.0108561320230365,-0.0349703431129456,-0.0665442049503326,-0.146641552448273
555,0.0345862172544003,0.107286639511585,-0.013108791783452,-0.0370199792087078,-0.0691066160798073,-0.153291076421738
556,0.0381744131445885,0.10350926220417,-0.0193017218261957,-0.0411401316523552,-0.0720936581492424,-0.159309878945351
557,0.0401660725474358,0.0984568446874619,-0.0280013866722584,-0.0473946072161198,-0.0761388689279556,-0.164926365017891
558,0.0409422554075718,0.0929500460624695,-0.0362387411296368,-0.0540178045630455,-0.0810568332672119,-0.17022642493248
559,0.0406290739774704,0.0875942185521126,-0.0430189445614815,-0.0598617903888226,-0.0871717780828476,-0.174732953310013
560,0.0392993092536926,0.0824997574090958,-0.0495514161884785,-0.0655804723501205,-0.095558188855648,-0.178592830896378
561,0.036016833037138,0.0772088915109634,-0.0582503750920296,-0.0729389116168022,-0.108156010508537,-0.183302342891693
562,0.0311140697449446,0.0721558406949043,-0.0690912678837776,-0.0816328674554825,-0.123986393213272,-0.188603803515434
563,0.026770057156682,0.0682300180196762,-0.0796650648117065,-0.0896048620343208,-0.1393161714077,-0.192916855216026
564,0.0239759292453527,0.0649276524782181,-0.0885639935731888,-0.0957348793745041,-0.151731312274933,-0.196006521582603
565,0.0228391326963902,0.0617406293749809,-0.0947437584400177,-0.0991971045732498,-0.159720912575722,-0.197430118918419
566,0.0230289492756128,0.0587760135531425,-0.097902700304985,-0.10000916570425,-0.162901595234871,-0.196836739778519
567,0.0238009393215179,0.0554874464869499,-0.0996395722031593,-0.10006220638752,-0.162728056311607,-0.195797622203827
568,0.0253623053431511,0.0515201538801193,-0.101290859282017,-0.100978709757328,-0.160193592309952,-0.196077734231949
569,0.028652235865593,0.0479133464396,-0.102156512439251,-0.101655684411526,-0.155279353260994,-0.196929901838303
570,0.0330403111875057,0.0454994849860668,-0.101657122373581,-0.100525230169296,-0.149569988250732,-0.196321338415146
571,0.035921037197113,0.0431848838925362,-0.101416952908039,-0.09919323772192,-0.146106094121933,-0.194804549217224
572,0.0355830490589142,0.0392387434840202,-0.103359028697014,-0.10074482858181,-0.145784392952919,-0.195364609360695
573,0.0322902090847492,0.0331721417605877,-0.107952803373337,-0.105899445712566,-0.147230356931686,-0.199135303497314
574,0.0273697003722191,0.0260174907743931,-0.113932587206364,-0.112112991511822,-0.148738980293274,-0.203451126813889
575,0.0219456572085619,0.0187975913286209,-0.119345523416996,-0.116674117743969,-0.149042949080467,-0.205349445343018
576,0.0179688334465027,0.0125682698562741,-0.121568188071251,-0.117308586835861,-0.14596600830555,-0.20316544175148
577,0.0187179110944271,0.00895081646740437,-0.118035763502121,-0.111517190933228,-0.137024134397507,-0.195499569177628
578,0.0240945126861334,0.00762924924492836,-0.110084675252438,-0.100824907422066,-0.123740069568157,-0.18415679037571
579,0.0302525404840708,0.00636481493711472,-0.101799562573433,-0.0906593278050423,-0.110375620424747,-0.173628821969032
580,0.0342113450169563,0.00390487001277506,-0.0961400493979454,-0.08413365483284,-0.0999132320284843,-0.165570437908173
581,0.0352427922189236,0.000465501565486193,-0.0935932025313377,-0.0802716314792633,-0.0930551886558533,-0.158772855997086
582,0.0339217148721218,-0.00377818662673235,-0.0924728214740753,-0.0772395059466362,-0.0884386897087097,-0.152676925063133
583,0.0308091100305319,-0.00920145306736231,-0.0916156321763992,-0.0748300477862358,-0.0850489661097527,-0.147928163409233
584,0.0265440829098225,-0.0155060952529311,-0.090971864759922,-0.0733310207724571,-0.082637332379818,-0.144229412078857
585,0.0231117717921734,-0.0209248680621386,-0.0892366990447044,-0.0708192735910416,-0.0789416655898094,-0.138593837618828
586,0.0226162597537041,-0.0234980992972851,-0.0846813172101974,-0.0644669160246849,-0.0714905709028244,-0.127871975302696
587,0.0243479739874601,-0.0235743708908558,-0.0782049894332886,-0.0550850108265877,-0.0619494393467903,-0.113276861608028
588,0.025353817269206,-0.0238875672221184,-0.072470411658287,-0.0468127988278866,-0.0537305250763893,-0.0997296795248985
589,0.0251155290752649,-0.0258033964782953,-0.0677275359630585,-0.0409816764295101,-0.0462400279939175,-0.0892984047532082
590,0.0244945511221886,-0.0286112725734711,-0.0633988454937935,-0.0362145379185677,-0.038263127207756,-0.0806309208273888
591,0.0222334004938602,-0.0321267284452915,-0.061170905828476,-0.0328762531280518,-0.0321177802979946,-0.0739273726940155
592,0.0186466295272112,-0.0361603945493698,-0.0608124174177647,-0.0307339821010828,-0.0281355958431959,-0.069194570183754
593,0.0162671878933907,-0.0395187325775623,-0.0592837147414684,-0.0274780429899693,-0.0235448386520147,-0.0640624016523361
594,0.0161459352821112,-0.0412157662212849,-0.0548997521400452,-0.0217639822512865,-0.0166932418942451,-0.0565593130886555
595,0.0179937221109867,-0.0414532423019409,-0.0480329431593418,-0.0143288411200047,-0.00734429806470871,-0.0467847622931004
596,0.0206781104207039,-0.0411598868668079,-0.0408319123089314,-0.00736208725720644,0.00295767723582685,-0.0366276726126671
597,0.0228333584964275,-0.0407939292490482,-0.0355750471353531,-0.00244157155975699,0.0118962274864316,-0.0278476253151894
598,0.0235599633306265,-0.0405646376311779,-0.0326313190162182,0.00055295426864177,0.0184884499758482,-0.0209406334906816
599,0.0230482909828424,-0.0402455478906631,-0.0305389109998941,0.00336933881044388,0.0233534518629313,-0.0146696856245399
600,0.0233279373496771,-0.0388239771127701,-0.0270060207694769,0.00854632444679737,0.0285620559006929,-0.00640227179974318
601,0.0244562514126301,-0.0371874757111073,-0.0224842429161072,0.0151805877685547,0.03427729383111,0.00310987257398665
602,0.0242780465632677,-0.0370740070939064,-0.0192847903817892,0.0203694012016058,0.0388373583555222,0.0108389696106315
603,0.0231783613562584,-0.0373909398913383,-0.0168752130120993,0.0249004196375608,0.0431160740554333,0.0173436161130667
604,0.022050142288208,-0.0371201895177364,-0.0142089696601033,0.0301394276320934,0.0479973554611206,0.0234342757612467
605,0.0200718808919191,-0.0374387875199318,-0.0116127515211701,0.0344566851854324,0.0525295436382294,0.0274421777576208
606,0.0177920050919056,-0.038305576890707,-0.00844697188585997,0.0373260751366615,0.0574514083564281,0.0300383530557156
607,0.0175477657467127,-0.0381218641996384,-0.00397759536281228,0.0406159274280071,0.0637752488255501,0.0341858379542828
608,0.019411351531744,-0.0367417335510254,0.000414570764405653,0.0440205223858356,0.0693453326821327,0.0396426729857922
609,0.0197755321860313,-0.0358419306576252,0.00183163187466562,0.0447934530675411,0.0711314827203751,0.0432356297969818
610,0.0168729797005653,-0.0360147021710873,0.000462711381260306,0.043379869312048,0.0698520541191101,0.044786348938942
611,0.0135442856699228,-0.0357065014541149,0.000660573656205088,0.0439040511846542,0.0692289173603058,0.0477063953876495
612,0.0126452287659049,-0.0342175327241421,0.00490120053291321,0.0481946505606174,0.0712001398205757,0.053492795675993
613,0.0138762975111604,-0.0326285362243652,0.0114054577425122,0.0543892234563828,0.0749836042523384,0.06039122864604
614,0.0149153769016266,-0.0322074294090271,0.0169808380305767,0.0596440099179745,0.0790743976831436,0.0657576099038124
615,0.0149193964898586,-0.0328829512000084,0.020473713055253,0.0627848505973816,0.0832120478153229,0.068628117442131
616,0.015669833868742,-0.0326429232954979,0.0238483734428883,0.0659450739622116,0.0885587632656097,0.0713623762130737
617,0.0178503021597862,-0.0302673112601042,0.0283282957971096,0.070851556956768,0.0945836305618286,0.0762159824371338
618,0.0200123675167561,-0.0271558240056038,0.032647542655468,0.0756030008196831,0.0992123931646347,0.0819721221923828
619,0.0203270595520735,-0.0256234910339117,0.0348564460873604,0.0768707320094109,0.101068697869778,0.0853268802165985
620,0.0179592743515968,-0.0263995341956615,0.0341971851885319,0.0740251690149307,0.100027367472649,0.0848286896944046
621,0.0145520344376564,-0.0278668683022261,0.0330442935228348,0.0706772357225418,0.0984352454543114,0.0832514315843582
622,0.0125053757801652,-0.0280275046825409,0.0348243340849876,0.0709863230586052,0.0996399074792862,0.0844906568527222
623,0.0122014153748751,-0.0267121251672506,0.0395524948835373,0.0751593410968781,0.103907637298107,0.0886839553713799
624,0.0123270647600293,-0.0249946005642414,0.0441212467849255,0.079996831715107,0.108009532094002,0.0928056836128235
625,0.012232924811542,-0.0231070574373007,0.0465545132756233,0.0833895951509476,0.109855696558952,0.0954187959432602
626,0.0117085920646787,-0.0212357323616743,0.0465558655560017,0.0843850374221802,0.109763935208321,0.0968441665172577
627,0.0105031970888376,-0.0198933538049459,0.0446803383529186,0.0830543786287308,0.108521841466427,0.097648873925209
628,0.0100738136097789,-0.0186095125973225,0.043267834931612,0.0836981534957886,0.107984319329262,0.0990410968661308
629,0.010970389470458,-0.0176141280680895,0.043334599584341,0.0893100947141647,0.109008602797985,0.100207053124905
630,0.0117161879315972,-0.0178298391401768,0.0439508408308029,0.0957314744591713,0.110639102756977,0.099173977971077
631,0.0124018285423517,-0.0186120737344027,0.0452460907399654,0.0980537682771683,0.113188855350018,0.0974249914288521
632,0.0132222240790725,-0.0190539229661226,0.046462282538414,0.0960573703050613,0.116336070001125,0.0975500717759132
633,0.012459141202271,-0.0195504855364561,0.0456948466598988,0.0919230878353119,0.117367997765541,0.0990892946720123
634,0.00981295481324196,-0.0205865129828453,0.0434499233961105,0.0883078202605248,0.115799076855183,0.100287325680256
635,0.00682186521589756,-0.0224424432963133,0.0414159186184406,0.0866072028875351,0.113871015608311,0.0999011918902397
636,0.00469675706699491,-0.0248346086591482,0.0398925431072712,0.0860002189874649,0.112573601305485,0.097710408270359
637,0.00468883896246552,-0.0261762980371714,0.039303831756115,0.0859815403819084,0.112335175275803,0.0955370217561722
638,0.00545886065810919,-0.0266159847378731,0.0388096086680889,0.0853110328316689,0.112107165157795,0.0938280299305916
639,0.00432265689596534,-0.0279399082064629,0.0367285646498203,0.0826520174741745,0.109666600823402,0.0914565026760101
640,0.00302057946100831,-0.0294434744864702,0.035084456205368,0.0804856270551682,0.106735736131668,0.0901027470827103
641,0.00431809527799487,-0.0294438619166613,0.0366279594600201,0.0813750550150871,0.106763273477554,0.0917219892144203
642,0.00698493747040629,-0.0286688338965178,0.0400705933570862,0.0837484002113342,0.109447844326496,0.0948395654559135
643,0.0083388751372695,-0.0286933183670044,0.042681198567152,0.0849563032388687,0.112214855849743,0.0969549119472504
644,0.00825190544128418,-0.0293648298829794,0.0443677939474583,0.0852965116500854,0.114209555089474,0.0980133041739464
645,0.00805141683667898,-0.0299919135868549,0.0460749045014381,0.0861837640404701,0.115509375929832,0.0990885868668556
646,0.00739706074818969,-0.0309461168944836,0.0468660853803158,0.0867633298039436,0.114976823329926,0.0995219498872757
647,0.00527698500081897,-0.0327559933066368,0.04552086815238,0.0855429694056511,0.11190252751112,0.0981148257851601
648,0.00308020552620292,-0.0344098433852196,0.0435387529432774,0.0840959921479225,0.108391493558884,0.0965055972337723
649,0.00362992682494223,-0.0339115299284458,0.0440817028284073,0.0858177989721298,0.108139529824257,0.0979727581143379
650,0.00745016150176525,-0.0311823673546314,0.0481110401451588,0.0908046439290047,0.112802430987358,0.102585710585117
651,0.0113579090684652,-0.0288196392357349,0.0525333359837532,0.0949223041534424,0.119230590760708,0.106338702142239
652,0.0122584216296673,-0.0284533333033323,0.0540827326476574,0.0952253267168999,0.122786954045296,0.106422401964664
653,0.0113516841083765,-0.0286302156746387,0.0536503046751022,0.0934920161962509,0.12341446429491,0.104682937264442
654,0.0109778130427003,-0.0281002912670374,0.0532322153449059,0.0926286801695824,0.123483546078205,0.103322342038155
655,0.0106239803135395,-0.0279715582728386,0.0524124875664711,0.0926846265792847,0.122777424752712,0.101358324289322
656,0.00881894677877426,-0.0295817870646715,0.0498148873448372,0.0911048203706741,0.119436278939247,0.0970524474978447
657,0.00546928122639656,-0.0325312688946724,0.0453933961689472,0.0861601680517197,0.113600209355354,0.0909567624330521
658,0.00128747872076929,-0.0354877971112728,0.0405342727899551,0.079250805079937,0.107588216662407,0.0849831253290176
659,-0.00207947287708521,-0.037001758813858,0.0373411029577255,0.0736634954810143,0.104062058031559,0.0809336751699448
660,-0.0017660561716184,-0.0357389450073242,0.0382913835346699,0.0726888105273247,0.105696961283684,0.0810191258788109
661,0.00310708745382726,-0.0320169255137444,0.0440630652010441,0.0769627690315247,0.112894371151924,0.0857755616307259
662,0.00904547702521086,-0.0281853545457125,0.0513932481408119,0.0827982351183891,0.121613144874573,0.0919095650315285
663,0.0122114531695843,-0.0262253023684025,0.0561567470431328,0.0860500335693359,0.127178356051445,0.0954993292689323
664,0.0118445223197341,-0.0262227393686771,0.0568963140249252,0.0860377699136734,0.127843931317329,0.0956951975822449
665,0.00915914122015238,-0.0268971435725689,0.0549388788640499,0.0848375558853149,0.125344067811966,0.0944883972406387
666,0.00576591119170189,-0.0269735511392355,0.0529836155474186,0.0842098444700241,0.123246021568775,0.0933847799897194
667,0.00340409344062209,-0.0261024385690689,0.0526772439479828,0.0844045281410217,0.122592993080616,0.0921553671360016
668,0.0029543861746788,-0.0249337442219257,0.0528108440339565,0.0842851921916008,0.120666690170765,0.0901618152856827
669,0.00353382620960474,-0.0243314746767282,0.0514318607747555,0.0825489088892937,0.115722946822643,0.0876424163579941
670,0.00427756411954761,-0.0242515355348587,0.0488860942423344,0.0797774866223335,0.109808720648289,0.0860509946942329
671,0.00477653415873647,-0.0245605632662773,0.0464088246226311,0.0768316462635994,0.105334706604481,0.0856625810265541
672,0.00446605822071433,-0.0257720556110144,0.0446447767317295,0.0737029016017914,0.10295345634222,0.0847939401865005
673,0.00277702463790774,-0.0282704997807741,0.0434320569038391,0.0704411342740059,0.101475737988949,0.0818944275379181
674,0.000263067428022623,-0.0310706719756126,0.0425829812884331,0.0680073425173759,0.099553182721138,0.0779872760176659
675,-0.00120459555182606,-0.0323012620210648,0.0428778976202011,0.0676377043128014,0.0977405086159706,0.0757226422429085
676,-0.000179170776391402,-0.0310251042246819,0.0452545695006847,0.0701835155487061,0.0975237414240837,0.0769395902752876
677,0.00159159325994551,-0.0289411470293999,0.0480323024094105,0.074089527130127,0.0978528931736946,0.0806221887469292
678,0.000444529781816527,-0.0289712511003017,0.0474107824265957,0.0755014196038246,0.0954431369900703,0.083057589828968
679,-0.00364225218072534,-0.0312114022672176,0.0431249290704727,0.074038490653038,0.0901248157024384,0.0825006440281868
680,-0.00685113715007901,-0.0332299061119556,0.0394382402300835,0.0728568732738495,0.0856948718428612,0.0808572098612785
681,-0.00706462562084198,-0.0332283601164818,0.0387969352304935,0.073493666946888,0.0842696502804756,0.0807630345225334
682,-0.00614504143595696,-0.0312215872108936,0.0392662771046162,0.0750211477279663,0.0836000964045525,0.0828346908092499
683,-0.00521356938406825,-0.0277843903750181,0.0398545823991299,0.0767195895314217,0.082665890455246,0.0860601738095284
684,-0.00341979344375432,-0.0237208548933268,0.0412616953253746,0.0782701298594475,0.082899272441864,0.089057594537735
685,-0.00152053171768785,-0.0207301322370768,0.0426440052688122,0.0786630734801292,0.083671934902668,0.0902621150016785
686,-0.000885514949914068,-0.0196965709328651,0.0430737398564816,0.07746671885252,0.0837792158126831,0.0891344472765923
687,-0.000954516348429024,-0.0193319916725159,0.0435335971415043,0.0760447755455971,0.0841601490974426,0.087273009121418
688,-0.000993159832432866,-0.0184993613511324,0.044746708124876,0.0757351890206337,0.0849215909838676,0.086493581533432
689,-0.00204282626509666,-0.0179315079003572,0.0450777001678944,0.0756814554333687,0.0832937657833099,0.0864096581935883
690,-0.00467291427776217,-0.0184127651154995,0.0432252138853073,0.0746488496661186,0.0779729187488556,0.0856914669275284
691,-0.0069382656365633,-0.0193714778870344,0.0406098552048206,0.0733297020196915,0.0721263065934181,0.0841808691620827
692,-0.00698450254276395,-0.0200798604637384,0.0387557074427605,0.0724669545888901,0.0691266506910324,0.0821973234415054
693,-0.00611924519762397,-0.0210696365684271,0.0368742682039738,0.0708311125636101,0.0684537589550018,0.0789980664849281
694,-0.00582181941717863,-0.0225194115191698,0.0346920937299728,0.0680710300803185,0.0684230327606201,0.0748245045542717
695,-0.0061953947879374,-0.0237483307719231,0.03290830925107,0.0651090443134308,0.0681448206305504,0.0710951536893845
696,-0.00829985085874796,-0.0250552538782358,0.0309109091758728,0.0617362447082996,0.0667974427342415,0.0674417465925217
697,-0.0112941041588783,-0.0259981565177441,0.0292608570307493,0.0590628385543823,0.0657373741269112,0.0643096193671227
698,-0.0128722731024027,-0.025285866111517,0.0290423631668091,0.0584822818636894,0.066314160823822,0.0633485317230225
699,-0.0135249746963382,-0.0235656220465899,0.0290748253464699,0.0585518553853035,0.0669648721814156,0.0636171996593475
700,-0.0145559180527925,-0.022263839840889,0.02818313986063,0.0576421804726124,0.0663167461752892,0.0630778297781944
701,-0.0163638480007648,-0.0222056563943625,0.0258930530399084,0.0551846586167812,0.0640067905187607,0.0605316534638405
702,-0.0194546356797218,-0.0242827869951725,0.0214650686830282,0.0509114973247051,0.059138759970665,0.0552597232162952
703,-0.0225503500550985,-0.0276905577629805,0.0167252961546183,0.0466028600931168,0.0529242716729641,0.0489738583564758
704,-0.0227755811065435,-0.0292138252407312,0.0153939872980118,0.0451155565679073,0.0491363704204559,0.0458143204450607
705,-0.020175201818347,-0.0277940593659878,0.0170970503240824,0.0459008291363716,0.0483990721404552,0.0469142645597458
706,-0.0166480131447315,-0.0254826322197914,0.0194533746689558,0.0467644147574902,0.0492497161030769,0.0496819652616978
707,-0.0120701249688864,-0.0231981668621302,0.0232867226004601,0.0484422296285629,0.053047601133585,0.0527377426624298
708,-0.00653370749205351,-0.0208959504961967,0.0289509706199169,0.0516638308763504,0.0601384602487087,0.0556957274675369
709,-0.00190089293755591,-0.0191188417375088,0.0337578281760216,0.0546171553432941,0.0670423358678818,0.0575259141623974
710,0.000552507350221276,-0.0181700456887484,0.0353957898914814,0.0557121597230434,0.0704667642712593,0.0577395595610142
711,0.000109178945422173,-0.0185202192515135,0.0332679972052574,0.0538372918963432,0.0691384896636009,0.0556539930403233
712,-0.00312532670795918,-0.0203002728521824,0.0283960364758968,0.0487968139350414,0.0639012083411217,0.0508739948272705
713,-0.0070586227811873,-0.0222038198262453,0.0231695994734764,0.0430011749267578,0.0574294626712799,0.0454705245792866
714,-0.0101176435127854,-0.0235417857766151,0.018852835521102,0.0385435596108437,0.051349863409996,0.0415734723210335
715,-0.0127453608438373,-0.0251960661262274,0.0148988775908947,0.0346912667155266,0.0455531515181065,0.0383849330246449
716,-0.0150636760517955,-0.0273077469319105,0.0113551802933216,0.030608057975769,0.0407031290233135,0.0346367359161377
717,-0.0160746704787016,-0.0291239973157644,0.00958612281829119,0.0273294132202864,0.0384473949670792,0.0309614539146423
718,-0.0157700572162867,-0.0306937862187624,0.0100439572706819,0.0257766135036945,0.0390255190432072,0.0285506192594767
719,-0.0158285237848759,-0.0328010581433773,0.0110105611383915,0.0250253267586231,0.0403230860829353,0.0272343792021275
720,-0.0170238483697176,-0.0354101024568081,0.0111640561372042,0.0240696147084236,0.0401249341666698,0.0260115247219801
721,-0.0178718902170658,-0.0373328477144241,0.0113839749246836,0.0236174613237381,0.0386522002518177,0.0249924156814814
722,-0.0177906844764948,-0.0382530651986599,0.0119026647880673,0.0237634498625994,0.0367604121565819,0.0242017731070518
723,-0.0171806458383799,-0.0386841259896755,0.0122533747926354,0.0240360144525766,0.0351276434957981,0.0232776552438736
724,-0.0152408052235842,-0.0385490655899048,0.0132867470383644,0.0254185926169157,0.0351337194442749,0.0230920910835266
725,-0.0129952300339937,-0.0384765937924385,0.0141735821962357,0.0274643171578646,0.0355685539543629,0.0234636031091213
726,-0.0119923558086157,-0.0391913056373596,0.014077547006309,0.0287278760224581,0.0348376333713531,0.0235762260854244
727,-0.0115963499993086,-0.0399090200662613,0.0144743425771594,0.0290806833654642,0.0341795645654202,0.0244362819939852
728,-0.0120665831491351,-0.0402229279279709,0.0147740188986063,0.0278157759457827,0.0340213961899281,0.0261512584984303
729,-0.0134837776422501,-0.040497574955225,0.0137090757489204,0.024956377223134,0.0341760702431202,0.0276268478482962
730,-0.0149789517745376,-0.0413069985806942,0.0116179985925555,0.0218392051756382,0.0346274189651012,0.0279429815709591
731,-0.0166671592742205,-0.0431396812200546,0.00884162727743387,0.0194390024989843,0.0347528606653214,0.0266287084668875
732,-0.0180652569979429,-0.0449398308992386,0.00668265484273434,0.0190288349986076,0.0348881259560585,0.0251237731426954
733,-0.0177767407149076,-0.0451311133801937,0.00685020815581083,0.0214866567403078,0.035884503275156,0.0255759377032518
734,-0.0157379824668169,-0.0435636639595032,0.00883836299180985,0.0258640740066767,0.0371034145355225,0.0285685453563929
735,-0.0137773687019944,-0.0417249277234077,0.00998376309871674,0.0292884409427643,0.0367681123316288,0.031973585486412
736,-0.0122471014037728,-0.0402944833040237,0.00958522874861956,0.0306762047111988,0.0357398837804794,0.0342857614159584
737,-0.0104750255122781,-0.0386766642332077,0.00892975926399231,0.0312605910003185,0.0358765609562397,0.0363103598356247
738,-0.0110079674050212,-0.0382653065025806,0.00700408359989524,0.0298156794160604,0.0348146222531796,0.0369600504636765
739,-0.0156391859054565,-0.0401798635721207,0.00314077292568982,0.0254048090428114,0.0308150816708803,0.0351677685976028
740,-0.0205298084765673,-0.04195711389184,0.000173621607245877,0.0213487651199102,0.0270090401172638,0.0333866439759731
741,-0.0211779903620481,-0.0415341034531593,0.000134604590130039,0.0206151194870472,0.0260350499302149,0.0339756160974503
742,-0.0175940096378326,-0.0397965237498283,0.00191045727115124,0.0228436440229416,0.0273331142961979,0.036881722509861
743,-0.0122798625379801,-0.0384809374809265,0.0041570314206183,0.0264304652810097,0.0293544065207243,0.0411235019564629
744,-0.0079626739025116,-0.0391289368271828,0.00557142170146108,0.028915161266923,0.0302781909704208,0.0446546450257301
745,-0.00637084431946278,-0.0416406057775021,0.00473171658813953,0.0285582467913628,0.0287370271980762,0.0451635904610157
746,-0.00681592617183924,-0.0441029109060764,0.00215448276139796,0.026757663115859,0.0253876075148582,0.0425828509032726
747,-0.00794717855751514,-0.045855388045311,-0.000443387601990253,0.0252519641071558,0.0221477877348661,0.038393672555685
748,-0.00938427541404963,-0.047630313783884,-0.00231023924425244,0.0236145760864019,0.0199766606092453,0.0340998359024525
749,-0.0102508626878262,-0.0488729104399681,-0.0029372232966125,0.0223305802792311,0.0190134365111589,0.0319178104400635
750,-0.00945962220430374,-0.0485364273190498,-0.00137491524219513,0.0233704969286919,0.019646730273962,0.0330614000558853
751,-0.00755821913480759,-0.0470015965402126,0.00213425536639988,0.026911024004221,0.0221085548400879,0.0361204296350479
752,-0.00600062357261777,-0.0452032014727592,0.00600903062149882,0.0308249890804291,0.0259457062929869,0.0393191613256931
753,-0.00496554328128695,-0.0432878099381924,0.00888486579060555,0.0333054699003696,0.0301034171134233,0.0426249802112579
754,-0.00409195944666862,-0.0411950796842575,0.0095305722206831,0.0337581299245358,0.032414261251688,0.0459722764790058
755,-0.00376615184359252,-0.0394120439887047,0.00730939814820886,0.0320220217108727,0.0310027413070202,0.0477904230356216
756,-0.00425084121525288,-0.0382778346538544,0.00326722534373403,0.0286658201366663,0.0267525557428598,0.0472340472042561
757,-0.00620046211406589,-0.0379212871193886,-0.00162742380052805,0.0240356493741274,0.0211547184735537,0.0443613901734352
758,-0.00940065085887909,-0.0378762185573578,-0.00616145506501198,0.0189733374863863,0.0154840219765902,0.0401549488306046
759,-0.01232875790447,-0.0372922159731388,-0.00868982076644897,0.0150450393557549,0.0114211365580559,0.0364150777459145
760,-0.0145121859386563,-0.0363216139376163,-0.0094080027192831,0.0124475611373782,0.00946242175996304,0.0334098339080811
761,-0.0159606263041496,-0.0353824496269226,-0.00913963094353676,0.0107703637331724,0.00955423526465893,0.0303893256932497
762,-0.0160586349666119,-0.0340940020978451,-0.0078408308327198,0.0104597583413124,0.0117440680041909,0.0280395206063986
763,-0.0141543066129088,-0.0319583006203175,-0.00537582347169518,0.0123083731159568,0.0152603602036834,0.0282501466572285
764,-0.0115356352180243,-0.0299525745213032,-0.00340428412891924,0.0147829884663224,0.0175323355942965,0.0303560495376587
765,-0.0110616544261575,-0.0298952180892229,-0.00473483232781291,0.0147749725729227,0.0157949700951576,0.0311895068734884
766,-0.0131707163527608,-0.0315155014395714,-0.00918321497738361,0.0123762032017112,0.010748608969152,0.0299469828605652
767,-0.0154358614236116,-0.0327354222536087,-0.0135077964514494,0.0105971125885844,0.00599788641557097,0.0283376947045326
768,-0.0163771584630013,-0.0327432230114937,-0.0158082712441683,0.0103484457358718,0.00382027705200017,0.0266355704516172
769,-0.0165849309414625,-0.0322256982326508,-0.0168059039860964,0.00934378895908594,0.00365904765203595,0.0238615740090609
770,-0.0165160838514566,-0.0313389487564564,-0.0174501445144415,0.00648244190961123,0.0040431204251945,0.0211712196469307
771,-0.0164341684430838,-0.030232772231102,-0.0183436498045921,0.0028325819876045,0.00335980276577175,0.0201201848685741
772,-0.0159573908895254,-0.0295158289372921,-0.0190123822540045,0.000309484952595085,0.00150954921264201,0.020551010966301
773,-0.0130562894046307,-0.0291082914918661,-0.0175568126142025,0.00101919786538929,0.00140481116250157,0.0222550630569458
774,-0.00734502822160721,-0.0288342740386724,-0.0139404078945518,0.00415868870913982,0.00485464558005333,0.0242067258805037
775,-0.0011097431415692,-0.028829550370574,-0.00993825122714043,0.00714528700336814,0.0102196102961898,0.0252770446240902
776,0.00306041981093585,-0.0295206028968096,-0.00715393014252186,0.00884262658655643,0.0147281270474195,0.0257357079535723
777,0.0032768570818007,-0.0317556113004684,-0.00711568770930171,0.00871503818780184,0.0160668753087521,0.0253367740660906
778,3.59605473931879E-05,-0.035182747989893,-0.00969723891466856,0.0066801905632019,0.0140665452927351,0.0234741475433111
779,-0.00442714244127274,-0.0384465269744396,-0.0136883975937963,0.00310141895897686,0.0102295093238354,0.0202892310917377
780,-0.00860156398266554,-0.041022501885891,-0.0182524099946022,-0.0012828903272748,0.00591163989156485,0.0167109984904528
781,-0.0110691972076893,-0.0424262695014477,-0.0213632807135582,-0.0040365974418819,0.00319119356572628,0.0148316118866205
782,-0.0117699429392815,-0.042502872645855,-0.0220914836972952,-0.00398369180038571,0.00269154855050147,0.0152744129300117
783,-0.0133870067074895,-0.0425539016723633,-0.0226993896067142,-0.00374990724958479,0.00165513204410672,0.0156405698508024
784,-0.0166028309613466,-0.0433230400085449,-0.0240512918680906,-0.00495193852111697,-0.000804885756224394,0.0145545927807689
785,-0.0189416650682688,-0.0442271567881107,-0.0245104692876339,-0.00615900848060846,-0.002569425618276,0.0131393996998668
786,-0.0193275026977062,-0.0448928400874138,-0.0237656105309725,-0.00642202794551849,-0.00322802108712494,0.0122964940965176
787,-0.0186569690704346,-0.0453063137829304,-0.0231334734708071,-0.00657136272639036,-0.00400607706978917,0.0117060076445341
788,-0.0173710621893406,-0.0450157523155212,-0.0229073129594326,-0.00671984069049358,-0.00483575789257884,0.0113897267729044
789,-0.015644634142518,-0.0442588664591312,-0.0226930789649487,-0.00605243863537908,-0.00529599795117974,0.0112229473888874
790,-0.0140301929786801,-0.0442943572998047,-0.0223667304962873,-0.0052084350027144,-0.00548031041398644,0.0102213174104691
791,-0.0125077217817307,-0.0447898209095001,-0.0214669033885002,-0.0050863279029727,-0.00479264510795474,0.00928196962922812
792,-0.0117195043712854,-0.0447009168565273,-0.0209091808646917,-0.00592458667233586,-0.00380889372900128,0.00961115956306458
793,-0.012357815168798,-0.0441015847027302,-0.0215127374976873,-0.00708737270906568,-0.00364689691923559,0.0107528697699308
794,-0.0136299319565296,-0.0436219945549965,-0.0225602630525827,-0.00814672466367483,-0.00399164436385036,0.0116936741396785
795,-0.0138510251417756,-0.0434538051486015,-0.0230026450008154,-0.00919933710247278,-0.00354855228215456,0.0119309714064002
796,-0.0121260220184922,-0.0429848469793797,-0.0221525281667709,-0.00920948386192322,-0.00195064092986286,0.0124439056962729
797,-0.00882353074848652,-0.0416035316884518,-0.0202366784214973,-0.0071903676725924,-0.000213949431781657,0.0144773898646235
798,-0.003816575743258,-0.0388455204665661,-0.0170774925500155,-0.00308988173492253,0.00202338676899672,0.0184457004070282
799,0.00043649467988871,-0.0361019186675549,-0.0147324176505208,-4.84641896036919E-05,0.00330864265561104,0.0214983113110065
800,0.000175190943991765,-0.0355390943586826,-0.0166740790009499,-0.00190814875531942,0.000532550038769841,0.0199097692966461
801,-0.00300532975234091,-0.0362834855914116,-0.0213643591850996,-0.00647557387128472,-0.00403047073632479,0.0153228295966983
802,-0.00561997387558222,-0.0366411134600639,-0.0252441577613354,-0.00947818625718355,-0.00654325028881431,0.0114209894090891
803,-0.00726026156917214,-0.0365948751568794,-0.0277732014656067,-0.0106076141819358,-0.0076310345903039,0.00903082173317671
804,-0.00817579124122858,-0.0359459407627583,-0.0294143967330456,-0.0112567683681846,-0.00892310310155153,0.00780322030186653
805,-0.00820091832429171,-0.034257248044014,-0.030420733615756,-0.0118833621963859,-0.0109457680955529,0.00755331944674253
806,-0.00730784004554152,-0.0315406434237957,-0.0305873956531286,-0.0118051394820213,-0.0131304394453764,0.00860979501157999
807,-0.00592532334849238,-0.0282528158277273,-0.0298045631498098,-0.0109119936823845,-0.0145254665985703,0.0107693569734693
808,-0.00498534878715873,-0.0250190831720829,-0.0289920996874571,-0.0101184351369739,-0.0155205680057406,0.0127959894016385
809,-0.00487290043383837,-0.0218806359916925,-0.0287915971130133,-0.00984059181064367,-0.0167532917112112,0.0143000278621912
810,-0.00556561630219221,-0.0190162193030119,-0.0292711537331343,-0.0103171924129128,-0.0182622037827969,0.0151158915832639
811,-0.00798095855861902,-0.0175375621765852,-0.0312497541308403,-0.0128295132890344,-0.0208256375044584,0.0135678248479962
812,-0.0127132944762707,-0.0179519727826118,-0.0353375747799873,-0.0183801483362913,-0.0250855386257172,0.00827945023775101
813,-0.0169802997261286,-0.0182676129043102,-0.0390070863068104,-0.0242266710847616,-0.0284870285540819,0.00174494204111397
814,-0.0179362781345844,-0.0165285337716341,-0.0395357981324196,-0.0267945341765881,-0.0285644754767418,-0.00230704597197473
815,-0.0158687941730022,-0.0126608125865459,-0.0372455045580864,-0.0255175307393074,-0.0261781848967075,-0.00299284956417978
816,-0.0119238877668977,-0.00717652821913362,-0.0331749580800533,-0.0218856688588858,-0.0226441565901041,-0.00178124301601201
817,-0.00695504527539015,-0.000815774197690189,-0.0277186874300241,-0.0180421713739634,-0.0184443239122629,-3.55316369677894E-05
818,-0.00245468411594629,0.00544934533536434,-0.0220644641667604,-0.0156760513782501,-0.0147509556263685,0.00193990510888398
819,7.31416075723246E-05,0.0106102023273706,-0.0178676471114159,-0.015601797029376,-0.0129909077659249,0.00290854834020138
820,0.00120359100401402,0.0147244315594435,-0.0151609610766172,-0.017115406692028,-0.0130343586206436,0.0017192445229739
821,0.00175871874671429,0.0184138379991055,-0.0138959940522909,-0.0195142421871424,-0.0148967197164893,-0.0013679820112884
822,0.000749110768083483,0.0215439964085817,-0.0150141408666968,-0.0233885534107685,-0.0196816753596067,-0.00634087901562452
823,-0.00165163236670196,0.0245012063533068,-0.017866387963295,-0.0282939039170742,-0.026479072868824,-0.0124304061755538
824,-0.00284713902510703,0.02857855707407,-0.019756281748414,-0.0320788957178593,-0.0318001359701157,-0.0172847360372543
825,-0.0019607343710959,0.0336446017026901,-0.0192826110869646,-0.0341171845793724,-0.0339544154703617,-0.0204230137169361
826,-0.00161566224414855,0.0375128462910652,-0.0182806085795164,-0.0367681458592415,-0.0350799486041069,-0.0244221091270447
827,-0.00355707574635744,0.0390990264713764,-0.0185413043946028,-0.0413928851485252,-0.0374870114028454,-0.0305585898458958
828,-0.00511791789904237,0.0408613160252571,-0.0180315468460321,-0.045009084045887,-0.0394518412649632,-0.0358152277767658
829,-0.0034580419305712,0.0455692782998085,-0.0145163172855973,-0.0446998327970505,-0.0378913469612598,-0.0372798033058643
830,-0.000330584065522999,0.0523933731019497,-0.0097666634246707,-0.0420709848403931,-0.0338548570871353,-0.036586094647646
831,0.000812616723123938,0.0584228523075581,-0.00658633792772889,-0.040693461894989,-0.0310742203146219,-0.0375453978776932
832,-0.000535390630830079,0.0623114593327045,-0.0055476687848568,-0.0421141535043716,-0.0310935229063034,-0.0414286963641644
833,-0.00101805408485234,0.0658081471920013,-0.00442298129200935,-0.0437623262405396,-0.0314231216907501,-0.0448611900210381
834,0.00180252455174923,0.0707248896360397,-0.00155136955436319,-0.0431577749550343,-0.0301610175520182,-0.0450222827494144
835,0.00634440453723073,0.0763780698180199,0.00165279523935169,-0.0416996367275715,-0.028899572789669,-0.0434669442474842
836,0.00991328060626984,0.0813335478305817,0.00346778426319361,-0.041620310395956,-0.0293539632111788,-0.0428457446396351
837,0.0104370368644595,0.0845160782337189,0.00311452336609364,-0.0443180315196514,-0.0324379913508892,-0.0452077500522137
838,0.00860613118857145,0.0863871723413467,0.00197566393762827,-0.0481561087071896,-0.0366387367248535,-0.0498999916017056
839,0.00677986675873399,0.0879850760102272,0.00264563364908099,-0.0503532290458679,-0.0386488251388073,-0.054700568318367
840,0.00579199334606528,0.0890023335814476,0.0055128731764853,-0.0511836931109428,-0.0378389805555344,-0.058836817741394
841,0.00604441203176975,0.0900120809674263,0.00957774464040995,-0.0511080287396908,-0.0355864204466343,-0.0609454736113548
842,0.00700161093845963,0.0919756889343262,0.0132592339068651,-0.0506123639643192,-0.0338046625256538,-0.0607949867844582
843,0.00776167446747422,0.0942306518554688,0.0151706505566835,-0.0507052056491375,-0.0339716114103794,-0.0603088364005089
844,0.00878269504755735,0.0958424061536789,0.0155485803261399,-0.0509537532925606,-0.0355879440903664,-0.0603014081716537
845,0.0106587344780564,0.0967840179800987,0.0154443988576531,-0.0508303456008434,-0.0370488092303276,-0.0605525970458984
846,0.012850065715611,0.0975309759378433,0.0153970830142498,-0.0507407933473587,-0.0376401916146278,-0.0609771087765694
847,0.0138264084234834,0.0979580879211426,0.0148546788841486,-0.0511950068175793,-0.0382849089801311,-0.0616711638867855
848,0.0126601587980986,0.0971700176596642,0.0133703565225005,-0.0521372854709625,-0.0394226834177971,-0.0628166943788528
849,0.010185725055635,0.095287024974823,0.0123180709779263,-0.0523901730775833,-0.0394086129963398,-0.0637286007404327
850,0.00823053997009993,0.0934449806809425,0.0130239091813564,-0.0509686842560768,-0.0375718250870705,-0.0633958354592323
851,0.00842261873185635,0.0917622819542885,0.0145297842100263,-0.0487845875322819,-0.0355792753398418,-0.0620873495936394
852,0.0110714910551906,0.0900459066033363,0.0159007962793112,-0.0466544069349766,-0.0341709293425083,-0.0603116601705551
853,0.0140684153884649,0.0885215252637863,0.0173573940992355,-0.0440742447972298,-0.0331193432211876,-0.057878352701664
854,0.0156710222363472,0.0870451778173447,0.019657438620925,-0.0397119857370853,-0.0315064713358879,-0.0535351932048798
855,0.0162141490727663,0.0847028940916061,0.0231529045850039,-0.0333092771470547,-0.028113579377532,-0.0470961183309555
856,0.0154790580272675,0.0799857750535011,0.0261170957237482,-0.0276800412684679,-0.0246757641434669,-0.0421230420470238
857,0.0136468019336462,0.0728385597467422,0.0268674604594707,-0.0251083597540855,-0.0233346745371819,-0.0418082512915134
858,0.0117179527878761,0.0649130940437317,0.0246207155287266,-0.026259358972311,-0.0241790153086185,-0.0467308461666107
859,0.00929076690226793,0.0575097911059856,0.0180205795913935,-0.0321302115917206,-0.0278546679764986,-0.0559012107551098
860,0.00602982100099325,0.0513827688992023,0.00762059958651662,-0.041000708937645,-0.0339335687458515,-0.064824640750885
861,0.00324480189010501,0.0470596663653851,-0.00277594639919698,-0.0478762052953243,-0.0393008217215538,-0.0681095942854881
862,0.0019986224360764,0.0441484227776527,-0.0095341419801116,-0.0495205856859684,-0.0413461774587631,-0.0654027387499809
863,0.0021768172737211,0.0416685529053211,-0.0112175885587931,-0.0462591238319874,-0.0392849408090115,-0.0600162968039513
864,0.00342882028780878,0.0392418727278709,-0.00834774225950241,-0.0397579744458199,-0.033772524446249,-0.0537126623094082
865,0.00502052623778582,0.0367241390049458,-0.00310482177883387,-0.0320600345730782,-0.0267413593828678,-0.0471124015748501
866,0.00564881972968578,0.033833172172308,0.00209770421497524,-0.0251124259084463,-0.0202986616641283,-0.041431587189436
867,0.00402290700003505,0.0301030725240707,0.00525602838024497,-0.0205505304038525,-0.016712736338377,-0.0379196330904961
868,0.000728328537661582,0.0254693422466516,0.00559414178133011,-0.0185157246887684,-0.0164938941597939,-0.0366813875734806
869,-0.00220776721835136,0.0208935234695673,0.00399333704262972,-0.017627626657486,-0.0177801996469498,-0.0363481752574444
870,-0.0043869293294847,0.016971779987216,0.00132920185569674,-0.0177151504904032,-0.0199170764535666,-0.036285974085331
871,-0.00645284727215767,0.0133869703859091,-0.0017673154361546,-0.0192235521972179,-0.0229422878473997,-0.037053257226944
872,-0.00787276029586792,0.0100504867732525,-0.0040663075633347,-0.0208035167306662,-0.0251572951674461,-0.0379736609756947
873,-0.00753046339377761,0.00748609378933907,-0.00420660944655538,-0.0200858805328608,-0.024559274315834,-0.0371176190674305
874,-0.00463449396193028,0.00664789229631424,-0.00124344124924392,-0.0157136656343937,-0.0203282367438078,-0.0328367687761784
875,0.000632961804512888,0.00776538485661149,0.00445749377831817,-0.00848769396543503,-0.0130147216841578,-0.0249327160418034
876,0.00547350710257888,0.00879397429525852,0.00958714913576841,-0.00189055292867124,-0.00572520215064287,-0.0167677383869886
877,0.00713480869308114,0.0076059796847403,0.0112433712929487,0.00118035497143865,-0.00150915200356394,-0.012089335359633
878,0.00598845072090626,0.00434786267578602,0.0102134812623262,0.000863076711539179,-0.000116879091365263,-0.0110436929389834
879,0.00381144322454929,0.000517364242114127,0.00810909643769264,-0.001052625477314,-7.9578639997635E-05,-0.0118246264755726
880,0.00248308968730271,-0.00230194488540292,0.00609752768650651,-0.00194281793665141,2.34501530940179E-05,-0.0120581351220608
881,0.00249320571310818,-0.00391283771023154,0.00437513133510947,-0.000799855100922287,0.000629872956778854,-0.0108540952205658
882,0.00206821341998875,-0.0058911251835525,0.00131797592621297,0.00035997133818455,-0.000225697251153179,-0.0101718036457896
883,-0.00067819986725226,-0.00993760302662849,-0.00421860022470355,-0.00127223622985184,-0.00453748134896159,-0.0121440719813108
884,-0.00491366581991315,-0.015523374080658,-0.0101456874981523,-0.00532679865136743,-0.010123061016202,-0.0154755394905806
885,-0.00827054213732481,-0.02048235014081,-0.0133899403735995,-0.00857458356767893,-0.0127624534070492,-0.017093675211072
886,-0.0100126042962074,-0.0242535807192326,-0.0141211217269301,-0.00986289326101542,-0.0123007232323289,-0.0167839992791414
887,-0.00973227713257074,-0.0270472466945648,-0.0134980278089643,-0.00925019197165966,-0.0102381147444248,-0.0151536436751485
888,-0.00752222118899226,-0.0282761845737696,-0.012140984646976,-0.00675414642319083,-0.00724251009523869,-0.0118575263768435
889,-0.00552841648459435,-0.0284630302339792,-0.0120640806853771,-0.00491613149642944,-0.00559406355023384,-0.00859015807509422
890,-0.00622812332585454,-0.0296533014625311,-0.0152999926358461,-0.00720888655632734,-0.00746649131178856,-0.00841675698757172
891,-0.0097076278179884,-0.0322934053838253,-0.0210417155176401,-0.0129170017316937,-0.0120292948558927,-0.0115785365924239
892,-0.0127921532839537,-0.034369982779026,-0.0255785770714283,-0.0168244633823633,-0.015633212402463,-0.0144153907895088
893,-0.01280452683568,-0.0349068678915501,-0.0261950045824051,-0.0156554486602545,-0.015602239407599,-0.0138681549578905
894,-0.0099805761128664,-0.0342648401856422,-0.0232603326439857,-0.0106238946318626,-0.0122394496574998,-0.010051348246634
895,-0.00606271857395768,-0.0325949154794216,-0.018832553178072,-0.00484964717179537,-0.00704814400523901,-0.00505755376070738
896,-0.00350409094244242,-0.0309119485318661,-0.0158492177724838,-0.00181829964276403,-0.00272392597980797,-0.00194502878002822
897,-0.00255037937313318,-0.0299078673124313,-0.015054177492857,-0.00175217096693814,-0.000706409045960754,-0.000910554837901145
898,-0.000686362734995782,-0.0286945290863514,-0.0141245629638433,-0.00148707523476332,0.000816932762973011,0.00101658015046269
899,0.00227212440222502,-0.0269496776163578,-0.0126784862950444,-0.000144091667607427,0.00242373743094504,0.00448669074103236
900,0.00373322633095086,-0.0258524958044291,-0.0126108229160309,0.000549661344848573,0.00219320319592953,0.00715015502646565
901,0.00225338735617697,-0.0266165193170309,-0.0145125305280089,-0.000373166025383398,-0.000783735420554876,0.006932791788131
902,-0.000286771595710889,-0.0283441562205553,-0.01647156663239,-0.00122135272249579,-0.00442956341430545,0.00453074648976326
903,-0.00105881853960454,-0.0288924109190702,-0.0161805786192417,7.05342754372396E-05,-0.00595295056700706,0.00221116561442614
904,-0.000353314069798216,-0.027835363522172,-0.0144787495955825,0.00196664198301733,-0.00556589616462588,0.000573307217564434
905,-0.00112491217441857,-0.0267375819385052,-0.0148039553314447,0.000931223330553621,-0.00613392656669021,-0.0017871109303087
906,-0.0051033073104918,-0.0270872134715319,-0.0185894425958395,-0.00460148183628917,-0.00913679320365191,-0.00611817790195346
907,-0.00989067461341619,-0.0276791453361511,-0.0226874519139528,-0.0117176827043295,-0.0119619350880384,-0.0098836924880743
908,-0.0118066929280758,-0.0261570960283279,-0.0238958578556776,-0.0157683175057173,-0.0122885080054402,-0.00914734974503517
909,-0.0103387571871281,-0.0227538459002972,-0.023026654496789,-0.0155491661280394,-0.0118468934670091,-0.00468184566125274
910,-0.00753680989146233,-0.0191825591027737,-0.0218141134828329,-0.012762350961566,-0.012259216979146,-6.71750603942201E-05
911,-0.00478703435510397,-0.0158566925674677,-0.0203071013092995,-0.00918698776513338,-0.0125044044107199,0.00305130588822067
912,-0.00228600017726421,-0.0125828115269542,-0.0183445960283279,-0.00604619504883885,-0.0120067615061998,0.00479582091793418
913,-0.000668690190650523,-0.0102607300505042,-0.0169932078570127,-0.00467431964352727,-0.0119587816298008,0.00461100041866302
914,0.000163044824148528,-0.0094869825989008,-0.0167321879416704,-0.00524959387257695,-0.012526280246675,0.00229268404655159
915,0.00127470609731972,-0.00915664900094271,-0.0164531953632832,-0.00589096313342452,-0.0123395165428519,-0.00028199382359162
916,0.00222867541015148,-0.00826630089432001,-0.0159237217158079,-0.00573551608249545,-0.0112766064703465,-0.00188257952686399
917,0.0023998620454222,-0.00678539229556918,-0.0153745729476213,-0.00535738840699196,-0.00995290279388428,-0.00266227847896516
918,0.00209527742117643,-0.00512009020894766,-0.0147836189717054,-0.00512183457612991,-0.00882095936685801,-0.00285321637056768
919,0.00138152297586203,-0.00383275328204036,-0.0144595773890615,-0.00505825644358993,-0.00851717963814735,-0.00289388583041728
920,0.000815863953903317,-0.00282192602753639,-0.013971752487123,-0.0048346221446991,-0.0086813922971487,-0.00299929874017835
921,0.000441372249042615,-0.0019812430255115,-0.0135303428396583,-0.00519887823611498,-0.00937442481517792,-0.00388364191167057
922,-0.000681403325870633,-0.00188554334454238,-0.0143637293949723,-0.00723721133545041,-0.0115812448784709,-0.00644344976171851
923,-0.00285493256524205,-0.00277681928128004,-0.0166997071355581,-0.0106214173138142,-0.0151517186313868,-0.0107173314318061
924,-0.00496580963954329,-0.00347384694032371,-0.0184597056359053,-0.0138032799586654,-0.017846442759037,-0.0152052491903305
925,-0.00470511568710208,-0.00183160835877061,-0.0163630004972219,-0.0144918477162719,-0.0164783950895071,-0.0163140315562487
926,-0.00169246422592551,0.00261007179506123,-0.0103826615959406,-0.0119034117087722,-0.0112434988841414,-0.0122276367619634
927,0.00142051244620234,0.00786055810749531,-0.00386688765138388,-0.00781996082514524,-0.00595648726448417,-0.00576203782111406
928,0.00300927390344441,0.0122984312474728,0.000933437666390091,-0.00411571515724063,-0.0029458156786859,-0.000318316946504638
929,0.00408499734476209,0.0159738808870316,0.00399173516780138,-0.00167053216136992,-0.0019726138561964,0.00301688886247575
930,0.00450834166258574,0.0184947475790977,0.0049058310687542,-0.0022114880848676,-0.0034942114725709,0.00288899778388441
931,0.00316797336563468,0.0191464442759752,0.00323572033084929,-0.00650730915367603,-0.00799486134201288,-0.00130986759904772
932,0.00120229739695787,0.0188032370060682,0.000521082431077957,-0.0118113672360778,-0.0136395795270801,-0.00679710833355784
933,0.0001096610139939,0.0187243912369013,-0.00155526294838637,-0.0150026939809322,-0.0182480420917273,-0.0103253582492471
934,-7.80019399826415E-05,0.0192222408950329,-0.00235989480279386,-0.0148197868838906,-0.0204888600856066,-0.0105928527191281
935,-0.000141786644235253,0.0198841206729412,-0.00195853458717465,-0.0118357762694359,-0.019932746887207,-0.00856549292802811
936,-0.000572210235986859,0.0199575293809175,-0.000855522172059864,-0.00802221801131964,-0.0172826889902353,-0.00649057701230049
937,-0.0015784609131515,0.0188935045152903,-0.000100114069937263,-0.00554278632625937,-0.0143160140141845,-0.00615630624815822
938,-0.00301261269487441,0.017344806343317,-0.000449297076556832,-0.00475555332377553,-0.0127345379441977,-0.00715190125629306
939,-0.00348648312501609,0.0173300132155418,-0.000188843434443697,-0.00331862596794963,-0.0116673428565264,-0.00608212919905782
940,-0.00254047429189086,0.0196203086525202,0.00208865315653384,-0.000707752536982298,-0.00979720428586006,-0.00161157175898552
941,-0.00106061319820583,0.0228846278041601,0.00483126891776919,0.000852257304359227,-0.00797243323177099,0.00320059596560895
942,-8.43530724523589E-05,0.0254367608577013,0.00558309024199843,0.000239036075072363,-0.00786419212818146,0.00545382453128695
943,-0.000808141950983554,0.0261777155101299,0.00321615859866142,-0.00236648437567055,-0.0101098278537393,0.00446966476738453
944,-0.00240463064983487,0.0258363820612431,-0.0005566495237872,-0.00537547236308455,-0.0128996009007096,0.00204269401729107
945,-0.00360577972605824,0.0256494879722595,-0.00385573809035122,-0.00744270440191031,-0.0146334860473871,7.5702446338255E-05
946,-0.00515656778588891,0.025322062894702,-0.00686929235234857,-0.00914873275905848,-0.0160792954266071,-0.00209355144761503
947,-0.00707228528335691,0.0241931732743979,-0.00962280947715044,-0.0112356208264828,-0.0178603064268827,-0.00565234804525971
948,-0.00757993571460247,0.0227490216493607,-0.0110897962003946,-0.0134063391014934,-0.0191684421151876,-0.00958151184022427
949,-0.00578250782564282,0.0224365498870611,-0.0104878302663565,-0.0144323734566569,-0.0188159793615341,-0.0110193146392703
950,-0.00309702730737627,0.0235089659690857,-0.00861565582454205,-0.014189176261425,-0.0168548505753279,-0.00960420072078705
951,-0.000437486596638337,0.0251231137663126,-0.00590210361406207,-0.0128040388226509,-0.013626272790134,-0.00697130244225264
952,0.00300908950157464,0.0272471122443676,-0.00127091072499752,-0.00902244634926319,-0.00883837044239044,-0.00296968757174909
953,0.00642760377377272,0.0294346120208502,0.00401012739166617,-0.00431173900142312,-0.0045297690667212,0.00145416252780706
954,0.00736243603751063,0.0301935821771622,0.00645055621862412,-0.00283505744300783,-0.00455368403345346,0.00313697126694024
955,0.00607533659785986,0.0294142980128527,0.0056570041924715,-0.00481102243065834,-0.00879199337214231,0.00176669575739652
956,0.00543824536725879,0.0287130065262318,0.0045310384593904,-0.00655855285003781,-0.0126413609832525,0.000470557337393984
957,0.00654120836406946,0.0290237404406071,0.00463647674769163,-0.00621947599574924,-0.012858847156167,0.000936618889681995
958,0.00685100303962827,0.029196048155427,0.00432256888598204,-0.00550961215049028,-0.0108703216537833,0.00124820263590664
959,0.00453491928055882,0.0281856562942266,0.00205770717002451,-0.00608204305171967,-0.00984998978674412,-0.00046963055501692
960,0.00269216601736844,0.0273544210940599,-0.000473483436508104,-0.00649495888501406,-0.00996793527156115,-0.00242114905267954
961,0.0044891070574522,0.0283870883285999,-0.00110036914702505,-0.00503818225115538,-0.00929674226790667,-0.00203955336473882
962,0.007865060120821,0.0304013937711716,-0.000796942913439125,-0.0031668005976826,-0.00841523986309767,-0.000109079017420299
963,0.00955912377685308,0.031034654006362,-0.0017767691751942,-0.00330298696644604,-0.00936880987137556,0.00101514731068164
964,0.00897967163473368,0.029117351397872,-0.00483376439660788,-0.00646641617640853,-0.0127433501183987,5.53231875528581E-05
965,0.00686647789552808,0.0253547057509422,-0.00925001036375761,-0.0120186675339937,-0.0176443103700876,-0.00311058037914336
966,0.00537900952622294,0.0219234991818666,-0.0122299240902066,-0.0162495095282793,-0.0208798237144947,-0.00621576700359583
967,0.00647031096741557,0.0201799161732197,-0.011797578074038,-0.0156959928572178,-0.0202218610793352,-0.00691164517775178
968,0.00960302259773016,0.0195193365216255,-0.00885538477450609,-0.0112118776887655,-0.0169963613152504,-0.00602881889790297
969,0.0127301625907421,0.0187700316309929,-0.00537642370909452,-0.00658809905871749,-0.0136376144364476,-0.00520343752577901
970,0.0139296222478151,0.017201691865921,-0.0036538508720696,-0.00527513353154063,-0.0122453588992357,-0.00467265676707029
971,0.0137931499630213,0.0155123835429549,-0.00377181707881391,-0.00712373992428184,-0.012464489787817,-0.00364120816811919
972,0.0142668643966317,0.0147311929613352,-0.00391624262556434,-0.00948641914874315,-0.0123969847336411,-0.00142872554715723
973,0.0147560955956578,0.0142178852111101,-0.00425980612635612,-0.0112112984061241,-0.012314660474658,0.000866286747623235
974,0.0139993550255895,0.0136495362967253,-0.00526845641434193,-0.011965798214078,-0.0129083981737494,0.00209900736808777
975,0.0128623219206929,0.0141585022211075,-0.00602937070652843,-0.0110782254487276,-0.0134921409189701,0.00318692182190716
976,0.0119348773732781,0.0153286186978221,-0.00665747281163931,-0.00957521423697472,-0.0140690160915256,0.00433720974251628
977,0.0100281080231071,0.014897576533258,-0.00829051528126001,-0.00978317391127348,-0.0156218539923429,0.00395638588815928
978,0.00671030580997467,0.0121754538267851,-0.0108302803710103,-0.0121322833001614,-0.0183814391493797,0.00176513532642275
979,0.00479605700820684,0.00967884156852961,-0.0115586444735527,-0.0132088428363204,-0.019985593855381,0.00102173490449786
980,0.0068233679048717,0.00979629810899496,-0.0085027227178216,-0.010095838457346,-0.0179731789976358,0.00440847780555487
