,AF3,AF4,Fp1,Fp2,AF7,AF8
0,-0.0120239621028304,-0.00578300375491381,-0.0168893355876207,-0.00679566198959947,-0.023619094863534,8.54313038871624E-05
1,-0.0131015358492732,-0.00653768004849553,-0.0169304106384516,-0.00851970631629229,-0.0224868152290583,-0.00180352840106934
2,-0.0122458571568131,-0.00666695833206177,-0.0146134458482265,-0.00782966148108244,-0.0189547855407,-0.00216804584488273
3,-0.0119548141956329,-0.00780007801949978,-0.0134746814146638,-0.00789395533502102,-0.0172285214066505,-0.00364316068589687
4,-0.0115565154701471,-0.00954338070005178,-0.0132993562147021,-0.00838941801339388,-0.0167305581271648,-0.00567727303132415
5,-0.00900605879724026,-0.010208310559392,-0.0120017686858773,-0.00674277823418379,-0.0145262917503715,-0.00631195167079568
6,-0.00602197321131825,-0.0103301545605063,-0.0106616159901023,-0.00485208258032799,-0.0118570262566209,-0.00703837024047971
7,-0.00550889130681753,-0.0109492186456919,-0.0110068432986736,-0.0058143800124526,-0.0113565400242805,-0.00896711181849241
8,-0.00639028940349817,-0.0109448349103332,-0.0113605568185449,-0.00729886349290609,-0.0118516758084297,-0.00885892473161221
9,-0.00763463042676449,-0.0102181090041995,-0.0110539961606264,-0.00773900095373392,-0.0121563924476504,-0.00646262243390083
10,-0.00995017681270838,-0.00987473037093878,-0.0117027284577489,-0.00855030864477158,-0.012550457380712,-0.00524711795151234
11,-0.0112424194812775,-0.00893077906221151,-0.0120940115302801,-0.00836465600878,-0.0112700825557113,-0.00497621530666947
12,-0.010307053104043,-0.0070554343983531,-0.0111140022054315,-0.00694482633844018,-0.00840835645794868,-0.00489346776157618
13,-0.0098068630322814,-0.0060192858800292,-0.0110703222453594,-0.00704051181674004,-0.00797707028687,-0.00635150820016861
14,-0.0104531906545162,-0.00625327322632074,-0.0126039208844304,-0.00857007876038551,-0.0108915651217103,-0.00876179151237011
15,-0.0100247031077743,-0.00644298130646348,-0.0133535098284483,-0.0088416151702404,-0.0136274909600616,-0.00985749531537294
16,-0.00859920959919691,-0.00613637175410986,-0.012719826772809,-0.00738672446459532,-0.0146742789074779,-0.0092029795050621
17,-0.0081436624750495,-0.00621349597349763,-0.011935293674469,-0.00587350642308593,-0.0146854864433408,-0.00852038618177176
18,-0.00809017475694418,-0.00647764699533582,-0.0101423310115933,-0.00398639962077141,-0.0119297578930855,-0.00820549018681049
19,-0.00643055001273751,-0.00539492117241025,-0.0055476101115346,-0.000314348115352914,-0.00489620305597782,-0.00685950182378292
20,-0.00338778458535671,-0.00328686274588108,-0.000116048591735307,0.00356227532029152,0.00239546108059585,-0.00509527139365673
21,-0.000689069915097207,-0.00203285762108862,0.00229704845696688,0.00525365071371198,0.00486401515081525,-0.00531174521893263
22,0.000689242617227137,-0.00186676275916398,0.00129522825591266,0.00531807309016585,0.00264104246161878,-0.00787843484431505
23,0.00114982551895082,-0.00164681137539446,-0.000157776245032437,0.00549119990319014,-0.000814744271337986,-0.0102345291525126
24,0.000969332293607295,-0.00111159775406122,-0.000189927202882245,0.0057258284650743,-0.00350056425668299,-0.00975952949374914
25,2.05771175387781E-05,-0.000860844214912504,0.000686201441567391,0.00547049241140485,-0.00528911780565977,-0.00625331234186888
26,-0.000497645291034132,-0.00110017310362309,0.00234411330893636,0.0056328559294343,-0.00513920094817877,-0.00134447938762605
27,0.000212524959351867,-0.00168281001970172,0.00450714631006122,0.00652430346235633,-0.00265403790399432,0.00275010941550136
28,0.00232529453933239,-0.00159664580132812,0.00686765974387527,0.00811129249632359,0.00134070310741663,0.00561100197955966
29,0.00597825832664967,9.91875567706302E-05,0.00956706050783396,0.0107107777148485,0.00586551334708929,0.00847505964338779
30,0.00895553641021252,0.00212992704473436,0.0108242239803076,0.0126427439972758,0.00814991258084774,0.0105504542589188
31,0.00831767451018095,0.0027388168964535,0.00885024201124907,0.0119613409042358,0.00595925375819206,0.0101817864924669
32,0.00466468138620257,0.00232238578610122,0.00545006338506937,0.00969576463103294,0.00157963018864393,0.00832565780729055
33,0.00121811614371836,0.00219424045644701,0.0035721305757761,0.00790894217789173,-0.00135462649632245,0.00676444312557578
34,-0.000743758399039507,0.00210422743111849,0.00310098216868937,0.00623869057744741,-0.00315035600215197,0.00504273781552911
35,-0.00254878797568381,0.000877488520927727,0.00177893682848662,0.00317739369347692,-0.00636570528149605,0.00180179823655635
36,-0.00495514506474137,-0.00146136851981282,-0.0010064336238429,-0.000709647312760353,-0.0112277185544372,-0.00230040121823549
37,-0.00621636491268873,-0.00334595888853073,-0.00297181471250951,-0.00275675067678094,-0.0146392313763499,-0.00430417992174625
38,-0.00514879263937473,-0.0041308687068522,-0.00286994990892708,-0.00217304588295519,-0.0144476080313325,-0.00300651579163969
39,-0.00302638881839812,-0.00472134817391634,-0.00204227771610022,-0.00048458346282132,-0.0118993064388633,-0.000271665281616151
40,-0.0013514154125005,-0.00570150557905436,-0.00177433376666158,0.00126687705051154,-0.00923831947147846,0.0015870442148298
41,-0.00127115764189512,-0.00723806256428361,-0.00248570507392287,0.00185826444067061,-0.00799646135419607,0.00100440997630358
42,-0.00267466995865107,-0.00852420087903738,-0.00343569065444171,0.00112305849324912,-0.00770536810159683,-0.000804732320830226
43,-0.00365162128582597,-0.00771340262144804,-0.00323435175232589,0.000962902617175132,-0.00651983032003045,-0.000890862953383476
44,-0.00364358001388609,-0.00488399993628263,-0.00202196859754622,0.00163575331680477,-0.00426980573683977,0.000863073102664202
45,-0.00453234696760774,-0.00249702017754316,-0.00147382891736925,0.00146701605990529,-0.00244253617711365,0.00215853587724268
46,-0.00742401974275708,-0.00177386112045497,-0.00211645336821675,0.000103745442174841,-0.00190879416186363,0.00189950515050441
47,-0.0110476175323129,-0.00155578239355236,-0.00283424090594053,-0.00127299607265741,-0.0026210427749902,0.000740673101972789
48,-0.0127265974879265,-0.000135864902404137,-0.00215847720392048,-0.00105232337955385,-0.00345358694903553,0.00017581541032996
49,-0.0114788804203272,0.00263248570263386,-0.000166450001415797,0.00064728845609352,-0.00379764451645315,0.00053428317187354
50,-0.00931652914732695,0.0050234030932188,0.00139312248211354,0.00195969501510262,-0.00466801924631,0.000590769166592509
51,-0.008391416631639,0.00572322029620409,0.0016026251250878,0.00209876755252481,-0.00657505402341485,-0.000188855454325676
52,-0.00919080059975386,0.00520970765501261,0.000894226657692343,0.00153033994138241,-0.00898051634430885,-0.00141302484553307
53,-0.0110498676076531,0.00468382891267538,0.000168231752468273,0.000842142500914633,-0.0110035734251142,-0.00256426190026104
54,-0.0133699579164386,0.00442387396469712,-0.000126827711937949,-4.73456530016847E-05,-0.0121734095737338,-0.00367579679004848
55,-0.0152858598157763,0.00433343183249235,0.000233473008847795,-0.00113567616790533,-0.0119583159685135,-0.00462677236646414
56,-0.0162921026349068,0.00441669719293714,0.000798461376689374,-0.00221903971396387,-0.0104308985173702,-0.00527300871908665
57,-0.0167487673461437,0.00421496015042067,0.000627046101726592,-0.00285848858766258,-0.00887648016214371,-0.00605077482759953
58,-0.0160515997558832,0.00404649740085006,0.000731865467969328,-0.00133515277411789,-0.00718276854604483,-0.00613935198634863
59,-0.0135847432538867,0.00520436000078917,0.00250751501880586,0.00314632570371032,-0.00439697224646807,-0.00428480096161366
60,-0.010582072660327,0.00766843184828758,0.00505547504872084,0.00817260798066854,-0.0013984803808853,-0.00143668579403311
61,-0.00871473550796509,0.00970542058348656,0.00684848753735423,0.0102726938202977,0.000162655545864254,0.000372583890566602
62,-0.00729962950572371,0.0109666222706437,0.00830263644456863,0.00979389622807503,0.00133863475639373,0.00189783505629748
63,-0.00545344641432166,0.012098184786737,0.00999440718442202,0.00908370688557625,0.00395732745528221,0.00448761507868767
64,-0.00414095772430301,0.0126847317442298,0.0112979533150792,0.00829532090574503,0.00734049454331398,0.00686692306771874
65,-0.0035108185838908,0.0126568647101521,0.0120856706053019,0.00725166825577617,0.0101803680881858,0.00798103585839272
66,-0.00247315061278641,0.0126176048070192,0.0129259368404746,0.00680818036198616,0.0123125733807683,0.00817483942955732
67,-0.000560572370886803,0.0127648189663887,0.0139526324346662,0.00718840165063739,0.0139632243663073,0.00754258129745722
68,0.000572864140849561,0.0125130312517285,0.0136090684682131,0.00648823846131563,0.0137408254668117,0.00467160856351256
69,-0.000609286653343588,0.0114474846050143,0.0109913554042578,0.0036668146494776,0.0108955781906843,-0.000698475108947605
70,-0.00268146302551031,0.0100915962830186,0.00790096167474985,0.000637522898614407,0.00739795062690973,-0.00551177887246013
71,-0.00431127659976482,0.00921271461993456,0.00551130576059222,-0.00124585174489766,0.00389168434776366,-0.00710531184449792
72,-0.00725553836673498,0.00854296516627073,0.00230227294377983,-0.00331732304766774,-0.00178394303657115,-0.00685372622683644
73,-0.0117925396189094,0.00779088260605931,-0.0018153446726501,-0.00568257691338658,-0.00886509940028191,-0.00660240696743131
74,-0.0145757906138897,0.0079225804656744,-0.00385847105644643,-0.00566394673660398,-0.0125245442613959,-0.00509652681648731
75,-0.0143147967755795,0.00906391721218824,-0.00303698121570051,-0.00278373924084008,-0.0113663114607334,-0.0025644158013165
76,-0.0121282264590263,0.0105237802490592,-0.000980908866040409,0.00116239814087749,-0.008021030575037,-0.00130528793670237
77,-0.00948992744088173,0.011844745837152,0.000775558059103787,0.00422386825084686,-0.00476602138951421,-0.0020169981289655
78,-0.00755919609218836,0.0128185544162989,0.00147758366074413,0.00538870459422469,-0.00199846504256129,-0.00348748755641282
79,-0.00582703109830618,0.0138155110180378,0.00193597259931266,0.00592205068096519,0.00124168407637626,-0.0040704132989049
80,-0.0048736878670752,0.014478949829936,0.00176606990862638,0.00594443315640092,0.00375905050896108,-0.00440007541328669
81,-0.00576571654528379,0.0142936119809747,0.000288865732727572,0.00501176388934255,0.00387375731952488,-0.00548891350626946
82,-0.00826280657202005,0.0130468653514981,-0.0017644502222538,0.00378371984697878,0.00203310791403055,-0.00736741255968809
83,-0.0115839699283242,0.0106792934238911,-0.00368621665984392,0.0021159085445106,-0.000586767389904708,-0.0101397950202227
84,-0.0134957963600755,0.00867058243602514,-0.00410554325208068,0.000661877682432532,-0.00215291185304523,-0.012137308716774
85,-0.0123190395534039,0.00893878843635321,-0.00175151042640209,0.00137268728576601,-0.00122353318147361,-0.0111289685592055
86,-0.00885000638663769,0.011479145847261,0.00276183267123997,0.00487299077212811,0.001859558862634,-0.00722428923472762
87,-0.004973279312253,0.0142561355605721,0.00726476032286882,0.00911336857825518,0.00521971425041556,-0.00282177398912609
88,-0.00189350789878517,0.0157853048294783,0.0104258051142097,0.0119692552834749,0.00745256710797548,0.000208203622605652
89,0.000484822405269369,0.0164366830140352,0.0125507600605488,0.0133337043225765,0.00893090665340424,0.0021283442620188
90,0.00262964307330549,0.0169408544898033,0.0135933039709926,0.0138696087524295,0.0102822612971067,0.0037045634817332
91,0.00358388805761933,0.0168761219829321,0.0122257554903626,0.0133797833696008,0.0101159764453769,0.00431061768904328
92,0.00173727248329669,0.0151042472571135,0.00781418476253748,0.0109852775931358,0.00664359237998724,0.00237064622342587
93,-0.00176280166488141,0.0119021730497479,0.00228952360339463,0.00739595806226134,0.00141623814124614,-0.00146113336086273
94,-0.00375094101764262,0.0090084383264184,-0.0013762564631179,0.00514758937060833,-0.0017986842431128,-0.0043098721653223
95,-0.00241906777955592,0.00777684943750501,-0.00129681383259594,0.0062426496297121,-0.000347234337823465,-0.00477432925254107
96,0.00109136232640594,0.00800836831331253,0.00203553703613579,0.00928839296102524,0.00471337325870991,-0.00402521528303623
97,0.00328489113599062,0.00814307201653719,0.00570575380697846,0.0104620419442654,0.00898784771561623,-0.00347847701050341
98,0.00257446873001754,0.00782210379838943,0.00781535636633635,0.00913788191974163,0.0104928500950336,-0.00244623189792037
99,0.00141976494342089,0.00885377824306488,0.00943883415311575,0.00841641146689653,0.011566256172955,0.000846584734972566
100,0.00138107559178025,0.0116279860958457,0.010480941273272,0.00900313630700111,0.0129765709862113,0.00536711793392897
101,0.00047630921471864,0.0141049921512604,0.00856203958392143,0.0082215890288353,0.0121730100363493,0.00744733354076743
102,-0.00267983274534345,0.0147953163832426,0.00366762117482722,0.00477298023179173,0.00814653653651476,0.00552353356033564
103,-0.00654389383271337,0.0137481763958931,-0.00148377218283713,0.000204322044737637,0.00310042477212846,0.00130529177840799
104,-0.0085274800658226,0.0119609339162707,-0.00415821233764291,-0.00236734235659242,-7.38840390113182E-05,-0.00226824777200818
105,-0.00781477056443691,0.0101947849616408,-0.00368262873962522,-0.00184602627996355,-0.000554857891984284,-0.00413498654961586
106,-0.00589678715914488,0.00824300572276115,-0.0020217823330313,-0.000774749496486038,0.000185379976755939,-0.00570545066148043
107,-0.00466752611100674,0.00565590662881732,-0.00151802622713149,-0.00133472587913275,0.000370076013496146,-0.00774072343483567
108,-0.00421942537650466,0.00286783883348107,-0.0022984987590462,-0.00291722151450813,-0.000193824249436148,-0.00903885066509247
109,-0.00307023734785616,0.00126038503367454,-0.00260475976392627,-0.00392838241532445,0.000221505353692919,-0.00835837423801422
110,-0.00185482134111226,0.00107034400571138,-0.00214691460132599,-0.00433109886944294,0.00215888116508722,-0.00719845714047551
111,-0.00250633270479739,0.00104869692586362,-0.00224094581790268,-0.00504410173743963,0.00352256209589541,-0.00821846257895231
112,-0.00417145900428295,0.000189749975106679,-0.00304232956841588,-0.00633096788078547,0.00288288830779493,-0.0120038269087672
113,-0.00447884062305093,-0.00111046468373388,-0.00332172424532473,-0.00743673555552959,0.00157277402468026,-0.0158171150833368
114,-0.00391141604632139,-0.00196653185412288,-0.00328839384019375,-0.00837009213864803,0.000501004629768431,-0.0167622864246368
115,-0.00463856384158134,-0.00230842968448997,-0.00409909756854177,-0.0100595960393548,-0.000760553346481174,-0.0157128609716892
116,-0.00702297128736973,-0.00269992486573756,-0.0058494065888226,-0.0128711313009262,-0.00197428441606462,-0.0156886596232653
117,-0.00973157398402691,-0.00339758675545454,-0.00785167887806892,-0.0164193231612444,-0.00250834389589727,-0.0177862886339426
118,-0.00951628666371107,-0.00230585411190987,-0.00701588066294789,-0.0172017198055983,-0.000226773277972825,-0.0179790779948235
119,-0.00470378063619137,0.00218623247928917,-0.00140164839103818,-0.0122821051627398,0.00595938693732023,-0.0126206194981933
120,0.00116413354407996,0.00729832518845797,0.00493901828303933,-0.00500898202881217,0.012376825325191,-0.00496581848710775
121,0.00391290849074721,0.0097833052277565,0.00750619173049927,-0.00025061346241273,0.0148433325812221,-4.96149114042055E-05
122,0.00270435493439436,0.00944686401635408,0.00610196497291327,0.000417002302128822,0.0127149345353246,0.000637268589343876
123,-0.000284665002254769,0.0079871853813529,0.00312820053659379,-0.00150251667946577,0.0086890272796154,-0.0015133599517867
124,-0.00219294941052794,0.00702053960412741,0.00127433589659631,-0.00337073509581387,0.0063633294776082,-0.0044105090200901
125,-0.0024558212608099,0.00668772961944342,0.00103365583345294,-0.00424757320433855,0.00647541508078575,-0.00687968591228127
126,-0.00291008851490915,0.00611737091094255,0.000398994627175853,-0.00528021296486259,0.00643358612433076,-0.00871365889906883
127,-0.00476945657283068,0.0050106537528336,-0.00197147461585701,-0.00729038147255778,0.00446088099852204,-0.00977844092994928
128,-0.00639613904058933,0.0042114588432014,-0.00463989051058888,-0.0088380379602313,0.0023860284127295,-0.00964230764657259
129,-0.00657862704247236,0.0040493831038475,-0.00593608431518078,-0.00924400892108679,0.00195056386291981,-0.00906618498265743
130,-0.00621415209025145,0.00406850781291723,-0.00577646121382713,-0.00980219524353743,0.00271405349485576,-0.00854987092316151
131,-0.00586026487872005,0.00422734394669533,-0.00483317719772458,-0.0107388021424413,0.00412740046158433,-0.00673579517751932
132,-0.00476791663095355,0.00463777547702193,-0.00314645539037883,-0.0106070470064878,0.00634272256866097,-0.00275074504315853
133,-0.00269357953220606,0.00501723168417811,-0.000529696466401219,-0.00856313202530146,0.00864316150546074,0.00248076627030969
134,-0.00135689286980778,0.00495928712189198,0.00174578768201172,-0.00612998940050602,0.00905889552086592,0.00642638839781284
135,-0.00180070952046663,0.00443665497004986,0.00263927923515439,-0.00500092282891274,0.00710031762719154,0.00727559952065349
136,-0.00223892694339156,0.00435576867312193,0.0034296337980777,-0.00407574605196714,0.00485625956207514,0.00674050161615014
137,-0.00147432961966842,0.00541270757094026,0.00471671437844634,-0.00236676051281393,0.00334117491729558,0.00650196056813002
138,-0.00195548520423472,0.00608913833275437,0.00382198509760201,-0.00234853429719806,0.000136591945192777,0.00475281430408359
139,-0.00595964211970568,0.00469970842823386,-0.000488799239974469,-0.00553559791296721,-0.00560449296608567,0.000344335538102314
140,-0.0111327534541488,0.00237626349553466,-0.00461764493957162,-0.00897983368486166,-0.00977401435375214,-0.00463262712582946
141,-0.0129886204376817,0.00161806109827012,-0.00468997331336141,-0.00943241454660892,-0.00866731628775597,-0.00751403672620654
142,-0.0110236695036292,0.00262538762763143,-0.00140487996395677,-0.00757308769971132,-0.00405985955148935,-0.00780309829860926
143,-0.00851417612284422,0.00337151507847011,0.00156921870075166,-0.00620857812464237,-0.000269370968453586,-0.00710867485031486
144,-0.00704481266438961,0.00311505445279181,0.00250657019205391,-0.00589139899238944,0.00105554633773863,-0.00625164341181517
145,-0.00688180373981595,0.00195470242761076,0.00162799598183483,-0.00596468430012465,0.000121039272926282,-0.00590153550729156
146,-0.00950663164258003,-0.00085995631525293,-0.0016182103427127,-0.00797653011977673,-0.00373087916523218,-0.0081203980371356
147,-0.0146382804960012,-0.00449748151004314,-0.00674648256972432,-0.0126227755099535,-0.00982968136668205,-0.0125197935849428
148,-0.0185403972864151,-0.00641982909291983,-0.010433143004775,-0.0164746250957251,-0.0140398675575852,-0.0157164894044399
149,-0.0186397414654493,-0.00604976387694478,-0.0104373982176185,-0.0167482104152441,-0.0132008818909526,-0.0160498917102814
150,-0.0166327655315399,-0.00527080753818154,-0.00858300644904375,-0.0152160339057446,-0.00936026033014059,-0.0147929005324841
151,-0.0144592747092247,-0.00496607273817062,-0.0069102831184864,-0.0137159386649728,-0.00580946542322636,-0.0130837513133883
152,-0.0125194815918803,-0.00443355878815055,-0.0055490811355412,-0.0119611080735922,-0.00381503696553409,-0.0110368141904473
153,-0.011199158616364,-0.00361879798583686,-0.00439922977238894,-0.00966580025851727,-0.00321552623063326,-0.00898677669465542
154,-0.009907316416502,-0.00303497584536672,-0.00279445853084326,-0.00695944810286164,-0.00222201971337199,-0.00771610578522086
155,-0.00803130026906729,-0.00281585706397891,-0.000190499195014127,-0.00527673028409481,0.000273015204584226,-0.00798773858696222
156,-0.00668079173192382,-0.00266901170834899,0.00191368802916259,-0.00610911333933473,0.00228836154565215,-0.0095926271751523
157,-0.00642509199678898,-0.00197132700122893,0.00232539442367852,-0.00818207114934921,0.00190541974734515,-0.0111014880239964
158,-0.00594791583716869,-0.000302446947898716,0.00232650595717132,-0.00891202129423618,0.000495712738484144,-0.0107767721638083
159,-0.0048530213534832,0.00171967048663646,0.00259056035429239,-0.00782263278961182,-0.000434259243775159,-0.00847979262471199
160,-0.00428927689790726,0.0028870333917439,0.00208035646937788,-0.00647866120561957,-0.00176054250914603,-0.00626728963106871
161,-0.00418267911300063,0.00296841817907989,0.00106186850462109,-0.00542291486635804,-0.00350853847339749,-0.00544867105782032
162,-0.00397685309872031,0.00227908533997834,0.0004519586218521,-0.00473252218216658,-0.00447632744908333,-0.00581431016325951
163,-0.00372767657972872,0.00127395160961896,0.000458334194263443,-0.00479346141219139,-0.0039975862018764,-0.00668721413239837
164,-0.00266120326705277,0.00120416842401028,0.00200463575311005,-0.00412716437131166,-0.00127472449094057,-0.00622290698811412
165,-0.000760766153689474,0.00225571426562965,0.00486692693084478,-0.00213217106647789,0.00318597466684878,-0.00398582499474287
166,0.000467965612187982,0.00295403716154397,0.00663822935894132,-0.0010327686322853,0.00704581523314118,-0.00225335918366909
167,-0.000235024155699648,0.00219737878069282,0.00536174606531858,-0.00266910018399358,0.00824967492371798,-0.00285492860712111
168,-0.00225168373435736,0.00049922993639484,0.00183840503450483,-0.00632123835384846,0.00721814949065447,-0.0050431857816875
169,-0.00441348133608699,-0.0012062011519447,-0.00204221857711673,-0.0103051504120231,0.00512702250853181,-0.00711823534220457
170,-0.00605844100937247,-0.00229042046703398,-0.00482018059119582,-0.012995888479054,0.00266814883798361,-0.00812074542045593
171,-0.00622031604871154,-0.00227520195767283,-0.00537377735599875,-0.0130550023168325,0.00125962623860687,-0.00807895418256521
172,-0.00499065313488245,-0.00171268929261714,-0.00428159348666668,-0.0111442869529128,0.00124746339861304,-0.00812247581779957
173,-0.0018605247605592,-0.000642962229903787,-0.00114572560414672,-0.00790086295455694,0.00356290000490844,-0.00753101613372564
174,0.00304063013754785,0.00116947886999696,0.00406748149544001,-0.00408367486670613,0.00857091136276722,-0.0051931869238615
175,0.00630844989791512,0.00245264335535467,0.00801715161651373,-0.00204908917658031,0.0129858125001192,-0.00290537299588323
176,0.00538577837869525,0.0019886635709554,0.00816919561475515,-0.00338279013521969,0.0137494876980782,-0.00292250467464328
177,0.00213433359749615,0.000702424673363566,0.00608129845932126,-0.00660371361300349,0.0119316931813955,-0.00489475252106786
178,0.00114247761666775,0.00111415120773017,0.00605949712917209,-0.00735639315098524,0.0119500001892447,-0.00542981969192624
179,0.00328907696530223,0.0033388074953109,0.0090792728587985,-0.00458421930670738,0.0147740971297026,-0.00337650673463941
180,0.00552667584270239,0.0052503040060401,0.0120854489505291,-0.00130494323093444,0.0169559251517057,-0.000980142038315535
181,0.00653179828077555,0.00600552931427956,0.0133666824549437,0.00103596318513155,0.0169922951608896,0.000642527127638459
182,0.00623786635696888,0.00523470621556044,0.0128531195223331,0.00173621950671077,0.015330970287323,0.000327090412611142
183,0.00421306397765875,0.00237405765801668,0.0109670916572213,-0.000230317789828405,0.0123576652258635,-0.00346588576212525
184,0.000576111313421279,-0.00225466536357999,0.00850547105073929,-0.00439740112051368,0.0089839082211256,-0.0100257284939289
185,-0.00383805367164314,-0.0076018744148314,0.0060673700645566,-0.0091158002614975,0.00612025195732713,-0.0170052424073219
186,-0.00796207506209612,-0.0125531712546945,0.00410624966025352,-0.012770090252161,0.00371122476644814,-0.0221722144633532
187,-0.0101859616115689,-0.0154260275885463,0.00347602902911603,-0.0137123400345445,0.00182379875332117,-0.023534094914794
188,-0.00878666434437037,-0.0146777098998427,0.00505339400842786,-0.0107717588543892,0.0014913174090907,-0.0200851690024138
189,-0.00450022285804152,-0.0112803084775805,0.00833581294864416,-0.00530078448355198,0.0029595613013953,-0.0136296562850475
190,-0.000432337954407558,-0.00788061879575253,0.0112783275544643,-9.26895518205129E-05,0.00455372640863061,-0.00780907459557056
191,0.000783716095611453,-0.00638931151479483,0.0120034478604794,0.00309802778065205,0.0040486752986908,-0.00549524137750268
192,-0.00155534502118826,-0.00709995534271002,0.0104621546342969,0.00317612290382385,0.000885875371750444,-0.00690964469686151
193,-0.00599407078698277,-0.00881665479391813,0.00786924082785845,0.000231909114518203,-0.00337597192265093,-0.00931794568896294
194,-0.0100125027820468,-0.0101129664108157,0.00577758252620697,-0.00360148050822318,-0.00635513756424189,-0.0102445669472218
195,-0.0125606609508395,-0.0108985882252455,0.00475518638268113,-0.00679431017488241,-0.00724317040294409,-0.0103676645085216
196,-0.0143756549805403,-0.0116485292091966,0.00372595293447375,-0.00933940336108208,-0.00726950913667679,-0.0112264389172196
197,-0.014794010668993,-0.0112896710634232,0.00325613678433001,-0.0099969357252121,-0.00600266549736261,-0.011703634634614
198,-0.0121072046458721,-0.00865767151117325,0.00540024042129517,-0.00734808668494225,-0.00197859178297222,-0.00992819759994745
199,-0.00715987384319305,-0.00468147406354547,0.00935277156531811,-0.0027220246847719,0.00340858846902847,-0.00670264847576618
200,-0.0028378926217556,-0.00122033117804676,0.0120839634910226,0.00095949083333835,0.00722877122461796,-0.00436175148934126
201,-0.000896103214472532,0.000761711271479726,0.0128406761214137,0.00228271330706775,0.00894382875412703,-0.00366795831359923
202,-0.0015191612765193,0.00109471753239632,0.0129290958866477,0.00148155179340392,0.0101518230512738,-0.00417455192655325
203,-0.00367488572373986,-4.95014792250004E-05,0.0128674125298858,-0.000652188609819859,0.0115107521414757,-0.0056916419416666
204,-0.00503094401210546,-0.00132880569435656,0.0131091019138694,-0.00206299941055477,0.0128856720402837,-0.00658349553123116
205,-0.00457237055525184,-0.00115289352834225,0.0135291442275047,-0.00133147498127073,0.0136064738035202,-0.00495451223105192
206,-0.00351214967668056,0.000414113950682804,0.0126162664964795,0.00047582047409378,0.0121295070275664,-0.00168620143085718
207,-0.00336162536405027,0.00207865657284856,0.00967355724424124,0.00178815959952772,0.00794916041195393,0.00108120671939105
208,-0.00409122696146369,0.0030410133767873,0.00628384063020349,0.00271381018683314,0.00334788649342954,0.00254088034853339
209,-0.00424790708348155,0.0034317784011364,0.00443575996905565,0.00433267746120691,0.0009840166894719,0.00296630617231131
210,-0.00324829132296145,0.00326148886233568,0.00411448907107115,0.0062998179346323,0.000490827194880694,0.00209195259958506
211,-0.00167289702221751,0.00229963497258723,0.0045701889321208,0.00698464177548885,0.000495125248562545,-0.000280749605735764
212,-0.000633048941381276,0.000620370556134731,0.00494954781606793,0.00527744507417083,0.000578427512664348,-0.00311977369710803
213,-0.000460807117633522,-0.000825411640107632,0.00462198490276933,0.00267049018293619,0.0010395236313343,-0.00461552059277892
214,-1.01147297755233E-05,-0.000807343400083482,0.00450922781601548,0.00204015639610589,0.00270182080566883,-0.00384311657398939
215,0.00115344882942736,0.00029625283787027,0.00505805294960737,0.00363883003592491,0.00508079910650849,-0.00214838865213096
216,0.0022674216888845,0.0010267534526065,0.00521706789731979,0.00547383446246386,0.00624497886747122,-0.00145055935718119
217,0.00333042629063129,0.00134380685631186,0.00496148038655519,0.00688229221850634,0.00603901129215956,-0.00135431089438498
218,0.00468477047979832,0.002205133670941,0.00510568451136351,0.00852551124989986,0.00609670206904411,-0.000524880306329578
219,0.00568650523200631,0.00335544673725963,0.0056037325412035,0.0101135978475213,0.00690823886543512,0.000589867064263672
220,0.00600488018244505,0.00404873304069042,0.00637182174250484,0.0112480074167252,0.00838214438408613,0.00125968258362263
221,0.00496563315391541,0.00392670417204499,0.00632183998823166,0.0110455844551325,0.00927659869194031,0.000832758203614503
222,0.00122670398559421,0.00256184861063957,0.00350083992816508,0.00787905789911747,0.0070950947701931,-0.00184468668885529
223,-0.00439208140596747,-0.000195816915947944,-0.00173154089134187,0.00219031237065792,0.00193396094255149,-0.00671259965747595
224,-0.00759657705202699,-0.00270452909171581,-0.00511448318138719,-0.00157546682748944,-0.00121461669914424,-0.0104067912325263
225,-0.00596052268519998,-0.00323498388752341,-0.0034122581128031,-9.84104990493506E-05,0.00134761864319444,-0.00980919413268566
226,-0.00326311844401062,-0.00315116718411446,0.000380030076485127,0.00337875145487487,0.00572404591366649,-0.00709419790655375
227,-0.00235925172455609,-0.00334007712081075,0.00340436887927353,0.00596447335556149,0.00858979113399982,-0.004521444439888
228,-0.0026299012824893,-0.00275391503237188,0.00620810920372605,0.00816889945417643,0.0108981663361192,-0.00170628749765456
229,-0.00441950326785445,-0.00216852338053286,0.00762308621779084,0.00918168481439352,0.0114677073433995,0.000121043492981698
230,-0.0070237466134131,-0.00289088906720281,0.00673453090712428,0.00873091258108616,0.00939503591507673,-0.000227835334953852
231,-0.00736465305089951,-0.00357131590135396,0.00628996128216386,0.00867239013314247,0.00776849873363972,-0.000563995214179158
232,-0.00502369739115238,-0.00265624839812517,0.00723879970610142,0.00896687619388103,0.00811908114701509,0.000948089233133942
233,-0.00375006324611604,-0.00156076555140316,0.0061974716372788,0.00698440102860332,0.00730906939134002,0.00180681853089482
234,-0.00547996209934354,-0.00169372139498591,0.00204378110356629,0.00267693074420094,0.00334079912863672,-0.000143896802910604
235,-0.0074544227682054,-0.00161660765297711,-0.00173274823464453,-0.00024299330834765,-0.00104613439179957,-0.00247273989953101
236,-0.0071887937374413,-6.46799671812914E-05,-0.00275105657055974,0.000259690161328763,-0.00299033732153475,-0.00274137128144503
237,-0.005972804967314,0.00156644824892282,-0.00245402799919248,0.00206198776140809,-0.00315527408383787,-0.00195173802785575
238,-0.00610029883682728,0.00121032551396638,-0.00308549148030579,0.0018932509701699,-0.00315997772850096,-0.00254995655268431
239,-0.00782334618270397,-0.00134007469750941,-0.00517471507191658,-0.000948879343923181,-0.00361984921619296,-0.00537856481969357
240,-0.00842667277902365,-0.00362903322093189,-0.00601448491215706,-0.00289628212340176,-0.00312864989973605,-0.00735609233379364
241,-0.00534981396049261,-0.00319592794403434,-0.00260423519648612,-0.000364736886695027,0.000299499573884532,-0.00509084714576602
242,-0.000491614104248583,-0.000781876617111266,0.00304099684581161,0.00494062714278698,0.00466875964775682,0.000526980205904692
243,0.00299582583829761,0.00182606431189924,0.00728665292263031,0.00976795423775911,0.00662284437566996,0.00710902316495776
244,0.00465769646689296,0.00410094764083624,0.00964315887540579,0.0137251578271389,0.00621967716142535,0.0133747644722462
245,0.0043681338429451,0.00520842103287578,0.00977318175137043,0.0164763163775206,0.00431280862540007,0.0173637457191944
246,0.0017091043991968,0.00429243175312877,0.00696136755868793,0.0167010314762592,0.000863115477841347,0.0173227917402983
247,-0.00214126659557223,0.00223817932419479,0.0029106754809618,0.0140534844249487,-0.00281045446172357,0.0141291115432978
248,-0.00584698701277375,0.000684972561430186,-0.000667156069539487,0.00951559562236071,-0.00520528480410576,0.0103025250136852
249,-0.00857846811413765,0.000567149952985346,-0.00340879638679326,0.00540726725012064,-0.00607352470979095,0.00817717984318733
250,-0.0101610971614718,0.00128128740470856,-0.00538793671876192,0.0028398516587913,-0.00636390037834644,0.00781267043203115
251,-0.0120804077014327,0.000977794639766216,-0.00760272797197104,-0.000123902398627251,-0.00796484109014273,0.00663897907361388
252,-0.0146159725263715,-0.00114449660759419,-0.0100406613200903,-0.00455755088478327,-0.0105757024139166,0.00314697716385126
253,-0.0162477623671293,-0.004216184373945,-0.0118207866325974,-0.009218605235219,-0.0123635716736317,-0.00144044507760555
254,-0.0153152095153928,-0.0061065349727869,-0.0118336072191596,-0.0113055408000946,-0.0116271749138832,-0.00383019587025046
255,-0.011989283375442,-0.00540761230513453,-0.0096880067139864,-0.00922839343547821,-0.00801842845976353,-0.00224366597831249
256,-0.00864454172551632,-0.00310471118427813,-0.00697623286396265,-0.00516478670760989,-0.0038797699380666,0.00124193879310042
257,-0.00568643352016807,-0.000286761031020433,-0.00400230474770069,-0.000808009062893689,-0.000199599599000067,0.00479139899834991
258,-0.00249140709638596,0.00228692777454853,-0.000524805043824017,0.00337961479090154,0.00354539509862661,0.00755365332588553
259,-7.96291133156046E-05,0.00354920187965035,0.00168055191170424,0.00608426705002785,0.00661264965310693,0.00868106726557016
260,0.000230193807510659,0.00313012045808136,0.000848173978738487,0.00634871749207377,0.00783720798790455,0.00835192482918501
261,-0.00100670871324837,0.00210902607068419,-0.00182623253203928,0.00532149476930499,0.00729583622887731,0.00792851205915213
262,-0.00195357576012611,0.00196100096218288,-0.00354605843313038,0.00501279532909393,0.00624244567006826,0.00863215979188681
263,-0.00243677711114287,0.00229805591516197,-0.00382183771580458,0.00513235898688436,0.00535315182060003,0.00922837667167187
264,-0.00321695161983371,0.00190225592814386,-0.00379097228869796,0.00471336394548416,0.00451394496485591,0.00783815886825323
265,-0.00366042763926089,0.00107746012508869,-0.00338707771152258,0.0045790490694344,0.0039723627269268,0.00517602730542421
266,-0.00252446858212352,0.000604821369051933,-0.00165954523254186,0.00502693653106689,0.00449590105563402,0.00292981881648302
267,3.68219225492794E-05,0.00056313700042665,0.00112927157897502,0.00513599021360278,0.00628774706274271,0.00202714349143207
268,0.00196130736730993,0.00057167949853465,0.00292995385825634,0.00402375776320696,0.00756580661982298,0.00221194233745337
269,0.00176667596679181,0.000546583498362452,0.0024831211194396,0.0016087208641693,0.00650770077481866,0.00246699946001172
270,0.000488633406348526,0.00125560467131436,0.000931753835175186,-0.000431897584348917,0.00400444632396102,0.00316759804263711
271,-0.000433237029938027,0.00277719064615667,-0.000417364673921838,-0.000784044852480292,0.00187173241283745,0.00477345520630479
272,0.000209822159376927,0.00465295044705272,-0.000285120448097587,0.000726470781955868,0.00191900786012411,0.00692430092021823
273,0.00321982894092798,0.00695245945826173,0.00248682429082692,0.00409876136109233,0.00488300435245037,0.00973752327263355
274,0.00715933507308364,0.00918691884726286,0.00678297691047192,0.00823117792606354,0.00847277510911226,0.0128781013190746
275,0.00887193530797958,0.00982739496976137,0.00917858351022005,0.0103732170537114,0.00919550191611052,0.0144023429602385
276,0.0072657591663301,0.0085563063621521,0.00802169740200043,0.00944371707737446,0.00630869017913938,0.0135603444650769
277,0.00466082897037268,0.00695448508486152,0.00573746301233768,0.00770611828193069,0.00266526988707483,0.0122576840221882
278,0.00210333941504359,0.00515403039753437,0.00389801268465817,0.00615068525075912,0.00025426983484067,0.0106351906433702
279,-0.00157808733638376,0.0020057640504092,0.00184853246901184,0.00370349083095789,-0.00113507732748985,0.00711864838376641
280,-0.00651200069114566,-0.00218238565139472,-0.000170054147019982,-0.000141736192745157,-0.00161536212544888,0.00246977340430021
281,-0.0118531174957752,-0.00589941674843431,-0.00164447946008295,-0.00456443568691611,-0.00142602086998522,-0.000926130509469658
282,-0.0158977042883635,-0.00780706573277712,-0.0021102256141603,-0.00750179681926966,-0.000838701613247395,-0.00207185279577971
283,-0.0162003431469202,-0.00746864080429077,-0.000281159940641373,-0.00709983753040433,0.000443881639512256,-0.00118459481745958
284,-0.0123136900365353,-0.00541116576641798,0.00408125016838312,-0.00361413694918156,0.00251511507667601,0.00140474445652217
285,-0.00585133116692305,-0.00243780738674104,0.00942573510110378,0.0013159146765247,0.00565633876249194,0.00506443437188864
286,0.00195300253108144,0.00123543676454574,0.0147479139268398,0.00706993229687214,0.0105154355987906,0.00974205322563648
287,0.00965415872633457,0.00558562390506268,0.0195939615368843,0.0131974387913942,0.0163850896060467,0.0153808016330004
288,0.0143702086061239,0.00930028315633535,0.0222483016550541,0.0173700973391533,0.0208734963089228,0.019555538892746
289,0.0143658751621842,0.0107488185167313,0.0216060020029545,0.0177710186690092,0.0222929865121841,0.0196321681141853
290,0.0108004482463002,0.00999555550515652,0.0184046886861324,0.0150966756045818,0.020387664437294,0.0160172265022993
291,0.00572453439235687,0.00789190363138914,0.0136944586411119,0.010517337359488,0.0157317109405994,0.010486620478332
292,0.000814171449746937,0.00530254421755672,0.00890387687832117,0.00554284220561385,0.0102847898378968,0.00448088115081191
293,-0.002718087984249,0.00340167991816998,0.00563475489616394,0.00239214720204473,0.0062298271805048,-0.000479480950161815
294,-0.00468401936814189,0.00299536949023604,0.00406539347022772,0.00151011266279966,0.00381428515538573,-0.00287898862734437
295,-0.00604854384437203,0.00364181585609913,0.00294645712710917,0.00119055865798146,0.00154964893590659,-0.00258063920773566
296,-0.00758259370923042,0.00412851292639971,0.00167075917124748,0.000566308968700469,-0.00133577466476709,-0.00123750336933881
297,-0.00857958942651749,0.00404439633712173,0.000834685750305653,0.000646005210001022,-0.00356762204319239,-0.000186845485586673
298,-0.00734575698152184,0.00440693227574229,0.00168881949502975,0.00284347706474364,-0.0028635619673878,0.00133513798937202
299,-0.00415783235803247,0.00566999753937125,0.00452548684552312,0.0061408719047904,0.000742530450224876,0.00408836686983705
300,-0.00152117514517158,0.00677584018558264,0.0078029646538198,0.00806959345936775,0.00466911774128675,0.00782719440758228
301,-0.000364235835149884,0.00709470547735691,0.010784943588078,0.00923226401209831,0.00777735514566302,0.0127200493589044
302,-0.000114840579044539,0.00654547335579991,0.0135342460125685,0.0104182837530971,0.00994294788688421,0.017098581418395
303,-0.000248480297159404,0.00518556497991085,0.0149855511263013,0.00973841454833746,0.0103929145261645,0.0183033496141434
304,0.000261918030446395,0.00377359916456044,0.0143138924613595,0.00642039999365807,0.00934827234596014,0.0166041683405638
305,0.00148482015356421,0.00279579823836684,0.0117792095988989,0.00137499766424298,0.00768418610095978,0.013444596901536
306,0.00168488500639796,0.00196662871167064,0.00762245943769813,-0.00470144627615809,0.00529402401298285,0.0090520940721035
307,-0.000252677244134247,0.000993511290289462,0.00222425442188978,-0.0107002481818199,0.00176119757816195,0.00369897647760808
308,-0.00202450877986848,0.000399796990677714,-0.00173573999200016,-0.0135173043236136,-0.000831153651233763,-0.000193805288290605
309,-0.000346819841070101,0.00140811514575034,-0.00102474552113563,-0.0106858471408486,0.000540695735253394,6.13000593148172E-05
310,0.00392708834260702,0.00400049332529306,0.00318798795342445,-0.00454628095030785,0.00433627050369978,0.00342400558292866
311,0.00736678577959538,0.00640154769644141,0.00680105574429035,5.98159022047184E-05,0.00618437258526683,0.00636414252221584
312,0.0081371208652854,0.00742411985993385,0.00787894427776337,0.000906297820620239,0.00487408367916942,0.00693865865468979
313,0.00589353265240788,0.00751975551247597,0.00704772770404816,-0.000872308970429003,0.00222992640919983,0.00583569193258882
314,0.00216890382580459,0.00776014383882284,0.00572143867611885,-0.00259026419371367,-5.03111732541583E-05,0.00511711742728949
315,-0.000329772185068578,0.00823620986193419,0.00462568225339055,-0.00242039305157959,-0.00182115461211652,0.00561890797689557
316,-0.00200700131244957,0.00716474140062928,0.00250181159935892,-0.00249290582723916,-0.00460265437141061,0.00464470544829965
317,-0.00421133544296026,0.00407883664593101,-0.000959660275839269,-0.00504092266783118,-0.00842974800616503,0.00119782565161586
318,-0.00511366035789251,0.00160265329759568,-0.00321401911787689,-0.00768043752759695,-0.0103336730971932,-0.000524107890669256
319,-0.00253093452192843,0.00181503558997065,-0.00204846076667309,-0.00767993833869696,-0.00792483147233725,0.00213189423084259
320,0.0032240548171103,0.004450305365026,0.002344885841012,-0.00491631450131536,-0.00161091354675591,0.00802345015108585
321,0.00910948775708675,0.00752910180017352,0.0072624864988029,-0.00135160598438233,0.00555250886827707,0.0142051158472896
322,0.0112370792776346,0.00855190958827734,0.00926687568426132,-0.000326395616866648,0.00956130400300026,0.0165242832154036
323,0.00853683054447174,0.0066514490172267,0.00715256994590163,-0.00362297939136624,0.00876484904438257,0.0130097223445773
324,0.00421659369021654,0.00367888319306076,0.00339929154142737,-0.00875313673168421,0.00581171736121178,0.00698801269754767
325,0.00149838055949658,0.00195889198221266,0.000884870416484773,-0.0121866958215833,0.00394872762262821,0.00307194539345801
326,6.5483727667015E-05,0.00188337033614516,-0.000690695713274181,-0.0136608462780714,0.00305067212320864,0.00156120723113418
327,-0.00115953886415809,0.0024958923459053,-0.00247718673199415,-0.0143363252282143,0.00176779739558697,0.000278555671684444
328,-0.00239777518436313,0.00241294968873262,-0.00460527557879686,-0.0149635123088956,-0.000478439877042547,-0.00197552307508886
329,-0.00301867444068193,0.00164930580649525,-0.00603005150333047,-0.0151931587606668,-0.00276204757392406,-0.00392934773117304
330,-0.0023495526984334,0.00131096842233092,-0.00603406596928835,-0.0146539639681578,-0.003936099819839,-0.00430776085704565
331,-0.00130908261053264,0.00126709416508675,-0.00590328965336084,-0.0145943639799953,-0.00461784470826387,-0.00448199454694986
332,-0.00143916741944849,0.000632608833257109,-0.00706227356567979,-0.0163080971688032,-0.00610205018892884,-0.00624710274860263
333,-0.00194361025933176,-0.000130662418087013,-0.00848790444433689,-0.0182956084609032,-0.00754806911572814,-0.00912437960505486
334,-0.000646745727863163,0.000738342816475779,-0.00819246098399162,-0.0173848047852516,-0.00681558344513178,-0.0106718447059393
335,0.00153980636969209,0.00283994222991169,-0.00686600850895047,-0.0145335989072919,-0.00494886143133044,-0.0105608189478517
336,0.00186073558870703,0.00365719455294311,-0.00641247583553195,-0.0137878023087978,-0.00463594542816281,-0.0105657847598195
337,0.000120686832815409,0.00271932990290225,-0.00675089238211513,-0.0154943913221359,-0.00564470607787371,-0.0103194108232856
338,-0.000988860265351832,0.00191139639355242,-0.0060722348280251,-0.0161099657416344,-0.00545354932546616,-0.00811174046248198
339,0.000313496246235445,0.00260446942411363,-0.00356367463245988,-0.0134203601628542,-0.00310865766368806,-0.0040139090269804
340,0.00243235938251019,0.00431126682087779,-0.000626823690254241,-0.00894492398947477,-0.000178951668203808,0.000172393978573382
341,0.00355717865750194,0.00597735727205873,0.0014399295905605,-0.00514897797256708,0.00202737003564835,0.00320711848326027
342,0.00376077345572412,0.00725771486759186,0.0021988598164171,-0.00319895893335342,0.0032145434524864,0.00482373870909214
343,0.00353165762498975,0.00854831468313932,0.00201049377210438,-0.00252027669921517,0.0038727167993784,0.00535523006692529
344,0.00281750992871821,0.009720872156322,0.00161500473041087,-0.00208486476913095,0.00460825813934207,0.00519422488287091
345,0.00158290052786469,0.00994832068681717,0.00090754620032385,-0.00209260755218565,0.00522899487987161,0.00407913140952587
346,0.000415274989791214,0.00935766473412514,-9.1574365796987E-05,-0.00255744275636971,0.00560029223561287,0.00239373673684895
347,-0.000877504935488105,0.00840515922755003,-0.00149532069917768,-0.00344440760090947,0.00494878459721804,0.000689974578563124
348,-0.00282401312142611,0.00755346566438675,-0.00355305476114154,-0.00466444389894605,0.00244537345133722,-0.000604939123149961
349,-0.00427888194099069,0.00767111545428634,-0.0053875045850873,-0.00457274401560426,-0.0007047870894894,-0.000222926930291578
350,-0.00396042596548796,0.00896734092384577,-0.00638337433338165,-0.00222360272891819,-0.00281339278444648,0.00170105160214007
351,-0.00322968768887222,0.00997741892933846,-0.00761198019608855,-0.000474199943710119,-0.00432086177170277,0.0019248416647315
352,-0.00347311422228813,0.00963989738374949,-0.00942837912589312,-0.00187789369374514,-0.00585501827299595,-0.000771929684560746
353,-0.00350743881426752,0.00922530516982079,-0.0102401971817017,-0.00429996708407998,-0.00644925097003579,-0.00310322712175548
354,-0.00292125414125621,0.0093177417293191,-0.00955976359546185,-0.00549515103921294,-0.00621649948880076,-0.0035138763487339
355,-0.00308297644369304,0.00878083985298872,-0.00862760748714209,-0.00612308131530881,-0.00642233761027455,-0.00354061461985111
356,-0.00385587080381811,0.00754183111712337,-0.00785786472260952,-0.00663241604343057,-0.00685330666601658,-0.00352627085521817
357,-0.00418643234297633,0.00614372175186872,-0.00747484574094415,-0.00697748316451907,-0.00715709198266268,-0.00313533237203956
358,-0.00342916487716138,0.00499948393553495,-0.00731702847406268,-0.00665498059242964,-0.00677139405161142,-0.00209371279925108
359,-0.000901793246157467,0.00508304312825203,-0.00611541466787457,-0.00452875252813101,-0.00437743403017521,0.00013963074889034
360,0.00229510152712464,0.00628400268033147,-0.00448212353512645,-0.00167322182096541,-0.000980489770881832,0.00221176305785775
361,0.00425906898453832,0.00736205279827118,-0.00398379331454635,-7.97720931586809E-05,0.00134392094332725,0.00240867142565548
362,0.00458219600841403,0.00756204314529896,-0.00468400679528713,-3.80121819034684E-05,0.0019228154560551,0.000921481405384839
363,0.00454219849780202,0.00788649078458548,-0.00532076181843877,0.000185591547051445,0.00187596981413662,0.000236327148741111
364,0.00510265259072185,0.009696782566607,-0.00490819429978728,0.00208127708174288,0.00250809779390693,0.00259252008982003
365,0.00471519492566586,0.0114917643368244,-0.00488367024809122,0.00342789734713733,0.00234367651864886,0.00534404814243317
366,0.00235290848650038,0.0113050397485495,-0.00685779564082623,0.00183383258990943,-0.000157518938067369,0.00508548691868782
367,5.08020384586416E-05,0.0101992003619671,-0.00977497734129429,-0.000545641058124602,-0.00328464573249221,0.00334441964514554
368,9.52371410676278E-05,0.0100395949557424,-0.011793359182775,-0.000333355623297393,-0.00479917787015438,0.00302961166016757
369,0.00189712573774159,0.0102431578561664,-0.0129279447719455,0.00171710026916116,-0.00508927460759878,0.00346145988442004
370,0.00360273779369891,0.0093948682770133,-0.0136251095682383,0.00309389317408204,-0.0049740681424737,0.00324012711644173
371,0.00471316464245319,0.00767397414892912,-0.0131843900308013,0.00348926102742553,-0.00383709277957678,0.00314889964647591
372,0.00522861769422889,0.00579901086166501,-0.0118259415030479,0.00296276155859232,-0.00210197339765728,0.00321038207039237
373,0.00489857094362378,0.00395233370363712,-0.0107060885056853,0.00139095541089773,-0.00118195544928312,0.00266390573233366
374,0.00394728686660528,0.00222626351751387,-0.009809042327106,-0.000199126719962806,-0.0011507571907714,0.00184443208854645
375,0.00287058902904391,0.00101491052191705,-0.00863956566900015,-0.000793111976236105,-0.000899533566553146,0.0015119262970984
376,0.00114360230509192,0.000244310591369867,-0.00812939461320639,-0.00115778762847185,-0.000207346907700412,0.00117153371684253
377,-0.00153468525968492,-0.000381165649741888,-0.00901308469474316,-0.00210048211738467,0.000388875167118385,-9.85901133390144E-05
378,-0.00420122407376766,-0.000774708052631468,-0.0105980020016432,-0.00316135468892753,0.000771153718233109,-0.0018188088433817
379,-0.00542519800364971,-0.000901690626051277,-0.0118281245231628,-0.00363666098564863,0.00144061364699155,-0.00247831339947879
380,-0.00421245349571109,-0.00093846331583336,-0.0114028723910451,-0.00266656884923577,0.00302551314234734,-0.00122932449448854
381,-0.00159734592307359,-0.00108015805017203,-0.0092683844268322,-0.000307213864289224,0.0051387227140367,0.000942118233069777
382,0.000106633597170003,-0.00159056019037962,-0.00725462846457958,0.00169718638062477,0.00642540352419019,0.00230376818217337
383,-2.26941283472115E-05,-0.00271452986635268,-0.00667872978374362,0.00181015348061919,0.00587351014837623,0.0018918615533039
384,-0.000751880521420389,-0.00369948870502412,-0.00720134424045682,0.000512558151967824,0.00426321942359209,0.000179891343577765
385,-0.00129611033480614,-0.00365671096369624,-0.00855216104537249,-0.000982528435997665,0.00277689401991665,-0.00216284790076315
386,-0.00267609674483538,-0.00331807602196932,-0.0109943756833673,-0.00265864538960159,0.00122028961777687,-0.00545892352238297
387,-0.00488022714853287,-0.00358945690095425,-0.0136207565665245,-0.00481511792168021,-0.000239627785049379,-0.0090570580214262
388,-0.00577216129750013,-0.0034644182305783,-0.0144470548257232,-0.00629098108038306,-0.000100006349384785,-0.0104018934071064
389,-0.00416574766859412,-0.00180267810355872,-0.0126857198774815,-0.00582340778782964,0.00223102327436209,-0.00816897954791784
390,-0.00145713135134429,0.000532925711013377,-0.0097700459882617,-0.00409223046153784,0.00510786846280098,-0.00402886420488358
391,0.000768984376918525,0.00251930137164891,-0.00698761735111475,-0.00188639061525464,0.00726691959425807,0.000285106885712594
392,0.00256597413681448,0.00418845564126968,-0.00394338415935636,0.0011339959455654,0.0095040425658226,0.00414867512881756
393,0.00429332070052624,0.00553640024736524,-0.000814592407550663,0.00432631187140942,0.0119542954489589,0.0064640436321497
394,0.00547715881839395,0.00671155843883753,0.000987790175713599,0.00627343123778701,0.0132567044347525,0.00679492903873324
395,0.00517123844474554,0.00757909985259175,0.000390002562198788,0.00613795500248671,0.0124256489798427,0.00539088435471058
396,0.00368502712808549,0.00745534524321556,-0.00191169686149806,0.00451835943385959,0.0105644036084414,0.0028863416519016
397,0.00236324430443347,0.00638233823701739,-0.00394175108522177,0.00332076987251639,0.00943272560834885,0.000862643530126661
398,0.00193171168211848,0.00536539731547236,-0.00426000636070967,0.00413244450464845,0.00935407727956772,0.000542177935130894
399,0.00307433330453932,0.00530280452221632,-0.00209552142769098,0.00779798813164234,0.0111462902277708,0.00225615384988487
400,0.00469716265797615,0.00511851953342557,0.000990777160041034,0.0119604272767901,0.0138990320265293,0.00398756470531225
401,0.0045722690410912,0.0036418663803488,0.00204707635566592,0.012785829603672,0.0142474705353379,0.00398585945367813
402,0.00292905163951218,0.00208846828900278,0.000476738117868081,0.0104916291311383,0.0112750474363565,0.00398194463923573
403,0.0011424426920712,0.00160497426986694,-0.00236403592862189,0.00752597581595182,0.00664709694683552,0.00484318798407912
404,-0.000333058589603752,0.00212755613029003,-0.0049381754361093,0.00517101120203733,0.00197494821622968,0.00530746672302485
405,-0.00066439324291423,0.00383524782955647,-0.00575493182986975,0.00440649269148707,-0.00103304628282785,0.00550807174295187
406,0.00151354039553553,0.00703208707273006,-0.00379475927911699,0.00624830694869161,-0.000633440911769867,0.00690624630078673
407,0.0057773063890636,0.0111937234178185,0.0002088589099003,0.0102133387699723,0.0026244311593473,0.00995204690843821
408,0.0090046152472496,0.0142581406980753,0.00303804152645171,0.0134148420765996,0.00540681183338165,0.0126029243692756
409,0.00838397443294525,0.0140936821699142,0.0018608778482303,0.0128052961081266,0.00514942593872547,0.0116616236045957
410,0.00488087115809321,0.0111330188810825,-0.00208412436768413,0.00894695613533258,0.00312317768111825,0.00670684082433581
411,0.000549027405213565,0.00682636443525553,-0.00628246041014791,0.00401198724284768,0.00132604944519699,-0.00034459526068531
412,-0.00341646978631616,0.00214189337566495,-0.00933196302503347,-0.000587124668527395,0.000185587981832214,-0.00751422857865691
413,-0.00548978243023157,-0.00155115255620331,-0.0101264482364058,-0.00321154366247356,1.53752862388501E-05,-0.0128345489501953
414,-0.00427346676588058,-0.00264511117711663,-0.00789184123277664,-0.00245923572219908,0.00189307553227991,-0.0144299296662211
415,-0.000928253342863172,-0.00143077084794641,-0.00358825642615557,0.000518085609655827,0.00588393723592162,-0.0129017354920506
416,0.00185688852798194,0.000216838059714064,0.000525740557350218,0.00321321794763207,0.010467397980392,-0.0108242221176624
417,0.00432270439341664,0.00232656160369515,0.00404778588563204,0.00610575452446938,0.0149140758439898,-0.00809256266802549
418,0.00676426151767373,0.00528916902840137,0.00660286052152514,0.00966056156903505,0.0175639875233173,-0.00459498493000865
419,0.0066875908523798,0.00718473363667727,0.00644794665277004,0.0105576561763883,0.0154755841940641,-0.00335825118236244
420,0.00401866296306252,0.00698972167447209,0.00421969266608357,0.00761241279542446,0.00960130430757999,-0.00449868850409985
421,0.00213529239408672,0.00624128011986613,0.00226700818166137,0.00442987075075507,0.00436835456639528,-0.00439212843775749
422,0.00181613233871758,0.0053774700500071,0.000534003891516477,0.00232927408069372,0.000754781358409673,-0.00329205207526684
423,0.000902494881302118,0.00381330237723887,-0.00176500238012522,-8.50089490995742E-05,-0.00309167662635446,-0.00361188384704292
424,-0.00199118093587458,0.00191831006668508,-0.00420876406133175,-0.00293166725896299,-0.00709521444514394,-0.00522371334955096
425,-0.00619599502533674,0.000170569022884592,-0.00604138383641839,-0.00553374877199531,-0.0100012319162488,-0.0071736010722816
426,-0.00848009064793587,-0.00035281473537907,-0.00590584147721529,-0.00621519004926085,-0.0109478104859591,-0.00790950190275908
427,-0.00599398603662848,0.00141606805846095,-0.00372368423268199,-0.00378448283299804,-0.00999915786087513,-0.00636247778311372
428,-2.43544582190225E-05,0.00445845583453774,-0.00155758741311729,0.000452241132734343,-0.00818562507629395,-0.00372816366143525
429,0.0064819878898561,0.0070709977298975,-0.000396116520278156,0.00513378717005253,-0.00580983702093363,-0.0013685206649825
430,0.0107797048985958,0.00814748834818602,-0.000686971878167242,0.00869332440197468,-0.00386570720002055,-0.000474567234050483
431,0.0110338758677244,0.00723630888387561,-0.00318366475403309,0.00891662389039993,-0.00410244986414909,-0.00194208254106343
432,0.00798874255269766,0.00479422183707356,-0.00735380314290524,0.00543480832129717,-0.00639295997098088,-0.00520661287009716
433,0.00245381612330675,0.000921410683076829,-0.0127510186284781,-0.000767324003390968,-0.0106922704726458,-0.00990251637995243
434,-0.00428210338577628,-0.00365231186151505,-0.0184713583439589,-0.00726133910939097,-0.0162815228104591,-0.0150759071111679
435,-0.00871923100203276,-0.00680591212585568,-0.0220815539360046,-0.0107709970325232,-0.0198881328105927,-0.0186208784580231
436,-0.00775849912315607,-0.00693159550428391,-0.0206828620284796,-0.00961933471262455,-0.0178118217736483,-0.0187211874872446
437,-0.00324838352389634,-0.00502768531441689,-0.0154010429978371,-0.00620472198352218,-0.0116516230627894,-0.0162645317614079
438,5.95273595536128E-05,-0.00354502210393548,-0.0110717080533504,-0.00423882296308875,-0.00711895013228059,-0.0143280364573002
439,0.00228736503049731,-0.00242629880085588,-0.0078688794746995,-0.00244202325120568,-0.00432246085256338,-0.0126507235690951
440,0.00523718586191535,-0.00105597882065922,-0.00396612333133817,0.00103868148289621,-0.00109772616997361,-0.00988210365176201
441,0.00782751012593508,-0.000443618278950453,-0.000619072816334665,0.0044838241301477,0.00144986913073808,-0.00737780705094337
442,0.0095155593007803,-0.000464676675619558,0.00144406734034419,0.00683005480095744,0.00265337899327278,-0.00585301173850894
443,0.00978980027139187,-0.000669205852318555,0.00191805243957788,0.00754901533946395,0.00194169208407402,-0.00522649055346847
444,0.00849183648824692,-0.00101926305796951,0.00106252077966928,0.00687896274030209,-0.000550302444025874,-0.00522338086739182
445,0.00628487672656775,-0.00125283165834844,-0.000300293002510443,0.00605901144444942,-0.00386238330975175,-0.0055345855653286
446,0.00336749432608485,-0.00154745497275144,-0.00236751418560743,0.00530088320374489,-0.00784272979944944,-0.00670067220926285
447,0.00173907785210758,-0.00117568112909794,-0.00377391744405031,0.00558324484154582,-0.0104696322232485,-0.00798616092652082
448,0.00351210916414857,0.00109490647446364,-0.00256501184776425,0.0081833740696311,-0.0094345910474658,-0.00757643859833479
449,0.00705564813688397,0.00417386833578348,2.13230305234902E-05,0.011461834423244,-0.00633227173238993,-0.00594670046120882
450,0.00837770104408264,0.00496156653389335,0.000381002086214721,0.011356171220541,-0.00543232169002295,-0.00637561595067382
451,0.00532135413959622,0.00220290292054415,-0.00333990878425539,0.0064730909653008,-0.00909704808145761,-0.0107091683894396
452,-0.00032898344215937,-0.00223291129805148,-0.00878261774778366,2.13807788895792E-06,-0.0155174788087606,-0.017078697681427
453,-0.00383791327476501,-0.00518435472622514,-0.0109120225533843,-0.00312885059975088,-0.0194407384842634,-0.02083426900208
454,-0.00272096158005297,-0.00508506828919053,-0.00805250462144613,-0.000765180855523795,-0.0176177117973566,-0.0189035590738058
455,9.35309144551866E-05,-0.00381139316596091,-0.00423686299473047,0.00379064655862749,-0.013409617356956,-0.0143932066857815
456,0.00148524704854935,-0.00349430413916707,-0.00284340791404247,0.00662469724193215,-0.0111560709774494,-0.0115508120507002
457,0.0026509182062,-0.00354995601810515,-0.00253100809641182,0.00802855938673019,-0.0100162718445063,-0.00985970441251993
458,0.00596224470064044,-0.00270871841348708,-0.000602051033638418,0.00999933015555143,-0.00703060766682029,-0.00706203514710069
459,0.0104385409504175,-0.00120582769159228,0.00293287332169712,0.0126665150746703,-0.00257401587441564,-0.00300744920969009
460,0.0136754671111703,0.000159285889822058,0.00629608100280166,0.0151005713269114,0.00102528627030551,0.00113788200542331
461,0.0146540757268667,0.000641793420072645,0.00770203117281199,0.0161193795502186,0.00241353828459978,0.0036161772441119
462,0.0127135142683983,-0.000922200153581798,0.00544471573084593,0.0141305597499013,0.000717646558769047,0.00255716242827475
463,0.00835790298879147,-0.00452825799584389,7.00260261510266E-06,0.00947936065495014,-0.00326160853728652,-0.00166830222588032
464,0.00347338896244764,-0.00834749639034271,-0.00611227983608842,0.00440010847523808,-0.00718101533129811,-0.00708944862708449
465,-0.000334778073010966,-0.0106082269921899,-0.0108779519796371,0.000650804198812693,-0.00947609450668097,-0.0121211875230074
466,-0.0022463679779321,-0.0108260810375214,-0.0131755387410522,-0.000640917220152915,-0.0100187640637159,-0.0154445944353938
467,-0.00226998049765825,-0.00955893844366074,-0.0127752711996436,0.00095373997464776,-0.00937351398169994,-0.0165207237005234
468,-0.00076979654841125,-0.0071895532310009,-0.0101596945896745,0.0044522644020617,-0.00752942869439721,-0.0153852105140686
469,0.00055228709243238,-0.00456367013975978,-0.00778211047872901,0.00677477475255728,-0.00561885116621852,-0.0137537103146315
470,-0.000155086352606304,-0.00339807709679008,-0.00830315425992012,0.00580769265070558,-0.00545956566929817,-0.014670517295599
471,-0.00132021401077509,-0.00383143499493599,-0.00975885335355997,0.00364659423939884,-0.005364288110286,-0.0178453773260117
472,-0.000651638256385922,-0.0041925311088562,-0.00909202080219984,0.00279155233874917,-0.00319867650978267,-0.0201713740825653
473,0.000654433330055326,-0.00392595585435629,-0.00776842283084989,0.00233384012244642,-0.000921167433261871,-0.0208682641386986
474,-0.000135825481265783,-0.00476880604401231,-0.00921232532709837,-0.000809453777037561,-0.00159601669292897,-0.0227209459990263
475,-0.00346483639441431,-0.00774653814733028,-0.0142229227349162,-0.00766399456188083,-0.00540145114064217,-0.0274492930620909
476,-0.00680154049769044,-0.010822675190866,-0.0197534579783678,-0.0147596383467317,-0.00932297110557556,-0.0323680676519871
477,-0.00676183914765716,-0.0110184885561466,-0.020845789462328,-0.0167250838130713,-0.00916959345340729,-0.032918144017458
478,-0.00269890809431672,-0.00772153399884701,-0.0155671397224069,-0.0116148134693503,-0.00376280653290451,-0.0275123063474894
479,0.00203177193179727,-0.00363392964936793,-0.00795843545347452,-0.00366573664359748,0.00270307506434619,-0.0201079826802015
480,0.00543812522664666,-0.000955571478698403,-0.00230248039588332,0.00268788705579937,0.00648245541378856,-0.0148203698918223
481,0.00769139779731631,0.000423869903897867,8.00217894720845E-05,0.00618776492774487,0.00678679626435041,-0.0125633049756289
482,0.0076507655903697,0.000467574369395152,-0.00132765015587211,0.00601233122870326,0.00346528622321785,-0.0138390371575952
483,0.00576111860573292,-0.000316385296173394,-0.00478761084377766,0.00355051667429507,-0.00106115697417408,-0.0172641221433878
484,0.00473420275375247,-0.000457520072814077,-0.00707782525569201,0.0024581050965935,-0.00328931258991361,-0.0196234285831451
485,0.00607511680573225,0.000595449993852526,-0.00638100225478411,0.00402837246656418,-0.00206663296557963,-0.0200278125703335
486,0.00892067886888981,0.00208517792634666,-0.00333930761553347,0.00587988318875432,0.00108894531149417,-0.0197511538863182
487,0.0119575578719378,0.00342768942937255,1.01649329735665E-05,0.00639443146064878,0.0039595952257514,-0.0186324622482061
488,0.0145759461447597,0.00474552949890494,0.00239761406555772,0.00665100710466504,0.00570082385092974,-0.0158272571861744
489,0.0160625129938126,0.00602438487112522,0.00344411469995975,0.0074100261554122,0.00618618680164218,-0.012197682633996
490,0.0158076547086239,0.00682873371988535,0.00294062215834856,0.00768264476209879,0.00536693586036563,-0.00977958831936121
491,0.013973779976368,0.00660613272339106,0.00102196517400444,0.00641207583248615,0.00365587277337909,-0.0100166136398911
492,0.0126171698793769,0.00605782493948936,-0.000572143588215113,0.00506419641897082,0.00314340391196311,-0.0112626105546951
493,0.0131237851455808,0.00603442266583443,-0.000743237033020705,0.00506127160042524,0.00492571387439966,-0.0114249847829342
494,0.0130414981395006,0.00528556434437633,-0.00186464935541153,0.0043383720330894,0.00603144243359566,-0.0119004771113396
495,0.00979879312217236,0.00226963963359594,-0.00617905938997865,0.000718852446880192,0.0036938248667866,-0.0147113427519798
496,0.00389012694358826,-0.00262017478235066,-0.0126283932477236,-0.00494839437305927,-0.00147056637797505,-0.0194234773516655
497,-0.00242800381965935,-0.00765807135030627,-0.0185011439025402,-0.0105249229818583,-0.00682277651503682,-0.0243903901427984
498,-0.00666118273511529,-0.0111025059595704,-0.0215930566191673,-0.0141408424824476,-0.00959101412445307,-0.0279074255377054
499,-0.00682033505290747,-0.011789008975029,-0.0207873284816742,-0.0142501965165138,-0.00849009957164526,-0.0282091666013002
500,-0.00299735949374735,-0.0098224114626646,-0.016836466267705,-0.0110764093697071,-0.0046347388997674,-0.0251707341521978
501,0.00150046171620488,-0.00696337502449751,-0.0128462957218289,-0.00732663692906499,-0.00137082068249583,-0.0212687831372023
502,0.00332399783656001,-0.00545465992763639,-0.0115894237533212,-0.00596323143690825,-0.00154112209565938,-0.0196770317852497
503,0.00334337865933776,-0.00543353473767638,-0.0116041367873549,-0.00671651773154736,-0.00365694100037217,-0.0204839184880257
504,0.00389248109422624,-0.00525371357798576,-0.0101579027250409,-0.00722118280827999,-0.00450280494987965,-0.0209745336323977
505,0.00504326354712248,-0.00425021443516016,-0.00790723133832216,-0.00631477078422904,-0.00381033984012902,-0.0200416967272758
506,0.00665662018582225,-0.0028710775077343,-0.00609178841114044,-0.00385905988514423,-0.00244427798315883,-0.0185143165290356
507,0.00858006905764341,-0.00204434315674007,-0.00513655599206686,-0.000952446716837585,-0.000871919852215797,-0.0172843132168055
508,0.0101734213531017,-0.00223522842861712,-0.00537670496851206,0.000852057593874633,0.000889011425897479,-0.0164610501378775
509,0.0106344567611814,-0.00327608408406377,-0.00662292400375009,0.000457133690360934,0.00277330749668181,-0.0164181645959616
510,0.00915889907628298,-0.0053274342790246,-0.00892239809036255,-0.00268911989405751,0.0032044870313257,-0.0182762239128351
511,0.00713126454502344,-0.00787387322634459,-0.0116679957136512,-0.00682480959221721,0.00134258123580366,-0.0213959608227015
512,0.00630656909197569,-0.00975266005843878,-0.0137629909440875,-0.00953811779618263,-0.00169170985464007,-0.0242932122200727
513,0.00639556674286723,-0.010659952647984,-0.0147420773282647,-0.0101659325882792,-0.00446804333478212,-0.0267146285623312
514,0.00715403817594051,-0.0106510445475578,-0.014098203741014,-0.00864890683442354,-0.00565640022978187,-0.0279524251818657
515,0.00857752095907927,-0.00980432610958815,-0.0119804125279188,-0.00577204674482346,-0.00485073449090123,-0.0271104760468006
516,0.00971626210957766,-0.00905452482402325,-0.0098975533619523,-0.0036259638145566,-0.00317930965684354,-0.0252082124352455
517,0.0108986478298903,-0.00860441755503416,-0.00776260299608111,-0.00246207462623715,-0.00062485464150086,-0.0227924324572086
518,0.0140031296759844,-0.00707976333796978,-0.00323845073580742,4.99330963066313E-05,0.00446079066023231,-0.0181261599063873
519,0.0178239569067955,-0.00447974074631929,0.00266467570327222,0.00408283527940512,0.0104115186259151,-0.011727586388588
520,0.0186269227415323,-0.00276922760531306,0.00546520203351974,0.00664905738085508,0.0129699818789959,-0.00779638672247529
521,0.0160042084753513,-0.00299493665806949,0.00395457912236452,0.00640931772068143,0.0115764029324055,-0.00853212364017963
522,0.0126995276659727,-0.00437833881005645,0.000653476163279265,0.00478695752099156,0.00865523051470518,-0.0119158439338207
523,0.0106287924572825,-0.00562109518796206,-0.00217297812923789,0.00332625070586801,0.00574145093560219,-0.0152268847450614
524,0.00903622061014175,-0.0067736110650003,-0.00443503307178617,0.00164480751845986,0.00247402349486947,-0.0182016864418983
525,0.00547351827844977,-0.00906786974519491,-0.00792382378131151,-0.0026411390863359,-0.00255643646232784,-0.0222398228943348
526,0.000947699474636465,-0.0114273391664028,-0.0116631183773279,-0.00805792864412069,-0.007328434381634,-0.025113807991147
527,-0.000958226446527988,-0.0114120496436954,-0.0121841039508581,-0.00967845693230629,-0.00773668754845858,-0.0228731296956539
528,-0.000650416652206331,-0.00951973535120487,-0.0100400224328041,-0.00769286509603262,-0.00467697344720364,-0.0175985507667065
529,-0.000736621208488941,-0.0079285679385066,-0.00820641964673996,-0.00562333641573787,-0.00184704188723117,-0.0141142923384905
530,-0.00131090963259339,-0.0072581167332828,-0.00716889183968306,-0.00409673573449254,-2.52244240073196E-06,-0.0129608809947968
531,-0.00127677049022168,-0.00671720504760742,-0.00622660433873534,-0.00246210279874504,0.00171435985248536,-0.0123436655849218
532,-0.0008645283523947,-0.00591491861268878,-0.00538142956793308,-0.00116743997205049,0.00316997920162976,-0.0117927873507142
533,-0.000784813251812011,-0.00556110450997949,-0.00479135289788246,-0.000372890324797481,0.00402167020365596,-0.011408656835556
534,-0.000707638799212873,-0.00622360222041607,-0.00435394328087568,0.000533909711521119,0.0047937142662704,-0.0109314862638712
535,-5.88821349083446E-05,-0.00729320663958788,-0.00355970626696944,0.00178792118094862,0.00619513634592295,-0.010283931158483
536,0.000300293177133426,-0.00848518311977386,-0.00273288157768548,0.0021759239025414,0.00744633655995131,-0.0105924140661955
537,-0.000229531884542666,-0.0102034425362945,-0.00230852421373129,0.000970888417214155,0.00805747509002686,-0.0126622123643756
538,-0.000454770604846999,-0.0118081150576472,-0.00108945649117231,-2.62960038526217E-05,0.00942820776253939,-0.0147237936034799
539,-7.43265918572433E-05,-0.0124890767037869,0.000849441566970199,0.000517842709086835,0.0114908283576369,-0.0152824204415083
540,-0.000354056275682524,-0.0126623203977942,0.00168343144468963,0.00142839807085693,0.0122773172333837,-0.0156753901392221
541,-0.00152394699398428,-0.0126867676153779,0.00121554767247289,0.00141761475242674,0.0111761530861259,-0.0164928492158651
542,-0.00190789508633316,-0.011655799113214,0.000702916644513607,0.00111359998118132,0.00949172023683786,-0.0151328295469284
543,-0.000382585829356685,-0.00884217023849487,0.00104029395151883,0.00215027201920748,0.00850522145628929,-0.0100412908941507
544,0.00170317210722715,-0.00535740051418543,0.00204114965163171,0.00474061677232385,0.00827676709741354,-0.00321722123771906
545,0.00261136330664158,-0.00309529528021812,0.00253200228326023,0.007390471175313,0.00786590948700905,0.00263587455265224
546,0.00248921732418239,-0.00259680324234068,0.00200953125022352,0.00922621507197618,0.00671558547765017,0.00640622479841113
547,0.00218049390241504,-0.00306169549003243,0.00094569893553853,0.00992338731884956,0.00521466042846441,0.00782194454222918
548,0.0025991655420512,-0.00335311493836343,0.000265600305283442,0.00950142834335566,0.00418814411386848,0.00740548735484481
549,0.00447818636894226,-0.00289480853825808,0.00082421547267586,0.00900705065578222,0.00414551421999931,0.00659848842769861
550,0.00660514133051038,-0.00251468364149332,0.00177146017085761,0.00842517893761396,0.00413635838776827,0.00562079064548016
551,0.00668724626302719,-0.0032370004337281,0.00101007416378707,0.00616959808394313,0.00254115578718483,0.00327839935198426
552,0.00390952872112393,-0.00497820693999529,-0.00235078949481249,0.00185247277840972,-0.00101784523576498,-0.00101574428845197
553,-0.000132998728076927,-0.00690351705998182,-0.00665369024500251,-0.00264070625416934,-0.00479269400238991,-0.00608985219150782
554,-0.00344343250617385,-0.00835840683430433,-0.00959774944931269,-0.00560219213366508,-0.00668470375239849,-0.0104150446131825
555,-0.00590699026361108,-0.0096737127751112,-0.010927677154541,-0.00737497070804238,-0.00705005368217826,-0.0139217395335436
556,-0.0074579524807632,-0.0110869156196713,-0.0110804885625839,-0.00861528515815735,-0.00706988852471113,-0.016628373414278
557,-0.00675301998853683,-0.0115321343764663,-0.00954165868461132,-0.00850715767592192,-0.00603550719097257,-0.0171836987137794
558,-0.00412831641733646,-0.0108014373108745,-0.00705995038151741,-0.00685685174539685,-0.00370456324890256,-0.0153378443792462
559,-0.00190496607683599,-0.0106056574732065,-0.00603607064113021,-0.00533885462209582,-0.00194120372179896,-0.0135604916140437
560,-0.000769902660977095,-0.0117970639839768,-0.007022506557405,-0.00493000261485577,-0.00146689207758754,-0.0141091272234917
561,0.000579061103053391,-0.0131883472204208,-0.0077495388686657,-0.00501184305176139,-0.000622601306531578,-0.0160404089838266
562,0.00248468737117946,-0.0135836517438293,-0.00696416199207306,-0.00482105975970626,0.00126867659855634,-0.0163673274219036
563,0.00318501750007272,-0.0135401859879494,-0.00653245905414224,-0.00453756889328361,0.00186259159818292,-0.0145555734634399
564,0.0017649510409683,-0.0139514217153192,-0.00746621238067746,-0.00442931521683931,-0.000242927213548683,-0.0126024708151817
565,0.000127683146274649,-0.014283524826169,-0.00785235781222582,-0.00377855217084289,-0.00247213244438171,-0.0110195269808173
566,-2.6047902792925E-05,-0.0140045406296849,-0.00687083974480629,-0.00234521343372762,-0.00265917973592877,-0.00927274860441685
567,0.00139364239294082,-0.0133380284532905,-0.00528693431988359,-0.000335766177158803,-0.000746860227081925,-0.00716007361188531
568,0.00288984598591924,-0.0130126960575581,-0.00361615954898298,0.0014585496392101,0.00294739357195795,-0.00552300503477454
569,0.00329455407336354,-0.013387493789196,-0.00178751850035042,0.00268694129772484,0.00762202264741063,-0.0050598094239831
570,0.00467608170583844,-0.013500883243978,0.00129032437689602,0.00549354217946529,0.0128665752708912,-0.0042080469429493
571,0.00801984686404467,-0.0132364882156253,0.00509124714881182,0.00987851433455944,0.0179955810308456,-0.00301386718638241
572,0.00963210221379995,-0.0143728228285909,0.00588258123025298,0.0108971828594804,0.0201550833880901,-0.00504112429916859
573,0.00693982047960162,-0.0175666008144617,0.00200925534591079,0.00614907406270504,0.0178458224982023,-0.0114506697282195
574,0.00251153623685241,-0.0209622532129288,-0.00288146687671542,9.41806647460908E-05,0.0143065545707941,-0.018579276278615
575,-0.00190578936599195,-0.0236952491104603,-0.00660175690427423,-0.0046023209579289,0.0113338837400079,-0.0242456216365099
576,-0.00577489379793406,-0.0255133900791407,-0.00933239422738552,-0.0082968370988965,0.00880017410963774,-0.0275202244520187
577,-0.00681246723979712,-0.0248743947595358,-0.00975064933300018,-0.00916073191910982,0.00873086415231228,-0.0263876635581255
578,-0.00507735460996628,-0.0222964901477098,-0.00829880218952894,-0.00734180957078934,0.0109644560143352,-0.0228506457060575
579,-0.00223383284173906,-0.0197178386151791,-0.00660150963813066,-0.00469029508531094,0.0135392220690846,-0.0200527012348175
580,0.000877560465596616,-0.0174533631652594,-0.00485369516536593,-0.00141077279113233,0.0157402008771896,-0.0173189546912909
581,0.00262268306687474,-0.0156504716724157,-0.00412641279399395,0.00120082392822951,0.0158125590533018,-0.0144960870966315
582,0.00164268387015909,-0.0151672810316086,-0.00601024972274899,0.000860006548464298,0.0119790220633149,-0.0138790775090456
583,-0.000113156478619203,-0.0157720744609833,-0.00883610267192125,-0.00134179973974824,0.00697540398687124,-0.0154681783169508
584,0.000428483530413359,-0.0160543564707041,-0.00918140076100826,-0.00213236943818629,0.00570971285924315,-0.0163803081959486
585,0.00275414809584618,-0.0150584522634745,-0.00716927740722895,-0.00126983632799238,0.00806575268507004,-0.015463775023818
586,0.00445673242211342,-0.0127784470096231,-0.00528639694675803,-0.000138432718813419,0.0101349810138345,-0.0133527191355824
587,0.00560172880068421,-0.00944540463387966,-0.00355497631244361,0.0022114971652627,0.0110371643677354,-0.0093973595649004
588,0.00726643204689026,-0.00538401771336794,-0.000909361755475402,0.00654956325888634,0.0123541336506605,-0.00331832165829837
589,0.00889796949923038,-0.001187389716506,0.00200515356846154,0.0115003669634461,0.0141126457601786,0.00275195646099746
590,0.00887362100183964,0.0018055010586977,0.00365083501674235,0.0143853221088648,0.0144923618063331,0.00530952913686633
591,0.00569915818050504,0.00169741257559508,0.00270389695651829,0.0122443055734038,0.0116712441667914,0.00212201778776944
592,0.000178626796696335,-0.00153633928857744,-0.00032255839323625,0.00609403569251299,0.00667193671688437,-0.00444988207891583
593,-0.00447382405400276,-0.00520994001999497,-0.0027409007307142,0.000927985180169344,0.00315505685284734,-0.00963199138641357
594,-0.00566308712586761,-0.00658174371346831,-0.00241924007423222,5.11203288624529E-05,0.00363534176722169,-0.0108899222686887
595,-0.00364818726666272,-0.00552922300994396,9.83190257102251E-05,0.00259710662066936,0.00721914228051901,-0.00888985022902489
596,-0.000842993555124849,-0.0037346847821027,0.00251784548163414,0.00530361570417881,0.010898252017796,-0.00612551532685757
597,0.000658457982353866,-0.00233090622350574,0.00300761428661644,0.00571813946589828,0.0123000182211399,-0.00458514131605625
598,0.000326281849993393,-0.00163653201889247,0.00155479344539344,0.0039657773450017,0.011137961409986,-0.00479222135618329
599,-0.00142274238169193,-0.00183168856892735,-0.000763204996474087,0.00135818449780345,0.00843835342675447,-0.00630982266739011
600,-0.00366156012751162,-0.00285496143624187,-0.00316854775883257,-0.00108817347791046,0.00518056517466903,-0.00824141502380371
601,-0.00577889289706945,-0.00462366826832294,-0.00565461348742247,-0.00340869394131005,0.00118216336704791,-0.0105545492842793
602,-0.0078649427741766,-0.00684534711763263,-0.00822915509343147,-0.00596703588962555,-0.0039096362888813,-0.0136003410443664
603,-0.00933573022484779,-0.00851530395448208,-0.00977206137031317,-0.00781135819852352,-0.00828939396888018,-0.0166372563689947
604,-0.00908105820417404,-0.00849191006273031,-0.00892694108188152,-0.00774421077221632,-0.00954502634704113,-0.0185518190264702
605,-0.00764124514535069,-0.00651027867570519,-0.00608585868030787,-0.00609176885336638,-0.00795769318938255,-0.0187406800687313
606,-0.00735704833641648,-0.00380869931541383,-0.00371777289547026,-0.00488542858511209,-0.00651563424617052,-0.0179418846964836
607,-0.00857712514698505,-0.00170993420761079,-0.00313876336440444,-0.0051495092920959,-0.00658232718706131,-0.0172345787286758
608,-0.00967266503721476,-0.000846902024932206,-0.00348527613095939,-0.00635970570147038,-0.00679654395207763,-0.0173153020441532
609,-0.0109123587608337,-0.00176066579297185,-0.00501673901453614,-0.00901927519589663,-0.00714074820280075,-0.0195450372993946
610,-0.0116508258506656,-0.00331484945490956,-0.00702038826420903,-0.0116271870210767,-0.00730500649660826,-0.0229546688497067
611,-0.00914878398180008,-0.00338890869170427,-0.0063493917696178,-0.0110346116125584,-0.00523438490927219,-0.024462878704071
612,-0.00372592639178038,-0.00163286435417831,-0.00241038645617664,-0.00786132644861937,-0.000987119157798588,-0.023140411823988
613,0.00190403696615249,0.000970808905549347,0.00245623663067818,-0.00462272809818387,0.00355425919406116,-0.0195806305855513
614,0.0055474853143096,0.00273123383522034,0.00569032691419125,-0.00342881004326046,0.00635200273245573,-0.0160217620432377
615,0.00704280892387033,0.00292859994806349,0.00705751497298479,-0.0041954698972404,0.00728717120364308,-0.0144981984049082
616,0.00842736661434174,0.00301889283582568,0.00892905332148075,-0.00389895890839398,0.00876979995518923,-0.0136193037033081
617,0.0098169632256031,0.00371333374641836,0.0111305806785822,-0.00204554409720004,0.0106688188388944,-0.0124543448910117
618,0.0088716559112072,0.003983442671597,0.0104938568547368,-0.00173503486439586,0.00980687513947487,-0.0127257136628032
619,0.0050881109200418,0.00338018522597849,0.0063885347917676,-0.00419070711359382,0.00540386606007814,-0.0151909906417131
620,0.000262565677985549,0.00239081447944045,0.00119042734149843,-0.00769859878346324,-3.78634067601524E-05,-0.0186724774539471
621,-0.00407662428915501,0.00104871345683932,-0.00329736061394215,-0.0111265564337373,-0.00430355360731483,-0.0223401729017496
622,-0.0069741471670568,-0.000666789070237428,-0.00618088664487004,-0.0141029441729188,-0.00655987439677119,-0.0256889518350363
623,-0.00865857861936092,-0.00255984184332192,-0.00776154128834605,-0.0166333857923746,-0.00763386581093073,-0.0285568442195654
624,-0.00938373431563377,-0.00415546260774136,-0.00865641236305237,-0.0182639621198177,-0.00846684444695711,-0.0307016242295504
625,-0.00841380935162306,-0.0046414970420301,-0.0085975294932723,-0.0181173700839281,-0.00840699393302202,-0.0313798785209656
626,-0.00670501124113798,-0.00423171883448958,-0.00840822048485279,-0.0174464900046587,-0.00780056929215789,-0.0314888767898083
627,-0.00504705077037215,-0.00334475818090141,-0.00816737674176693,-0.0164389498531818,-0.00659380573779345,-0.0319522991776466
628,-0.00317250075750053,-0.00241063814610243,-0.00667410157620907,-0.0141305373981595,-0.00328616588376462,-0.0324436947703362
629,-0.00164385652169585,-0.00226963916793466,-0.00395787041634321,-0.0116796363145113,0.0018390214536339,-0.0322434455156326
630,0.000426820479333401,-0.00239638146013021,-0.000546698342077434,-0.0096551924943924,0.00707188015803695,-0.0299557633697987
631,0.00435021240264177,-0.00173800124321133,0.00260301306843758,-0.00773007096722722,0.0104564055800438,-0.0256781652569771
632,0.00773252034559846,-0.0010740568395704,0.00332969683222473,-0.00716347806155682,0.00981108006089926,-0.0222788918763399
633,0.00720880087465048,-0.00197749002836645,0.000529492157511413,-0.0090876305475831,0.00494460528716445,-0.0222012922167778
634,0.00399634800851345,-0.00376334856264293,-0.00336675904691219,-0.0115178050473332,-0.0004054271557834,-0.0240800399333239
635,0.00185117207001895,-0.00420002406463027,-0.00483529828488827,-0.0114947985857725,-0.00214778981171548,-0.024515500292182
636,0.00175691081676632,-0.00276041682809591,-0.00329796597361565,-0.0090154018253088,-0.000498742039781064,-0.0225430689752102
637,0.000702486897353083,-0.001917295739986,-0.00240734242834151,-0.00806588679552078,6.33532399660908E-05,-0.0218616966158152
638,-0.00334990536794066,-0.00388686126098037,-0.00490029947832227,-0.011427903547883,-0.00333975697867572,-0.0257066860795021
639,-0.00740697328001261,-0.00696080410853028,-0.00802297703921795,-0.0160387884825468,-0.00779558997601271,-0.0313939526677132
640,-0.00819831620901823,-0.00808551907539368,-0.00864348001778126,-0.0178767740726471,-0.00958103407174349,-0.0346106961369514
641,-0.0053844335488975,-0.00584909832105041,-0.0062252301722765,-0.0152833769097924,-0.00767075596377254,-0.0333070605993271
642,-0.000421584816649556,-0.00141391775105149,-0.00145797338336706,-0.00898329075425863,-0.00294861081056297,-0.0284098517149687
643,0.0035856869071722,0.00175775086972862,0.00309781334362924,-0.00297860195860267,0.00163619976956397,-0.0239214431494474
644,0.00478092348203063,0.00180579803418368,0.00525230495259166,-0.000668267719447613,0.00383281358517706,-0.0220570992678404
645,0.0043761134147644,0.000128036757814698,0.00522820185869932,-0.00127951556351036,0.00436493800953031,-0.0210521761327982
646,0.00344391656108201,-0.00177392200566828,0.00333990715444088,-0.00300373160280287,0.00426165759563446,-0.0198657084256411
647,0.00166159332729876,-0.00362736056558788,-0.000661799567751586,-0.0054383696988225,0.00340029085054994,-0.0197460427880287
648,-0.000421617674874142,-0.00485891895368695,-0.00540229119360447,-0.00760651426389813,0.00249180546961725,-0.0210170391947031
649,-0.00231810426339507,-0.00562873901799321,-0.00911615323275328,-0.00926562771201134,0.00237502320669591,-0.0231589190661907
650,-0.00378318410366774,-0.00645055063068867,-0.010671871714294,-0.010226434096694,0.00320064881816506,-0.0242938287556171
651,-0.00370892765931785,-0.00640663038939238,-0.00921858195215464,-0.00855435710400343,0.0049629732966423,-0.0218579191714525
652,-0.00394856417551637,-0.00638021575286984,-0.00766274379566312,-0.00630427710711956,0.00497037591412663,-0.0187957864254713
653,-0.00689214188605547,-0.00823095720261335,-0.00948959775269032,-0.00702280830591917,0.000974756898358464,-0.0194550342857838
654,-0.0105292275547981,-0.0106593165546656,-0.0130255278199911,-0.00893246848136187,-0.00431782938539982,-0.0222117844969034
655,-0.0119595360010862,-0.0112434765323997,-0.0146623617038131,-0.00851282011717558,-0.00704134488478303,-0.0232502035796642
656,-0.010552872903645,-0.00968025904148817,-0.0128895286470652,-0.00497936923056841,-0.00606154510751367,-0.0213890671730042
657,-0.00714252470061183,-0.0070262080989778,-0.00823605339974165,0.000436530390288681,-0.0021600816398859,-0.0177966263145208
658,-0.00287742703221738,-0.00419800309464335,-0.00203359429724514,0.00674197264015675,0.0038691870868206,-0.0134678184986115
659,0.000453101703897119,-0.0024707184638828,0.00347984093241394,0.0126162227243185,0.00994483195245266,-0.00919444300234318
660,0.00127128302119672,-0.0027339996304363,0.00611691921949387,0.015873447060585,0.0132611719891429,-0.00674928072839975
661,-0.000426420941948891,-0.00475051579996943,0.00539300031960011,0.0152788292616606,0.0132624134421349,-0.00759298773482442
662,-0.00390246859751642,-0.008126818574965,0.00221366272307932,0.0117477485910058,0.0108130006119609,-0.0110819479450583
663,-0.00833216309547424,-0.0125395078212023,-0.00225357944145799,0.0073723173700273,0.00669486587867141,-0.0154081014916301
664,-0.0125986663624644,-0.0176406968384981,-0.00694045564159751,0.00348701071925461,0.00237514008767903,-0.0197755061089993
665,-0.0144743472337723,-0.0221834126859903,-0.00962622836232185,0.00167804793454707,0.000965392566286027,-0.0229073669761419
666,-0.0121180582791567,-0.0245786570012569,-0.00840450916439295,0.00363102043047547,0.00428743101656437,-0.0226471740752459
667,-0.00701830489560962,-0.0251250993460417,-0.00470633106306195,0.00821416545659304,0.00960651226341724,-0.0192688852548599
668,-0.00295575079508126,-0.0257146004587412,-0.00220839376561344,0.0119296535849571,0.0126136327162385,-0.0159382671117783
669,-0.00203671539202333,-0.0277494732290506,-0.00290978816337883,0.0124399270862341,0.0120664183050394,-0.0157428178936243
670,-0.00198367168195546,-0.030017513781786,-0.00407990207895637,0.0114375064149499,0.0111684734001756,-0.0175205934792757
671,0.000224826202611439,-0.0301615167409182,-0.00247016618959606,0.0118334526196122,0.013395419344306,-0.0169194526970387
672,0.00347904558293521,-0.0285001397132874,0.000272685225354508,0.0131856156513095,0.0173543691635132,-0.013043207116425
673,0.00546503718942404,-0.0267359968274832,0.00204620324075222,0.0141471987590194,0.0201310962438583,-0.00840563606470823
674,0.0056008342653513,-0.0257728695869446,0.00309716002084315,0.0146957626566291,0.0208904128521681,-0.00491312146186829
675,0.00404734862968326,-0.026538509875536,0.00349819986149669,0.0145611222833395,0.0200988408178091,-0.00320752151310444
676,0.00104372529312968,-0.029631856828928,0.00323503883555532,0.0137686254456639,0.0188617296516895,-0.00248773605562747
677,-0.00259297550655901,-0.0339250564575195,0.00343829300254583,0.0140941450372338,0.0180483553558588,-0.00103633978869766
678,-0.00543335592374206,-0.0369940735399723,0.00584156671538949,0.017847403883934,0.0182862151414156,0.00263983686454594
679,-0.00702382111921906,-0.0372947230935097,0.0100388480350375,0.0248442310839891,0.0190406180918217,0.00917285587638617
680,-0.00814306642860174,-0.0351625420153141,0.0123084038496017,0.0312356445938349,0.0174268633127213,0.0170497000217438
681,-0.00949225854128599,-0.0320497378706932,0.00916455220431089,0.0320292040705681,0.0112680932506919,0.022592231631279
682,-0.0108937248587608,-0.0288765076547861,0.00177672586869448,0.0264680683612823,0.00278300046920776,0.0247441213577986
683,-0.0118439653888345,-0.0256317965686321,-0.0054829316213727,0.0188973043113947,-0.0042514419183135,0.026814192533493
684,-0.0118449572473764,-0.0223832428455353,-0.00899774115532637,0.0137959290295839,-0.00761243887245655,0.031384352594614
685,-0.0118045061826706,-0.0198980048298836,-0.00866309739649296,0.0115421740338206,-0.00791703630238771,0.0375432781875134
686,-0.0128646427765489,-0.0184625256806612,-0.00703314691781998,0.00984377507120371,-0.00815750472247601,0.0436428785324097
687,-0.0125262998044491,-0.0165042355656624,-0.004696533549577,0.008834483101964,-0.00855933595448732,0.0503938980400562
688,-0.00872165244072676,-0.0130012361332774,-0.00086503173224628,0.00986655335873365,-0.00734700355678797,0.0591946765780449
689,-0.00467027863487601,-0.0091424286365509,0.003099350258708,0.0115363821387291,-0.00624575559049845,0.0697587504982948
690,-0.00375428097322583,-0.00600577797740698,0.00576425390318036,0.0122581236064434,-0.00770516786724329,0.0810532197356224
691,-0.00579838315024972,-0.00367395742796361,0.00684759672731161,0.0117341326549649,-0.0115510690957308,0.0911064371466637
692,-0.00926326308399439,-0.0017967993626371,0.00548601942136884,0.00906670372933149,-0.0170688237994909,0.0977498665452003
693,-0.0127326305955648,0.000177165304194205,0.00129740440752357,0.00365482876077294,-0.0238514505326748,0.101141519844532
694,-0.0148311033844948,0.0029141460545361,-0.00372486421838403,-0.00238184654153883,-0.0304987337440252,0.104036912322044
695,-0.0151058482006192,0.00650163320824504,-0.00689503224566579,-0.00611638789996505,-0.0352065749466419,0.108818843960762
696,-0.0144873159006238,0.0101815043017268,-0.00711966725066304,-0.00699567794799805,-0.0375779755413532,0.115488559007645
697,-0.0143213625997305,0.0134039167314768,-0.00560141820460558,-0.00675421115010977,-0.0392713658511639,0.122749589383602
698,-0.0161765366792679,0.0159357842057943,-0.00536200543865561,-0.00821728818118572,-0.0432105027139187,0.128782674670219
699,-0.0197543073445559,0.018422519788146,-0.00680793821811676,-0.0112021286040545,-0.0493703447282314,0.133779436349869
700,-0.0235927142202854,0.0214889161288738,-0.00800006929785013,-0.013557605445385,-0.055280476808548,0.138875156641006
701,-0.0271722283214331,0.0245894752442837,-0.00833120848983526,-0.0152377691119909,-0.0601367726922035,0.143062651157379
702,-0.0293478574603796,0.027853649109602,-0.00727050192654133,-0.0168442819267511,-0.0637688487768173,0.145713031291962
703,-0.0291444975882769,0.032227236777544,-0.00431108800694346,-0.0186534970998764,-0.065554291009903,0.148128792643547
704,-0.0274139363318682,0.0375497452914715,-0.00076741905650124,-0.021020820364356,-0.0660533308982849,0.151475057005882
705,-0.0248539429157972,0.0427433587610722,0.00209719012491405,-0.0234726369380951,-0.0661913603544235,0.155500292778015
706,-0.0220949444919825,0.0469315387308598,0.00436114193871617,-0.0253473483026028,-0.0664519220590591,0.158787056803703
707,-0.0216722507029772,0.0494787953794003,0.00496094347909093,-0.0281417109072208,-0.0685854777693748,0.15905924141407
708,-0.0244257226586342,0.0508075132966042,0.00316482083871961,-0.0327169820666313,-0.0731379985809326,0.155858844518662
709,-0.0270536206662655,0.0530021078884602,0.00174795906059444,-0.0356756635010242,-0.077325165271759,0.153011098504066
710,-0.0273069255053997,0.0575213357806206,0.00312417862005532,-0.0343339554965496,-0.079478956758976,0.154091417789459
711,-0.026787867769599,0.0631901249289513,0.00597662292420864,-0.030632957816124,-0.0809762701392174,0.15773169696331
712,-0.0268952809274197,0.0679980143904686,0.00891056191176176,-0.0267422012984753,-0.0822295621037483,0.160687744617462
713,-0.0263198222965002,0.0716113597154617,0.0130364038050175,-0.0222588647156954,-0.0812074467539787,0.162144750356674
714,-0.0233730673789978,0.0752163976430893,0.0200074035674334,-0.0161786619573832,-0.0757628157734871,0.16336815059185
715,-0.0190557297319174,0.079277791082859,0.0284378472715616,-0.00975555088371038,-0.0668262094259262,0.164296999573708
716,-0.01631192676723,0.0825898423790932,0.0339517816901207,-0.00647253729403019,-0.0596667639911175,0.162573993206024
717,-0.0162486527115107,0.0842046588659287,0.034337479621172,-0.00806192867457867,-0.0586852766573429,0.156499922275543
718,-0.0174636207520962,0.0844428762793541,0.0313295461237431,-0.0127766141667962,-0.0629139542579651,0.147050097584724
719,-0.0191174373030663,0.0835491418838501,0.0268671605736017,-0.0184702314436436,-0.069394938647747,0.136499881744385
720,-0.0209127366542816,0.0816592276096344,0.0221118722110987,-0.0239795837551355,-0.0757469832897186,0.126514196395874
721,-0.0211581885814667,0.079920656979084,0.0194990672171116,-0.0272550471127033,-0.0789666399359703,0.118636645376682
722,-0.0183591637760401,0.0796060711145401,0.0212170369923115,-0.0263004433363676,-0.076480895280838,0.114487782120705
723,-0.013797502964735,0.0804373472929001,0.0257767774164677,-0.0221549198031425,-0.0697775483131409,0.113679625093937
724,-0.0103302076458931,0.0814089551568031,0.0295275021344423,-0.0175985060632229,-0.0638761296868324,0.113889306783676
725,-0.00868288520723581,0.082265168428421,0.0315422527492046,-0.0143617242574692,-0.061177596449852,0.113644450902939
726,-0.00779711920768023,0.0827860683202744,0.0328331142663956,-0.0130931818857789,-0.0603056885302067,0.112989395856857
727,-0.00648387102410197,0.0828996375203133,0.0338635556399822,-0.012648843228817,-0.0591488890349865,0.112738192081451
728,-0.00326278316788375,0.083199255168438,0.0357540436089039,-0.0107253538444638,-0.055652379989624,0.113919779658318
729,0.000595506397075951,0.0828001573681831,0.037779975682497,-0.00790487416088581,-0.0507205575704575,0.115581437945366
730,0.00108156749047339,0.079169750213623,0.0364266745746136,-0.00762449344620109,-0.0483667701482773,0.114494852721691
731,-0.00273894378915429,0.0717349424958229,0.0315692238509655,-0.0105768544599414,-0.0496241673827171,0.109708622097969
732,-0.00739931548014283,0.0629291459918022,0.0273921117186546,-0.013439810834825,-0.0514153428375721,0.104012459516525
733,-0.00820756424218416,0.055654089897871,0.0272208955138922,-0.0126235699281096,-0.0505539774894714,0.100922256708145
734,-0.00415500579401851,0.0507691353559494,0.0304709915071726,-0.00772863626480103,-0.0465703122317791,0.101698763668537
735,0.000601706851739436,0.0469918288290501,0.0336382947862148,-0.00213950732722878,-0.0416299775242805,0.104032419621944
736,0.00273985601961613,0.0430436171591282,0.0343454070389271,0.00100722222123295,-0.0376268029212952,0.104924261569977
737,0.00314212241210043,0.0387120060622692,0.0331529416143894,0.00194944185204804,-0.0347084924578667,0.103868916630745
738,0.00378539250232279,0.0342712625861168,0.0318077951669693,0.0025383832398802,-0.032140988856554,0.102166093885899
739,0.00434004003182054,0.0295371599495411,0.0306807942688465,0.0030437889508903,-0.0298464801162481,0.100190460681915
740,0.00322674098424613,0.0240114983171225,0.0291478969156742,0.00266420119442046,-0.0279558151960373,0.0973995178937912
741,0.000478314614156261,0.0175825078040361,0.0274066776037216,0.00179709226358682,-0.026035487651825,0.0941691100597382
742,-0.00325850932858884,0.0100420136004686,0.0253864657133818,0.000883074651937932,-0.0248110648244619,0.0907921567559242
743,-0.00765322241932154,0.001514941919595,0.0225540138781071,-0.000244957831455395,-0.0251935925334692,0.0871800556778908
744,-0.0119177429005504,-0.00738312443718314,0.0190344490110874,-0.00126923783682287,-0.0263856276869774,0.083294652402401
745,-0.0148703455924988,-0.0162587966769934,0.0161075312644243,-0.00194925989490002,-0.0265014246106148,0.0788928866386414
746,-0.0155113162472844,-0.0243052393198013,0.015590482391417,-0.00229670433327556,-0.0236001592129469,0.0750541910529137
747,-0.0152192814275622,-0.0311875399202108,0.0167496278882027,-0.00292767910286784,-0.0184616930782795,0.0727426037192345
748,-0.016402643173933,-0.0374528728425503,0.0170595571398735,-0.00440785894170403,-0.0139540834352374,0.0711685493588448
749,-0.0181059055030346,-0.0426718480885029,0.0166530665010214,-0.00502047734335065,-0.0101977456361055,0.0706889480352402
750,-0.0179344676434994,-0.0458726398646832,0.0171558167785406,-0.00302754295989871,-0.00567219220101833,0.0725023671984673
751,-0.0160739906132221,-0.0470281913876534,0.0182983912527561,0.000296475802315399,-0.000851461489219218,0.0757787898182869
752,-0.0141183398663998,-0.0471470206975937,0.0187725424766541,0.00286561367101967,0.00295348092913628,0.0784075781702995
753,-0.0131778251379728,-0.0476387143135071,0.0177047550678253,0.00412048771977425,0.00482735503464937,0.0788465812802315
754,-0.0144546627998352,-0.0495760850608349,0.0143939405679703,0.00364603428170085,0.00386518752202392,0.0763735324144363
755,-0.0175330191850662,-0.0522950813174248,0.00982405431568623,0.00165409129112959,0.00113546208012849,0.0720321536064148
756,-0.019719460979104,-0.0534970164299011,0.00683408882468939,0.000150568142998964,-0.000183104129973799,0.0682300627231598
757,-0.0197133608162403,-0.0521732233464718,0.00656084576621652,0.000330981711158529,0.00136372668202966,0.0659566223621368
758,-0.0177140813320875,-0.0490778610110283,0.00837197620421648,0.00208689388819039,0.00529932044446468,0.0651334673166275
759,-0.0141393225640059,-0.0450869873166084,0.011206703260541,0.0046530133113265,0.0104065667837858,0.0652692839503288
760,-0.0108172483742237,-0.0411046855151653,0.0130394902080297,0.00619421247392893,0.0140553712844849,0.0646040514111519
761,-0.0105654038488865,-0.0382636040449142,0.0114739807322621,0.00470870267599821,0.0132436351850629,0.0611668601632118
762,-0.013243910856545,-0.0362072326242924,0.0072094639763236,0.00138731126207858,0.00833629537373781,0.0558999665081501
763,-0.0153593355789781,-0.0331759378314018,0.00437133479863405,0.000503664836287498,0.00347088929265738,0.0523136407136917
764,-0.0145335458219051,-0.0284116808325052,0.00558223761618137,0.00443077459931374,0.00209812540560961,0.0521866641938686
765,-0.0108035895973444,-0.0223237220197916,0.0105863781645894,0.0123708657920361,0.00482694944366813,0.0546520948410034
766,-0.00633219955489039,-0.0162713807076216,0.0167723707854748,0.0208298396319151,0.00940334983170033,0.0577808693051338
767,-0.00351461279205978,-0.0115469992160797,0.0210667345672846,0.0259419661015272,0.0130195785313845,0.060127004981041
768,-0.00295181665569544,-0.00819652993232012,0.0227973908185959,0.0269636325538158,0.0146562978625298,0.0607095882296562
769,-0.00368170719593763,-0.00563004147261381,0.0231312997639179,0.0259622950106859,0.014776905067265,0.0590661093592644
770,-0.00430560810491443,-0.00339622655883431,0.0231539364904165,0.0247521344572306,0.0143374763429165,0.0559372715651989
771,-0.00491332728415728,-0.00154768070206046,0.0225425437092781,0.0225761942565441,0.013359553180635,0.0515259206295013
772,-0.00585872493684292,0.000485456548631191,0.0210851449519396,0.0186687055975199,0.0116879781708121,0.0458813719451427
773,-0.0070609338581562,0.00374302128329873,0.0191511586308479,0.0138532184064388,0.00930391438305378,0.0399095267057419
774,-0.0097425626590848,0.00730146234855056,0.0157447829842567,0.00807779282331467,0.00516155222430825,0.0332053527235985
775,-0.0135331489145756,0.0100699067115784,0.0115279033780098,0.00263307988643646,5.69365784031106E-06,0.0262882858514786
776,-0.0153133356943727,0.0132443336769938,0.00980624184012413,0.000502437585964799,-0.00303181353956461,0.0218399744480848
777,-0.0136039275676012,0.017979322001338,0.0116314804181457,0.00151245284359902,-0.0029394174925983,0.0202601738274097
778,-0.0106153963133693,0.0233662463724613,0.0141429556533694,0.00221826252527535,-0.00224367389455438,0.0188122931867838
779,-0.0085612116381526,0.028054503723979,0.0149878896772861,0.000785021402407438,-0.00264645228162408,0.0159381870180368
780,-0.0069146784953773,0.0320662967860699,0.0154076544567943,-0.000969521352089942,-0.00265556783415377,0.0133169209584594
781,-0.00509109627455473,0.0357868485152721,0.0168723575770855,-0.001476407982409,-0.00103048060555011,0.0121760778129101
782,-0.00366958789527416,0.0390497669577599,0.018691074103117,-0.00120564340613782,0.00126088329125196,0.0116739915683866
783,-0.00312664429657161,0.0416653528809547,0.019675238057971,-0.000736666668672115,0.00268858531489968,0.0108147254213691
784,-0.00270471582189202,0.0442394316196442,0.0201915297657251,0.000518008600920439,0.00348445936106145,0.00931723043322563
785,-0.00207402906380594,0.04692093282938,0.0207223072648048,0.00221439334563911,0.00438474910333753,0.00588005874305964
786,-0.00294945598579943,0.0484914928674698,0.0208363179117441,0.00181265512946993,0.00490380730479956,-0.00115428073331714
787,-0.00591651070863009,0.0484200641512871,0.0205743126571178,-0.00187770265620202,0.00442884536460042,-0.0104234926402569
788,-0.00937014631927013,0.0470563285052776,0.0190004911273718,-0.00781144481152296,0.00192701735068113,-0.0198292657732964
789,-0.0116632496938109,0.044928252696991,0.0154123455286026,-0.0138069987297058,-0.00260165589861572,-0.0283426027745008
790,-0.0114421071484685,0.0432980470359325,0.012441722676158,-0.0164151675999165,-0.00599870271980762,-0.0338301956653595
791,-0.00900861900299788,0.0425797589123249,0.0120702153071761,-0.0145800728350878,-0.00608860794454813,-0.0355142056941986
792,-0.00632688589394093,0.0415314324200153,0.0128301912918687,-0.0111924475058913,-0.00423538219183683,-0.0359805412590504
793,-0.0048572258092463,0.0390336662530899,0.012543611228466,-0.00961155816912651,-0.00315481424331665,-0.0381550677120686
794,-0.00497870286926627,0.0351372919976711,0.0100974543020129,-0.0109438076615334,-0.00470436550676823,-0.0427056774497032
795,-0.00544154085218906,0.0313001908361912,0.00676511181518435,-0.0128826545551419,-0.00721658440306783,-0.0474836751818657
796,-0.00586439575999975,0.0282107423990965,0.00411432515829802,-0.0137037988752127,-0.00845285318791866,-0.0511536486446857
797,-0.00696225930005312,0.0250497125089169,0.00242274487391114,-0.0138828996568918,-0.00826546363532543,-0.0545108467340469
798,-0.00646218238398433,0.0224022585898638,0.00352414627559483,-0.0116475857794285,-0.00483839120715857,-0.0563266836106777
799,-0.00206032558344305,0.021477110683918,0.00906842947006226,-0.00534701533615589,0.00356919830664992,-0.0545968674123287
800,0.00405626045539975,0.0213264171034098,0.0164060574024916,0.00207209843210876,0.0137166082859039,-0.0507159754633904
801,0.00821762438863516,0.0197692755609751,0.0207565259188414,0.00698090204969049,0.0203004963696003,-0.0481348447501659
802,0.00934934243559837,0.0159398391842842,0.0208082478493452,0.00916942767798901,0.0220856685191393,-0.0487015321850777
803,0.0086990324780345,0.0105231050401926,0.0191778279840946,0.00996656250208616,0.0218574125319719,-0.0512333437800407
804,0.00795904267579317,0.00498553179204464,0.018421582877636,0.0111189996823668,0.0223291851580143,-0.0523060970008373
805,0.00768933119252324,0.00052956526633352,0.018677307292819,0.0136446077376604,0.0239067226648331,-0.0501817390322685
806,0.00702815782278776,-0.00352843012660742,0.0183904748409987,0.0159363150596619,0.0248887296766043,-0.0475249253213406
807,0.0058866161853075,-0.00811892654746771,0.0170385334640741,0.016977159306407,0.0242878198623657,-0.046617615967989
808,0.00544930761680007,-0.0124973775818944,0.0154880611225963,0.0181655175983906,0.0231482964009047,-0.0461133047938347
809,0.00587513484060764,-0.0160222835838795,0.01394600328058,0.019889609888196,0.0222382862120867,-0.04506766051054
810,0.00622199382632971,-0.0190805625170469,0.0120876245200634,0.0209127925336361,0.0213278383016586,-0.044536679983139
811,0.0058716987259686,-0.0219398364424706,0.00995270535349846,0.0208269599825144,0.0201699417084455,-0.045114804059267
812,0.00507360743358731,-0.0243593752384186,0.00808136072009802,0.0208397787064314,0.0193586312234402,-0.0456975698471069
813,0.00439995108172297,-0.0262802913784981,0.00689861131832004,0.0222601536661386,0.0197745822370052,-0.0450334474444389
814,0.00394008914008737,-0.0281500425189734,0.0059826266951859,0.0245703458786011,0.0213043373078108,-0.0440070293843746
815,0.00356775266118348,-0.030328931286931,0.00484358333051205,0.0261474195867777,0.0233706682920456,-0.0444620624184608
816,0.00310214003548026,-0.0328536219894886,0.0032850899733603,0.026388006284833,0.0251952726393938,-0.0464861169457436
817,0.00274900300428271,-0.0353820845484734,0.00146466318983585,0.0259785875678062,0.0263982228934765,-0.0485463440418243
818,0.00317660113796592,-0.037320327013731,3.59356272383593E-05,0.0256060790270567,0.0276045091450214,-0.0498516894876957
819,0.00486813066527247,-0.038358498364687,-0.000178561298525892,0.0257439855486155,0.029844619333744,-0.0507380999624729
820,0.00710112089291215,-0.0388423055410385,0.000640362850390375,0.0265314001590014,0.0329410545527935,-0.0517478473484516
821,0.00864959228783846,-0.0392213128507137,0.00151855684816837,0.0273680966347456,0.0355724990367889,-0.0531720742583275
822,0.00928601901978254,-0.0395241491496563,0.00171226053498685,0.0270831286907196,0.0370101407170296,-0.0548184029757977
823,0.00911074504256248,-0.0397669896483421,0.000659896177239716,0.0250136945396662,0.0369803793728352,-0.0567736737430096
824,0.00875920057296753,-0.0399823188781738,-0.00079433701466769,0.0222678817808628,0.0363104157149792,-0.0593273341655731
825,0.00854042638093233,-0.040819313377142,-0.00186047202441841,0.0194933619350195,0.0359289087355137,-0.0628163814544678
826,0.00857054721564054,-0.0422606132924557,-0.00180688826367259,0.0177363846451044,0.036719411611557,-0.0656591206789017
827,0.00915537402033806,-0.0429067350924015,0.000921706552617252,0.0193047430366278,0.0398466661572456,-0.0647518932819366
828,0.00909768976271153,-0.0431491322815418,0.00586916832253337,0.023825891315937,0.0442125201225281,-0.0605999827384949
829,0.00785817299038172,-0.0441751927137375,0.0114060314372182,0.0297044329345226,0.0477682426571846,-0.0559590384364128
830,0.00587392784655094,-0.0451455041766167,0.0146868787705898,0.0350043475627899,0.0479984991252422,-0.0527833253145218
831,0.00350978085771203,-0.0443054251372814,0.0123916584998369,0.0362341217696667,0.0428395643830299,-0.0528409443795681
832,0.00198827008716762,-0.0414704382419586,0.00541039137169719,0.0317832715809345,0.0342463701963425,-0.0563143976032734
833,0.0017421911470592,-0.0383299142122269,-0.00236566970124841,0.0240630563348532,0.0259466469287872,-0.0605256967246532
834,0.00131952320225537,-0.036266602575779,-0.00858570821583271,0.0166080966591835,0.0190981198102236,-0.0625999122858047
835,-0.000557729043066502,-0.0355291739106178,-0.0127246165648103,0.0110451458021998,0.0128036271780729,-0.0621189177036285
836,-0.0028428949881345,-0.0351257435977459,-0.01435880176723,0.00770325819030404,0.00722708273679018,-0.0591515228152275
837,-0.00355516583658755,-0.0334409363567829,-0.0133635504171252,0.00672261929139495,0.00379979936406016,-0.0528483018279076
838,-0.00217615021392703,-0.0301724523305893,-0.00980671308934689,0.00846914108842611,0.00354868755675852,-0.043365117162466
839,0.000299795327009633,-0.0265302713960409,-0.00395712954923511,0.0128430938348174,0.00597750209271908,-0.0328165628015995
840,0.0018708462594077,-0.024174315854907,0.00190842908341438,0.0170737970620394,0.00811110530048609,-0.0242159906774759
841,0.000403887272113934,-0.0242130048573017,0.00418481417000294,0.016989454627037,0.00667729647830129,-0.0196542404592037
842,-0.0042803343385458,-0.0256511922925711,0.00241393968462944,0.0119248405098915,0.00232795812189579,-0.0184009950608015
843,-0.00924686156213284,-0.0257014092057943,0.00024395996297244,0.00536270393058658,-0.00131080171559006,-0.0174111779779196
844,-0.0103528900071979,-0.0225177761167288,0.000760010851081461,0.0011717228917405,-0.00229295063763857,-0.0139275901019573
845,-0.00619603833183646,-0.0167710687965155,0.00412491103634238,0.00100451661273837,-0.00137586717028171,-0.00693051051348448
846,-0.000847727758809924,-0.0114627489820123,0.00776900630444288,0.00264879153110087,-0.00132005754858255,0.00151838012970984
847,0.000777601555455476,-0.00914087705314159,0.00909670721739531,0.00262850662693381,-0.00440514693036675,0.00805379543453455
848,-0.00116246321704239,-0.00917170289903879,0.00884523149579763,0.000800112495198846,-0.00934836361557245,0.0122798448428512
849,-0.00470476318150759,-0.0098425131291151,0.00847277510911226,-0.00139822834171355,-0.0143460063263774,0.0155614065006375
850,-0.00882409885525703,-0.010240999981761,0.00819536857306957,-0.00349745340645313,-0.0191705636680126,0.0186508968472481
851,-0.0121035715565085,-0.00981771852821112,0.00811318121850491,-0.00521893845871091,-0.0233843214809895,0.0219192262738943
852,-0.0141750238835812,-0.00839554145932198,0.00764014292508364,-0.00670483848080039,-0.0272507593035698,0.0251426063477993
853,-0.0157858729362488,-0.00615668715909123,0.00631114095449448,-0.00855775829404593,-0.03135946393013,0.0279948730021715
854,-0.0172637589275837,-0.00353163876570761,0.00465803826227784,-0.0109088253229856,-0.0352574102580547,0.0305967573076487
855,-0.0192399229854345,-0.00113392632920295,0.00252340058796108,-0.0141085851937532,-0.0392746962606907,0.032491747289896
856,-0.0221030972898006,0.000556858198251575,-0.000166903875651769,-0.0185336992144585,-0.0437606424093246,0.0326799154281616
857,-0.0250687152147293,0.00174766895361245,-0.00217823032289743,-0.0230928082019091,-0.0475951060652733,0.0316230170428753
858,-0.0261238515377045,0.00357534596696496,-0.00175877823494375,-0.0248772706836462,-0.0488777980208397,0.032414399087429
859,-0.022588636726141,0.00748442113399506,0.00301168533042073,-0.0206186026334763,-0.0450791418552399,0.0385046862065792
860,-0.0163505431264639,0.0126415379345417,0.0105944229289889,-0.0114470208063722,-0.0376054123044014,0.048158373683691
861,-0.0122289275750518,0.0164992678910494,0.0169741548597813,-0.00246800761669874,-0.0310588162392378,0.0557001829147339
862,-0.0107568362727761,0.0180055443197489,0.0209388565272093,0.00271045207045972,-0.026573495939374,0.0583348907530308
863,-0.0116696460172534,0.0168328490108252,0.0215759444981813,0.00219148583710194,-0.0245219971984625,0.0563449375331402
864,-0.015304115600884,0.0136673785746098,0.018459590151906,-0.00328305549919605,-0.025668878108263,0.0516655594110489
865,-0.0192581955343485,0.0111318621784449,0.01437115855515,-0.00982384476810694,-0.0283396691083908,0.0474671013653278
866,-0.0210787933319807,0.0111149428412318,0.012239558622241,-0.0142707265913486,-0.0303622260689735,0.0457686185836792
867,-0.0209871418774128,0.0127952340990305,0.0123265599831939,-0.0163741111755371,-0.031302023679018,0.045762624591589
868,-0.0206517763435841,0.0144295608624816,0.0126768723130226,-0.0177603680640459,-0.0324839614331722,0.0450995266437531
869,-0.0208213832229376,0.0157535579055548,0.0118061052635312,-0.0194012448191643,-0.0348598994314671,0.042718343436718
870,-0.02023795992136,0.017918361350894,0.0109294969588518,-0.0197784099727869,-0.0365041866898537,0.0403132773935795
871,-0.0168168731033802,0.0219710748642683,0.0125445602461696,-0.0163957104086876,-0.0340989045798779,0.0406245663762093
872,-0.0113977352157235,0.0267701465636492,0.01598796620965,-0.0104895830154419,-0.0282504502683878,0.0430318042635918
873,-0.00776981143280864,0.0299912635236979,0.0179775357246399,-0.00618655141443014,-0.0234608557075262,0.0441860668361187
874,-0.00765519123524427,0.0310402102768421,0.0176953542977571,-0.00484718615189195,-0.0219331365078688,0.042944323271513
875,-0.00987303350120783,0.0305073913186789,0.016413202509284,-0.00547291524708271,-0.0223816726356745,0.0403666310012341
876,-0.0123696681112051,0.029413066804409,0.0150411957874894,-0.00680703995749354,-0.0230553671717644,0.0377430766820908
877,-0.0131902676075697,0.0293651632964611,0.0142949903383851,-0.00700631272047758,-0.0230295173823833,0.036677110940218
878,-0.0122353499755263,0.0308647099882364,0.0139527162536979,-0.00567383831366897,-0.022687241435051,0.0375759154558182
879,-0.0107617788016796,0.0328564159572124,0.013151977211237,-0.0040583317168057,-0.0226005055010319,0.0389116518199444
880,-0.00933163147419691,0.034212488681078,0.0119970040395856,-0.00256075873039663,-0.0223174709826708,0.0393485836684704
881,-0.00796537660062313,0.0345146134495735,0.0111887119710445,-0.000795155589003116,-0.0210294518619776,0.0383031778037548
882,-0.00644508143886924,0.0341421291232109,0.0116600729525089,0.00132677005603909,-0.0177959762513638,0.0358830988407135
883,-0.00471151899546385,0.0337371379137039,0.0140144806355238,0.00365827046334744,-0.0125075588002801,0.0340024344623089
884,-0.00272633880376816,0.0338529609143734,0.0175816640257835,0.00642565824091434,-0.00661807972937822,0.0349168516695499
885,-0.000134676767629571,0.0343436412513256,0.0201276186853647,0.00878541637212038,-0.0024781827814877,0.0376828461885452
886,0.00194850191473961,0.0338173657655716,0.0189354922622442,0.00810047052800655,-0.00240015401504934,0.0382675789296627
887,0.00266307196579874,0.031944066286087,0.0148534523323178,0.00442772638052702,-0.00517739914357662,0.0352754034101963
888,0.00309304753318429,0.0299997571855783,0.0111430715769529,0.000873473647516221,-0.00751034868881106,0.031463623046875
889,0.00393322994932532,0.0285831578075886,0.0089049618691206,-0.000884856388438493,-0.00882169511169195,0.0287592858076096
890,0.00516742467880249,0.0275806225836277,0.0079574566334486,-0.000666885054670274,-0.00979563593864441,0.0271976012736559
891,0.00630836980417371,0.0268614012748003,0.00802078656852245,0.00114374118857086,-0.0105471042916179,0.0263351239264011
892,0.00627439329400659,0.0262037441134453,0.00817719846963882,0.00324846850708127,-0.0111623723059893,0.0252199228852987
893,0.00419753510504961,0.0250016152858734,0.00694070616737008,0.0038911800365895,-0.0120564289391041,0.02259929664433
894,0.000584298628382385,0.0229724161326885,0.00357000972144306,0.00242233765311539,-0.0133625594899058,0.0180436447262764
895,-0.00186604040209204,0.0214526075869799,6.69446890242398E-05,0.00114637264050543,-0.0136011261492968,0.0136826736852527
896,-0.000571070471778512,0.0219930578023195,-0.000403710291720927,0.00356784951873124,-0.0108845513314009,0.0130730094388127
897,0.00235604518093169,0.0233067385852337,0.000844825524836779,0.00839345250278711,-0.00712932646274567,0.0155571028590202
898,0.00345865287818015,0.0232101380825043,0.000440393312601373,0.0112854745239019,-0.0054265302605927,0.0169891007244587
899,0.00359856360591948,0.021947430446744,-0.000765840872190893,0.0118915867060423,-0.00481028528884053,0.0162893906235695
900,0.00438157794997096,0.0204801484942436,-0.00107963813934475,0.0119710275903344,-0.00381365395151079,0.0145904263481498
901,0.00515728583559394,0.0188490431755781,-0.00131567742209882,0.0116327097639441,-0.00328182335942984,0.0118043702095747
902,0.0050238729454577,0.0167216807603836,-0.00267186388373375,0.010572699829936,-0.00395788066089153,0.00761063769459724
903,0.00404061609879136,0.0141070587560534,-0.00487745646387339,0.00895971432328224,-0.00503376172855496,0.00241448683664203
904,0.00246672448702157,0.0112749496474862,-0.0069971727207303,0.00646610418334603,-0.00556242233142257,-0.00307037262246013
905,0.000775541178882122,0.00858569983392954,-0.00827622134238482,0.0036530327051878,-0.00519147422164679,-0.00669173384085298
906,-0.000337946985382587,0.00620980327948928,-0.00799178890883923,0.00220990367233753,-0.00379958120174706,-0.00659441016614437
907,-0.000725708552636206,0.00397936534136534,-0.00616370094940066,0.00279422313906252,-0.00178812048397958,-0.00414008321240544
908,-0.000247472431510687,0.00222465745173395,-0.00367559934966266,0.00517878960818052,0.00018490690854378,-0.00157196947839111
909,0.0016105022514239,0.00155571172945201,-0.00114743481390178,0.00864369049668312,0.0023512989282608,0.000330004229908809
910,0.00480023119598627,0.00208097253926098,0.00117408821824938,0.0118822157382965,0.00544899515807629,0.00131496950052679
911,0.00670323194935918,0.00262006861157715,0.00139422237407416,0.0125164072960615,0.00748415989801288,-0.000274891266599298
912,0.0047163306735456,0.00182661577127874,-0.00175254920031875,0.00968325044959784,0.00624238420277834,-0.00541233830153942
913,0.0011735059088096,0.000506535347085446,-0.00515930075198412,0.00693549681454897,0.00436866655945778,-0.0111112473532557
914,-0.000226119576836936,2.4774119083304E-05,-0.0058910446241498,0.00696143228560686,0.00472441222518682,-0.0145823135972023
915,0.00158994924277067,0.000647706096060574,-0.0042095840908587,0.00897238496690989,0.00722114089876413,-0.0159183610230684
916,0.00528157548978925,0.00157521711662412,-0.00158176349941641,0.0114028211683035,0.0109491087496281,-0.0162496604025364
917,0.00876362156122923,0.00169022299814969,0.000905160151887685,0.0132187139242888,0.0151511514559388,-0.0165792312473059
918,0.0115635646507144,0.00129759486299008,0.00342578859999776,0.0148371076211333,0.0196803715080023,-0.0163074918091297
919,0.0137023534625769,0.00146563374437392,0.00586351100355387,0.0165596529841423,0.0236704107373953,-0.0147391380742192
920,0.015728909522295,0.00281497160904109,0.00792870670557022,0.0185631662607193,0.026700459420681,-0.0125540820881724
921,0.0177287515252829,0.00449927104637027,0.00914601515978575,0.0202642567455769,0.0286470465362072,-0.0118437809869647
922,0.0174576975405216,0.00433366280049086,0.00793973170220852,0.018640449270606,0.0275161098688841,-0.0152203105390072
923,0.0145327281206846,0.0024265912361443,0.00435381568968296,0.013367272913456,0.0231791324913502,-0.0212608724832535
924,0.0113694155588746,0.000917884579394013,0.00032524301786907,0.00800635386258364,0.0185557194054127,-0.0259393732994795
925,0.00952375680208206,0.000557747087441385,-0.00259751174598932,0.00505579635500908,0.0160491056740284,-0.0279548987746239
926,0.00877939723432064,0.000648099754471332,-0.00426157563924789,0.00412621721625328,0.0158589370548725,-0.0286763403564692
927,0.00761763704940677,0.000122701298096217,-0.00614848313853145,0.00259724096395075,0.0160879977047443,-0.0305487141013145
928,0.00589252449572086,-0.000696703733410686,-0.00849773548543453,-0.000390460918424651,0.0161931253969669,-0.0341388434171677
929,0.00488343369215727,-0.000686609244439751,-0.010613827034831,-0.00362521433271468,0.0168134570121765,-0.0380665697157383
930,0.0047047701664269,-0.000159234521561302,-0.0129772294312716,-0.00665510864928365,0.0168954338878393,-0.041602436453104
931,0.00575832976028323,0.00047707898193039,-0.0143684139475226,-0.00807861518114805,0.0165996849536896,-0.0437121242284775
932,0.00913507770746946,0.00184950092807412,-0.0122661488130689,-0.00585970049723983,0.0181438457220793,-0.0428306050598621
933,0.0135792037472129,0.00378191331401467,-0.00740650482475758,-0.000996979186311364,0.0214357189834118,-0.039594903588295
934,0.0157253108918667,0.00464141741394997,-0.00353460758924484,0.00268464698456228,0.0236334856599569,-0.0371685437858105
935,0.0146116362884641,0.00395314488559961,-0.00270830397494137,0.00289779156446457,0.0234990492463112,-0.0372447967529297
936,0.0132770724594593,0.00371560221537948,-0.00300774979405105,0.0015405680751428,0.023266738280654,-0.0377482734620571
937,0.0140050956979394,0.00510463025420904,-0.00219949847087264,0.00117743061855435,0.024650115519762,-0.0365664511919022
938,0.0153619553893805,0.0069475369527936,-0.00118474930059165,0.00141466176137328,0.026023430749774,-0.0347487963736057
939,0.0150674637407064,0.0080988984555006,-0.00136449420824647,0.00102794158738106,0.0256246756762266,-0.0340533331036568
940,0.0132110891863704,0.00833065528422594,-0.00223612366244197,0.000675118062645197,0.0241539906710386,-0.0343751385807991
941,0.0118589252233505,0.00778023200109601,-0.00324981519952416,0.00147046544589102,0.0228889733552933,-0.0353700928390026
942,0.0118409860879183,0.00695674167945981,-0.00457967352122068,0.00239779194816947,0.0216373447328806,-0.0377407483756542
943,0.0123134292662144,0.00678425282239914,-0.00613696360960603,0.00190796202514321,0.0200029239058495,-0.040762297809124
944,0.0126335537061095,0.00775467790663242,-0.00749310804530978,0.000263363966951147,0.0188621003180742,-0.0425185635685921
945,0.0124760111793876,0.00923327449709177,-0.00813103932887316,-0.00154272315558046,0.0190969631075859,-0.0429042726755142
946,0.0117502380162477,0.0103266509249806,-0.00811915565282106,-0.00297325244173408,0.0200336333364248,-0.042977761477232
947,0.012097729369998,0.0117381857708097,-0.00694831274449825,-0.00255734194070101,0.0215840227901936,-0.0422386229038239
948,0.0154188461601734,0.0151608847081661,-0.00330352666787803,0.00138581614010036,0.0254879985004663,-0.0391752570867538
949,0.0203116610646248,0.0199645720422268,0.00172486528754234,0.00698370952159166,0.0313881561160088,-0.0349988266825676
950,0.0248794313520193,0.023810600861907,0.00576026784256101,0.0110033201053739,0.0364832580089569,-0.0322401598095894
951,0.0285372454673052,0.0253642648458481,0.00764545053243637,0.0122059248387814,0.0386039279401302,-0.0316731072962284
952,0.0309407506138086,0.0251381434500217,0.00800898764282465,0.0114210583269596,0.0379432141780853,-0.0324291735887527
953,0.0332634970545769,0.0252919755876064,0.00895397271960974,0.0111517636105418,0.0372044034302235,-0.0324423499405384
954,0.0358957126736641,0.0264175049960613,0.0107396822422743,0.0120673924684525,0.0380399003624916,-0.0316809862852097
955,0.0373063161969185,0.0266594756394625,0.0113988053053617,0.0122188162058592,0.0390389077365398,-0.0323394276201725
956,0.0364182740449905,0.025158453732729,0.00961942970752716,0.0103304767981172,0.0378644615411758,-0.0351905860006809
957,0.0332853086292744,0.0228714626282454,0.00608219811692834,0.00725986249744892,0.033903531730175,-0.039094366133213
958,0.0284746829420328,0.0203911904245615,0.00183001579716802,0.00406248960644007,0.0281302612274885,-0.0429059788584709
959,0.0232418049126863,0.017898254096508,-0.0024066346231848,0.00109704944770783,0.0225385725498199,-0.0460309609770775
960,0.0194247551262379,0.0162302665412426,-0.00537390075623989,-0.000754830078221858,0.0194060746580362,-0.0479279458522797
