,AF3,AF4,Fp1,Fp2,AF7,AF8
0,-0.0124451434239745,-0.0278558414429426,-0.00270312651991844,0.00160772225353867,-0.00975054409354925,-0.0064907455816865
1,-0.013175155967474,-0.0305160172283649,-0.00208887574262917,0.00630264542996883,-0.00743181258440018,-0.00138934422284365
2,-0.0148003352805972,-0.0343495532870293,-0.00235729664564133,0.00909875705838203,-0.00628640642389655,0.00238817930221558
3,-0.0168843660503626,-0.0396724045276642,-0.00298249162733555,0.00796102825552225,-0.00540436897426844,0.00332641927525401
4,-0.0169677026569843,-0.0435984432697296,-0.00173533824272454,0.00638272566720843,-0.00262649380601943,0.00416268408298492
5,-0.0153584983199835,-0.0452382750809193,0.00041505484841764,0.00624251319095492,0.000652743270620704,0.00607041688635945
6,-0.015012513846159,-0.0463374182581902,5.82018838031217E-05,0.00594619940966368,0.000970416585914791,0.00744480779394507
7,-0.0177219863981009,-0.0482941716909409,-0.00374329043552279,0.0039394898340106,-0.0021417043171823,0.00640322640538216
8,-0.0216876920312643,-0.0507644824683666,-0.00812223460525274,0.00118892593309283,-0.00546547118574381,0.00358726782724261
9,-0.0245655253529549,-0.053242139518261,-0.0106894802302122,-0.000938278215471655,-0.00692511210218072,0.000921049737371504
10,-0.0269387904554605,-0.0563061945140362,-0.0128302639350295,-0.00319045991636813,-0.00828064698725939,-0.00178357434924692
11,-0.0287377964705229,-0.0590288303792477,-0.0156291630119085,-0.00518809398636222,-0.0105583155527711,-0.00392208201810718
12,-0.0273454673588276,-0.0586503371596336,-0.0168050769716501,-0.00441735377535224,-0.0113569190725684,-0.00267703318968415
13,-0.022974444553256,-0.0552735291421413,-0.0154990293085575,-0.00158907461445779,-0.00967002287507057,0.000745002878829837
14,-0.0192091409116983,-0.0520369485020638,-0.0142532968893647,-0.000300544576020911,-0.00768288876861334,0.00148810364771634
15,-0.017006766051054,-0.0498009845614433,-0.0139856869354844,-0.000454444234492257,-0.00637365691363811,-0.000593639968428761
16,-0.0143890362232924,-0.0467376634478569,-0.013118521310389,0.000603879103437066,-0.00457786396145821,-0.00148499628994614
17,-0.0109277218580246,-0.042664647102356,-0.0117620322853327,0.00241494481451809,-0.00217905477620661,-0.000497941626235843
18,-0.00828316435217857,-0.0394133850932121,-0.0115094622597098,0.00284184794872999,-0.000440914067439735,-2.71573244390311E-05
19,-0.00767326215282083,-0.037726141512394,-0.0125956675037742,0.00163225899450481,-2.97881124424748E-05,-0.00101851171348244
20,-0.00876122433692217,-0.0364260785281658,-0.0139294816181064,0.000396616844227538,-0.000810480094514787,-0.00192182813771069
21,-0.0107628060504794,-0.0347755961120129,-0.0150047298520803,0.000164022363605909,-0.00247105769813061,-0.00199847458861768
22,-0.0137868234887719,-0.0340875014662743,-0.0168790817260742,-0.00134048517793417,-0.00516626657918096,-0.00415217829868197
23,-0.0174150820821524,-0.0346154943108559,-0.0198520049452782,-0.00607324112206697,-0.00872852187603712,-0.00951465964317322
24,-0.0205373112112284,-0.0343338921666145,-0.0228400733321905,-0.0121112894266844,-0.0125049632042646,-0.0147473672404885
25,-0.0221279617398977,-0.0318682081997395,-0.0245655234903097,-0.0162180382758379,-0.0154015049338341,-0.01671077683568
26,-0.021301282569766,-0.0274522453546524,-0.0242159496992826,-0.0168338138610125,-0.0162598509341478,-0.0149776004254818
27,-0.0181847773492336,-0.0222408901900053,-0.0219497308135033,-0.0149095831438899,-0.0148308118805289,-0.011600948870182
28,-0.0141126224771142,-0.0176530908793211,-0.0187421850860119,-0.012761078774929,-0.0119356196373701,-0.00936972536146641
29,-0.0101690366864204,-0.0139313945546746,-0.0154784834012389,-0.0115104569122195,-0.00895244441926479,-0.008860157802701
30,-0.00661842990666628,-0.0104230530560017,-0.0123740723356605,-0.010752497240901,-0.00671381689608097,-0.0088616032153368
31,-0.00401420705020428,-0.00711581483483315,-0.00966808944940567,-0.0104240877553821,-0.00543851125985384,-0.00905535183846951
32,-0.00339513760991395,-0.00439485628157854,-0.00783697795122862,-0.0112350126728415,-0.00476711289957166,-0.0101996576413512
33,-0.00591637240722775,-0.00280905677936971,-0.00724847102537751,-0.0142213078215718,-0.00417079403996468,-0.0135019822046161
34,-0.0092715248465538,-0.00187380181159824,-0.00618651043623686,-0.017752418294549,-0.00225355359725654,-0.017871642485261
35,-0.00950484722852707,-0.000505631789565086,-0.00335141341201961,-0.0192501395940781,0.000988084939308465,-0.0209699552506208
36,-0.00755866197869182,0.000822491128928959,-0.00119335856288671,-0.0198623184114695,0.0025608076248318,-0.0233591161668301
37,-0.00606111297383904,0.00190758984535933,-0.00123810989316553,-0.020937979221344,0.0011833484750241,-0.0258023496717215
38,-0.00514801312237978,0.00393956666812301,-0.0021646860986948,-0.0214495547115803,-0.00208776304498315,-0.0272211786359549
39,-0.00460102455690503,0.00708122225478292,-0.00344345672056079,-0.0212435945868492,-0.0063625406473875,-0.0275834444910288
40,-0.00451917201280594,0.0105474796146154,-0.00513913249596953,-0.0209282748401165,-0.0103384824469686,-0.0276365708559752
41,-0.00504148146137595,0.0139481863006949,-0.00667629763484001,-0.0203778836876154,-0.013050552457571,-0.0274135675281286
42,-0.00667485920712352,0.0169257782399654,-0.00777393952012062,-0.0196418110281229,-0.014883547089994,-0.0275493133813143
43,-0.00910036917775869,0.0190811976790428,-0.00797248724848032,-0.0188563503324986,-0.0159811601042748,-0.0290123336017132
44,-0.0109414253383875,0.0206889118999243,-0.00661188503727317,-0.0173152685165405,-0.0158650651574135,-0.0301539488136768
45,-0.0104844979941845,0.0230801291763783,-0.00336007820442319,-0.0129185141995549,-0.0138026280328631,-0.0266174226999283
46,-0.00798836629837751,0.0262319892644882,0.000628103036433458,-0.00618343241512775,-0.0102446265518665,-0.0180633682757616
47,-0.00637325132265687,0.0279919393360615,0.00322839431464672,-0.0010273028165102,-0.00707250647246838,-0.00965673848986626
48,-0.00697351712733507,0.027580987662077,0.00486225401982665,0.00206570141017437,-0.00431958632543683,-0.00386735517531633
49,-0.0091881537809968,0.0257201083004475,0.00673010153695941,0.00515391957014799,-0.00168138684239239,6.74317343509756E-05
50,-0.0126105612143874,0.0227396190166473,0.00821713451296091,0.00831355340778828,-0.000491196289658546,0.00159543787594885
51,-0.0157787427306175,0.0189835336059332,0.00872077699750662,0.0100739970803261,-0.000905690249055624,-0.000543311238288879
52,-0.0172750242054462,0.0145182870328426,0.00679555675014853,0.00731722731143236,-0.00302034011110663,-0.0082734078168869
53,-0.0179054476320744,0.00928522180765867,7.63950520195067E-05,-0.00183511816430837,-0.00828575156629086,-0.0219056773930788
54,-0.0185577813535929,0.00412625726312399,-0.0101133342832327,-0.0134547865018249,-0.0154329920187593,-0.0367626287043095
55,-0.0178891103714705,0.00025708373868838,-0.017857862636447,-0.0201675593852997,-0.019259175285697,-0.0461897514760494
56,-0.0149435140192509,-0.00230130320414901,-0.0192235130816698,-0.0187927428632975,-0.0167019441723824,-0.047536563128233
57,-0.0111820120364428,-0.0045994664542377,-0.0158157870173454,-0.0123333856463432,-0.0100223226472735,-0.0433256700634956
58,-0.00833135191351175,-0.00705975759774446,-0.0108799412846565,-0.00456456886604428,-0.00267557799816132,-0.0369052849709988
59,-0.00694615719839931,-0.00956759136170149,-0.0063542015850544,0.00296901306137443,0.00353764812462032,-0.0302345901727676
60,-0.00761858653277159,-0.0127258682623506,-0.00343421055004001,0.00924027338624001,0.00738096609711647,-0.0249141026288271
61,-0.0105998925864697,-0.0172592047601938,-0.00262941722758114,0.0129663776606321,0.00861807074397802,-0.0220787860453129
62,-0.0144983856007457,-0.022751159965992,-0.00378387398086488,0.0137632684782147,0.00810012686997652,-0.0220120660960674
63,-0.0183120407164097,-0.0281375553458929,-0.00711062457412481,0.012357322499156,0.0055041559971869,-0.0243632588535547
64,-0.020972540602088,-0.0321269631385803,-0.0112250586971641,0.0107479011639953,0.00150320527609438,-0.0270727537572384
65,-0.0214765556156635,-0.0341149307787418,-0.0142987100407481,0.0096898190677166,-0.00203421735204756,-0.0278214924037457
66,-0.0212370250374079,-0.0349523238837719,-0.0174468141049147,0.00789642799645662,-0.0053066173568368,-0.0262393373996019
67,-0.0204661879688501,-0.0348458476364613,-0.020224679261446,0.00670516071841121,-0.00731613812968135,-0.0218737777322531
68,-0.0176360309123993,-0.0333373099565506,-0.0199140049517155,0.00881889276206493,-0.00552844442427158,-0.0146164987236261
69,-0.0138073517009616,-0.0312806069850922,-0.0167844854295254,0.0137103255838156,-0.000786113843787462,-0.00671630771830678
70,-0.0119394659996033,-0.0305292047560215,-0.0137890242040157,0.0176750794053078,0.00326292053796351,-0.00146629603113979
71,-0.0130194025114179,-0.0320851020514965,-0.0129871405661106,0.0175935607403517,0.00439653312787414,-0.000375679082935676
72,-0.0152816008776426,-0.0348406322300434,-0.0138397617265582,0.0146320378407836,0.00346381473354995,-0.00178760744165629
73,-0.0170910805463791,-0.037143636494875,-0.0150794880464673,0.0115208867937326,0.00198741327039897,-0.0037167037371546
74,-0.0180745385587215,-0.0389463119208813,-0.0165073238313198,0.008945157751441,0.000495038810186088,-0.00560962734743953
75,-0.0185553394258022,-0.0411005951464176,-0.0182560160756111,0.00667921081185341,-0.000591970863752067,-0.00742919137701392
76,-0.0190137661993504,-0.0433958359062672,-0.0198329575359821,0.00512707373127341,-0.000494441424962133,-0.00926059111952782
77,-0.0200773943215609,-0.0452068224549294,-0.0210452917963266,0.00422230688855052,0.00018870976055041,-0.0113758966326714
78,-0.022994838654995,-0.0466308631002903,-0.0230704471468925,0.00266996421851218,-0.00133493333123624,-0.0145317018032074
79,-0.0266696121543646,-0.0470999181270599,-0.0258627440780401,0.00087816477753222,-0.0052955262362957,-0.0186254289001226
80,-0.0274891648441553,-0.0456396825611591,-0.0270111411809921,0.000781836279202253,-0.00783891044557095,-0.0225271452218294
81,-0.0253309346735477,-0.0428904183208942,-0.0262797772884369,0.00143917708192021,-0.00785532593727112,-0.0260192733258009
82,-0.0232569724321365,-0.0399971157312393,-0.0262569170445204,0.000406139210099354,-0.00814476050436497,-0.0293952487409115
83,-0.0219647102057934,-0.0371319763362408,-0.027826827019453,-0.00233569042757154,-0.00969792250543833,-0.0328765287995338
84,-0.0200657397508621,-0.0342364050447941,-0.0296821128576994,-0.00507202977314591,-0.0107804238796234,-0.0363765731453896
85,-0.0172500349581242,-0.0313867293298244,-0.0303818434476852,-0.00634826580062509,-0.0101767415180802,-0.0388203635811806
86,-0.0141799794510007,-0.0287799593061209,-0.0289924778044224,-0.00569156836718321,-0.00838145520538092,-0.0396599657833576
87,-0.0119726331904531,-0.0270344372838736,-0.0260104201734066,-0.00420881202444434,-0.00673016486689448,-0.0410112366080284
88,-0.0118014290928841,-0.0266190748661757,-0.0232175830751657,-0.0035628245677799,-0.00624380819499493,-0.0457850620150566
89,-0.0119297793135047,-0.0259239263832569,-0.0205851625651121,-0.00305632362142205,-0.00573291350156069,-0.0528511740267277
90,-0.00999131146818399,-0.0227386001497507,-0.0175263024866581,-0.00207823002710938,-0.00401413906365633,-0.0592440329492092
91,-0.00798131991177797,-0.0180749408900738,-0.0164531655609608,-0.00331831723451614,-0.00353288627229631,-0.0659476816654205
92,-0.00831542909145355,-0.0144269419834018,-0.0187647603452206,-0.00800989847630262,-0.00627843150869012,-0.0747346878051758
93,-0.0104626221582294,-0.0126698007807136,-0.0224497746676207,-0.0137950638309121,-0.010928806848824,-0.0841326043009758
94,-0.0130257625132799,-0.0121185155585408,-0.0252454504370689,-0.017790462821722,-0.0159351583570242,-0.0914849638938904
95,-0.0144922956824303,-0.011466789059341,-0.0259273070842028,-0.0187347624450922,-0.0198895260691643,-0.0957599505782127
96,-0.0137914260849357,-0.00970724131911993,-0.0242640525102615,-0.0178790241479874,-0.021061772480607,-0.0979316830635071
97,-0.0115364389494061,-0.00666619651019573,-0.0212861821055412,-0.017557967454195,-0.0198053494095802,-0.0995873287320137
98,-0.00895469821989536,-0.002873579505831,-0.0183116886764765,-0.0182468425482512,-0.0177891775965691,-0.101615972816944
99,-0.00626364350318909,0.00115161552093923,-0.0157822482287884,-0.0182728879153728,-0.015713257715106,-0.103676848113537
100,-0.00377121544443071,0.00483823474496603,-0.0139547567814589,-0.0171360429376364,-0.0145729379728436,-0.105527006089687
101,-0.00223922077566385,0.00765618495643139,-0.0129469465464354,-0.0160455163568258,-0.0150720458477736,-0.107637792825699
102,-0.00172360194846988,0.00983245950192213,-0.0123270126059651,-0.015461697243154,-0.0161048322916031,-0.109736926853657
103,-0.000846743350848556,0.0122056612744927,-0.010841534473002,-0.0139416456222534,-0.0156938899308443,-0.110028594732285
104,0.00135813700035214,0.014809874817729,-0.00764757907018065,-0.0106610674411058,-0.0132010290399194,-0.107856065034866
105,0.00388535717502236,0.0165479779243469,-0.00398241030052304,-0.00749885523691773,-0.0105190724134445,-0.105256333947182
106,0.00424848403781652,0.0159339401870966,-0.00311234570108354,-0.00777067476883531,-0.0112824318930507,-0.105704486370087
107,0.0018411650089547,0.0128061706200242,-0.00623562000691891,-0.0118230972439051,-0.0159361008554697,-0.110673390328884
108,0.000420142750954255,0.00949841924011707,-0.00888972822576761,-0.0147900991141796,-0.019109133630991,-0.116434253752232
109,0.00217965268529952,0.00783452019095421,-0.00747434003278613,-0.013931673951447,-0.0173824783414602,-0.119013950228691
110,0.00509681832045317,0.00733695179224014,-0.0039804968982935,-0.0118677737191319,-0.0130691593512893,-0.118477568030357
111,0.00616513099521399,0.00625078612938523,-0.00273974565789104,-0.0123368324711919,-0.0107690682634711,-0.117598906159401
112,0.00475269602611661,0.00401829602196813,-0.004962676204741,-0.0158105306327343,-0.0124121280387044,-0.117917992174625
113,0.00373901287093759,0.00234377896413207,-0.00706166215240955,-0.0182732008397579,-0.0146880298852921,-0.117473691701889
114,0.00484535424038768,0.00194007554091513,-0.00651601841673255,-0.017339525744319,-0.0144816720858216,-0.115309745073318
115,0.0067209112457931,0.00175096408929676,-0.00469833798706532,-0.0150761632248759,-0.0126097965985537,-0.113135032355785
116,0.00728155206888914,0.000607597816269845,-0.00441800011321902,-0.0146017046645284,-0.0118177635595202,-0.113351300358772
117,0.00667241262272,-0.00111857301089913,-0.00557447178289294,-0.0159640330821276,-0.0122723374515772,-0.115718640387058
118,0.00562227237969637,-0.0029290122911334,-0.00671203620731831,-0.0180919989943504,-0.012771250680089,-0.118014708161354
119,0.00252359919250011,-0.00641923956573009,-0.00937583297491074,-0.0223503336310387,-0.0147999189794064,-0.120751410722733
120,-0.00164847529958934,-0.0110581638291478,-0.0127905579283834,-0.027286347001791,-0.0175551772117615,-0.123144343495369
121,-0.00289173051714897,-0.0136083541437984,-0.0130330305546522,-0.0287014655768871,-0.0170238073915243,-0.121556974947453
122,-0.000261761510046199,-0.0129253659397364,-0.01002845633775,-0.0263068936765194,-0.0128974337130785,-0.115315720438957
123,0.00334315211512148,-0.0103828106075525,-0.00762209761887789,-0.0237041022628546,-0.00921534840017557,-0.10758925974369
124,0.00556452758610249,-0.00715705938637257,-0.00748984888195992,-0.0229159519076347,-0.00804056879132986,-0.100495986640453
125,0.0061048879288137,-0.00362047180533409,-0.00845183525234461,-0.0229669343680143,-0.0085113849490881,-0.0936833843588829
126,0.00449904426932335,-0.00113095890264958,-0.0106559563428164,-0.0240920726209879,-0.0111199365928769,-0.0884059071540833
127,0.00232213968411088,5.67115284866304E-06,-0.0131984306499362,-0.0258172322064638,-0.0144613366574049,-0.084742434322834
128,0.00275969854556024,0.00171233166474849,-0.0136183202266693,-0.02522948756814,-0.0150676723569632,-0.0796143636107445
129,0.00605309382081032,0.00483167730271816,-0.0120055880397558,-0.0211262051016092,-0.0131921013817191,-0.0721171498298645
130,0.0100410776212811,0.00821405183523893,-0.00994419772177935,-0.0156148774549365,-0.0116235576570034,-0.0642797872424126
131,0.0124017214402556,0.0101899746805429,-0.00872865878045559,-0.0123097477480769,-0.012258579954505,-0.0574522353708744
132,0.0136437686160207,0.0109946969896555,-0.00797604117542505,-0.0113445166498423,-0.0136067476123571,-0.049884632229805
133,0.0161539614200592,0.0124272983521223,-0.00641618203371763,-0.0101392427459359,-0.0129873398691416,-0.0403375811874866
134,0.0200886577367783,0.0151720773428679,-0.00419507408514619,-0.0080181322991848,-0.0104018645361066,-0.030178789049387
135,0.0234573502093554,0.0179962236434221,-0.00239813816733658,-0.00615405896678567,-0.00753226457163692,-0.0207461602985859
136,0.0239777807146311,0.0189956203103065,-0.0024686586111784,-0.00629147328436375,-0.00642169080674648,-0.013088358566165
137,0.0210760403424501,0.0179209914058447,-0.0047942753881216,-0.00878769252449274,-0.00782880652695894,-0.00756622711196542
138,0.0160697419196367,0.0157453138381243,-0.00823075324296951,-0.012448750436306,-0.0105434786528349,-0.00401934375986457
139,0.0103375157341361,0.0129190916195512,-0.0116966078057885,-0.0163735691457987,-0.01272888854146,-0.00237420457415283
140,0.00510050263255835,0.0100096492096782,-0.0143464542925358,-0.0199885182082653,-0.013507291674614,-0.00174455030355603
141,0.00391682703047991,0.00897628255188465,-0.013818901963532,-0.0204734615981579,-0.0117627047002316,0.00130258686840534
142,0.00895964168012142,0.0109867202118039,-0.00916497502475977,-0.0159904267638922,-0.0070658684708178,0.00913903303444386
143,0.0152646647766232,0.0137696573510766,-0.0045201200991869,-0.0112096639350057,-0.002949059009552,0.018103864043951
144,0.0174755305051804,0.0149676976725459,-0.00324392248876393,-0.010497136041522,-0.00220260210335255,0.0242388192564249
145,0.0161968488246202,0.0152432005852461,-0.00419685058295727,-0.0120913842692971,-0.0035820824559778,0.0280047580599785
146,0.0145856384187937,0.0160357318818569,-0.0053724218159914,-0.012846072204411,-0.00499072065576911,0.0309810526669025
147,0.0140451807528734,0.0169603303074837,-0.00612521730363369,-0.0120671931654215,-0.00539668183773756,0.0331179201602936
148,0.0131881861016154,0.0162232238799334,-0.00707659078761935,-0.0116221103817225,-0.00541088450700045,0.033022228628397
149,0.011400637216866,0.0138399610295892,-0.00825562234967947,-0.0127069614827633,-0.00595405511558056,0.0314644686877728
150,0.00996028073132038,0.0119660459458828,-0.00912012532353401,-0.0138893276453018,-0.00709266774356365,0.0312689691781998
151,0.00863502081483603,0.0111773135140538,-0.0101412944495678,-0.014409601688385,-0.0088642630726099,0.0325341634452343
152,0.00662729656323791,0.0103312423452735,-0.0114100109785795,-0.0148568842560053,-0.0109983328729868,0.0334996357560158
153,0.00561816990375519,0.00968725886195898,-0.0113287288695574,-0.0142125505954027,-0.0116479294374585,0.0350999608635902
154,0.00745087862014771,0.0100124422460794,-0.00906512979418039,-0.0115529531612992,-0.00935595761984587,0.0386981256306171
155,0.0100718503817916,0.00962343811988831,-0.00717353168874979,-0.00946724694222212,-0.00663000531494617,0.041400283575058
156,0.0109867779538035,0.00726246042177081,-0.00767455529421568,-0.00988684687763453,-0.00628672353923321,0.040688294917345
157,0.0109305391088128,0.00469296658411622,-0.00927033741027117,-0.0111231682822108,-0.00760053750127554,0.0385600216686726
158,0.0110048446804285,0.00364282424561679,-0.0105875907465816,-0.0111879352480173,-0.00918970443308353,0.0376638993620873
159,0.0108420439064503,0.0038132646586746,-0.0117999818176031,-0.00994697213172913,-0.0108617078512907,0.0380232036113739
160,0.00973970722407103,0.0037122827488929,-0.013700813986361,-0.00925884302705526,-0.0126418834552169,0.0373103767633438
161,0.00862724240869284,0.00297475070692599,-0.0156210185959935,-0.00985757820308208,-0.0133256232365966,0.0350949093699455
162,0.0091778002679348,0.0027993181720376,-0.0159850083291531,-0.00998843740671873,-0.0117445820942521,0.0339162573218346
163,0.0111484043300152,0.00341708329506218,-0.0149666145443916,-0.00897526182234287,-0.00907634571194649,0.0345090366899967
164,0.0132952276617289,0.00382986501790583,-0.0134251099079847,-0.00785626657307148,-0.00702791661024094,0.03553781285882
165,0.0150238741189241,0.00371515564620495,-0.0115399388596416,-0.00700930552557111,-0.00586737459525466,0.0365515686571598
166,0.0154099399223924,0.00285004801116884,-0.0106245586648583,-0.00699638389050961,-0.00606106920167804,0.0361831039190292
167,0.0137776033952832,0.000413073663366959,-0.012048501521349,-0.00913330260664225,-0.00822015386074781,0.0320451259613037
168,0.0117618730291724,-0.0029985245782882,-0.0141280060634017,-0.0125716850161552,-0.0105443652719259,0.0255833230912685
169,0.0114932507276535,-0.00549786863848567,-0.0145645625889301,-0.0149672692641616,-0.0103539461269975,0.0211289804428816
170,0.0127996914088726,-0.00616187183186412,-0.0135701857507229,-0.0160278622061014,-0.00787083711475134,0.0204603374004364
171,0.0145974140614271,-0.00511897960677743,-0.0121876057237387,-0.0166163519024849,-0.00497330585494637,0.0224046278744936
172,0.016766706481576,-0.00271759950555861,-0.010397638194263,-0.0162217915058136,-0.0020417938940227,0.025585625320673
173,0.0187616050243378,0.000150158128235489,-0.00842445529997349,-0.0145235154777765,0.000846954237204045,0.0286500975489616
174,0.0193817857652903,0.00241595366969705,-0.00746471434831619,-0.01287064794451,0.00241429568268359,0.0302600562572479
175,0.0189542416483164,0.00439658714458346,-0.00748298410326242,-0.0118923587724566,0.00224455166608095,0.0308775641024113
176,0.0175824780017138,0.00614233873784542,-0.0082516660913825,-0.0121106682345271,0.000156743961269967,0.030687989667058
177,0.0142129622399807,0.00641416478902102,-0.0102328322827816,-0.0144229885190725,-0.00453687505796552,0.0285751633346081
178,0.0104841142892838,0.0058171316049993,-0.0116187920793891,-0.0169330090284348,-0.00940265972167253,0.0255309753119946
179,0.0092861307784915,0.00613987958058715,-0.00992441363632679,-0.0169420726597309,-0.0106223672628403,0.0236152447760105
180,0.00976785365492105,0.00705136777833104,-0.00590695952996612,-0.0147985368967056,-0.00903344340622425,0.0232609063386917
181,0.00977060850709677,0.00761837372556329,-0.00163300649728626,-0.0118034649640322,-0.0077825989574194,0.0246071070432663
182,0.00951403565704823,0.00809365324676037,0.00206359615549445,-0.00871557183563709,-0.00760155590251088,0.026933254674077
183,0.0101351430639625,0.00897047389298677,0.00504475040361285,-0.00620232056826353,-0.00793672911822796,0.0286258701235056
184,0.01190694142133,0.0105769652873278,0.00678096618503332,-0.00450184848159552,-0.00897336285561323,0.029665008187294
185,0.0138546628877521,0.0127214463427663,0.00550618767738342,-0.00517220003530383,-0.0117250857874751,0.0299093164503574
186,0.015916720032692,0.0156027674674988,0.00154000055044889,-0.0088617792353034,-0.0152018750086427,0.0293461754918098
187,0.0175137314945459,0.0189937110990286,-0.00313704693689942,-0.0137856043875217,-0.0181992407888174,0.0283389389514923
188,0.016434570774436,0.0209748521447182,-0.00773856416344643,-0.0183521080762148,-0.0216924771666527,0.0260859169065952
189,0.0131062651053071,0.0209331884980202,-0.0108254104852676,-0.021001324057579,-0.0254952721297741,0.0237927474081516
190,0.00935223419219255,0.0199517365545034,-0.0120311845093966,-0.0212026052176952,-0.0287088993936777,0.02405796200037
191,0.00627264659851789,0.018982820212841,-0.0124215064570308,-0.0199750363826752,-0.0307285580784082,0.0266822427511215
192,0.00517833651974797,0.0187618192285299,-0.011680131778121,-0.0181774217635393,-0.0302158500999212,0.0293768756091595
193,0.00590709550306201,0.0191733464598656,-0.00959867238998413,-0.0165345575660467,-0.027316477149725,0.0305297411978245
194,0.0065112872980535,0.0195670481771231,-0.00764977373182774,-0.0158967971801758,-0.0244280323386192,0.0299526881426573
195,0.00544814020395279,0.0198107417672873,-0.00705640530213714,-0.0164621509611607,-0.0229925625026226,0.0284787453711033
196,0.00290924147702754,0.020110821351409,-0.00766792707145214,-0.0175070408731699,-0.0231826305389404,0.0272007379680872
197,0.00129040726460516,0.0209357514977455,-0.00829244591295719,-0.0171567406505346,-0.024785066023469,0.0274033565074205
198,0.00158678367733955,0.0221191663295031,-0.00851489324122667,-0.0151132382452488,-0.0274839196354151,0.0290858410298824
199,0.00171267380937934,0.0224563274532557,-0.0093486225232482,-0.0142466956749558,-0.0309175718575716,0.0299760960042477
200,0.00149747426621616,0.0221998989582062,-0.010170878842473,-0.0148687027394772,-0.0331942774355412,0.0297811534255743
201,0.00201967661269009,0.0224317256361246,-0.00998905766755342,-0.0148462643846869,-0.0332947112619877,0.0297953095287085
202,0.00232453341595829,0.0224168244749308,-0.00972358044236898,-0.0146503997966647,-0.0324080400168896,0.0289077274501324
203,0.00230937707237899,0.0218018069863319,-0.00915785878896713,-0.0144978631287813,-0.0305357221513987,0.0269723106175661
204,0.00281097856350243,0.0213931370526552,-0.00762238958850503,-0.013203994370997,-0.0277938097715378,0.0259804353117943
205,0.00261913216672838,0.0207319892942905,-0.00708868727087975,-0.0120702348649502,-0.0268007386475801,0.0256720930337906
206,0.00113494659308344,0.0196269657462835,-0.00854554865509272,-0.0124424742534757,-0.028326665982604,0.0248824562877417
207,0.000303992535918951,0.0194401517510414,-0.00990170799195766,-0.0125612951815128,-0.029522817581892,0.0243164598941803
208,0.000401901255827397,0.0198735892772675,-0.0105170523747802,-0.0119158383458853,-0.0294715166091919,0.0234219580888748
209,2.35086990869604E-05,0.0190869551151991,-0.0110053112730384,-0.0122438995167613,-0.029339961707592,0.0206043124198914
210,-0.000327794521581382,0.0174402985721827,-0.0100376754999161,-0.0127146942541003,-0.028113404288888,0.0178883392363787
211,-0.000174046042957343,0.0164253395050764,-0.00738877151161432,-0.0115776835009456,-0.0253518428653479,0.0175555981695652
212,0.000225050709559582,0.0163897182792425,-0.00478534726426005,-0.00932140182703733,-0.0225039292126894,0.0183273982256651
213,0.00155987706966698,0.0172406248748302,-0.00285236025229096,-0.00666614342480898,-0.0203706324100494,0.0193156618624926
214,0.00355447549372911,0.0183714851737022,-0.00230690836906433,-0.00478831399232149,-0.020051147788763,0.0200884137302637
215,0.00511884829029441,0.0191061515361071,-0.0038792525883764,-0.00498560909181833,-0.0219387821853161,0.0196891687810421
216,0.00605333084240556,0.0193129014223814,-0.00663185585290194,-0.0069880485534668,-0.0242659095674753,0.0182897094637156
217,0.00562067376449704,0.0181822720915079,-0.0100648151710629,-0.0106670176610351,-0.0264164060354233,0.0154801495373249
218,0.00395501125603914,0.0155635252594948,-0.0133271403610706,-0.014686094596982,-0.0284501314163208,0.011680425144732
219,0.00289767980575562,0.0128973769024014,-0.0144099835306406,-0.0162723287940025,-0.0288768634200096,0.00919328909367323
220,0.00309237069450319,0.0110235158354044,-0.0132732512429357,-0.0152423344552517,-0.027232464402914,0.00852514710277319
221,0.0048136287368834,0.0102985808625817,-0.0107245454564691,-0.0122128939256072,-0.0235774628818035,0.00947929825633764
222,0.00812298431992531,0.0105133866891265,-0.0071578617207706,-0.00730217201635242,-0.01759690977633,0.011918936856091
223,0.0109205143526196,0.0100778816267848,-0.00445416290313005,-0.00287942844443023,-0.0113889779895544,0.0135099589824677
224,0.011202129535377,0.00798003654927015,-0.00450755516067147,-0.00173166894819587,-0.0081560667604208,0.0119715165346861
225,0.0100887650623918,0.00536573538556695,-0.00614144885912538,-0.00288612674921751,-0.00762579729780555,0.0081699313595891
226,0.00950956624001265,0.00371858733706176,-0.00703033665195107,-0.00324392016045749,-0.00760056870058179,0.00431323191151023
227,0.00881619192659855,0.0027247613761574,-0.00720159150660038,-0.00285444618202746,-0.00797463674098253,0.000822949921712279
228,0.00701238075271249,0.0020741424523294,-0.0075921667739749,-0.00329778552986681,-0.00895957741886377,-0.00157922890502959
229,0.00424247281625867,0.00223064422607422,-0.00908021256327629,-0.00500557431951165,-0.0106998402625322,-0.00195435667410493
230,0.000510146666783839,0.00250544142909348,-0.012488940730691,-0.00850542820990086,-0.0139009999111295,-0.00241823913529515
231,-0.00314017664641142,0.00225760648027062,-0.0164678562432528,-0.0126989567652345,-0.0172607507556677,-0.0041527864523232
232,-0.00496091786772013,0.00230962526984513,-0.0185199547559023,-0.01476492267102,-0.0184477474540472,-0.00483476044610143
233,-0.00456225220113993,0.00370500120334327,-0.0177697818726301,-0.0133111318573356,-0.0169467013329268,-0.00285513140261173
234,-0.00294226780533791,0.0063617555424571,-0.0154295051470399,-0.00963681377470493,-0.0141280107200146,0.000419962831074372
235,-0.00108295993413776,0.00943274330347776,-0.0128206899389625,-0.00547113409265876,-0.011281200684607,0.00334687973372638
236,-0.000175920577021316,0.0119164362549782,-0.0109261870384216,-0.00221557542681694,-0.00946455541998148,0.00492271548137069
237,-0.00148178217932582,0.0131597546860576,-0.0110759036615491,-0.00150440016295761,-0.00997732579708099,0.00412061577662826
238,-0.00364030455239117,0.0136371850967407,-0.0124242873862386,-0.00286891032010317,-0.0117267798632383,0.00180581328459084
239,-0.00341096334159374,0.0141722289845347,-0.0118976859375834,-0.00384740973822773,-0.011435454711318,0.000127811494166963
240,-0.000365635933121666,0.0146374655887485,-0.0088606821373105,-0.00351275969296694,-0.00854820944368839,-0.00026045783306472
241,0.00282293139025569,0.0144526129588485,-0.00583651382476091,-0.00308313989080489,-0.00563818914815784,-0.000563600391615182
242,0.00450983690097928,0.0136574124917388,-0.00472070695832372,-0.00324125774204731,-0.00426753703504801,-0.00179371249396354
243,0.00478623248636723,0.0122687323018909,-0.00554281193763018,-0.00390637246891856,-0.004337586928159,-0.00408076727762818
244,0.00457557896152139,0.0104187093675137,-0.00715983984991908,-0.00463129859417677,-0.00456143310293555,-0.00702540390193462
245,0.00364674138836563,0.00822957325726748,-0.00948935281485319,-0.00560789369046688,-0.00480671552941203,-0.0110602593049407
246,0.000862326414790004,0.00567004503682256,-0.0129407169297338,-0.00794887542724609,-0.0066234958358109,-0.0166089087724686
247,-0.00276502594351768,0.00354104023426771,-0.0161211173981428,-0.0111683635041118,-0.00967602618038654,-0.0210555046796799
248,-0.00613613659515977,0.00232779420912266,-0.0186131037771702,-0.0141501389443874,-0.0130678508430719,-0.0222699604928494
249,-0.0101035423576832,0.00101885234471411,-0.0222491696476936,-0.017590319737792,-0.0176882650703192,-0.0224688425660133
250,-0.0142313428223133,-0.000969676475506276,-0.0268637929111719,-0.0212571378797293,-0.0230992455035448,-0.0235405284911394
251,-0.0161222666501999,-0.0027253080625087,-0.0293794274330139,-0.0226635616272688,-0.0263527426868677,-0.0243761315941811
252,-0.0149973938241601,-0.00356527371332049,-0.0286660250276327,-0.0209172256290913,-0.0262772161513567,-0.0241873543709517
253,-0.0112664252519608,-0.00274821743369102,-0.0255480017513037,-0.0165999475866556,-0.0234786085784435,-0.022333025932312
254,-0.00597517425194383,0.000234873848967254,-0.0207513459026814,-0.0107377395033836,-0.0186991281807423,-0.0186863578855991
255,-0.00261711678467691,0.00369990523904562,-0.0164906401187181,-0.00621358677744865,-0.0140849938616157,-0.0160893257707357
256,-0.00359537033364177,0.00516089238226414,-0.0149874975904822,-0.0053706499747932,-0.0118995569646358,-0.017500888556242
257,-0.00675862701609731,0.00383319472894073,-0.0158350430428982,-0.00770352547988296,-0.0127427773550153,-0.0223098862916231
258,-0.00912734027951956,0.0008460758253932,-0.0174484644085169,-0.0112990289926529,-0.0158076416701078,-0.0279778800904751
259,-0.00963810179382563,-0.00199483730830252,-0.0185132026672363,-0.0137138720601797,-0.0191166792064905,-0.0324706472456455
260,-0.00731542101129889,-0.00290005491115153,-0.017423739656806,-0.0123742753639817,-0.0196111872792244,-0.0338433384895325
261,-0.00208399980328977,-0.00127167603932321,-0.0138896889984608,-0.00733237899839878,-0.0161437410861254,-0.031146265566349
262,0.00283330865204334,0.00112936121877283,-0.0110086444765329,-0.0027201846241951,-0.0120124071836472,-0.0266870856285095
263,0.00451551331207156,0.00255928095430136,-0.0111658861860633,-0.00168055784888566,-0.0102763697504997,-0.0236318949609995
264,0.00360986962914467,0.00297197001054883,-0.0126677500084043,-0.00343371438793838,-0.0101474607363343,-0.0224911719560623
265,0.00237166439183056,0.00336660142056644,-0.0129995029419661,-0.00546817947179079,-0.00912918709218502,-0.0211988128721714
266,0.00249992660246789,0.00477007916197181,-0.011657134629786,-0.00572605757042766,-0.00543948356062174,-0.0181489307433367
267,0.00370379001833498,0.00673827948048711,-0.0098703121766448,-0.00487375585362315,-0.000225162351853214,-0.0144085874781013
268,0.00428010988980532,0.00773853715509176,-0.00920467916876078,-0.00517171202227473,0.00312016461975873,-0.0115874409675598
269,0.00232977233827114,0.00639670807868242,-0.0114511596038938,-0.00827426929026842,0.00150622532237321,-0.0106357103213668
270,-0.00157158577349037,0.00367285846732557,-0.0162872280925512,-0.0128106521442533,-0.00440138159319758,-0.0104422681033611
271,-0.00345868431031704,0.00260673719458282,-0.0197098627686501,-0.0144574083387852,-0.00932804960757494,-0.00776932202279568
272,-0.00218640663661063,0.00342593621462584,-0.0200640391558409,-0.0127777894958854,-0.0106707541272044,-0.00288166454993188
273,-0.000690929591655731,0.00370485871098936,-0.0195174682885408,-0.0115248570218682,-0.0105197578668594,0.000627462519332767
274,-0.000214438128750771,0.00298473075963557,-0.0189161449670792,-0.01179891359061,-0.00977235473692417,0.00185908633284271
275,-0.000656496966257691,0.00224528950639069,-0.0182944573462009,-0.0125673813745379,-0.00849540159106255,0.00216688471846282
276,-0.00284689688123763,0.00144775689113885,-0.0187806207686663,-0.0136805111542344,-0.00836538150906563,0.00227615796029568
277,-0.00638946564868093,0.000228062184760347,-0.0205554533749819,-0.0151621950790286,-0.0100537892431021,0.00253231287933886
278,-0.00823908764868975,-0.00076996092684567,-0.0211677309125662,-0.0157766100019217,-0.0104482490569353,0.00391378393396735
279,-0.0070314658805728,-0.0013083181111142,-0.0192651245743036,-0.0150225199759007,-0.00749474531039596,0.00620900699868798
280,-0.00462345546111465,-0.00172373803798109,-0.0163829531520605,-0.0139163210988045,-0.00345435785129666,0.00807465054094791
281,-0.00109750288538635,-0.000879491562955081,-0.0127515476197004,-0.011490042321384,0.000616817793343216,0.010809444822371
282,0.00366751267574728,0.00167344696819782,-0.00849563349038363,-0.00716004660353065,0.00476918742060661,0.0155207337811589
283,0.00720881298184395,0.00418060226365924,-0.00548563804477453,-0.00342177343554795,0.00731793930754066,0.0198494698852301
284,0.0080845057964325,0.00516400812193751,-0.00419190200045705,-0.0018903692252934,0.00776882888749242,0.0216559208929539
285,0.0069623189046979,0.0044944048859179,-0.00372201111167669,-0.0014475955395028,0.0074848709627986,0.0212119091302156
286,0.00469830259680748,0.00291958474554121,-0.00402857828885317,-0.000485866708913818,0.00714575638994575,0.0194891914725304
287,0.00256211520172656,0.00160623306874186,-0.00478742690756917,0.000962283811531961,0.00692603876814246,0.0175856668502092
288,0.00122081162407994,0.000865541456732899,-0.00542834354564548,0.000761397299356759,0.00634247716516256,0.0163329765200615
289,-0.000800316280219704,-6.09816815995146E-05,-0.00690757855772972,-0.00247327913530171,0.00377061148174107,0.0154856620356441
290,-0.00430154940113425,-0.0015460504218936,-0.0093803945928812,-0.0069473865441978,-0.000457000394817442,0.0145333232358098
291,-0.00765957124531269,-0.00298147811554372,-0.010953419841826,-0.0096119362860918,-0.00362109835259616,0.0136897768825293
292,-0.00946203526109457,-0.0034814509563148,-0.0109386155381799,-0.0093243196606636,-0.00459309667348862,0.0137508288025856
293,-0.010075275786221,-0.00300049455836415,-0.0104815745726228,-0.00729468604549766,-0.0046215713955462,0.0148405879735947
294,-0.0107162659987807,-0.00265924050472677,-0.0107623664662242,-0.00551596190780401,-0.00530098611488938,0.0155356926843524
295,-0.0110631417483091,-0.00270078564062715,-0.011787892319262,-0.00466589257121086,-0.00677309883758426,0.0149424439296126
296,-0.00959373917430639,-0.0019670317415148,-0.0126240998506546,-0.00383271439932287,-0.0078972801566124,0.0142713468521833
297,-0.00628630351275206,-0.000446056888904423,-0.0125123839825392,-0.00229189149104059,-0.00748429680243135,0.0146562643349171
298,-0.00265300623141229,0.000913466501515359,-0.0114517752081156,-0.000356642674887553,-0.00528789358213544,0.0156361199915409
299,-0.000129028339870274,0.00201634666882455,-0.0103481272235513,0.00124067172873765,-0.00282440194860101,0.0165005587041378
300,0.00201439531520009,0.00345910782925785,-0.0090013574808836,0.00318957678973675,-0.00064791354816407,0.0182516872882843
301,0.00479563465341926,0.00509132584556937,-0.00681187119334936,0.00594861479476094,0.00182644301094115,0.0213498622179031
302,0.00707213208079338,0.0057471189647913,-0.00482070026919246,0.00778116565197706,0.00391185469925404,0.023297818377614
303,0.00820909533649683,0.00505212368443608,-0.00343122379854321,0.0080637875944376,0.00543448375537992,0.0227852519601583
304,0.00839534215629101,0.00314818974584341,-0.0030232525896281,0.00706324214115739,0.00617515621706843,0.0205967482179403
305,0.007396484259516,-2.62347894022241E-05,-0.00487230578437448,0.00454495893791318,0.00492213992401958,0.0171920359134674
306,0.00565973203629255,-0.00362920784391463,-0.00859974231570959,0.00199482217431068,0.00196832441724837,0.0138921597972512
307,0.00451539596542716,-0.00669205281883478,-0.0122775482013822,0.0015311420429498,-0.000665067927911878,0.0119360843673348
308,0.00441311532631516,-0.00951369293034077,-0.0145926075056195,0.00258265156298876,-0.0015700904186815,0.0102577516809106
309,0.00395222101360559,-0.0130452932789922,-0.0161986015737057,0.00251107686199248,-0.0016318621346727,0.0076688714325428
310,0.00283368560485542,-0.0168548002839088,-0.0175517424941063,0.00120363174937665,-0.00157871411647648,0.00601304974406958
311,0.00314093846827745,-0.0190663747489452,-0.0170615985989571,0.00134234176948667,0.000112826659460552,0.00770501419901848
312,0.00611402979120612,-0.0185706559568644,-0.0138955526053905,0.00421174243092537,0.00413711834698915,0.0124908005818725
313,0.00963886734098196,-0.0167538858950138,-0.0101040443405509,0.00792878866195679,0.0079456465318799,0.0174978356808424
314,0.0112381177023053,-0.0157635472714901,-0.00789595209062099,0.0105570880696177,0.00956534314900637,0.0200945436954498
315,0.0100506609305739,-0.0168270673602819,-0.00859390292316675,0.0109530864283443,0.00866136513650417,0.0191859342157841
316,0.00577234709635377,-0.0205906573683023,-0.0130161717534065,0.00792553834617138,0.00473002064973116,0.014308693818748
317,-0.000187646219274029,-0.0261543709784746,-0.0197655986994505,0.00238724960945547,-0.000872849836014211,0.00659802602604032
318,-0.00498229218646884,-0.0315666273236275,-0.025514280423522,-0.00251850648783147,-0.00503399362787604,-0.00117017363663763
319,-0.00647898949682713,-0.0354494862258434,-0.0274160802364349,-0.00372398807667196,-0.00557111203670502,-0.00668002152815461
320,-0.0061529497615993,-0.0382907576858997,-0.0271290224045515,-0.00284266844391823,-0.00468984013423324,-0.0119145149365067
321,-0.00702629610896111,-0.0412831529974937,-0.0284128151834011,-0.00398809695616364,-0.00597739964723587,-0.0204735770821571
322,-0.00846276618540287,-0.0439026243984699,-0.0306714605540037,-0.00663337111473084,-0.00818848237395287,-0.0312330741435289
323,-0.00880048330873251,-0.0455544143915176,-0.03181092441082,-0.00838210806250572,-0.00907451380044222,-0.0410538204014301
324,-0.00839608628302813,-0.0466977432370186,-0.0318230055272579,-0.00892015267163515,-0.00863771792501211,-0.0486314818263054
325,-0.00708491588011384,-0.0469796136021614,-0.0305721368640661,-0.00768116861581802,-0.00646468158811331,-0.0530199445784092
326,-0.00441973702982068,-0.0457219555974007,-0.027860801666975,-0.00411183759570122,-0.00270351348444819,-0.0537999048829079
327,-0.000975043745711446,-0.0434802211821079,-0.0241725873202085,0.000603586086072028,0.00145102292299271,-0.0525519214570522
328,0.00206655077636242,-0.0418392419815063,-0.0205160360783339,0.0045353383757174,0.00501768803223968,-0.052108820527792
329,0.00341023015789688,-0.041788212954998,-0.0182873886078596,0.00724514946341515,0.00724816555157304,-0.0540294721722603
330,0.00276035442948341,-0.0430554300546646,-0.0177011508494616,0.00969426985830069,0.00837242789566517,-0.0580514892935753
331,0.00119324447587132,-0.0446151383221149,-0.0171059556305408,0.0121901305392385,0.0103630926460028,-0.0629666224122047
332,1.59503761096857E-05,-0.0451186634600163,-0.0151769910007715,0.0143095226958394,0.0145354336127639,-0.0670274123549461
333,-0.000435005582403392,-0.0447925254702568,-0.0133007317781448,0.0147903952747583,0.0186392404139042,-0.0705762058496475
334,-0.000335089716827497,-0.0449102595448494,-0.013285756111145,0.0129338521510363,0.0201346296817064,-0.0751951709389687
335,3.60766425728798E-05,-0.045320812612772,-0.0144991995766759,0.010421609506011,0.0193375945091248,-0.0799990817904472
336,-0.000395929877413437,-0.0455165393650532,-0.0161508452147245,0.00844084098935127,0.0169089790433645,-0.0835332125425339
337,-0.00273344572633505,-0.0457213781774044,-0.0187967158854008,0.00583799183368683,0.0130123822018504,-0.086678221821785
338,-0.00551064964383841,-0.0454454869031906,-0.021299934014678,0.00289412401616573,0.00975878816097975,-0.0898706018924713
339,-0.00625318009406328,-0.043991893529892,-0.0213212165981531,0.00188899540808052,0.00950490590184927,-0.0915690138936043
340,-0.00497521832585335,-0.0417341366410255,-0.0191183220595121,0.00320227444171906,0.0118297291919589,-0.0914885997772217
341,-0.00316435028798878,-0.0390456020832062,-0.016736289486289,0.00540946517139673,0.0144263934344053,-0.0910257920622826
342,-0.00178875192068517,-0.0358115881681442,-0.0152540635317564,0.00725035648792982,0.015652846544981,-0.0908214673399925
343,-0.000433908659033477,-0.0320674069225788,-0.0139394784346223,0.00831270683556795,0.0163696929812431,-0.0904273018240929
344,0.00132068456150591,-0.0285463146865368,-0.0121266385540366,0.0083393482491374,0.0174866933375597,-0.0902922004461288
345,0.0024317461065948,-0.0261751543730497,-0.010982901789248,0.00675918022170663,0.017698971554637,-0.0919663682579994
346,0.00227004149928689,-0.0248326286673546,-0.0112025169655681,0.00412240298464894,0.0161206796765327,-0.0956916809082031
347,0.00157019449397922,-0.0236513875424862,-0.0117278508841991,0.00193809706252068,0.0136796524748206,-0.0996082276105881
348,0.000548687763512135,-0.0220283269882202,-0.0121188424527645,0.000686669605784118,0.0109872287139297,-0.101959690451622
349,-0.00188874325249344,-0.0201318990439177,-0.0135245909914374,-0.000947877822909504,0.00722433254122734,-0.103607051074505
350,-0.00456600729376078,-0.0174685940146446,-0.0150957209989429,-0.0025860492605716,0.00343707925640047,-0.104848928749561
351,-0.00449719047173858,-0.0128062162548304,-0.0139954732730985,-0.0016936786705628,0.0024324469268322,-0.103562712669373
352,-0.00236126244999468,-0.00694120861589909,-0.0107195200398564,0.00115367327816784,0.00324096414260566,-0.100461676716805
353,-0.000438430928625166,-0.00140597694553435,-0.00763544579967856,0.00385180558077991,0.00328695098869503,-0.097800113260746
354,0.0004686014726758,0.00304746301844716,-0.00549915293231606,0.00508763175457716,0.00229578698053956,-0.095978707075119
355,0.000614506017882377,0.00617528287693858,-0.00372050888836384,0.00398865155875683,0.000971005123574287,-0.0940732061862946
356,0.000602767802774906,0.00845857057720423,-0.00207723677158356,0.00126549683045596,-0.000402186560677364,-0.090409554541111
357,0.000101533085398842,0.0100158974528313,-0.00142152805346996,-0.00207196339033544,-0.00207023066468537,-0.0854056254029274
358,-0.000281436223303899,0.011463288217783,-0.000919446407351643,-0.00464213453233242,-0.00293756416067481,-0.0807304829359055
359,0.000232608945225365,0.013648928143084,0.000497160421218723,-0.00605719117447734,-0.00217957026325166,-0.0772976279258728
360,0.00093622348504141,0.0164239518344402,0.00226658815518022,-0.0074129537679255,-0.000820301764179021,-0.0750406011939049
361,0.00207056268118322,0.0200433488935232,0.00475491164252162,-0.0078983111307025,0.00106260715983808,-0.0719289779663086
362,0.00397418532520533,0.0244929827749729,0.00784264318645,-0.00697274133563042,0.00362855056300759,-0.067021980881691
363,0.0058442298322916,0.0288332849740982,0.010106910020113,-0.00617083301767707,0.00619688676670194,-0.0618829242885113
364,0.00767052313312888,0.0326524339616299,0.0121028842404485,-0.00551414582878351,0.0092697786167264,-0.0566916167736053
365,0.00942780263721943,0.0354919843375683,0.0148529391735792,-0.00420178705826402,0.0129639944061637,-0.0501230210065842
366,0.00997249595820904,0.0366168804466724,0.0170149672776461,-0.00299780815839767,0.0154013046994805,-0.0412366539239883
367,0.00895677506923676,0.0362254828214645,0.0173039250075817,-0.00252667884342372,0.015372215770185,-0.0295303612947464
368,0.00723467161878943,0.0351407825946808,0.0164170693606138,-0.00242504733614624,0.0136581240221858,-0.0160269178450108
369,0.00595345301553607,0.0342141576111317,0.0158846825361252,-0.00217091641388834,0.0120582198724151,-0.00270163314417005
370,0.0048821265809238,0.0336451567709446,0.0156245734542608,-0.00234770285896957,0.0107645904645324,0.0083831949159503
371,0.00292719597928226,0.0333055071532726,0.0145376874133945,-0.00380446994677186,0.00844008475542068,0.0158435814082623
372,0.00129882281180471,0.0338782742619514,0.0135464118793607,-0.00515013886615634,0.00610940624028444,0.0208991263061762
373,0.00207095290534198,0.0357514023780823,0.0143861630931497,-0.00442552240565419,0.00582318240776658,0.0251456033438444
374,0.00583769800141454,0.038520410656929,0.0174688789993525,-0.00120328937191516,0.00777958193793893,0.0288660526275635
375,0.0115783363580704,0.041734904050827,0.0216924659907818,0.00350486929528415,0.0110052349045873,0.0323188602924347
376,0.0172814894467592,0.044879388064146,0.0254525206983089,0.00812583230435848,0.0145704941824079,0.0353817008435726
377,0.0203371550887823,0.0462271049618721,0.0267702750861645,0.0101498058065772,0.0165968500077724,0.0363520942628384
378,0.0192291289567947,0.0440365634858608,0.0242922399193048,0.00761203747242689,0.0152024021372199,0.0341257527470589
379,0.0155310770496726,0.0392443053424358,0.0194099489599466,0.00190361810382456,0.011732479557395,0.0299556702375412
380,0.0114270830526948,0.0337970331311226,0.0144051676616073,-0.00467995554208755,0.00844721123576164,0.0245807450264692
381,0.00808375980705023,0.0292618256062269,0.0106821386143565,-0.0104848193004727,0.00620740186423063,0.0182391311973333
382,0.00667107338085771,0.02736577950418,0.00921202916651964,-0.0139547120779753,0.00603309879079461,0.0125829307362437
383,0.00816067587584257,0.0288179088383913,0.0106244925409555,-0.0142128905281425,0.00877473130822182,0.00984446704387665
384,0.0118235731497407,0.0323293656110764,0.0142177734524012,-0.0116237588226795,0.0130931371822953,0.0100907366722822
385,0.0150152966380119,0.0354923494160175,0.0175169724971056,-0.00844797678291798,0.0159630756825209,0.00957264564931393
386,0.0157400779426098,0.0368241034448147,0.0188427660614252,-0.00697893183678389,0.0157744158059359,0.00438270810991526
387,0.0147332763299346,0.0371569953858852,0.0192314740270376,-0.00673947716131806,0.0138136642053723,-0.00502107944339514
388,0.0145151419565082,0.0382941886782646,0.0206734277307987,-0.00547086587175727,0.0126595525071025,-0.0155877098441124
389,0.0169602259993553,0.0406916625797749,0.0241132099181414,-0.00186294072773308,0.01398198120296,-0.0260119568556547
390,0.0213785767555237,0.0434731133282185,0.0286212228238583,0.00348638789728284,0.0169181302189827,-0.037048514932394
391,0.0251037776470184,0.0455278232693672,0.0320864953100681,0.00845804251730442,0.0187634397298098,-0.0499296262860298
392,0.0254555754363537,0.0453699342906475,0.0326569117605686,0.00948553998023272,0.0171421691775322,-0.0659287795424461
393,0.0214962866157293,0.0420307330787182,0.0297211781144142,0.00451505417004228,0.0115513624623418,-0.0842799693346024
394,0.0159867964684963,0.0373796597123146,0.0260666310787201,-0.00264950026758015,0.00575083401054144,-0.100492656230927
395,0.0135400341823697,0.0349184945225716,0.0262696407735348,-0.00562096061185002,0.00501683261245489,-0.110340982675552
396,0.0146566638723016,0.0349325686693192,0.0297721643000841,-0.00404932117089629,0.00805509369820356,-0.115817181766033
397,0.0166015475988388,0.0348265543580055,0.0327386744320393,-0.00238773669116199,0.0100937345996499,-0.122028060257435
398,0.0183282122015953,0.0335052572190762,0.0341598466038704,-0.00251305080018938,0.0101672867313027,-0.130454614758492
399,0.0194402188062668,0.0313627608120441,0.0339943878352642,-0.00412008818238974,0.00885695405304432,-0.140180706977844
400,0.019960118457675,0.0293824840337038,0.033261876553297,-0.0056954761967063,0.00713284872472286,-0.149522036314011
401,0.0207397397607565,0.0283455885946751,0.0340317860245705,-0.00542479613795877,0.00630108779296279,-0.156966120004654
402,0.021211426705122,0.0274882055819035,0.0356966890394688,-0.00431909319013357,0.00583339016884565,-0.163296386599541
403,0.0200254749506712,0.025523642078042,0.0359588265419006,-0.00453706784173846,0.00396903231739998,-0.170263886451721
404,0.0179264303296804,0.0222345516085625,0.0347092635929585,-0.00597318075597286,0.00045515617239289,-0.178123503923416
405,0.0169684588909149,0.0183407664299011,0.0343139804899693,-0.00719949556514621,-0.00269114808179438,-0.185974642634392
406,0.0172319691628218,0.0137618212029338,0.0357397608458996,-0.00944105163216591,-0.00422347616404295,-0.195031374692917
407,0.01612932048738,0.00752230314537883,0.0364898256957531,-0.0151593685150146,-0.00637053931131959,-0.207561060786247
408,0.0120716011151671,0.000520327070262283,0.0347803346812725,-0.0220877211540937,-0.011512509547174,-0.220850855112076
409,0.00708195380866528,-0.00430181110277772,0.0317292772233486,-0.0258394908159971,-0.0185061246156693,-0.229322001338005
410,0.00368432560935616,-0.00516443187370896,0.0282777100801468,-0.0254091043025255,-0.0253544878214598,-0.230909571051598
411,0.00243044691160321,-0.00317242997698486,0.024359779432416,-0.0230649206787348,-0.0303615853190422,-0.22868025302887
412,0.00297859590500593,-0.000965690705925226,0.0202013067901134,-0.0227883793413639,-0.0315770395100117,-0.228184059262276
413,0.00387967843562365,-1.02099975265446E-05,0.015976931899786,-0.0270061958581209,-0.0304218959063292,-0.231290981173515
414,0.0031025717034936,0.000404704594984651,0.0116205448284745,-0.0335963033139706,-0.0312464702874422,-0.234773024916649
415,0.00158113159704953,0.00232124654576182,0.00843728985637426,-0.0373446121811867,-0.035048246383667,-0.233840703964233
416,0.00167483033146709,0.00662121269851923,0.00783396232873201,-0.0359999537467957,-0.03955003246665,-0.227170065045357
417,0.00262708473019302,0.0109427161514759,0.00876992102712393,-0.0328683592379093,-0.0445624999701977,-0.219484910368919
418,0.00215758802369237,0.0121253579854965,0.00857141707092524,-0.0329446345567703,-0.0519264601171017,-0.21620175242424
419,0.00097720674239099,0.0105202812701464,0.00561527209356427,-0.0385937318205833,-0.0611562505364418,-0.217313319444656
420,0.00165286636911333,0.00921539310365915,-0.00043998152250424,-0.0490310825407505,-0.0705352276563644,-0.219258472323418
421,0.00448082713410258,0.0103074302896857,-0.0102721126750112,-0.0622037351131439,-0.0810740143060684,-0.218883842229843
422,0.00717695150524378,0.0132310604676604,-0.0242439601570368,-0.0759888887405396,-0.0948618054389954,-0.214854672551155
423,0.0077962321229279,0.0158306490629911,-0.0400145761668682,-0.0884554609656334,-0.110690496861935,-0.208546534180641
424,0.00677676824852824,0.0169826466590166,-0.0538153871893883,-0.0983140245079994,-0.125016659498215,-0.202482178807259
425,0.00614678766578436,0.0173065513372421,-0.0639436915516853,-0.105881251394749,-0.135844737291336,-0.19822746515274
426,0.007311359513551,0.0177912134677172,-0.070936419069767,-0.112714067101479,-0.143493488430977,-0.196185648441315
427,0.00908404961228371,0.0185574349015951,-0.0772955641150475,-0.120828725397587,-0.150558456778526,-0.196372702717781
428,0.0100094797089696,0.0198219958692789,-0.0847815275192261,-0.130203619599342,-0.159221842885017,-0.19779460132122
429,0.011335869319737,0.0229217000305653,-0.0914557874202728,-0.136950433254242,-0.167976006865501,-0.197476848959923
430,0.0139817921444774,0.0278529450297356,-0.0965321436524391,-0.139330789446831,-0.174970358610153,-0.194252401590347
431,0.0159873813390732,0.0324774943292141,-0.103324763476849,-0.141548737883568,-0.181800588965416,-0.191075533628464
432,0.015854686498642,0.0358783565461636,-0.113340839743614,-0.146903663873672,-0.189955815672874,-0.190150499343872
433,0.0151761192828417,0.0390974134206772,-0.123536601662636,-0.153626501560211,-0.197316616773605,-0.190693005919456
434,0.0158938094973564,0.0426564104855061,-0.131099328398705,-0.15894927084446,-0.201868772506714,-0.191678419709206
435,0.0165087450295687,0.0451814122498035,-0.137932181358337,-0.16396988928318,-0.206031560897827,-0.194121509790421
436,0.0149290468543768,0.0457235425710678,-0.147053927183151,-0.170734643936157,-0.212494507431984,-0.198899880051613
437,0.0120849842205644,0.0454453527927399,-0.157153010368347,-0.177617698907852,-0.219770044088364,-0.204228982329369
438,0.00903642922639847,0.0454157367348671,-0.165202647447586,-0.182551249861717,-0.225628361105919,-0.208001032471657
439,0.00699329143390059,0.0462554693222046,-0.169286504387856,-0.184557184576988,-0.228283271193504,-0.208279028534889
440,0.00926720630377531,0.0490961708128452,-0.167723372578621,-0.182226434350014,-0.225054085254669,-0.203434586524963
441,0.0169000066816807,0.0541926547884941,-0.161047384142876,-0.176106572151184,-0.215767219662666,-0.194845080375671
442,0.0262530837208033,0.0601571314036846,-0.152764961123466,-0.169453144073486,-0.204045176506042,-0.186313107609749
443,0.0323514118790627,0.0647051706910133,-0.146710768342018,-0.165596142411232,-0.194320946931839,-0.181178569793701
444,0.0332677476108074,0.0663879662752151,-0.144318595528603,-0.165202081203461,-0.188372135162354,-0.179989784955978
445,0.0319237448275089,0.0662662833929062,-0.143000572919846,-0.165364176034927,-0.183369338512421,-0.180193558335304
446,0.0318574234843254,0.0661296397447586,-0.139808833599091,-0.163285151124001,-0.176327794790268,-0.179014101624489
447,0.0329232141375542,0.065968781709671,-0.135743275284767,-0.159675016999245,-0.168511584401131,-0.17631883919239
448,0.0333775542676449,0.064667135477066,-0.13312067091465,-0.15661646425724,-0.161751613020897,-0.173655346035957
449,0.0325317122042179,0.0615671575069427,-0.132161200046539,-0.154427662491798,-0.15586993098259,-0.171480923891068
450,0.030255014076829,0.0566850677132607,-0.13173796236515,-0.15198440849781,-0.150229722261429,-0.169177025556564
451,0.0280153192579746,0.0514003746211529,-0.129454672336578,-0.147110059857368,-0.142624124884605,-0.165460020303726
452,0.0264804475009441,0.0465547516942024,-0.124691784381866,-0.140079095959663,-0.132624268531799,-0.160867646336555
453,0.024184837937355,0.0411923825740814,-0.119859397411346,-0.134388670325279,-0.123170055449009,-0.158028304576874
454,0.0212366580963135,0.0355971045792103,-0.116201892495155,-0.131115168333054,-0.115513324737549,-0.157288208603859
455,0.0178697109222412,0.0305550526827574,-0.114593125879765,-0.129514947533607,-0.110071934759617,-0.157837942242622
456,0.0141905443742871,0.0259453412145376,-0.115130364894867,-0.12816858291626,-0.106209121644497,-0.158796235918999
457,0.0121892290189862,0.0220920369029045,-0.114813081920147,-0.124670594930649,-0.10053738206625,-0.157918527722359
458,0.0133027462288737,0.0196012873202562,-0.110855773091316,-0.118022084236145,-0.0908378213644028,-0.152963161468506
459,0.0160795450210571,0.0181184038519859,-0.103587783873081,-0.108575575053692,-0.0779575705528259,-0.143790170550346
460,0.0177408214658499,0.0165376663208008,-0.0948143377900124,-0.0976138040423393,-0.0637877732515335,-0.132747307419777
461,0.018218444660306,0.0146185616031289,-0.0853774324059486,-0.0865929424762726,-0.0497950799763203,-0.121358662843704
462,0.0198813062161207,0.0129575654864311,-0.0757522135972977,-0.0757990926504135,-0.037190105766058,-0.109222680330276
463,0.0230477415025234,0.0119173051789403,-0.0671845898032188,-0.0649202764034271,-0.0270330104976892,-0.0965029001235962
464,0.0255330167710781,0.01125368475914,-0.0605759099125862,-0.0543464347720146,-0.0196344200521708,-0.0842874199151993
465,0.026048231869936,0.0105720460414886,-0.0556578859686852,-0.0450336672365665,-0.013916508294642,-0.073287345468998
466,0.0251519400626421,0.00994035787880421,-0.0516002289950848,-0.0371299684047699,-0.00843274220824242,-0.0633013918995857
467,0.022962462157011,0.0087046604603529,-0.0483035109937191,-0.0310969147831202,-0.00360867008566856,-0.0551023446023464
468,0.0197383742779493,0.00578431971371174,-0.0455923490226269,-0.0274883285164833,9.27438159123994E-05,-0.0500193648040295
469,0.0178314838558435,0.00210429262369871,-0.0416917614638805,-0.0243350900709629,0.00465621147304773,-0.0466561280190945
470,0.0186968129128218,-0.000619453145191073,-0.0358818769454956,-0.0196773819625378,0.0113400733098388,-0.0425967760384083
471,0.0213367845863104,-0.00163188041187823,-0.0295828208327293,-0.0132284900173545,0.0191318467259407,-0.0361142382025719
472,0.023620305582881,-0.00148503761738539,-0.0243479516357183,-0.00521086109802127,0.0265892073512077,-0.0266260523349047
473,0.0224830210208893,-0.00257031316868961,-0.0212866496294737,0.00255983509123325,0.032130591571331,-0.0167312193661928
474,0.0175496712327003,-0.00642475951462984,-0.0195169001817703,0.00856541935354471,0.0357615984976292,-0.0088787479326129
475,0.0130455056205392,-0.0113296955823898,-0.0161959268152714,0.0139477057382464,0.0404682494699955,-0.00177980249281973
476,0.0120227076113224,-0.0149152353405952,-0.0104963928461075,0.0197475757449865,0.0481600053608418,0.0061630173586309
477,0.0124750379472971,-0.0171766262501478,-0.00518170930445194,0.0244003590196371,0.0556748621165752,0.0142307663336396
478,0.0115166306495667,-0.0188874695450068,-0.00237211724743247,0.0272654909640551,0.059220515191555,0.0228499826043844
479,0.00912965647876263,-0.0198978576809168,-0.000568030460271984,0.0308562368154526,0.0597147531807423,0.0337039157748222
480,0.00678857741877437,-0.0206434726715088,0.00266180722974241,0.0365235432982445,0.0605126097798347,0.0453712940216064
481,0.00505759101361036,-0.0224261097609997,0.00707469461485744,0.0420069545507431,0.0628683716058731,0.0542677491903305
482,0.00379704451188445,-0.0253022126853466,0.0109122646972537,0.0451087206602097,0.0658852308988571,0.0591178648173809
483,0.00298812473192811,-0.0280292481184006,0.0134849790483713,0.0460455343127251,0.0688675567507744,0.0617275685071945
484,0.00202683988027275,-0.030025627464056,0.0148644680157304,0.0462036840617657,0.0715682059526443,0.0647054463624954
485,0.000712898618075997,-0.0313026197254658,0.0162250846624374,0.0481585822999477,0.0743062943220139,0.0702709555625916
486,-0.00058526371140033,-0.0322646908462048,0.0187518615275621,0.0532076209783554,0.0774286612868309,0.0783219188451767
487,-0.00165196950547397,-0.0334254130721092,0.0224961321800947,0.0598447769880295,0.0810956805944443,0.0865927338600159
488,-0.00191337428987026,-0.0342856608331203,0.0274760331958532,0.0666222050786018,0.0858436822891235,0.094001330435276
489,-0.00108096946496516,-0.0344587340950966,0.0333509705960751,0.0726367682218552,0.0914357304573059,0.100424192845821
490,-0.00046218917123042,-0.0350888893008232,0.0381306037306786,0.0762245580554008,0.0960257053375244,0.104700013995171
491,-0.00201873248443007,-0.0373522602021694,0.0394057370722294,0.0759926065802574,0.0978308767080307,0.10569129884243
492,-0.00543613731861115,-0.0404412671923637,0.0377044416964054,0.0733181312680244,0.0977146551012993,0.104447327554226
493,-0.00860830117017031,-0.0426594316959381,0.0357021950185299,0.0715307742357254,0.0980251654982567,0.103631660342216
494,-0.00995718501508236,-0.0433532148599625,0.035765890032053,0.0730520710349083,0.1003178358078,0.105514265596867
495,-0.00947059597820044,-0.0429452434182167,0.0387542508542538,0.0776593685150146,0.104577124118805,0.110244631767273
496,-0.00790115259587765,-0.0418729968369007,0.0439452081918716,0.0841196477413177,0.109688930213451,0.116749450564384
497,-0.00494491122663021,-0.04029930382967,0.0506124272942543,0.092476449906826,0.115068383514881,0.124377235770226
498,-0.00146131054498255,-0.0394501239061356,0.0569346994161606,0.100418522953987,0.119188040494919,0.130460128188133
499,0.00103476911317557,-0.0398387797176838,0.0610594898462296,0.104310125112534,0.120618522167206,0.132920533418655
500,0.00288376468233764,-0.039987925440073,0.0632405132055283,0.104105830192566,0.120268926024437,0.133619368076324
501,0.00472472654655576,-0.039280541241169,0.0647336542606354,0.101920887827873,0.119618587195873,0.134324237704277
502,0.00647830730304122,-0.0382775664329529,0.0665756464004517,0.0997035801410675,0.1196134313941,0.13546584546566
503,0.00643406622111797,-0.0383503027260304,0.0676773637533188,0.0973397865891457,0.11917882412672,0.136320814490318
504,0.00385147775523365,-0.040315255522728,0.0674024522304535,0.0946743711829185,0.117648042738438,0.136403441429138
505,0.000866412825416774,-0.042954333126545,0.0675427243113518,0.0934387221932411,0.117352448403835,0.136946558952332
506,-0.00158653280232102,-0.0453895963728428,0.068241760134697,0.0936762467026711,0.119167119264603,0.137986838817596
507,-0.00332585885189474,-0.0470134057104588,0.0690622553229332,0.0948712378740311,0.12219463288784,0.139521464705467
508,-0.00358997960574925,-0.0467705689370632,0.0706201419234276,0.0972500964999199,0.125852808356285,0.142384573817253
509,-0.00231493776664138,-0.0444063134491444,0.0729189962148666,0.100487090647221,0.129560068249702,0.146029353141785
510,0.000150161969941109,-0.0407881177961826,0.075567290186882,0.10440756380558,0.132933884859085,0.149547979235649
511,0.00277399970218539,-0.0374211631715298,0.0781621411442757,0.108618088066578,0.135599285364151,0.152532711625099
512,0.00491866329684854,-0.0349624678492546,0.0811570510268211,0.113014161586761,0.138087898492813,0.155330717563629
513,0.00643640942871571,-0.0334125459194183,0.0849149078130722,0.117317661643028,0.141133949160576,0.158300697803497
514,0.0068171308375895,-0.0332415476441383,0.0883268117904663,0.12008460611105,0.144293308258057,0.160418033599854
515,0.00537617737427354,-0.0349249579012394,0.0894459336996078,0.119675561785698,0.145603105425835,0.160163655877113
516,0.0026484860572964,-0.0374114364385605,0.0878269374370575,0.116541109979153,0.143646091222763,0.158087715506554
517,0.000950239482335746,-0.0384314507246017,0.0857657194137573,0.113512180745602,0.140458807349205,0.15656079351902
518,0.000908188987523317,-0.0375312156975269,0.0847661420702934,0.11225251108408,0.138384014368057,0.155955195426941
519,-0.000209886944503523,-0.0369330681860447,0.0828886330127716,0.111406676471233,0.135998249053955,0.153811618685722
520,-0.00461898138746619,-0.0383709110319614,0.0781227424740791,0.108992524445057,0.131086990237236,0.148421168327332
521,-0.010132048279047,-0.0404094681143761,0.0727699175477028,0.106403462588787,0.125738874077797,0.141880512237549
522,-0.0133064966648817,-0.0410682559013367,0.0705310106277466,0.106501720845699,0.123832859098911,0.137090444564819
523,-0.0143148237839341,-0.0410949550569057,0.0712210610508919,0.108053475618362,0.124951384961605,0.133334428071976
524,-0.0135059850290418,-0.0406745858490467,0.0737576112151146,0.109497606754303,0.127501517534256,0.130520775914192
525,-0.00924346316605806,-0.0379212982952595,0.0786585211753845,0.112479440867901,0.132490336894989,0.131202146410942
526,-0.0029723746702075,-0.0334846526384354,0.0845470279455185,0.116663932800293,0.139142945408821,0.134552359580994
527,0.000780878937803209,-0.0308859292417765,0.088102325797081,0.1190330311656,0.143828943371773,0.136226430535316
528,-0.000511903781443834,-0.0328228324651718,0.0865085199475288,0.11674265563488,0.142937272787094,0.132760271430016
529,-0.00428136438131332,-0.0382494479417801,0.0807738527655602,0.110268652439117,0.13696064054966,0.124974116683006
530,-0.0056864470243454,-0.0432360619306564,0.0760267078876495,0.104313038289547,0.131493583321571,0.117603652179241
531,-0.00347666209563613,-0.0456174649298191,0.0751011669635773,0.10226333886385,0.130304783582687,0.113968089222908
532,-0.000241544228629209,-0.0461626574397087,0.0759654566645622,0.103122524917126,0.131448894739151,0.113500818610191
533,0.000777716224547476,-0.0463802330195904,0.075104832649231,0.103692874312401,0.130611881613731,0.113339558243752
534,-0.0015420428244397,-0.0469216033816338,0.0711629316210747,0.102103866636753,0.126070976257324,0.11114152520895
535,-0.00606049643829465,-0.0478775203227997,0.065695732831955,0.0987523570656776,0.119835995137692,0.106732070446014
536,-0.0105163715779781,-0.0488761439919472,0.061688270419836,0.0956909283995628,0.115438565611839,0.102162808179855
537,-0.0127281239256263,-0.0489437393844128,0.0615117251873016,0.095413438975811,0.115173436701298,0.099875696003437
538,-0.0128335524350405,-0.0481872744858265,0.0644000098109245,0.0977129340171814,0.117858156561852,0.0996093079447746
539,-0.0124672139063478,-0.0479374118149281,0.0672968104481697,0.100061632692814,0.120397813618183,0.0989892184734344
540,-0.0121480971574783,-0.048843078315258,0.0683173984289169,0.100688174366951,0.120907492935658,0.0961241945624352
541,-0.010733725503087,-0.0498088449239731,0.0683984830975533,0.100225560367107,0.119984902441502,0.0914228707551956
542,-0.00820368900895119,-0.0498784966766834,0.0686051398515701,0.0996257215738297,0.118721522390842,0.0855582058429718
543,-0.00662724347785115,-0.049867931753397,0.0679304376244545,0.0980984419584274,0.116686835885048,0.0776140913367271
544,-0.0064057307317853,-0.0503813922405243,0.0662523731589317,0.0956229493021965,0.114033587276936,0.0689441934227943
545,-0.00597535306587815,-0.05058503895998,0.0652998387813568,0.0937112867832184,0.112670563161373,0.0632383823394775
546,-0.00507581187412143,-0.049900908023119,0.0656390711665154,0.0930784642696381,0.113550312817097,0.061420414596796
547,-0.00495137227699161,-0.0493285991251469,0.066269114613533,0.0932548493146896,0.115447796881199,0.0610299780964851
548,-0.00639214273542166,-0.0499214045703411,0.0663202181458473,0.093534342944622,0.116340890526772,0.0602732300758362
549,-0.00833259988576174,-0.0508568286895752,0.065601609647274,0.0932239294052124,0.11534521728754,0.0594071596860886
550,-0.00834178738296032,-0.0504364036023617,0.0647522360086441,0.0924477949738503,0.114018432796001,0.0590574666857719
551,-0.00600034557282925,-0.0485964976251125,0.0638464018702507,0.0914742425084114,0.113414257764816,0.0590445138514042
552,-0.00438231788575649,-0.0474882461130619,0.0613695420324802,0.0889601036906242,0.111744113266468,0.057812687009573
553,-0.00474704708904028,-0.0479815378785133,0.0580152869224548,0.0852541401982307,0.109194494783878,0.0551564767956734
554,-0.00399595079943538,-0.0473557263612747,0.0577957108616829,0.0842599645256996,0.109405174851418,0.0543829686939716
555,-0.00129782652948052,-0.0442280620336533,0.0611187964677811,0.0866682529449463,0.112274184823036,0.0565795451402664
556,-9.16722347028553E-05,-0.0416481383144856,0.0630484521389008,0.0876202061772347,0.113244064152241,0.0577158220112324
557,-0.00182618980761617,-0.0419872626662254,0.0611813850700855,0.0844312980771065,0.111087471246719,0.0553529895842075
558,-0.00451438035815954,-0.0438064783811569,0.0575949512422085,0.0795090273022652,0.108183763921261,0.0516603216528893
559,-0.00560718588531017,-0.044325266033411,0.0548027716577053,0.0762954577803612,0.106172688305378,0.050019908696413
560,-0.00375909893773496,-0.0425665378570557,0.0541573986411095,0.0761253461241722,0.10564024746418,0.051631286740303
561,7.2073278715834E-05,-0.0396525524556637,0.0550118908286095,0.0779298841953278,0.10592270642519,0.0549785979092121
562,0.00398193951696157,-0.0367529764771461,0.0561174377799034,0.0799671560525894,0.105760879814625,0.0581387020647526
563,0.00679076695814729,-0.0346577540040016,0.0569702014327049,0.0804569125175476,0.104740031063557,0.0599677301943302
564,0.00736827636137605,-0.0342557318508625,0.0560863018035889,0.0778271183371544,0.102099306881428,0.0597527697682381
565,0.00510403886437416,-0.0354110226035118,0.0519751831889153,0.0722686871886253,0.0970596075057983,0.0576301775872707
566,0.00192370626609772,-0.036531038582325,0.0463743470609188,0.0664927586913109,0.0913336873054504,0.0557201728224754
567,0.000819434644654393,-0.0365376323461533,0.0427905730903149,0.0632595866918564,0.0879132226109505,0.0562433116137981
568,0.00222840742208064,-0.0358889810740948,0.0423588119447231,0.0624113902449608,0.0875009298324585,0.0586884617805481
569,0.00342003721743822,-0.0362312346696854,0.042622085660696,0.0610841102898121,0.0874432176351547,0.0607107989490032
570,0.00299487332813442,-0.0379246734082699,0.0418995097279549,0.0584141723811626,0.0862241685390472,0.0621487163007259
571,0.00287857837975025,-0.0388062037527561,0.0419557616114616,0.0569253116846085,0.0857946947216988,0.0654514506459236
572,0.00320276082493365,-0.0378781147301197,0.043058417737484,0.0565638020634651,0.0861522853374481,0.0703616365790367
573,0.00205142190679908,-0.0359535962343216,0.0432013235986233,0.0550496652722359,0.0850282609462738,0.0742608830332756
574,0.000346326385624707,-0.0330174826085567,0.0429364554584026,0.0533408932387829,0.0832872465252876,0.0774263516068459
575,0.000215352745726705,-0.0287456233054399,0.0438211522996426,0.0535127073526382,0.0828419774770737,0.0816596299409866
576,0.0015878229169175,-0.0238529406487942,0.045296385884285,0.0551445186138153,0.0826953426003456,0.0866820439696312
577,0.00278011499904096,-0.0199065916240215,0.0460441708564758,0.056267186999321,0.080916203558445,0.090531699359417
578,0.00243529072031379,-0.0180498771369457,0.0455756708979607,0.0558338910341263,0.0775901675224304,0.0919113233685493
579,0.0010803445475176,-0.0174390766769648,0.0447299182415009,0.0550549700856209,0.0748127773404121,0.091957300901413
580,0.000209412872209214,-0.0161535982042551,0.0450209453701973,0.0558105856180191,0.0742556527256966,0.0930997133255005
581,6.75154224154539E-05,-0.0139852296561003,0.0466496460139751,0.0576851963996887,0.0753211006522179,0.0956974998116493
582,-0.000385465216822922,-0.0121643971651793,0.0478651374578476,0.0583967827260494,0.0759513303637505,0.0980267524719238
583,-0.00128001405391842,-0.0107742324471474,0.0475632175803185,0.0577805154025555,0.0750840455293655,0.099887952208519
584,-0.0022276109084487,-0.00918250996619463,0.0457715354859829,0.057538565248251,0.0723872184753418,0.101673454046249
585,-0.00300051737576723,-0.00704004382714629,0.0432010591030121,0.0580740608274937,0.0685469284653664,0.102528415620327
586,-0.00283803534694016,-0.00417157541960478,0.0416556186974049,0.0582666844129562,0.0660569965839386,0.102278284728527
587,-0.0015337459044531,-0.00102712179068476,0.0419526919722557,0.057353463023901,0.0659560486674309,0.10193657130003
588,-0.000616837525740266,0.00112160772550851,0.0425773933529854,0.0552835687994957,0.0663271024823189,0.101441860198975
589,-0.00127268140204251,0.00154759339056909,0.0424417592585087,0.0527799241244793,0.0655689388513565,0.0999791994690895
590,-0.00140650675166398,0.00157256168313324,0.042685404419899,0.0516632162034512,0.0644011944532394,0.0986905321478844
591,-0.000122430719784461,0.00185211712960154,0.04263861104846,0.051046147942543,0.0624655000865459,0.0976249799132347
592,-0.000248723954427987,0.00131154234986752,0.0398877747356892,0.0478393398225307,0.0579616352915764,0.0945198237895966
593,-0.00185743800830096,0.000700631237123162,0.035854559391737,0.0433898717164993,0.0524600557982922,0.090722382068634
594,-0.00160753459203988,0.00203907093964517,0.0343284234404564,0.0419761426746845,0.049746822565794,0.0901561081409454
595,0.000989147811196744,0.00499625504016876,0.0355512723326683,0.0438374020159245,0.0501533560454845,0.0926091149449348
596,0.00340735074132681,0.00750107737258077,0.0369424298405647,0.0459570996463299,0.051449827849865,0.0946094617247581
597,0.00511780008673668,0.00919216964393854,0.0382291935384274,0.047785434871912,0.053535345941782,0.0951017364859581
598,0.00719352206215262,0.0114208767190576,0.0408551245927811,0.0510088689625263,0.0569929145276546,0.0960815623402596
599,0.00794119015336037,0.0137029439210892,0.043115396052599,0.0542085580527782,0.0591643825173378,0.0972534939646721
600,0.00453905900940299,0.0136749343946576,0.0416365675628185,0.0534641966223717,0.0566961877048016,0.0949552282691002
601,-0.00123018166050315,0.0114176934584975,0.0375121347606182,0.0490475036203861,0.0512793064117432,0.0888329893350601
602,-0.00469483435153961,0.00960458163172007,0.0347400680184364,0.0451645441353321,0.0473032891750336,0.0830665305256844
603,-0.00565637741237879,0.00886490475386381,0.0330567471683025,0.0429017841815948,0.0442617647349834,0.0791861265897751
604,-0.00742287840694189,0.00748508563265204,0.029295152053237,0.0401311740279198,0.0389125682413578,0.0746222734451294
605,-0.009577970020473,0.00544930528849363,0.0247146338224411,0.0370229221880436,0.0330082289874554,0.0691933706402779
606,-0.0095657529309392,0.00462970742955804,0.0229498129338026,0.0352127999067307,0.0303977951407433,0.0659456327557564
607,-0.0078489426523447,0.00580564793199301,0.0240682028234005,0.0345560610294342,0.0310322847217321,0.0659085586667061
608,-0.00630716793239117,0.0081800501793623,0.0259099751710892,0.0340640470385551,0.0326359048485756,0.0671827271580696
609,-0.0061866813339293,0.0102323042228818,0.0264476947486401,0.0325910076498985,0.032956101000309,0.0673218742012978
610,-0.00701086316257715,0.0109384637326002,0.0253381747752428,0.0301356334239244,0.0313662812113762,0.0657463520765305
611,-0.00730138039216399,0.0105347307398915,0.0237305108457804,0.0282155461609364,0.0288574136793613,0.0636702105402946
612,-0.00658493442460895,0.0100076673552394,0.022680539637804,0.0280323252081871,0.0265898741781712,0.0622650608420372
613,-0.00473650870844722,0.0104832397773862,0.0232462752610445,0.0296701062470675,0.026027787476778,0.0620670802891254
614,-0.00220620073378086,0.0117164645344019,0.0256526302546263,0.031647615134716,0.0275867432355881,0.062381137162447
615,0.000776320230215788,0.0131834400817752,0.0303068254143,0.034174382686615,0.0312331169843674,0.0638807639479637
616,0.00393764860928059,0.0149703333154321,0.0372754745185375,0.0389345660805702,0.0363613106310368,0.0678679645061493
617,0.00555951660498977,0.0163641888648272,0.0441865995526314,0.0451466590166092,0.0404479503631592,0.0728979483246803
618,0.00441455747932196,0.0170229356735945,0.0476480834186077,0.0504083223640919,0.0405192486941814,0.0771951824426651
619,0.0012338237138465,0.0175274387001991,0.0454947464168072,0.0517412647604942,0.0349482633173466,0.0792309492826462
620,-0.00177375390194356,0.0186308119446039,0.0386981405317783,0.0474083758890629,0.0253596100956202,0.0777203217148781
621,-0.0034373071976006,0.0208821706473827,0.0301468297839165,0.0390356108546257,0.0149807753041387,0.0739269256591797
622,-0.00583923514932394,0.0229942891746759,0.020732793956995,0.0287330783903599,0.00461078993976116,0.069070428609848
623,-0.0109140435233712,0.0227984413504601,0.0105503322556615,0.0168955344706774,-0.00611158180981874,0.062856063246727
624,-0.0159942042082548,0.0210992768406868,0.00289340480230749,0.00576610025018454,-0.0146444877609611,0.0583744719624519
625,-0.0179286599159241,0.0203769337385893,0.000620200473349541,-0.001245450344868,-0.0185562986880541,0.0599043257534504
626,-0.017683107405901,0.0210193693637848,0.00189844856504351,-0.00456740008667111,-0.0197388157248497,0.0660684853792191
627,-0.017410846427083,0.0222454983741045,0.00358019350096583,-0.00676041748374701,-0.0211798716336489,0.0729149729013443
628,-0.0172785315662622,0.0244394280016422,0.00512657919898629,-0.00807912927120924,-0.0232733730226755,0.0796400159597397
629,-0.0165189318358898,0.0281113609671593,0.00728973699733615,-0.00744061963632703,-0.0249730870127678,0.0869805589318275
630,-0.0155223570764065,0.0321800373494625,0.00947441067546606,-0.00548477098345757,-0.0262472406029701,0.0941877067089081
631,-0.0148400515317917,0.0354324169456959,0.010824385099113,-0.00375705701299012,-0.0277539063245058,0.100282169878483
632,-0.0138199664652348,0.0381281040608883,0.0118231456726789,-0.00238301977515221,-0.0291237812489271,0.105514287948608
633,-0.0127054788172245,0.0405939444899559,0.0128670167177916,-0.00126677146181464,-0.0301893875002861,0.109795704483986
634,-0.0132036777213216,0.0420482382178307,0.0131858205422759,-0.000952267087996006,-0.0322281457483768,0.112434633076191
635,-0.0152910435572267,0.0422082878649235,0.0126805687323213,-0.000859444495290518,-0.0351963490247726,0.114046007394791
636,-0.0167130082845688,0.0421642884612083,0.0129435313865542,0.000668433494865894,-0.0364944376051426,0.116071544587612
637,-0.01591588370502,0.0430342964828014,0.0152231827378273,0.00401915749534965,-0.0342163220047951,0.118625529110432
638,-0.0144278351217508,0.043879434466362,0.017473204061389,0.00621406128630042,-0.0309362020343542,0.11899745464325
639,-0.0140634858980775,0.0431343950331211,0.0171003378927708,0.00542310066521168,-0.0301273576915264,0.11548162996769
640,-0.0139287747442722,0.0412382706999779,0.0148047870025039,0.00441752141341567,-0.0309528838843107,0.110583402216434
641,-0.0134825706481934,0.038867175579071,0.0119321327656507,0.00442452356219292,-0.0316429361701012,0.10573648661375
642,-0.0141867734491825,0.0361731313169003,0.00886599905788898,0.00308636319823563,-0.0319978967308998,0.0998990461230278
643,-0.0179278813302517,0.0331959165632725,0.0053005893714726,-0.00131801818497479,-0.0330921560525894,0.0929804667830467
644,-0.0238021556288004,0.0297970622777939,0.00122187577653676,-0.00741614541038871,-0.0363365635275841,0.0862411633133888
645,-0.0276723001152277,0.0269343033432961,-0.00168022746220231,-0.011322365142405,-0.0403858311474323,0.0815606042742729
646,-0.0269973576068878,0.0264434702694416,-0.00134489394258708,-0.00991474464535713,-0.0417411997914314,0.080291360616684
647,-0.0232096072286367,0.0284342095255852,0.00202189316041768,-0.00441571464762092,-0.0390304066240788,0.0812952518463135
648,-0.019652271643281,0.0304944291710854,0.0053833806887269,0.000432605389505625,-0.0345615297555923,0.0812305063009262
649,-0.01922208070755,0.0301264319568872,0.00564370583742857,0.000847666466142982,-0.0321472249925137,0.0774362534284592
650,-0.0209682211279869,0.027832293882966,0.00408613588660955,-0.00182929576840252,-0.0321308597922325,0.0713029131293297
651,-0.0209755953401327,0.0256515722721815,0.00436604348942637,-0.0037002197932452,-0.0310881454497576,0.066178523004055
652,-0.0180040877312422,0.0235625654459,0.0067172204144299,-0.0041339211165905,-0.02754688821733,0.06238903850317
653,-0.012722491286695,0.0220117755234241,0.0102444076910615,-0.0029006430413574,-0.0219634454697371,0.0601383410394192
654,-0.00649540452286601,0.0223788972944021,0.0146279102191329,0.000682011770550162,-0.0153184924274683,0.0600722581148148
655,-0.0017245962517336,0.0236358717083931,0.01848329231143,0.0046249981969595,-0.00955314561724663,0.0601379238069057
656,2.87269394902978E-05,0.023504801094532,0.0200802106410265,0.00614387448877096,-0.00673083495348692,0.0574480444192886
657,-0.0012248249258846,0.0211241450160742,0.018838269636035,0.00436558714136481,-0.00760370073840022,0.0508795492351055
658,-0.00375197338871658,0.0173187144100666,0.0162346418946981,0.00104185054078698,-0.0103851947933435,0.0424148961901665
659,-0.00646492093801498,0.0126588298007846,0.0131123615428805,-0.00260469131171703,-0.0135122435167432,0.0342185497283936
660,-0.00880975089967251,0.00799443572759628,0.00989910308271647,-0.00564095936715603,-0.0158805977553129,0.0272740442305803
661,-0.00894808676093817,0.00542819453403354,0.00898357294499874,-0.00512172654271126,-0.0152951888740063,0.0234824437648058
662,-0.00744713610038161,0.00529221631586552,0.0109413042664528,-0.00143311230931431,-0.0123261725530028,0.022832965478301
663,-0.00634082872420549,0.006222914904356,0.0138956690207124,0.00175777426920831,-0.00956044066697359,0.0239218417555094
664,-0.00573151977732778,0.00730525981634855,0.0162526536732912,0.00287542538717389,-0.00802428647875786,0.0260518472641706
665,-0.00545252161100507,0.00812821928411722,0.0173079948872328,0.00255400198511779,-0.00756527343764901,0.0277344286441803
666,-0.00547884218394756,0.00878342986106873,0.0174055695533752,0.00190025928895921,-0.00741438241675496,0.0276122372597456
667,-0.00586486328393221,0.00908488221466541,0.0164431184530258,0.000691560097038746,-0.00734749250113964,0.0248348563909531
668,-0.0071723023429513,0.00826506037265062,0.013902148231864,-0.00182136672083288,-0.00795780401676893,0.0192889869213104
669,-0.00927960127592087,0.0062019219622016,0.0104273296892643,-0.00487887440249324,-0.00941862817853689,0.0128846112638712
670,-0.0111045176163316,0.00392472418025136,0.00744347088038921,-0.00689115654677153,-0.0109957987442613,0.0081549771130085
671,-0.0132896509021521,0.00144880404695868,0.00447724526748061,-0.00889360904693604,-0.0132534429430962,0.0044922698289156
672,-0.016599403694272,-0.00194079999346286,0.000849989650305361,-0.0124798202887177,-0.0169951412826777,0.000145804355270229
673,-0.018768671900034,-0.00515942368656397,-0.00151820504106581,-0.0153508456423879,-0.0201058946549892,-0.00373807130381465
674,-0.0181175116449595,-0.00685940217226744,-0.00167839217465371,-0.0154495341703296,-0.0208492930978537,-0.00589016592130065
675,-0.0155164608731866,-0.00726152211427689,-0.000707030936609954,-0.0137313567101955,-0.0201818570494652,-0.00655474048107862
676,-0.0119499070569873,-0.00706533528864384,0.000847615068778396,-0.0111903278157115,-0.0191073771566153,-0.0058145159855485
677,-0.0081495326012373,-0.00690935971215367,0.00255081802606583,-0.00853340607136488,-0.0177710894495249,-0.00415026256814599
678,-0.00582921039313078,-0.0078687472268939,0.00275784567929804,-0.00734887691214681,-0.0171664617955685,-0.0035080723464489
679,-0.00609146850183606,-0.0103213228285313,0.000740075716748834,-0.00815081316977739,-0.0183047875761986,-0.00530578289180994
680,-0.00863051041960716,-0.0134402085095644,-0.00243478151969612,-0.0100112268701196,-0.0210685860365629,-0.00868290569633245
681,-0.0130002480000257,-0.0164394117891788,-0.00605517579242587,-0.012588900513947,-0.0247294828295708,-0.0120641244575381
682,-0.0171925015747547,-0.0186377707868814,-0.00898063089698553,-0.0151949161663651,-0.0274015255272388,-0.0145642571151257
683,-0.0193707849830389,-0.019685285165906,-0.0104589005932212,-0.0170759838074446,-0.0285282488912344,-0.0163208805024624
684,-0.0201151091605425,-0.019747382029891,-0.0114064468070865,-0.0181986447423697,-0.029233880341053,-0.0175099428743124
685,-0.0199199598282576,-0.0191857386380434,-0.0124258957803249,-0.0184251870959997,-0.0295093897730112,-0.0178580228239298
686,-0.0190749876201153,-0.018651993945241,-0.0134772034361959,-0.0182408932596445,-0.0290344804525375,-0.0176787357777357
687,-0.0171688571572304,-0.0174812022596598,-0.013174437917769,-0.0170111283659935,-0.0265624728053808,-0.0160900671035051
688,-0.0133027490228415,-0.0147610986605287,-0.0105465753003955,-0.0135870361700654,-0.0215270593762398,-0.0120583046227694
689,-0.00853828527033329,-0.0116037018597126,-0.00755549361929297,-0.00899655092507601,-0.0167540777474642,-0.00709683541208506
690,-0.00484801549464464,-0.00965900719165802,-0.00667647179216146,-0.00525933597236872,-0.0155752496793866,-0.00355362449772656
691,-0.00288137118332088,-0.00946821179240942,-0.00820151530206203,-0.00395654980093241,-0.0179227516055107,-0.00294330576434731
692,-0.00167683733161539,-0.00990948639810085,-0.0103401774540544,-0.00528397643938661,-0.020217364653945,-0.00518323061987758
693,-0.000310961448121816,-0.00942328386008739,-0.0113564683124423,-0.00781504530459642,-0.0196305476129055,-0.00833657756447792
694,0.000626338936854154,-0.00849062483757734,-0.0116033684462309,-0.010205845348537,-0.0174368806183338,-0.0109538845717907
695,-0.000531665340531617,-0.00902281887829304,-0.0133794173598289,-0.0131170284003019,-0.0176686681807041,-0.0141513217240572
696,-0.00304956873878837,-0.0102542098611593,-0.016240693628788,-0.0161171741783619,-0.0203684233129025,-0.0175162609666586
697,-0.00452472874894738,-0.00989994034171104,-0.0172024015337229,-0.0171089116483927,-0.0209583267569542,-0.0183192305266857
698,-0.00517510762438178,-0.00847747270017862,-0.0165761411190033,-0.0168757513165474,-0.0184787251055241,-0.0169260539114475
699,-0.00578927574679255,-0.00754540506750345,-0.0168320760130882,-0.0175411514937878,-0.0164342653006315,-0.0160409994423389
700,-0.00588609930127859,-0.00724694179370999,-0.0188419967889786,-0.0191328730434179,-0.016976609826088,-0.0166381765156984
701,-0.0047225053422153,-0.00650226371362805,-0.0207119826227427,-0.0196289755403996,-0.0181403458118439,-0.0165075715631247
702,-0.00266184867359698,-0.00480511272326112,-0.0207475293427706,-0.0183189045637846,-0.0176376085728407,-0.0134550528600812
703,-0.0018015003297478,-0.003722018096596,-0.0205665547400713,-0.0178485717624426,-0.0166866183280945,-0.0093468576669693
704,-0.00197278615087271,-0.00367997447028756,-0.0206479374319315,-0.0188308861106634,-0.0158640742301941,-0.00596492318436503
705,-0.00102815253194422,-0.00297385035082698,-0.0195464622229338,-0.0189233813434839,-0.0143079115077853,-0.0024163918569684
706,0.00109785737004131,-0.00102305586915463,-0.0177930351346731,-0.0173134505748749,-0.0132233314216137,0.00183453131467104
707,0.0030885124579072,0.00101817247923464,-0.0168666876852512,-0.0152357285842299,-0.0140116028487682,0.00589776178821921
708,0.002954819239676,0.00120158842764795,-0.0184189435094595,-0.0158698484301567,-0.0171265732496977,0.00689912913367152
709,-0.000128913481603377,-0.00159198767505586,-0.0226338431239128,-0.0209528058767319,-0.0214089509099722,0.00314893224276602
710,-0.00304761761799455,-0.00595933711156249,-0.0256885550916195,-0.0266781747341156,-0.022873118519783,-0.00175477750599384
711,-0.00325356260873377,-0.00966897327452898,-0.0247469618916512,-0.0287032537162304,-0.0202344544231892,-0.00339901726692915
712,-0.00252743996679783,-0.011970735155046,-0.0219757258892059,-0.0273112114518881,-0.0174598414450884,-0.00180083280429244
713,-0.00211079232394695,-0.0128604704514146,-0.019600622355938,-0.0239654034376144,-0.0167872700840235,0.00122834276407957
714,-0.0011529338080436,-0.0127510298043489,-0.0177644751966,-0.0192589592188597,-0.0168731696903706,0.00440456485375762
715,0.00105543329846114,-0.0122076934203506,-0.015998600050807,-0.0140539659187198,-0.0160200856626034,0.00725507829338312
716,0.00532406708225608,-0.0106613803654909,-0.0130225298926234,-0.0085638165473938,-0.0127438297495246,0.0108442548662424
717,0.0100893527269363,-0.00841174088418484,-0.00962495245039463,-0.00427283439785242,-0.00824158918112516,0.0142466584220529
718,0.0112886978313327,-0.00790688116103411,-0.00924153998494148,-0.00487283058464527,-0.00654155807569623,0.0139634618535638
719,0.00855780579149723,-0.0094904825091362,-0.0122850462794304,-0.0102159613743424,-0.00843979977071285,0.0104595515877008
720,0.00517154950648546,-0.0111130410805345,-0.0161932613700628,-0.0165288131684065,-0.0113823255524039,0.00691289128735662
721,0.00300837331451476,-0.0120460381731391,-0.0197938773781061,-0.0218309294432402,-0.014269482344389,0.00367571390233934
722,0.00276590441353619,-0.0119421500712633,-0.0222120154649019,-0.0246837474405766,-0.0161437802016735,0.00119114713743329
723,0.00443982286378741,-0.010421053506434,-0.0227390751242638,-0.0241681840270758,-0.0156458616256714,0.000798302353359759
724,0.00716443220153451,-0.00778205087408423,-0.0218635331839323,-0.0208904538303614,-0.0131323914974928,0.00230167061090469
725,0.00971491076052189,-0.00480693439021707,-0.020628510043025,-0.0163863822817802,-0.010486057959497,0.00430851895362139
726,0.0116462334990501,-0.00237045669928193,-0.019537590444088,-0.0122088128700852,-0.00851476565003395,0.00567236123606563
727,0.014003342948854,-0.000568720046430826,-0.0178924184292555,-0.00858459249138832,-0.00602664845064282,0.00665846886113286
728,0.0166098643094301,0.000464707612991333,-0.0160180944949389,-0.00615395419299603,-0.00344883999787271,0.00717901671305299
729,0.0182854626327753,0.000213750288821757,-0.0151204392313957,-0.00581762380897999,-0.00258518825285137,0.00652230950072408
730,0.0178791247308254,-0.00167482043616474,-0.0162492208182812,-0.00794364139437675,-0.00467634340748191,0.00427444279193878
731,0.0145945427939296,-0.00486187124624848,-0.0197657886892557,-0.0123941944912076,-0.00985284615308046,0.000718589115422219
732,0.00990275945514441,-0.00837860070168972,-0.0240867920219898,-0.0175668317824602,-0.0157208070158958,-0.00296915951184928
733,0.00652480451390147,-0.0108729097992182,-0.026827672496438,-0.0209166556596756,-0.0188984703272581,-0.00604650657624006
734,0.00615386106073856,-0.0109875220805407,-0.0261845923960209,-0.0202873516827822,-0.0174910426139832,-0.00776701094582677
735,0.00750810001045465,-0.00946066249161959,-0.0233147460967302,-0.0169820357114077,-0.0135281560942531,-0.00755144376307726
736,0.00800486374646425,-0.0080693457275629,-0.0213746558874846,-0.0141421500593424,-0.0109351119026542,-0.00550862308591604
737,0.00768941082060337,-0.00688408315181732,-0.0207576360553503,-0.0120058534666896,-0.0102637521922588,-0.0020348303951323
738,0.00718052405864,-0.0060403710231185,-0.0208165124058723,-0.0104220975190401,-0.0107647767290473,0.000961148820351809
739,0.00596231082454324,-0.00637609837576747,-0.0217849742621183,-0.0102760614827275,-0.0124550145119429,0.00167561124544591
740,0.00403924891725183,-0.00800316501408815,-0.0234271734952927,-0.0116341663524508,-0.0146161383017898,0.000322988053085282
741,0.00238816998898983,-0.00999646820127964,-0.0248307045549154,-0.0132205914705992,-0.0161722246557474,-0.0012155482545495
742,0.00222157710231841,-0.0108421491459012,-0.0247831083834171,-0.0129824904724956,-0.0166648626327515,-0.00061037513660267
743,0.00328702642582357,-0.0105120688676834,-0.0237395036965609,-0.0107488119974732,-0.0170525852590799,0.00172727240715176
744,0.00457842694595456,-0.0101181156933308,-0.0229448936879635,-0.00803333707153797,-0.0182623509317636,0.00356540409848094
745,0.00560114439576864,-0.0100509133189917,-0.022487323731184,-0.00627379165962338,-0.0197391510009766,0.00368083966895938
746,0.00646164501085877,-0.0101469838991761,-0.0217822287231684,-0.00616483390331268,-0.0199345387518406,0.00184256373904645
747,0.00737667409703135,-0.0101865790784359,-0.0206520445644856,-0.00707457773387432,-0.0183268114924431,-0.00113031500950456
748,0.00770645355805755,-0.0100105386227369,-0.0197444744408131,-0.00774476258084178,-0.016659339889884,-0.00342721422202885
749,0.00645143026486039,-0.00985877867788076,-0.0198369640856981,-0.00804763566702604,-0.0169852823019028,-0.00427017966285348
750,0.00308761140331626,-0.0104469349607825,-0.0215188730508089,-0.00925190094858408,-0.0196749605238438,-0.0052532977424562
751,-0.00122660817578435,-0.0114613641053438,-0.0236944183707237,-0.0113081568852067,-0.0223564486950636,-0.00729332910850644
752,-0.00390010513365269,-0.0117552625015378,-0.0244110561907291,-0.0130339358001947,-0.0227741133421659,-0.00943553354591131
753,-0.0041805999353528,-0.011936672963202,-0.0246854294091463,-0.0149879734963179,-0.0225555039942265,-0.0121170487254858
754,-0.00264129042625427,-0.0126530658453703,-0.0252163968980312,-0.0165736228227615,-0.0227959509938955,-0.0154835870489478
755,0.000528293021488935,-0.0129469195380807,-0.0238539520651102,-0.0153639558702707,-0.0217405818402767,-0.0171774905174971
756,0.00320716295391321,-0.0131017761304975,-0.0213724486529827,-0.0126678645610809,-0.0202656015753746,-0.0165262892842293
757,0.00342731922864914,-0.0135989720001817,-0.0206987466663122,-0.0116643626242876,-0.0206065736711025,-0.0147823411971331
758,0.00243910145945847,-0.0130980936810374,-0.0216763988137245,-0.0122957276180387,-0.0214910786598921,-0.0124575402587652
759,0.00228442065417767,-0.0105492686852813,-0.0217792317271233,-0.0123940380290151,-0.0201955232769251,-0.00980355124920607
760,0.00386983714997768,-0.00635231519117951,-0.0191676560789347,-0.0105847865343094,-0.0160084757953882,-0.00691620539873838
761,0.00708890752866864,-0.00151170045137405,-0.014514940790832,-0.00723974360153079,-0.010351394303143,-0.00388879585079849
762,0.0105203632265329,0.00256255106069148,-0.0105144707486033,-0.0044424356892705,-0.00571209378540516,-0.00185261585284024
763,0.0114024253562093,0.00404160236939788,-0.0101064536720514,-0.00509692588821054,-0.00517036439850926,-0.00306932395324111
764,0.00850240234285593,0.00246808887459338,-0.0139366993680596,-0.00962353684008121,-0.00980211608111858,-0.00832880660891533
765,0.00440585613250732,-0.000108461848867591,-0.0191183481365442,-0.0148126864805818,-0.016125088557601,-0.0147557379677892
766,0.00207931152544916,-0.00164004927501082,-0.0227133557200432,-0.0179998390376568,-0.0204193368554115,-0.0193929057568312
767,0.00217023701407015,-0.00182872894220054,-0.0238020103424788,-0.0190273933112621,-0.0221028998494148,-0.0220244415104389
768,0.0036358623765409,-0.0014476872747764,-0.0229722782969475,-0.0189874302595854,-0.0220401976257563,-0.0233923513442278
769,0.00537159573286772,-0.000915496493689716,-0.021303990855813,-0.018648000434041,-0.0208025928586721,-0.0234687607735395
770,0.00643077772110701,-0.000264736969256774,-0.019935566931963,-0.0187879074364901,-0.0194201953709126,-0.0225797984749079
771,0.00604118406772614,0.000181364448508248,-0.0198332071304321,-0.019945565611124,-0.0193841271102428,-0.0219443328678608
772,0.0050868634134531,0.000656893418636173,-0.0202958714216948,-0.0207439698278904,-0.0200423002243042,-0.0217553917318583
773,0.00421884609386325,0.00113612599670887,-0.0207305811345577,-0.0206262450665236,-0.0204287599772215,-0.0221992414444685
774,0.00401226105168462,0.00170105730649084,-0.0202736686915159,-0.0199843924492598,-0.0201917737722397,-0.0226607993245125
775,0.00531903048977256,0.00311293988488615,-0.0178928449749947,-0.0186687596142292,-0.0187443736940622,-0.0210964474827051
776,0.00764442561194301,0.00563086522743106,-0.0145703908056021,-0.0164268836379051,-0.0160288196057081,-0.0169488117098808
777,0.00934352166950703,0.00826956145465374,-0.0123338522389531,-0.0141131337732077,-0.0133591387420893,-0.0124814650043845
778,0.00848899036645889,0.00920078624039888,-0.0129979578778148,-0.0140947541221976,-0.0131946271285415,-0.0108103863894939
779,0.00630603777244687,0.00882745627313852,-0.015091092325747,-0.015639977529645,-0.01479871571064,-0.0113155338913202
780,0.00651237647980452,0.0095298932865262,-0.0145801417529583,-0.0149073116481304,-0.0144141679629683,-0.0104388752952218
781,0.00950534548610449,0.011502780020237,-0.0113227749243379,-0.0116305695846677,-0.0117550240829587,-0.00771734677255154
782,0.0123295653611422,0.0126558635383844,-0.00916061550378799,-0.00960099976509809,-0.0102888029068708,-0.00626090215519071
783,0.0132062332704663,0.0121375285089016,-0.00990658346563578,-0.0106523931026459,-0.0118382247164845,-0.00766448164358735
784,0.0124152060598135,0.0110860299319029,-0.0121843228116632,-0.0129222571849823,-0.0153150856494904,-0.010459128767252
785,0.0104846144095063,0.0100858993828297,-0.0145685411989689,-0.0147194117307663,-0.0190914068371058,-0.0133718606084585
786,0.00787884090095758,0.00865744985640049,-0.0165645256638527,-0.0161418523639441,-0.022064208984375,-0.0167097095400095
787,0.00561491400003433,0.00697272643446922,-0.0176222324371338,-0.0174409616738558,-0.0232277810573578,-0.0204255245625973
788,0.00478523643687367,0.00573169346898794,-0.0173780843615532,-0.0188083071261644,-0.0220701713114977,-0.0234806928783655
789,0.00676309457048774,0.00587416440248489,-0.0153309367597103,-0.0193044058978558,-0.0183868501335382,-0.0237529929727316
790,0.0119766797870398,0.00778743484988809,-0.0111667290329933,-0.0173768159002066,-0.0125506101176143,-0.0201645530760288
791,0.0172036960721016,0.00970514584332705,-0.00715691689401865,-0.0146254543215036,-0.00731403846293688,-0.0162141248583794
792,0.0189921036362648,0.010005840100348,-0.00580449588596821,-0.0132848862558603,-0.00525598367676139,-0.0158499572426081
793,0.0178454667329788,0.00926198065280914,-0.00623106583952904,-0.0128075871616602,-0.00561081571504474,-0.0185693446546793
794,0.015398838557303,0.00838459376245737,-0.00686259055510163,-0.0128977596759796,-0.0067194108851254,-0.02162448130548
795,0.0115280840545893,0.00716370437294245,-0.00860422197729349,-0.0150000536814332,-0.00857598334550858,-0.0237284004688263
796,0.00628685252740979,0.00521874660626054,-0.0129461884498596,-0.0199070684611797,-0.0119811855256557,-0.0259189121425152
797,0.0018205011729151,0.00347953080199659,-0.0184778962284327,-0.0253327842801809,-0.0163066312670708,-0.028304560109973
798,0.000431259046308696,0.00330459768883884,-0.0218773782253265,-0.0278061982244253,-0.0192523784935474,-0.0289435032755136
799,0.00207103695720434,0.00499921711161733,-0.0217375010251999,-0.0264821220189333,-0.0196377336978912,-0.0269707273691893
800,0.00494372146204114,0.00766446441411972,-0.0191302206367254,-0.0229951161891222,-0.018498245626688,-0.023589139804244
801,0.00791605748236179,0.0101927751675248,-0.0152103444561362,-0.018479997292161,-0.0166158955544233,-0.0198078658431768
802,0.0097514633089304,0.0113311437889934,-0.011803568340838,-0.0142124155536294,-0.0147301461547613,-0.0169912688434124
803,0.00877836532890797,0.00993556715548038,-0.0114410659298301,-0.0126085476949811,-0.0144430445507169,-0.0174902658909559
804,0.00630484474822879,0.00735710700973868,-0.0130995074287057,-0.0130672436207533,-0.0150284320116043,-0.0204356964677572
805,0.00401774048805237,0.0054142870940268,-0.0145059498026967,-0.0139610422775149,-0.0152324661612511,-0.0237318407744169
806,0.00193485617637634,0.00386534980498254,-0.0150631032884121,-0.0153088998049498,-0.0149063216522336,-0.0271852444857359
807,0.000735897454433143,0.00235721818171442,-0.0144326547160745,-0.0161125119775534,-0.0134600214660168,-0.0298045817762613
808,0.000655750627629459,0.00132973387371749,-0.0133770490065217,-0.0155889112502337,-0.0115978131070733,-0.030522808432579
809,0.00138517294544727,0.00112563243601471,-0.0126024503260851,-0.0138867264613509,-0.0103465933352709,-0.0299452766776085
810,0.00216733128763735,0.000965931627433747,-0.0119815394282341,-0.0121373264119029,-0.00999223161488771,-0.0300618410110474
811,0.00103803188540041,-0.000437589274952188,-0.0125470133498311,-0.0132178738713264,-0.0113304927945137,-0.0326397530734539
812,-0.00233916938304901,-0.0021966309286654,-0.014848698861897,-0.0174616184085608,-0.0138655006885529,-0.0361410826444626
813,-0.00587405636906624,-0.00207138387486339,-0.0170811023563147,-0.0216040425002575,-0.0156410709023476,-0.037840336561203
814,-0.00835646223276854,-0.000477558322018012,-0.0186262875795364,-0.0241104885935783,-0.0169374365359545,-0.0380250066518784
815,-0.00992193352431059,0.000160998781211674,-0.0208774469792843,-0.0257495157420635,-0.0197147075086832,-0.0382885150611401
816,-0.0113207725808024,-0.00104419921990484,-0.024040874093771,-0.0269280709326267,-0.0243488904088736,-0.0390610434114933
817,-0.0130070652812719,-0.00253746844828129,-0.0267453771084547,-0.0270755514502525,-0.029275918379426,-0.0393998771905899
818,-0.0143584702163935,-0.0027170367538929,-0.028034508228302,-0.0257811024785042,-0.033139280974865,-0.0385121516883373
819,-0.0155550530180335,-0.00206056353636086,-0.0288690179586411,-0.0242974478751421,-0.0365798622369766,-0.037554245442152
820,-0.0167230255901814,-0.00105345749761909,-0.0295507535338402,-0.0232186578214169,-0.0394547432661057,-0.0371443852782249
821,-0.0161953084170818,0.00096622877754271,-0.0280450768768787,-0.0208874568343163,-0.0390705056488514,-0.0357929728925228
822,-0.0137923983857036,0.00350574287585914,-0.0243690628558397,-0.0173651147633791,-0.0348821803927422,-0.0336440242826939
823,-0.0109516466036439,0.0052936440333724,-0.0204532314091921,-0.0143787749111652,-0.0293460041284561,-0.0320415981113911
824,-0.00784570537507534,0.00629839207977057,-0.016498327255249,-0.0118619101122022,-0.0238524693995714,-0.0303626582026482
825,-0.00498979538679123,0.00708913430571556,-0.0131306946277618,-0.00978046376258135,-0.0193229783326387,-0.0283941235393286
826,-0.00327338301576674,0.00788275990635157,-0.0116480756551027,-0.00882868841290474,-0.0165047068148851,-0.0276556517928839
827,-0.00222526420839131,0.00864441227167845,-0.0114123402163386,-0.00827482156455517,-0.0147149972617626,-0.0289028212428093
828,-0.0016925495583564,0.00887451414018869,-0.0112171294167638,-0.00794855039566755,-0.0134110590443015,-0.0318613797426224
829,-0.0027099559083581,0.0080446619540453,-0.0113941580057144,-0.00938320346176624,-0.0124710546806455,-0.0357986502349377
830,-0.00593227986246347,0.00605402328073978,-0.0133774057030678,-0.0134102394804358,-0.0122367851436138,-0.0400523543357849
831,-0.00953519623726606,0.00378654315136373,-0.016091126948595,-0.0178074762225151,-0.0124852322041988,-0.0436526983976364
832,-0.0103504471480846,0.0028242280241102,-0.0158518608659506,-0.0185265988111496,-0.0113524794578552,-0.044486690312624
833,-0.0070739509537816,0.00393416360020638,-0.0109152719378471,-0.013992547057569,-0.00729157542809844,-0.0412358194589615
834,-0.00045143422903493,0.00724843004718423,-0.00279733631759882,-0.00581259652972221,-0.000638911034911871,-0.0340672843158245
835,0.00640874914824963,0.0113998353481293,0.0041688228957355,0.00180531921796501,0.00537794223055243,-0.0254200454801321
836,0.0103175630792975,0.0139959715306759,0.00660328287631273,0.00502736121416092,0.00792013481259346,-0.0194575171917677
837,0.0111652640625834,0.0143742170184851,0.00553230522200465,0.00424005696550012,0.00731641286984086,-0.0180703029036522
838,0.00977692659944296,0.0130519224330783,0.00279044220224023,0.00118754245340824,0.00407112343236804,-0.0205066669732332
839,0.00608525145798922,0.0104266107082367,-0.00177220487967134,-0.00392462871968746,-0.00194940390065312,-0.0256634410470724
840,0.0010665754089132,0.0074785528704524,-0.00735445506870747,-0.0101253846660256,-0.00917871575802565,-0.0317955762147903
841,-0.00247409264557064,0.0059954677708447,-0.0110530713573098,-0.0145860556513071,-0.0140611082315445,-0.0361868366599083
842,-0.00340961292386055,0.00645902613177896,-0.0121779022738338,-0.0161554794758558,-0.0153324594721198,-0.0384012497961521
843,-0.00259644724428654,0.00769697083160281,-0.0120138972997665,-0.0152434641495347,-0.0144395790994167,-0.0401457697153091
844,-0.00181702570989728,0.0080409087240696,-0.0114863617345691,-0.0130904745310545,-0.0133490925654769,-0.0429572984576225
845,-0.00326181156560779,0.00659561296924949,-0.011675888672471,-0.0124342823401093,-0.0139156272634864,-0.0474069453775883
846,-0.00548187457025051,0.00501677952706814,-0.0118337953463197,-0.013181165792048,-0.0142910005524755,-0.0513712167739868
847,-0.00590106938034296,0.00475496472790837,-0.0112060299143195,-0.0138212395831943,-0.0123796006664634,-0.0535999611020088
848,-0.00570334028452635,0.00483330013230443,-0.011562573723495,-0.0150793436914682,-0.01073560398072,-0.05597273260355
849,-0.00603800266981125,0.00459917541593313,-0.0132105592638254,-0.0164216458797455,-0.0113112637773156,-0.0587312392890453
850,-0.00547161186113954,0.00497181061655283,-0.0139592438936234,-0.0156603362411261,-0.0125440638512373,-0.0596597902476788
851,-0.00454009417444468,0.00565878907218575,-0.0141631113365293,-0.0139275779947639,-0.0144428042694926,-0.059152364730835
852,-0.00469447672367096,0.00563217652961612,-0.0151479849591851,-0.0130520854145288,-0.0176665037870407,-0.0589201524853706
853,-0.00416486850008368,0.00589900463819504,-0.0148401213809848,-0.0108687747269869,-0.0192730128765106,-0.0578523650765419
854,-0.00246500945650041,0.00736101111397147,-0.0125547051429749,-0.00697773788124323,-0.0181487686932087,-0.0558655485510826
855,-0.00172009854577482,0.00956947915256023,-0.0105933379381895,-0.00441760523244739,-0.0169787798076868,-0.054955679923296
856,-0.00295471725985408,0.0112912720069289,-0.0104303397238255,-0.00486978469416499,-0.0178592447191477,-0.0562797598540783
857,-0.00649828370660543,0.0109123513102531,-0.012545932084322,-0.00856593251228333,-0.0216730106621981,-0.0601051673293114
858,-0.0112924128770828,0.00860242266207933,-0.015822134912014,-0.014225066639483,-0.0268766805529594,-0.06526068598032
859,-0.0131825050339103,0.00696165207773447,-0.0165497343987226,-0.0175009369850159,-0.0282364170998335,-0.0682221055030823
860,-0.00922051165252924,0.00795663427561522,-0.0124731846153736,-0.0146460672840476,-0.0224799290299416,-0.0658173188567162
861,-0.00191977829672396,0.0100998943671584,-0.00609574047848582,-0.00774935306981206,-0.0133655453100801,-0.0597467347979546
862,0.00400859629735351,0.0106117771938443,-0.00107046624179929,-0.00231926958076656,-0.00654407031834126,-0.0547404997050762
863,0.00614257343113422,0.00880342628806829,0.000871055817697197,-0.00109887926373631,-0.0041680159047246,-0.0527469366788864
864,0.00511643337085843,0.00577947264537215,-0.00032706288038753,-0.00275353365577757,-0.00565068563446403,-0.0526065342128277
865,0.00259239412844181,0.00250821001827717,-0.00352982268668711,-0.00530360173434019,-0.00897747557610273,-0.0534286387264729
866,7.79135152697563E-05,-0.000101742291008122,-0.0067122308537364,-0.00746943289414048,-0.0110029382631183,-0.0543535351753235
867,-0.00147398270200938,-0.00132038828451186,-0.00795855466276407,-0.00844358187168837,-0.00949547719210386,-0.0541653446853161
868,-0.00249325693584979,-0.0022854043636471,-0.00762166175991297,-0.00935289729386568,-0.00600579660385847,-0.0537322871387005
869,-0.0025497805327177,-0.0041012903675437,-0.00715278880670667,-0.0111894458532333,-0.00369336362928152,-0.0540111251175404
870,6.18346020928584E-05,-0.00535961566492915,-0.00632773945108056,-0.0118931913748384,-0.00310899200849235,-0.0526305437088013
871,0.00425950111821294,-0.00483061978593469,-0.00507710594683886,-0.0100860940292478,-0.00382168055512011,-0.0475339889526367
872,0.00692911585792899,-0.00365868210792542,-0.00474835187196732,-0.00769807258620858,-0.00600304082036018,-0.040683925151825
873,0.00738612236455083,-0.00330525217577815,-0.00556244840845466,-0.00650791078805923,-0.00865810550749302,-0.0351688265800476
874,0.00643941620364785,-0.00408626813441515,-0.00685341423377395,-0.00711485696956515,-0.0110042067244649,-0.0324057191610336
875,0.00352272810414433,-0.00612852722406387,-0.00933363102376461,-0.0105451997369528,-0.0140771539881825,-0.032742828130722
876,-0.00119056005496532,-0.00892740301787853,-0.0130895478650928,-0.0160355661064386,-0.0181444734334946,-0.0349775291979313
877,-0.00540183717384934,-0.0108197955414653,-0.0160260554403067,-0.020022165030241,-0.021535225212574,-0.0363173075020313
878,-0.00828343350440264,-0.0115413200110197,-0.0176337659358978,-0.0214345939457417,-0.0240274388343096,-0.036209911108017
879,-0.0094062676653266,-0.0113749979063869,-0.0180719271302223,-0.020960945636034,-0.0253227055072784,-0.035379309207201
880,-0.00679536815732718,-0.00921489577740431,-0.0155476098880172,-0.017484288662672,-0.0228182971477509,-0.0327763967216015
881,-0.0013091693399474,-0.00555393286049366,-0.0106114195659757,-0.0119193559512496,-0.0169843137264252,-0.0286023244261742
882,0.00315307499840856,-0.00321290013380349,-0.0066507775336504,-0.0079308096319437,-0.011756144464016,-0.025488493964076
883,0.00490126060321927,-0.00318479095585644,-0.00483766524121165,-0.0073018716648221,-0.00884999427944422,-0.0244469344615936
884,0.00671616801992059,-0.00230665481649339,-0.00269483239389956,-0.00687624327838421,-0.00609447760507464,-0.0217320155352354
885,0.0107616791501641,0.00172333407681435,0.00109756458550692,-0.00351497321389616,-0.00211510295048356,-0.0146470852196217
886,0.0144606614485383,0.00628561805933714,0.00391499232500792,8.53931051096879E-05,0.000780917413067073,-0.00727572152391076
887,0.0155851179733872,0.008589674718678,0.00420977734029293,0.000942032842431217,0.0015831709606573,-0.00403995672240853
888,0.0150794237852097,0.00891764927655458,0.00366493966430426,0.000165869030752219,0.00192671187687665,-0.00473405653610826
889,0.0130769796669483,0.0076582576148212,0.00269530690275133,-0.00189710617996752,0.00139824207872152,-0.00864097755402327
890,0.009743413887918,0.00513356039300561,0.000713085872121155,-0.005588433239609,-0.00100762280635536,-0.0148234097287059
891,0.00783141050487757,0.00292014563456178,-0.000604563974775374,-0.00850449595600367,-0.00339695881120861,-0.0198708698153496
892,0.00832052249461412,0.00149889418389648,-0.000562993867788464,-0.00945361983031034,-0.00469124037772417,-0.0219613127410412
893,0.00931055005639791,-3.36857810907532E-05,-0.000478766742162406,-0.00969884265214205,-0.00560434255748987,-0.0225424785166979
894,0.00975099764764309,-0.00219239201396704,-0.000742970674764365,-0.0102046877145767,-0.00592338293790817,-0.0234320908784866
895,0.00947225373238325,-0.00456942711025476,-0.00133808585815132,-0.0116357076913118,-0.00589916063472629,-0.0250304341316223
896,0.0087501835078001,-0.00592766422778368,-0.00224461895413697,-0.0131887225434184,-0.00641943048685789,-0.0257207192480564
897,0.00777766015380621,-0.006145138759166,-0.00364299421198666,-0.0136252595111728,-0.00813538301736116,-0.0246179290115833
898,0.00626696413382888,-0.00650253472849727,-0.00565631780773401,-0.0132966032251716,-0.0109402928501368,-0.0231766887009144
899,0.0047429115511477,-0.00743620237335563,-0.00740544917061925,-0.0132176466286182,-0.013477822765708,-0.0226879846304655
900,0.00444141076877713,-0.00791383720934391,-0.00795965082943439,-0.0137450071051717,-0.0145295122638345,-0.0223526787012815
901,0.00581896444782615,-0.0068279248662293,-0.00769302016124129,-0.0136916721239686,-0.0142053999006748,-0.0203662142157555
902,0.00784750375896692,-0.00451288092881441,-0.00756336003541946,-0.0118178864941001,-0.0134099116548896,-0.0165974125266075
903,0.00871573016047478,-0.00258762086741626,-0.00780588621273637,-0.0092041464522481,-0.0129128601402044,-0.0126020228490233
904,0.00664842594414949,-0.00254237744957209,-0.00879328884184361,-0.00864963512867689,-0.0138988606631756,-0.0100614847615361
905,0.00262023182585835,-0.00365833984687924,-0.0095322635024786,-0.010160468518734,-0.0158730931580067,-0.00873208232223988
906,0.000157619899255224,-0.00371527671813965,-0.00785891897976398,-0.0106444573029876,-0.0163520034402609,-0.00656723883002996
907,-0.000287184113403782,-0.00251478888094425,-0.00491426791995764,-0.00946519244462252,-0.0156436078250408,-0.00354599207639694
908,-0.000173706052009948,-0.00105994788464159,-0.00263038417324424,-0.00728626037016511,-0.0152312526479363,-0.000418198847910389
909,0.000997393974103034,0.000453012529760599,-0.000513837032485753,-0.00368541129864752,-0.014295537956059,0.00304756360128522
910,0.00283641600981355,0.00123767391778529,0.00109323300421238,-0.000185952187166549,-0.0125994272530079,0.0053893537260592
911,0.00356602389365435,0.000291915377601981,0.000949645938817412,0.00093330634990707,-0.0116596324369311,0.00491373892873526
912,0.00333023094572127,-0.00133363821078092,-0.000332471769070253,0.000203687697649002,-0.0119984671473503,0.00276860571466386
913,0.003204784123227,-0.00183137285057455,-0.00161814456805587,-0.000688050698954612,-0.0128095615655184,0.00082398031372577
914,0.00320160877890885,-0.00142221245914698,-0.00280612870119512,-0.00136737746652216,-0.0132467029616237,-0.000883655971847475
915,0.00384500832296908,-0.00119286624249071,-0.00326420390047133,-0.0015073191607371,-0.0120027912780643,-0.00238617602735758
916,0.00546275032684207,-0.00132355024106801,-0.00272630783729255,-0.00112714676652104,-0.00894405972212553,-0.00335962930694222
917,0.0062825963832438,-0.00185017159674317,-0.00283328676596284,-0.00158712919801474,-0.00664060655981302,-0.0047092461027205
918,0.00561440410092473,-0.00279322662390769,-0.00385238928720355,-0.00295231724157929,-0.00625720247626305,-0.00660203117877245
919,0.00566526176407933,-0.00345560349524021,-0.00357249728403986,-0.00336413690820336,-0.005758804269135,-0.00667929742485285
920,0.00735179800540209,-0.00325376144610345,-0.00171239429619163,-0.00236793141812086,-0.00428825570270419,-0.0039913603104651
921,0.00881793815642595,-0.00257131387479603,-0.000347183085978031,-0.00156614533625543,-0.0032434593886137,-0.00126237515360117
922,0.00850191619247198,-0.00219711498357356,-0.000459481088910252,-0.00218601454980671,-0.00326656713150442,-0.000706370163243264
923,0.00599614018574357,-0.00282591790892184,-0.00150406605098397,-0.00423185992985964,-0.00380962016060948,-0.0020267846994102
924,0.00156672182492912,-0.00506049580872059,-0.00357707752846181,-0.0077988957054913,-0.0060098459944129,-0.00485977530479431
925,-0.0029138564132154,-0.00859653204679489,-0.00704943528398871,-0.0126664834097028,-0.0112562403082848,-0.00881421566009521
926,-0.00478239450603724,-0.0116821052506566,-0.00998497009277344,-0.0166219882667065,-0.0170316714793444,-0.0119142616167665
927,-0.00308919697999954,-0.0125536071136594,-0.00993842259049416,-0.0169710088521242,-0.0197797268629074,-0.0118014821782708
928,0.000977086718194187,-0.0108679467812181,-0.00717645883560181,-0.013223092071712,-0.0192956626415253,-0.00803010165691376
929,0.00581237999722362,-0.00744037050753832,-0.00379473133943975,-0.00727599486708641,-0.017230587080121,-0.00250077247619629
930,0.010675429366529,-0.00318948575295508,-0.000749103724956512,-0.00111614749766886,-0.0137815615162253,0.00274787447415292
931,0.0141091113910079,0.00040442033787258,0.00153232598677278,0.00340656074695289,-0.00963309500366449,0.006249840836972
932,0.014083057641983,0.00167065486311913,0.00174979586154222,0.00443547265604138,-0.00732934568077326,0.00685430923476815
933,0.0114827016368508,0.001211799797602,0.00041839518235065,0.00298902508802712,-0.00689382897689939,0.00549598736688495
934,0.00899889227002859,0.000825341558083892,-0.000580343476030976,0.00171155831776559,-0.00653169909492135,0.00412107910960913
935,0.00730892270803452,0.000747245561797172,-0.00126730487681925,0.000996487098746002,-0.0066840872168541,0.00305009377188981
936,0.00515995221212506,-0.000144079822348431,-0.00321020884439349,-0.000393838505260646,-0.00876022409647703,0.000968448701314628
937,0.00279295956715941,-0.00206404086202383,-0.00583135476335883,-0.00202846014872193,-0.0115142473950982,-0.00265985052101314
938,0.00269093061797321,-0.00348299299366772,-0.00614449754357338,-0.00200030999258161,-0.011839983984828,-0.00569572625681758
939,0.00478073256090283,-0.00379100651480258,-0.0044994717463851,-0.000773482781369239,-0.0103755993768573,-0.00637169601395726
940,0.00744805159047246,-0.00316834636032581,-0.00262616784311831,0.00110398011747748,-0.00917661376297474,-0.00411916943266988
941,0.0108876200392842,-0.00125101604498923,0.000662194972392172,0.0050365743227303,-0.00711058033630252,0.0012199345510453
942,0.0142182726413012,0.00132098072208464,0.00510800583288074,0.00979026593267918,-0.00372032728046179,0.00680751679465175
943,0.0151704866439104,0.00315372669138014,0.00746485451236367,0.0113887470215559,-0.0013585218694061,0.00862097926437855
944,0.0129284160211682,0.00329153053462505,0.00565385818481445,0.0077584064565599,-0.00208651088178158,0.00555890472605824
945,0.00971474312245846,0.00223187683150172,0.00192739022895694,0.00178525596857071,-0.0043033198453486,0.000374019524315372
946,0.00747206341475248,0.000891146366484463,-0.000960476405452937,-0.00275751412846148,-0.00573563296347857,-0.00437495857477188
947,0.00587806710973382,-0.000642596103716642,-0.00249877665191889,-0.00481268344447017,-0.00597312767058611,-0.00835587177425623
948,0.00499153649434447,-0.00208239397034049,-0.00200666533783078,-0.00400708802044392,-0.00426958035677671,-0.0106600299477577
949,0.00476635526865721,-0.00301144458353519,0.000202202441869304,-0.00113978562876582,-0.00119762390386313,-0.0107701532542706
950,0.00436456501483917,-0.00319536845199764,0.00200820947065949,0.00188132375478745,0.000501709175296128,-0.00986103713512421
951,0.00277126394212246,-0.00295894546434283,0.000551071017980576,0.002900650491938,-0.00204081111587584,-0.0101219667121768
952,0.000347611057804897,-0.00262844818644226,-0.00467232475057244,0.000707549450453371,-0.00888698641210794,-0.0124581651762128
953,-0.000760446710046381,-0.00164865492843091,-0.0101214293390512,-0.00324515649117529,-0.0159917622804642,-0.0142902657389641
954,-0.000428693136200309,-0.000138826275360771,-0.0133587466552854,-0.00737760355696082,-0.0202705785632133,-0.0137365721166134
955,0.000677966861985624,0.00165851099882275,-0.0134460255503654,-0.00961212161928415,-0.0208151321858168,-0.0111748231574893
956,0.00376394856721163,0.00449513457715511,-0.00894801411777735,-0.00685669155791402,-0.0166684947907925,-0.00618605129420757
957,0.00807970017194748,0.00796577055007219,-0.00161665258929133,-3.72327376680914E-05,-0.0100070685148239,0.00080635113408789
958,0.0104300547391176,0.010437804274261,0.00419720355421305,0.00643161078915,-0.00554121751338243,0.00729352096095681
959,0.00956716854125261,0.0108975553885102,0.00650131283327937,0.00961583014577627,-0.00495726708322763,0.0106061240658164
960,0.00801190081983805,0.00966889876872301,0.00712768733501434,0.00982627458870411,-0.00541828898712993,0.0101944683119655
961,0.00759659428149462,0.0075583690777421,0.00753118703141809,0.0082103693857789,-0.00478931749239564,0.00699136592447758
962,0.00666598929092288,0.00530477333813906,0.00698759406805038,0.00557284615933895,-0.00386988953687251,0.00214004935696721
963,0.00352510251104832,0.0034719561226666,0.00547443656250834,0.00323716993443668,-0.002829848555848,-0.00285193137824535
964,-0.00106253672856838,0.00183085910975933,0.00352845061570406,0.00180791143793613,-0.00189991935621947,-0.00722704967483878
965,-0.00418501440435648,0.000681928708218038,0.00193805096205324,0.00182430050335824,-0.00184271926991642,-0.00993701629340649
966,-0.00444252230226994,0.00109333265572786,0.00145229685585946,0.00353794335387647,-0.00247316062450409,-0.00991197675466537
967,-0.00477813370525837,0.00212848209775984,0.000206026335945353,0.00415030587464571,-0.0047705564647913,-0.00980071164667606
968,-0.00754506001248956,0.00170026696287096,-0.00351136177778244,0.00164289819076657,-0.00951810367405415,-0.0125790573656559
969,-0.0108996834605932,-4.33329660154413E-06,-0.00756423408165574,-0.00159556046128273,-0.0147644151002169,-0.0163754727691412
970,-0.0127819636836648,-0.00143163779284805,-0.00972960703074932,-0.00302463187836111,-0.0189235731959343,-0.0184271205216646
971,-0.0125007452443242,-0.00166270381305367,-0.00971071515232325,-0.00169469323009253,-0.0213681161403656,-0.0183988120406866
972,-0.0109342839568853,-0.0013469624100253,-0.00811728928238153,0.00100603839382529,-0.0217182487249374,-0.0180284734815359
973,-0.00965941976755857,-0.00136538676451892,-0.00527069810777903,0.00281410594470799,-0.0194228142499924,-0.0182500593364239
