,AF3,AF4,Fp1,Fp2,AF7,AF8
0,0.00755843846127391,0.0290836691856384,-0.129543468356133,-0.15774530172348,-0.188188582658768,-0.15515872836113
1,0.00816106330603361,0.0288542080670595,-0.130917400121689,-0.160886391997337,-0.191035285592079,-0.155883029103279
2,0.00723227765411139,0.0278142318129539,-0.134342759847641,-0.165290966629982,-0.195040673017502,-0.156924471259117
3,0.0064737438224256,0.026671776548028,-0.137693181633949,-0.170232906937599,-0.197861954569817,-0.15747644007206
4,0.00645630666986108,0.0261613130569458,-0.139592260122299,-0.174415275454521,-0.199045225977898,-0.157032802700996
5,0.00586050609126687,0.0257414039224386,-0.140980795025826,-0.17793633043766,-0.200287327170372,-0.156912922859192
6,0.00486480351537466,0.0256012324243784,-0.141406893730164,-0.179818630218506,-0.201316505670547,-0.15672741830349
7,0.00503552751615644,0.0260018818080425,-0.139272540807724,-0.179094403982162,-0.200351938605309,-0.155313163995743
8,0.00658710394054651,0.0263408720493317,-0.135187536478043,-0.176781475543976,-0.197657003998756,-0.152907267212868
9,0.00820857752114534,0.0266277026385069,-0.130985245108604,-0.173725590109825,-0.19449970126152,-0.14936363697052
10,0.00852414034307003,0.026964545249939,-0.127945557236671,-0.170221284031868,-0.191236644983292,-0.144252970814705
11,0.00752804055809975,0.0267472844570875,-0.126438274979591,-0.16683928668499,-0.187718689441681,-0.138617053627968
12,0.00672153336927295,0.0261029042303562,-0.125191122293472,-0.163465559482574,-0.183363020420074,-0.133636265993118
13,0.00670458050444722,0.0254614893347025,-0.123584061861038,-0.160799846053123,-0.178355157375336,-0.130121394991875
14,0.00630999403074384,0.024485832080245,-0.12323147803545,-0.16044694185257,-0.174293369054794,-0.128529831767082
15,0.00586315197870135,0.0240580644458532,-0.123719848692417,-0.160084202885628,-0.170853763818741,-0.126314997673035
16,0.00615241937339306,0.0251614935696125,-0.122081398963928,-0.15584497153759,-0.165662944316864,-0.121030993759632
17,0.00643095001578331,0.0267613716423512,-0.116289645433426,-0.147778078913689,-0.157189294695854,-0.113593801856041
18,0.0067998799495399,0.0276756659150124,-0.107287302613258,-0.138761281967163,-0.146420434117317,-0.105819299817085
19,0.00759593257680535,0.0271886624395847,-0.099617101252079,-0.1320870667696,-0.137574911117554,-0.0995733365416527
20,0.00813960563391447,0.0254491474479437,-0.0966738238930702,-0.128625616431236,-0.133780434727669,-0.0956812724471092
21,0.00812239293009043,0.0236703921109438,-0.0965427607297897,-0.126567095518112,-0.13277930021286,-0.0930066853761673
22,0.00737412413582206,0.021848488599062,-0.0961953327059746,-0.124882936477661,-0.130808517336845,-0.0904947593808174
23,0.00659546256065369,0.0198179427534342,-0.0938179865479469,-0.122452162206173,-0.12594747543335,-0.0868440791964531
24,0.00749994954094291,0.0189613439142704,-0.08794005215168,-0.11726725846529,-0.117628589272499,-0.0802724212408066
25,0.00991793349385262,0.0195407290011644,-0.0797583386301994,-0.109610743820667,-0.107537806034088,-0.0715934783220291
26,0.0117032704874873,0.0201421026140451,-0.0723348408937454,-0.101557090878487,-0.0985016748309135,-0.0633533596992493
27,0.0109720332548022,0.0199247654527426,-0.0674791559576988,-0.0945852994918823,-0.0922659486532211,-0.0566533543169498
28,0.00804331805557013,0.019287521019578,-0.0645323842763901,-0.0885291025042534,-0.0882224887609482,-0.0507807433605194
29,0.00518364692106843,0.0190175008028746,-0.0611026436090469,-0.0821472182869911,-0.0836417153477669,-0.0448501966893673
30,0.00358852650970221,0.0190343130379915,-0.0560032092034817,-0.0753718987107277,-0.0770680904388428,-0.0391909554600716
31,0.00265647121705115,0.0188218504190445,-0.0502873919904232,-0.0694218873977661,-0.0695120543241501,-0.0344300381839275
32,0.00196187384426594,0.0187323056161404,-0.0451885052025318,-0.0645920783281326,-0.0620414391160011,-0.0302965939044952
33,0.00101245380938053,0.0188152398914099,-0.0414768122136593,-0.0603351555764675,-0.0555589944124222,-0.0265868846327066
34,-0.00019714399240911,0.0186730585992336,-0.0384391434490681,-0.0554976388812065,-0.0500881150364876,-0.0225957371294498
35,-0.000948465894907713,0.0182524975389242,-0.0341655015945435,-0.0487506352365017,-0.0442892014980316,-0.0167615860700607
36,-0.00205147545784712,0.0166668631136417,-0.0293506253510714,-0.0414339117705822,-0.0384626798331738,-0.00980734545737505
37,-0.00375817250460386,0.0140447486191988,-0.0258481968194246,-0.0358290895819664,-0.0334907174110413,-0.00380057003349066
38,-0.00361549714580178,0.0129832541570067,-0.0223407708108425,-0.0308360327035189,-0.0273444857448339,0.00219319527968764
39,-0.000761668954510242,0.0143336364999413,-0.0172064322978258,-0.0240535885095596,-0.0186625905334949,0.0100067052990198
40,0.00233889790251851,0.0158805344253778,-0.0115773221477866,-0.0149992937222123,-0.00964918453246355,0.0182768311351538
41,0.00338395452126861,0.015435547567904,-0.00709541328251362,-0.00576104037463665,-0.00256012729369104,0.0237488709390163
42,0.00243046157993376,0.0126906204968691,-0.00390369421802461,0.000789212761446834,0.00283907726407051,0.0257877670228481
43,0.00173101515974849,0.00952115189284086,-0.000477308552945033,0.005453129298985,0.00837385002523661,0.0284991897642612
44,0.00141028419602662,0.00689548440277576,0.00264395214617252,0.0096588023006916,0.0132495826110244,0.0341386944055557
45,-0.000925491040106863,0.00396515149623156,0.00298996875062585,0.0123745435848832,0.0148905226960778,0.0399129092693329
46,-0.00477454578503966,0.00134826533030719,0.0013679068069905,0.014222864061594,0.0144347148016095,0.0442057475447655
47,-0.00719248875975609,0.000345768057741225,0.00111052859574556,0.017642030492425,0.0157899651676416,0.0480416566133499
48,-0.00724313221871853,0.000207182223675773,0.00362991518341005,0.0232137907296419,0.0205669198185205,0.0518772676587105
49,-0.00625045318156481,-0.000724043289665133,0.00762884272262454,0.0293290242552757,0.0272387098520994,0.0550444535911083
50,-0.00482287956401706,-0.00243955035693944,0.0120689114555717,0.0351233333349228,0.0347557812929153,0.0576974414288998
51,-0.00296000577509403,-0.00399865163490176,0.0168059021234512,0.0406811274588108,0.0431061238050461,0.060725674033165
52,-0.000727063918020576,-0.00477198464795947,0.0220795832574368,0.0463766939938068,0.0519068911671638,0.0649713650345802
53,0.00203452678397298,-0.00409250101074576,0.0281868688762188,0.0527447573840618,0.0603406801819801,0.0714306905865669
54,0.00415760604664683,-0.00263536931015551,0.0332147739827633,0.0583666227757931,0.0663095340132713,0.0786124095320702
55,0.00402819830924273,-0.0020540221594274,0.0348963811993599,0.0613364651799202,0.0678137019276619,0.0833980441093445
56,0.0016135434852913,-0.00287032430060208,0.0340014137327671,0.0620341673493385,0.0655063837766647,0.0851384028792381
57,-0.00198579113930464,-0.00476722791790962,0.0327261760830879,0.0615447759628296,0.0618563592433929,0.0849797949194908
58,-0.00543631985783577,-0.00689932703971863,0.0323842987418175,0.060529038310051,0.0588615611195564,0.0840437263250351
59,-0.00878409389406443,-0.00864549074321985,0.0322030559182167,0.0592004805803299,0.0559438392519951,0.0828210934996605
60,-0.0122379418462515,-0.00957248825579882,0.0314616672694683,0.0582299940288067,0.0524247549474239,0.0824261829257011
61,-0.0146753368899226,-0.0088041964918375,0.0314876697957516,0.0590573251247406,0.0504067912697792,0.0847469940781593
62,-0.0159816313534975,-0.00647187698632479,0.0332793220877647,0.0621411465108395,0.0517654567956924,0.0899310186505318
63,-0.0168065689504147,-0.00401111645624042,0.0362889170646667,0.0667354315519333,0.0555297136306763,0.0959735661745071
64,-0.017990754917264,-0.00332514313049614,0.0385034084320068,0.0707841292023659,0.0582683272659779,0.099329985678196
65,-0.0199460424482822,-0.00485493056476116,0.0388479121029377,0.0722188577055931,0.0582024566829205,0.0982618033885956
66,-0.0219617262482643,-0.00727928662672639,0.0378019846975803,0.0704315751791,0.0562657117843628,0.0947999954223633
67,-0.0234180856496096,-0.00966395158320665,0.0357667542994022,0.0666514784097672,0.0538534745573998,0.0918139070272446
68,-0.0240205191075802,-0.0116057684645057,0.033987108618021,0.0633755996823311,0.0529720857739449,0.0908957347273827
69,-0.0230231322348118,-0.0118836490437388,0.0348186828196049,0.0631648898124695,0.0556052327156067,0.0930068492889404
70,-0.0202417597174644,-0.00972975790500641,0.0390754453837872,0.0667926147580147,0.0612002499401569,0.0981209948658943
71,-0.017493112012744,-0.00672639394178987,0.0444674007594585,0.0722691267728806,0.0665868073701859,0.104157641530037
72,-0.0154024222865701,-0.00387451448477805,0.0497986115515232,0.0785841792821884,0.0710554048418999,0.110332153737545
73,-0.0142748933285475,-0.00154256098903716,0.0543855577707291,0.0843568220734596,0.0747608914971352,0.115879788994789
74,-0.0156123479828238,-0.000850169803015888,0.0567561499774456,0.0870454460382462,0.0768156796693802,0.118206948041916
75,-0.0181345120072365,-0.00132368074264377,0.0582324899733067,0.087413914501667,0.0786141380667686,0.117472015321255
76,-0.0185988415032625,-0.00184204697143286,0.0605846308171749,0.0877945274114609,0.0809438675642014,0.116358429193497
77,-0.0166633501648903,-0.00271377200260758,0.0626662150025368,0.0884420424699783,0.0817602127790451,0.116080775856972
78,-0.0149618228897452,-0.00420461362227798,0.0629338398575783,0.0886977538466454,0.0796998590230942,0.116535060107708
79,-0.0143328113481402,-0.00551559636369348,0.0626788958907127,0.0893475562334061,0.0773134678602219,0.11813622713089
80,-0.0138167766854167,-0.00643237493932247,0.0638099014759064,0.0914099588990211,0.0778950974345207,0.120675094425678
81,-0.0141276186332107,-0.00783627387136221,0.0656981095671654,0.0939010605216026,0.080523207783699,0.122246518731117
82,-0.016136659309268,-0.00991769321262836,0.0666761845350266,0.0949440374970436,0.0824055448174477,0.121716789901257
83,-0.0184651669114828,-0.0116067193448544,0.0666439607739449,0.094584047794342,0.0834278911352158,0.120539911091328
84,-0.0200867503881454,-0.0124491844326258,0.0660845786333084,0.0939689725637436,0.0841702446341515,0.119887180626392
85,-0.0216733198612928,-0.0129823768511415,0.0650191381573677,0.0930820554494858,0.0839343667030334,0.119251318275929
86,-0.0232389103621244,-0.0131623651832342,0.0644722208380699,0.0919358730316162,0.0832580626010895,0.118732981383801
87,-0.0240943673998117,-0.0122241228818893,0.0654829889535904,0.092052698135376,0.0834066122770309,0.119744785130024
88,-0.0246691610664129,-0.0106170792132616,0.0669682770967484,0.0942234471440315,0.0839391797780991,0.122311651706696
89,-0.0259158033877611,-0.0105055253952742,0.0677262842655182,0.0964773371815681,0.0838221162557602,0.123687654733658
90,-0.0275812484323978,-0.0127675076946616,0.0683799609541893,0.0965363532304764,0.0830921530723572,0.122486852109432
91,-0.0286820493638515,-0.0156417991966009,0.0691863745450974,0.0946782529354095,0.0823121592402458,0.120757080614567
92,-0.0288233123719692,-0.0176288522779942,0.0693359151482582,0.0924324691295624,0.0819384530186653,0.120136015117168
93,-0.0289829764515162,-0.0189994797110558,0.0681152269244194,0.090094231069088,0.081633672118187,0.119805529713631
94,-0.0297704022377729,-0.0197691153734922,0.0661566555500031,0.0879274383187294,0.081380270421505,0.119222566485405
95,-0.0293589774519205,-0.019050071015954,0.0658945068717003,0.0875497236847878,0.082886777818203,0.120037689805031
96,-0.0265527367591858,-0.0168244335800409,0.0684525519609451,0.089422732591629,0.0870726555585861,0.123318649828434
97,-0.0234118271619082,-0.0145321879535913,0.0719138011336327,0.0914352163672447,0.0919557437300682,0.126977831125259
98,-0.0220301151275635,-0.0132673913612962,0.0742592960596085,0.0920327678322792,0.0949960052967072,0.128607913851738
99,-0.0219028498977423,-0.0125445546582341,0.0755399018526077,0.0921088978648186,0.0959145426750183,0.128699779510498
100,-0.0212839879095554,-0.0111948549747467,0.0768351182341576,0.093029573559761,0.0958361625671387,0.129216596484184
101,-0.0191649626940489,-0.00839588139206171,0.0789787024259567,0.0953662320971489,0.0957865193486214,0.131381168961525
102,-0.0167973805218935,-0.00488642044365406,0.0811470374464989,0.0980575159192085,0.0957024544477463,0.13463082909584
103,-0.016265818849206,-0.00281210849061608,0.0814589858055115,0.0988596007227898,0.0946206003427505,0.13710218667984
104,-0.0178918559104204,-0.00319554377347231,0.0797154009342194,0.0972186848521233,0.0925920233130455,0.137905612587929
105,-0.0209875553846359,-0.00522938324138522,0.0772127658128738,0.0946266949176788,0.0902538076043129,0.137521624565125
106,-0.0242116916924715,-0.0073570110835135,0.0754865258932114,0.0930220261216164,0.0881858468055725,0.136684283614159
107,-0.0255013257265091,-0.00804835371673107,0.0755451992154121,0.0933781862258911,0.0874564349651337,0.135806888341904
108,-0.0249057486653328,-0.00729089369997382,0.076261892914772,0.0944067016243935,0.0877738669514656,0.13431154191494
109,-0.0245019886642694,-0.00649219611659646,0.0755477845668793,0.094121940433979,0.0872133523225784,0.130870461463928
110,-0.0252321846783161,-0.00662691472098231,0.0733382403850555,0.0915017575025558,0.0849251002073288,0.124784715473652
111,-0.0260822605341673,-0.00699674850329757,0.0717325359582901,0.087390348315239,0.0820482596755028,0.11843117326498
112,-0.0255561880767345,-0.00590577209368348,0.0724532902240753,0.0848459824919701,0.0800334811210632,0.116327248513699
113,-0.023857619613409,-0.00342282396741211,0.0747815147042274,0.0851958692073822,0.0786876231431961,0.119309097528458
114,-0.0232085026800632,-0.00204467633739114,0.0760482773184776,0.0851142778992653,0.0761416405439377,0.122485458850861
115,-0.0242278203368187,-0.00306953606195748,0.0754669532179832,0.0819519683718681,0.0722257271409035,0.12167651951313
116,-0.024358531460166,-0.00461136549711227,0.0752436444163322,0.0782799795269966,0.0695268139243126,0.118757210671902
117,-0.0226241890341043,-0.00509409606456757,0.0757860392332077,0.0765560269355774,0.0688304901123047,0.116823762655258
118,-0.0208170879632235,-0.00528240809217095,0.0754702761769295,0.0759040415287018,0.0690129771828651,0.115521386265755
119,-0.0203278083354235,-0.00617859838530421,0.0740265026688576,0.0747897326946259,0.0699070245027542,0.113315716385841
120,-0.0208481792360544,-0.00709897698834538,0.0728062093257904,0.0731729045510292,0.0718971565365791,0.110606871545315
121,-0.0208479147404432,-0.00668109953403473,0.0734020099043846,0.072621300816536,0.075124703347683,0.109222888946533
122,-0.0189918950200081,-0.00501688895747066,0.0761434808373451,0.0740044489502907,0.079075925052166,0.109801322221756
123,-0.0150544568896294,-0.00294249085709453,0.0800428465008736,0.0770114958286285,0.082866407930851,0.111584305763245
124,-0.0105675281956792,-0.00119756569620222,0.0831070318818092,0.0805977284908295,0.0850430354475975,0.113063745200634
125,-0.00760635267943144,-0.000449798040790483,0.08330187946558,0.082721084356308,0.0841197818517685,0.112980656325817
126,-0.00697614159435034,-0.000719864387065172,0.0801990777254105,0.0816333070397377,0.0802431702613831,0.111390270292759
127,-0.00834841001778841,-0.00169734458904713,0.0752459540963173,0.0777745470404625,0.0750417113304138,0.108910866081715
128,-0.0113323545083404,-0.00360507983714342,0.0698604360222816,0.0725606605410576,0.0695761889219284,0.105584345757961
129,-0.0157447662204504,-0.00685263518244028,0.0641295313835144,0.0665643885731697,0.0637331008911133,0.101145640015602
130,-0.0199902392923832,-0.0103573640808463,0.0589071661233902,0.0615371763706207,0.0586592853069305,0.096932627260685
131,-0.0220344830304384,-0.0124831814318895,0.0556456595659256,0.0597432740032673,0.0563369579613209,0.094585582613945
132,-0.0217502415180206,-0.0134482271969318,0.0545630566775799,0.0604789890348911,0.0569217465817928,0.0932697877287865
133,-0.0202865283936262,-0.014357260428369,0.0548991896212101,0.0611836388707161,0.0588923282921314,0.0916031897068024
134,-0.0188708044588566,-0.0154589712619781,0.0557933449745178,0.0610321462154388,0.0611388385295868,0.0902180969715118
135,-0.017800148576498,-0.0167221873998642,0.0566869676113129,0.0604521483182907,0.0630568265914917,0.0898628085851669
136,-0.0160749647766352,-0.0180329121649265,0.0568788573145866,0.0593233406543732,0.0634748935699463,0.0899743661284447
137,-0.0128377983346581,-0.0185051281005144,0.0565557070076466,0.0580435767769814,0.0623887740075588,0.0904069095849991
138,-0.00908416695892811,-0.0176643170416355,0.0565457232296467,0.0569542497396469,0.0608336068689823,0.0911355242133141
139,-0.00666609453037381,-0.0163514669984579,0.0567722804844379,0.0558330975472927,0.0590466521680355,0.0917223319411278
140,-0.00576067296788096,-0.0153826484456658,0.0569933503866196,0.0550007671117783,0.0572524666786194,0.0921297520399094
141,-0.00555135542526841,-0.015042919665575,0.0569049455225468,0.0544417202472687,0.0555656552314758,0.0920109003782272
142,-0.00493442686274648,-0.0148421889171004,0.0570611655712128,0.0550441034138203,0.0546933375298977,0.0921130329370499
143,-0.00303025473840535,-0.0139121357351542,0.0584031157195568,0.0576848909258842,0.0554922595620155,0.0935800597071648
144,-0.00103949522599578,-0.0125217661261559,0.0596173144876957,0.0599635876715183,0.0562346838414669,0.0949178412556648
145,-0.000661971687804908,-0.0113685522228479,0.058873500674963,0.0595273487269878,0.0547057576477528,0.0946518033742905
146,-0.00186869967728853,-0.0106364022940397,0.0560986958444119,0.0569472834467888,0.0512589663267136,0.0932743698358536
147,-0.00368313328363001,-0.010462773963809,0.0523161813616753,0.0538587123155594,0.0475735403597355,0.0915819630026817
148,-0.00457862298935652,-0.0103995949029922,0.0495802313089371,0.0520412251353264,0.0452737398445606,0.0904304161667824
149,-0.00307542877271771,-0.00942109618335962,0.049538865685463,0.0524608716368675,0.0451003946363926,0.0903004035353661
150,-0.000433509703725576,-0.00785447843372822,0.0505239740014076,0.0534713342785835,0.0452081486582756,0.0900145843625069
151,0.000510712037794292,-0.00718433083966374,0.0498033910989761,0.0527060031890869,0.0434473268687725,0.0880719348788261
152,-0.00068165548145771,-0.00775424903258681,0.0473658926784992,0.0502439886331558,0.0405088178813457,0.0848122984170914
153,-0.00257923873141408,-0.00855658017098904,0.044832319021225,0.0480015799403191,0.0381061546504498,0.0815861001610756
154,-0.00425489898771048,-0.00889138225466013,0.0428104512393475,0.0475364439189434,0.0366394333541393,0.0789896696805954
155,-0.00516353733837605,-0.0089399628341198,0.0411481074988842,0.0484310053288937,0.0358467139303684,0.0768317356705666
156,-0.00481195375323296,-0.00895733665674925,0.0400865636765957,0.0482245795428753,0.0354460813105106,0.0750453323125839
157,-0.00381348864175379,-0.00891702901571989,0.0390168353915215,0.04520308598876,0.0344129279255867,0.0736319571733475
158,-0.00352015439420938,-0.00883047748357058,0.0366472341120243,0.0402039363980293,0.0317033305764198,0.0718772262334824
159,-0.00327124446630478,-0.00806646887212992,0.0340516231954098,0.036287609487772,0.0288265328854322,0.0701849460601807
160,-0.00195874366909266,-0.00606838148087263,0.0328034050762653,0.0352051667869091,0.0278410669416189,0.0694789737462997
161,-0.000402971520088613,-0.00345650408416986,0.0323951803147793,0.0356232151389122,0.0283155683428049,0.0694288462400436
162,0.000829315045848489,-0.000816584622953087,0.0323805399239063,0.0364427380263805,0.0289120078086853,0.0700538158416748
163,0.000688619969878346,0.000586362148169428,0.0314590074121952,0.0359100885689259,0.0273180361837149,0.0697927623987198
164,-0.00126470776740462,-0.000197729605133645,0.0288665797561407,0.0329008139669895,0.0231549106538296,0.0668327510356903
165,-0.00230070506222546,-0.000976143928710371,0.0272514093667269,0.0302661471068859,0.0204059109091759,0.0636850371956825
166,-0.000867273367475718,0.000447818922111765,0.0283501613885164,0.0300153866410255,0.0210211127996445,0.0629762709140778
167,0.00103798601776361,0.00313830398954451,0.0301374364644289,0.030195314437151,0.0220512896776199,0.0628833621740341
168,0.00184818031266332,0.00547399232164025,0.0303845908492804,0.0289719179272652,0.0211555529385805,0.0610785149037838
169,0.00245594466105103,0.00711666932329535,0.0297915786504745,0.0271353889256716,0.0196305029094219,0.0582195594906807
170,0.0037908717058599,0.00833521224558353,0.030230363830924,0.0258517991751432,0.0194135550409555,0.0555720962584019
171,0.00496958987787366,0.00913918111473322,0.0313087068498135,0.0243017580360174,0.0200797915458679,0.0526967085897923
172,0.00458618625998497,0.00912232883274555,0.0307938437908888,0.0208972208201885,0.0194652881473303,0.0483382642269135
173,0.0032492543105036,0.00896872859448195,0.0285922754555941,0.0170852951705456,0.0173328574746847,0.043623611330986
174,0.00290779303759336,0.0103838872164488,0.0266509726643562,0.0165184829384089,0.0155590148642659,0.0415921770036221
175,0.0039371419698,0.0131738027557731,0.0259529333561659,0.0194546468555927,0.0148043027147651,0.0423143617808819
176,0.00530732795596123,0.0160055812448263,0.0267066285014153,0.0230650715529919,0.014728631824255,0.0441050790250301
177,0.00589538225904107,0.0190135631710291,0.0283567048609257,0.0260006543248892,0.0149075398221612,0.047014381736517
178,0.00477880612015724,0.0221591200679541,0.0295119918882847,0.0280366074293852,0.014465088956058,0.05020597204566
179,0.00271724630147219,0.0246913284063339,0.0303244106471539,0.0289383959025145,0.0137483812868595,0.0519598498940468
180,0.000816788873635232,0.0262275673449039,0.0314284227788448,0.0280451700091362,0.0140396812930703,0.0516823157668114
181,-0.0021114272531122,0.0260697025805712,0.0310740079730749,0.0236737541854382,0.0144294183701277,0.0486244894564152
182,-0.00461520161479712,0.0252438392490149,0.0294991154223681,0.0177304558455944,0.0145252645015717,0.0445383489131927
183,-0.00323649938218296,0.0257437564432621,0.0289344303309917,0.0143580920994282,0.0154505437240005,0.0424364432692528
184,0.000618770311120898,0.0270545613020658,0.0288324747234583,0.01396210398525,0.0163732916116714,0.0420686788856983
185,0.00398278515785933,0.0281988047063351,0.0288450196385384,0.0158451348543167,0.0169668830931187,0.042807687073946
186,0.00601815385743976,0.0291743390262127,0.0299990475177765,0.0198438856750727,0.0186189673841,0.0447211004793644
187,0.00633677560836077,0.0294047314673662,0.0326733104884624,0.0251759607344866,0.0219392459839582,0.0468308366835117
188,0.00546871405094862,0.0280720796436071,0.0375260747969151,0.0310731362551451,0.0272280350327492,0.0476359166204929
189,0.00591652607545257,0.0256973374634981,0.0446286201477051,0.0359086096286774,0.0348602123558521,0.0455052331089973
190,0.00880208797752857,0.0235399175435305,0.0501501150429249,0.0366608612239361,0.0417666547000408,0.0389317274093628
191,0.012417471036315,0.0223114900290966,0.0492659397423267,0.0322961285710335,0.0432167090475559,0.0287769176065922
192,0.0152266509830952,0.0219051335006952,0.0422823987901211,0.0256411209702492,0.039344098418951,0.0180955100804567
193,0.0163561943918467,0.02117077447474,0.0331571996212006,0.0196812488138676,0.0336260087788105,0.00811509694904089
194,0.0157105047255754,0.0190935619175434,0.0250124130398035,0.01537817530334,0.0284954030066729,-0.00187065219506621
195,0.015069137327373,0.0168305598199368,0.0189501587301493,0.0133072594180703,0.0253349095582962,-0.010651676915586
196,0.0165246333926916,0.0168560165911913,0.014713941141963,0.0137485358864069,0.0250361580401659,-0.0155181465670466
197,0.0193862952291965,0.0190219078212976,0.0116178933531046,0.0151718156412244,0.026955371722579,-0.0172309260815382
198,0.0216077081859112,0.020821200683713,0.0103149758651853,0.0166445206850767,0.0307677052915096,-0.0188799388706684
199,0.0230542700737715,0.0210857186466455,0.0124573642387986,0.0193647518754005,0.0377029366791248,-0.0217665303498507
200,0.0244685877114534,0.0201131664216518,0.0169591754674912,0.0233528204262257,0.0466934330761433,-0.0266327038407326
201,0.0253362990915775,0.0183843113481998,0.0197138898074627,0.0269915889948606,0.0534916371107101,-0.0341168083250523
202,0.0244813710451126,0.0162007547914982,0.0181321706622839,0.0290406923741102,0.0553607642650604,-0.0432676374912262
203,0.0225269310176373,0.0135748386383057,0.0137233380228281,0.0295018497854471,0.0545423328876495,-0.0525374375283718
204,0.0215043015778065,0.0106097143143415,0.00951512344181538,0.0296913217753172,0.0548537001013756,-0.0608596429228783
205,0.0227499138563871,0.00798264145851135,0.00745834689587355,0.0309149120002985,0.0577452108263969,-0.0672174543142319
206,0.0263770949095488,0.0065033552236855,0.00734696863219142,0.0329818800091743,0.0622067004442215,-0.0713599845767021
207,0.030622024089098,0.00628215586766601,0.00666458066552877,0.0345082990825176,0.0653625652194023,-0.073826976120472
208,0.0324704647064209,0.00634207669645548,0.00340322265401483,0.0341667458415031,0.0654777884483337,-0.0758608058094978
209,0.0313267894089222,0.00564982648938894,-0.000646471977233887,0.0327861085534096,0.0648245513439178,-0.0786294937133789
210,0.0303854681551456,0.00492060044780374,-0.000637002929579467,0.0336364507675171,0.068076878786087,-0.0809205174446106
211,0.0315542705357075,0.00508946599438787,0.00487376376986504,0.0373782142996788,0.07630954682827,-0.0817689895629883
212,0.0336593315005302,0.00614817393943667,0.012033618055284,0.0415729731321335,0.0851216092705727,-0.0818970650434494
213,0.035613164305687,0.00831654015928507,0.0170398242771626,0.0447943471372128,0.0904145538806915,-0.0815100371837616
214,0.0363897569477558,0.0111161665990949,0.0181802418082953,0.0462995320558548,0.09115120023489,-0.081037238240242
215,0.0364730134606361,0.0141187012195587,0.0171721447259188,0.0469855517148972,0.0895021930336952,-0.0800958201289177
216,0.037739485502243,0.0177887417376041,0.0177656412124634,0.0489983521401882,0.0890154913067818,-0.0770984143018723
217,0.039093129336834,0.0204157698899508,0.0196766573935747,0.051363505423069,0.0895066484808922,-0.0730138570070267
218,0.0380641333758831,0.0185662098228931,0.0198497418314219,0.0514690615236759,0.088456317782402,-0.0705611184239388
219,0.0351332537829876,0.0117241600528359,0.018066393211484,0.0497675240039825,0.0858893021941185,-0.0698995962738991
220,0.0321942195296288,0.00245239003561437,0.0161228235810995,0.0486708097159863,0.0833198502659798,-0.0695572569966316
221,0.0289644207805395,-0.00741424923762679,0.0142445396631956,0.0482002682983875,0.0806232988834381,-0.0698540955781937
222,0.0246577579528093,-0.0169310569763184,0.0119167193770409,0.0467900522053242,0.0769779831171036,-0.0708795636892319
223,0.020427156239748,-0.0245776772499084,0.00956665258854628,0.0445988774299622,0.0728529021143913,-0.0705116763710976
224,0.0176347512751818,-0.0296748224645853,0.00814008247107267,0.0429864153265953,0.0696999952197075,-0.0678407028317451
225,0.0162169486284256,-0.0334612354636192,0.0080872280523181,0.0425631031394005,0.068200372159481,-0.0643991902470589
226,0.0152403768151999,-0.0374176688492298,0.00893091782927513,0.0430720150470734,0.0678103491663933,-0.061409916728735
227,0.0146731194108725,-0.0415719635784626,0.0100658452138305,0.0438730679452419,0.067851759493351,-0.0588440857827663
228,0.0157114323228598,-0.0453190170228481,0.0109108723700047,0.0440197512507439,0.0672892779111862,-0.0566179752349854
229,0.0183690506964922,-0.0486376881599426,0.0109516456723213,0.0430944003164768,0.0651022717356682,-0.0547806359827518
230,0.0207910146564245,-0.0517858155071735,0.0102284010499716,0.0414826460182667,0.0617176853120327,-0.0530555285513401
231,0.0214841589331627,-0.0547305941581726,0.00891125574707985,0.0396903790533543,0.058051947504282,-0.0508761890232563
232,0.0202198028564453,-0.0574107803404331,0.00707325525581837,0.037814237177372,0.0543216653168201,-0.0483583137392998
233,0.0181490760296583,-0.059684444218874,0.0058308644220233,0.0362384580075741,0.0515325665473938,-0.0459521226584911
234,0.0162263251841068,-0.0617156773805618,0.00568983145058155,0.0347702652215958,0.0499928407371044,-0.0442699640989304
235,0.0142467841506004,-0.0638176053762436,0.00544437114149332,0.0323461927473545,0.0484110303223133,-0.0440038070082664
236,0.0123035879805684,-0.0652741715312004,0.00483650807291269,0.0294493343681097,0.0468501225113869,-0.0442910231649876
237,0.00984738301485777,-0.0657354071736336,0.00369747774675488,0.026560677215457,0.0451654903590679,-0.0445073507726192
238,0.00659535499289632,-0.065500982105732,0.00152048957534134,0.0236619636416435,0.0426384173333645,-0.0447212383151054
239,0.00462662661448121,-0.0640453323721886,-0.000227799551794305,0.0226589664816856,0.0412495918571949,-0.0435504280030727
240,0.0050630527548492,-0.0616629347205162,-0.000560091517399997,0.0244836583733559,0.0423984378576279,-0.0407846234738827
241,0.00649252766743302,-0.0596392713487148,-0.000280869397101924,0.0272446610033512,0.0439090579748154,-0.0380289405584335
242,0.0073393490165472,-0.0585037097334862,-0.000204473370104097,0.0287867598235607,0.0433288812637329,-0.0354370288550854
243,0.00681635085493326,-0.0581802651286125,-0.00089508673409,0.0280771516263485,0.0404795557260513,-0.0326800532639027
244,0.00588533421978354,-0.057944618165493,-0.00181012623943388,0.0258908085525036,0.0372381508350372,-0.0301607809960842
245,0.00579541502520442,-0.057207677513361,-0.00252663251012564,0.0234485864639282,0.0345268361270428,-0.0282264482229948
246,0.00558961648494005,-0.0566607601940632,-0.00400613946840167,0.0207248255610466,0.0308619849383831,-0.0275271236896515
247,0.00488997809588909,-0.0565483421087265,-0.00586000038310885,0.0184580516070127,0.0266914758831263,-0.0274383872747421
248,0.00491207512095571,-0.0559615306556225,-0.00619312888011336,0.0179848037660122,0.0249157007783651,-0.0261596329510212
249,0.00497712288051844,-0.0549418106675148,-0.00558176171034575,0.0180622134357691,0.0249402336776257,-0.0244052074849606
250,0.00373920286074281,-0.0541794709861279,-0.0062726573087275,0.0168648157268763,0.0236076880246401,-0.0241224728524685
251,0.00217310711741447,-0.0537097118794918,-0.00815672148019075,0.0147970281541348,0.0208966117352247,-0.0252911299467087
252,0.00261978665366769,-0.052653256803751,-0.00897150114178658,0.0133662195876241,0.019791204482317,-0.0262725781649351
253,0.00567739456892014,-0.0499356165528297,-0.00793301500380039,0.0129075106233358,0.0214125197380781,-0.0261896830052137
254,0.00896578095853329,-0.0462419949471951,-0.00718286260962486,0.0116723412647843,0.0230539198964834,-0.026525842025876
255,0.00991680007427931,-0.0430112294852734,-0.00812576897442341,0.00895839184522629,0.0229044463485479,-0.0278413817286491
256,0.00888199172914028,-0.0401201695203781,-0.00894954428076744,0.00698953773826361,0.0226285737007856,-0.0278247185051441
257,0.00770300393924117,-0.0372684858739376,-0.00869430415332317,0.00657662283629179,0.0223680101335049,-0.0260147694498301
258,0.00632830150425434,-0.0352003909647465,-0.00949445087462664,0.00514169968664646,0.0194552503526211,-0.0253524389117956
259,0.00409364886581898,-0.0342258997261524,-0.0120624024420977,0.00133470527362078,0.0137630738317966,-0.0272574368864298
260,0.00173238082788885,-0.0338129960000515,-0.0145664317533374,-0.00321234087459743,0.00803626328706741,-0.0303301829844713
261,-0.000245808274485171,-0.0332472622394562,-0.016334580257535,-0.00652612466365099,0.00349054764956236,-0.0334402807056904
262,-0.00286397919990122,-0.0325422398746014,-0.0188085120171309,-0.00884621869772673,-0.00119777570944279,-0.0371293947100639
263,-0.00542859733104706,-0.0313345938920975,-0.0212644282728434,-0.0108758071437478,-0.00507881212979555,-0.0402535274624825
264,-0.00567417126148939,-0.0285693593323231,-0.0212322603911161,-0.0119443442672491,-0.00544540118426085,-0.039562962949276
265,-0.00430913921445608,-0.0248770862817764,-0.0194974914193153,-0.0122406631708145,-0.00340580381453037,-0.0351416505873203
266,-0.00262651825323701,-0.0212734490633011,-0.0171594731509686,-0.0118405250832438,-0.000908602960407734,-0.0295570082962513
267,-0.000275377504294738,-0.0176200065761805,-0.0134048806503415,-0.00973054766654968,0.00193640170618892,-0.023943867534399
268,0.00192896055523306,-0.0138937504962087,-0.00899260677397251,-0.00636095413938165,0.00402906583622098,-0.0191168840974569
269,0.00188263703603297,-0.0109420381486416,-0.00671669514849782,-0.00461286632344127,0.00331053044646978,-0.0172506906092167
270,-0.000657152209896594,-0.00951890461146832,-0.00774485804140568,-0.0064036869443953,6.37460543657653E-05,-0.0195063725113869
271,-0.00345182954333723,-0.00930980313569307,-0.0100328493863344,-0.00990599300712347,-0.00280360644683242,-0.023744311183691
272,-0.00536207389086485,-0.00981616415083408,-0.0120869120582938,-0.0128152742981911,-0.00440782913938165,-0.0273951403796673
273,-0.0068461480550468,-0.0102098593488336,-0.0136926006525755,-0.0140965078026056,-0.00599936256185174,-0.0290914941579103
274,-0.00820074882358313,-0.00937784276902676,-0.0141637595370412,-0.0132368998602033,-0.00788569264113903,-0.0281385201960802
275,-0.0103364977985621,-0.00747014814987779,-0.0142156640067697,-0.0117550380527973,-0.0107946377247572,-0.0259264409542084
276,-0.0128583423793316,-0.00489133968949318,-0.0143172396346927,-0.0107461987063289,-0.0144673800095916,-0.0239988900721073
277,-0.0134237846359611,-0.00173234043177217,-0.0132143720984459,-0.00931726675480604,-0.0164044760167599,-0.0221069902181625
278,-0.0115278791636229,0.00119523296598345,-0.0110635422170162,-0.00752300908789039,-0.0159738548099995,-0.0199752524495125
279,-0.00962056685239077,0.00265377061441541,-0.0100304884836078,-0.00707016745582223,-0.0159080903977156,-0.0186994187533855
280,-0.0102943666279316,0.00162223656661808,-0.0120573714375496,-0.00975925754755735,-0.0187389422208071,-0.0203350149095058
281,-0.0123651586472988,-0.000950368063058704,-0.0156000498682261,-0.0137398270890117,-0.0225785579532385,-0.0240642875432968
282,-0.0128383636474609,-0.00290284887887537,-0.0173117481172085,-0.0148406270891428,-0.0237429533153772,-0.026331577450037
283,-0.0113254236057401,-0.00381494150497019,-0.0163159612566233,-0.0124240694567561,-0.0213356539607048,-0.02616904117167
284,-0.00910786166787148,-0.0044706123881042,-0.013503834605217,-0.00937034469097853,-0.0166679080575705,-0.0253006163984537
285,-0.0073087508790195,-0.00533545901998878,-0.0105440523475409,-0.00860200636088848,-0.0119450222700834,-0.0241967607289553
286,-0.00661087641492486,-0.00637687649577856,-0.0093429135158658,-0.0109748616814613,-0.00928408280014992,-0.0223204679787159
287,-0.00702426116913557,-0.00720529537647963,-0.0101107321679592,-0.0151870539411902,-0.00942806527018547,-0.0203707255423069
288,-0.0074265138246119,-0.00718744890764356,-0.010709841735661,-0.0183220021426678,-0.0107513209804893,-0.0184267312288284
289,-0.00680962158367038,-0.00622785603627563,-0.00951471459120512,-0.0183697212487459,-0.0114197703078389,-0.0157386660575867
290,-0.0063923541456461,-0.00559914205223322,-0.00846245605498552,-0.0172490272670984,-0.012584981508553,-0.0134342489764094
291,-0.00777061190456152,-0.00638392195105553,-0.0101189436390996,-0.0176283307373524,-0.0158192459493876,-0.0129691604524851
292,-0.00947525259107351,-0.0074447263032198,-0.0128523530438542,-0.0180904138833284,-0.018934054300189,-0.0128644229844213
293,-0.00953549984842539,-0.00736706471070647,-0.0137156322598457,-0.016276003792882,-0.0192967504262924,-0.0110486401244998
294,-0.00977968797087669,-0.00725006777793169,-0.0138840125873685,-0.0141456658020616,-0.0189197901636362,-0.0093991095200181
295,-0.0123829795047641,-0.00854325294494629,-0.0155643364414573,-0.0145597485825419,-0.0203166473656893,-0.0107157565653324
296,-0.0162913184612989,-0.0105965249240398,-0.017535924911499,-0.0166016574949026,-0.0217951163649559,-0.0138373197987676
297,-0.0192072223871946,-0.0120446970686316,-0.0175822023302317,-0.0175462141633034,-0.0214726459234953,-0.0154037261381745
298,-0.0195399150252342,-0.0125558227300644,-0.015965398401022,-0.0165976025164127,-0.0208906047046185,-0.0142225129529834
299,-0.0171925164759159,-0.0126060964539647,-0.0140677904710174,-0.0147617664188147,-0.0215151365846395,-0.0115838358178735
300,-0.013783791102469,-0.0129474531859159,-0.0127525692805648,-0.0132569475099444,-0.0229452010244131,-0.00916777458041906
301,-0.0107307797297835,-0.0140448482707143,-0.0123462500050664,-0.0124115534126759,-0.0244683474302292,-0.00774186383932829
302,-0.00752379931509495,-0.0150466896593571,-0.0121214082464576,-0.0106960311532021,-0.0251028686761856,-0.00587799958884716
303,-0.0049371225759387,-0.0159615129232407,-0.0131704201921821,-0.00910787004977465,-0.0260453838855028,-0.00399490026757121
304,-0.00493620289489627,-0.018113736063242,-0.0172746311873198,-0.0106911109760404,-0.0291922371834517,-0.00515782181173563
305,-0.00614941399544477,-0.0208283253014088,-0.0218269284814596,-0.0133404787629843,-0.0320283621549606,-0.00846058130264282
306,-0.0066476333886385,-0.0229999050498009,-0.0232557915151119,-0.0138030210509896,-0.0313647016882896,-0.0112468982115388
307,-0.00679753394797444,-0.0247947219759226,-0.021159004420042,-0.0128147685900331,-0.0276133846491575,-0.0128314737230539
308,-0.00633785407990217,-0.0256566274911165,-0.0166475959122181,-0.0112243928015232,-0.0220908205956221,-0.0118606835603714
309,-0.00465749623253942,-0.0251792520284653,-0.0115241659805179,-0.00958106573671103,-0.0158620085567236,-0.00835923105478287
310,-0.00277756853029132,-0.024555679410696,-0.00811429228633642,-0.00964393466711044,-0.0109517835080624,-0.00552809936925769
311,-0.00225957855582237,-0.0251948777586222,-0.00765543570742011,-0.0123120872303844,-0.00932636018842459,-0.00586519669741392
312,-0.00213416363112628,-0.0263975188136101,-0.0080743869766593,-0.0148154953494668,-0.00992984604090452,-0.00736835086718202
313,-0.000658363627735525,-0.0269802697002888,-0.00689008878543973,-0.014228000305593,-0.0105092814192176,-0.00694371573626995
314,0.000800567155238241,-0.0277595464140177,-0.00558843789622188,-0.0126693500205874,-0.0110950246453285,-0.00548063358291984
315,0.000856678350828588,-0.0290564056485891,-0.00601150095462799,-0.0127712246030569,-0.0116533823311329,-0.00443365098908544
316,-7.04695703461766E-05,-0.0300036445260048,-0.00749387312680483,-0.0137086724862456,-0.0117095606401563,-0.00334608391858637
317,-0.00211103563196957,-0.0304110459983349,-0.00950976554304361,-0.0144292647019029,-0.0125327529385686,-0.00251016719266772
318,-0.00564334634691477,-0.0304647516459227,-0.0122103961184621,-0.0151068503037095,-0.0151885636150837,-0.00294019212014973
319,-0.00883569661527872,-0.0295707061886787,-0.0138603178784251,-0.0148784341290593,-0.0172669291496277,-0.00376338302157819
320,-0.00930514745414257,-0.0272553972899914,-0.0126865766942501,-0.0130126299336553,-0.0158098079264164,-0.00341079710051417
321,-0.0079524889588356,-0.0246436055749655,-0.0105267660692334,-0.0111369052901864,-0.0126778082922101,-0.00220990157686174
322,-0.00697755767032504,-0.023034593090415,-0.00964276306331158,-0.0101834265515208,-0.0117338122799993,-0.000564799702260643
323,-0.00757618295028806,-0.0227742735296488,-0.0104239955544472,-0.00999315921217203,-0.014149165712297,0.000933644478209317
324,-0.00952744111418724,-0.0234693549573421,-0.0122989127412438,-0.0109117822721601,-0.0178222935646772,0.000964737497270107
325,-0.0106557244434953,-0.0240264851599932,-0.0133813424035907,-0.0121495351195335,-0.0192052572965622,0.000182304720510729
326,-0.00965260900557041,-0.0238902773708105,-0.0124861160293221,-0.0128307063132524,-0.0173645839095116,-0.000174350760062225
327,-0.00778935384005308,-0.0235823318362236,-0.0109895430505276,-0.0134670799598098,-0.0148522220551968,-0.000549720134586096
328,-0.00581985991448164,-0.0227911546826363,-0.0100124645978212,-0.0133625278249383,-0.013641064055264,-0.000751228828448802
329,-0.00331783550791442,-0.0208263862878084,-0.0091371787711978,-0.011787093244493,-0.0135377356782556,-0.000244873313931748
330,-0.00146359787322581,-0.0187107361853123,-0.00918392278254032,-0.0110535332933068,-0.0147356186062098,7.13066110620275E-05
331,-0.00142440898343921,-0.0173679813742638,-0.0110408272594213,-0.012606586329639,-0.0171563494950533,0.000306058529531583
332,-0.00233539706096053,-0.0165914352983236,-0.0132762352004647,-0.0148057658225298,-0.0192198697477579,0.0011635577538982
333,-0.00368555565364659,-0.0163292083889246,-0.0146036809310317,-0.0160825029015541,-0.020569309592247,0.00196164404042065
334,-0.00574234640225768,-0.0164896342903376,-0.0153366718441248,-0.0162842907011509,-0.0221962705254555,0.00207031052559614
335,-0.00796947907656431,-0.0168286394327879,-0.0158689692616463,-0.0160910189151764,-0.0240367222577333,0.00170643301680684
336,-0.00953203160315752,-0.0170936789363623,-0.0160851776599884,-0.0161174777895212,-0.025367446243763,0.00123018282465637
337,-0.0104125086218119,-0.017151715233922,-0.0162695739418268,-0.0168228428810835,-0.0263208113610744,0.000223703566007316
338,-0.010668714530766,-0.0169443115592003,-0.0170672442764044,-0.0182908158749342,-0.027243722230196,-0.00135189131833613
339,-0.0103363431990147,-0.0163999069482088,-0.0185146536678076,-0.0194988381117582,-0.0283257570117712,-0.00210824958048761
340,-0.0100812576711178,-0.0157286711037159,-0.0200050957500935,-0.0193624626845121,-0.029986621811986,-0.00150205427780747
341,-0.00996865797787905,-0.0149239590391517,-0.0206069741398096,-0.0177723970264196,-0.0318369902670383,-0.000617835205048323
342,-0.00933090597391129,-0.0136977294459939,-0.0197394695132971,-0.0154869863763452,-0.0327502004802227,-0.000260859058471397
343,-0.00768111646175385,-0.0119303017854691,-0.0177918728441,-0.0133783696219325,-0.0322064124047756,0.000187471989193
344,-0.00570832891389728,-0.00995507836341858,-0.0163283944129944,-0.0122404126450419,-0.0312044583261013,0.00105527741834521
345,-0.00465802848339081,-0.00820530578494072,-0.0162978861480951,-0.012769334949553,-0.0303049106150866,0.00148685544263572
346,-0.00455483049154282,-0.0065465341322124,-0.0165993999689817,-0.0145610636100173,-0.0286362301558256,0.00121148047037423
347,-0.00414220290258527,-0.00423117727041245,-0.0156561080366373,-0.015562710352242,-0.0259774848818779,0.00124826759565622
348,-0.00250986078754067,-0.0008881856338121,-0.013447648845613,-0.0142280422151089,-0.0230487566441298,0.00227470463141799
349,-0.00134803389664739,0.00196103937923908,-0.0123602412641048,-0.0126784984022379,-0.0219040904194117,0.00256646913476288
350,-0.00232865219004452,0.00267209066078067,-0.0137512236833572,-0.0134023865684867,-0.0238065421581268,0.000417855655541644
351,-0.00383978546597064,0.00177695066668093,-0.0155137050896883,-0.015174868516624,-0.0265486314892769,-0.0029631070792675
352,-0.00354348658584058,0.000867172086145729,-0.0152868516743183,-0.0155257973819971,-0.0274388287216425,-0.00527988746762276
353,-0.0010376654099673,0.000780740811023861,-0.0128141026943922,-0.0134968170896173,-0.0261084865778685,-0.00574293173849583
354,0.00221576122567058,0.00108345795888454,-0.00949469674378634,-0.0104918014258146,-0.0241245869547129,-0.00522494642063975
355,0.00423188181594014,0.00124945875722915,-0.00727697275578976,-0.00896296370774508,-0.0235573034733534,-0.00401602312922478
356,0.00296434899792075,0.000510027632117271,-0.00847528222948313,-0.0111037511378527,-0.0260674152523279,-0.00336956256069243
357,-0.00177901587449014,-0.00168128695804626,-0.01326709613204,-0.016875883564353,-0.031025180593133,-0.00558715732768178
358,-0.00656914571300149,-0.00394164817407727,-0.0175801422446966,-0.0221691783517599,-0.0344700366258621,-0.00892648380249739
359,-0.0090286722406745,-0.00510283140465617,-0.0183809045702219,-0.023787934333086,-0.03409493714571,-0.0101870447397232
360,-0.00946605578064919,-0.00541819166392088,-0.0167916361242533,-0.0223075598478317,-0.0319562032818794,-0.0090311486274004
361,-0.00875682663172483,-0.00604487396776676,-0.0161137394607067,-0.0206102337688208,-0.0318867899477482,-0.00785423908382654
362,-0.00723598431795835,-0.00738842692226171,-0.0175970830023289,-0.0204047001898289,-0.0348333790898323,-0.00796634517610073
363,-0.00403245119377971,-0.00801934022456408,-0.018478149548173,-0.0200035851448774,-0.0371727868914604,-0.00719678774476051
364,-0.000266090879449621,-0.00810348056256771,-0.0178345441818237,-0.0193493720144033,-0.0370839796960354,-0.00564713450148702
365,0.0017153974622488,-0.008888172917068,-0.0173407979309559,-0.0197260696440935,-0.0362709499895573,-0.00548222661018372
366,0.00192026095464826,-0.00986085645854473,-0.01699373498559,-0.0201504621654749,-0.0354920625686646,-0.00635483302175999
367,0.00149429053999484,-0.0103892032057047,-0.0163197070360184,-0.0198452603071928,-0.0341949909925461,-0.00726713053882122
368,0.00140419974923134,-0.0107328994199634,-0.0157616715878248,-0.0195655710995197,-0.0323414839804173,-0.00820921268314123
369,0.00206240289844573,-0.0112174777314067,-0.015661958605051,-0.0201699323952198,-0.0309161860495806,-0.00936311390250921
370,0.00298809865489602,-0.0118471477180719,-0.0158385783433914,-0.0215029343962669,-0.0305724292993546,-0.0106264492496848
371,0.00335540273226798,-0.0125364037230611,-0.015879126265645,-0.0227772817015648,-0.0307768527418375,-0.0120153911411762
372,0.0031304347794503,-0.0132286511361599,-0.0154102798551321,-0.0235289596021175,-0.0305077433586121,-0.0133255580440164
373,0.00285178935155272,-0.0136238690465689,-0.0143300238996744,-0.0238075237721205,-0.0292914696037769,-0.0138361267745495
374,0.00255749770440161,-0.013231354765594,-0.0129615375772119,-0.0236765407025814,-0.0276682302355766,-0.013342434540391
375,0.00251182401552796,-0.0116150258108974,-0.0113874338567257,-0.0222766250371933,-0.0258431602269411,-0.0118077276274562
376,0.0029569580219686,-0.00934022571891546,-0.00931176077574492,-0.0195580553263426,-0.0237957108765841,-0.00981032941490412
377,0.00358689343556762,-0.00759277679026127,-0.00682345265522599,-0.0171685796231031,-0.0219114292412996,-0.00828938744962215
378,0.00321886804886162,-0.00702395103871822,-0.00540737388655543,-0.0168764628469944,-0.0212698932737112,-0.00769795756787062
379,0.00103129155468196,-0.00779906753450632,-0.00582147669047117,-0.0185789242386818,-0.022241186350584,-0.00804415997117758
380,-0.00175230007153004,-0.00972211826592684,-0.00618792045861483,-0.0193875171244144,-0.0225783847272396,-0.00790147297084332
381,-0.00357182533480227,-0.0120891081169248,-0.00435229018330574,-0.0167589262127876,-0.0200634337961674,-0.00570648303255439
382,-0.00410331645980477,-0.0141084659844637,-0.000326185050653294,-0.0115639856085181,-0.0156896002590656,-0.00223990553058684
383,-0.00369694316759706,-0.0156928449869156,0.00321965897455812,-0.00773519370704889,-0.0126654217019677,-0.000901784223970026
384,-0.00241153663955629,-0.0170406177639961,0.00282398192211986,-0.00955222826451063,-0.0133089786395431,-0.00558465719223022
385,1.93590312846936E-05,-0.0177525784820318,-0.00252531142905355,-0.0172297060489655,-0.0173382014036179,-0.0159685369580984
386,0.00306479167193174,-0.0174335315823555,-0.0100046657025814,-0.0259091313928366,-0.0219715181738138,-0.026580860838294
387,0.00550877442583442,-0.0164845231920481,-0.0147385559976101,-0.030368659645319,-0.0233002845197916,-0.0325317867100239
388,0.00728627713397145,-0.0153274023905396,-0.0131969740614295,-0.028426893055439,-0.0188929513096809,-0.0323669351637363
389,0.00817801803350449,-0.0144259911030531,-0.00717096496373415,-0.0218179784715176,-0.0112823192030191,-0.0277974475175142
390,0.00724570592865348,-0.0140687776729465,-0.0018123792251572,-0.0143363308161497,-0.00563762383535504,-0.0220533050596714
391,0.00490488158538938,-0.0137357544153929,0.000385336315957829,-0.00841296557337046,-0.00381917762570083,-0.0169824101030827
392,0.00212188367731869,-0.0134168593212962,5.33738020749297E-05,-0.00513912783935666,-0.00426687439903617,-0.0137644270434976
393,7.01463359291665E-05,-0.0135921845212579,-0.000577830243855715,-0.00389721803367138,-0.00408996921032667,-0.0126585401594639
394,-0.000205581440241076,-0.014613026753068,0.000201138624106534,-0.0033338728826493,-0.00176267419010401,-0.0130313029512763
395,0.000511249527335167,-0.0164862852543592,0.00123609357979149,-0.00372529122978449,0.000844992871861905,-0.0148805268108845
396,0.001305773970671,-0.0180616024881601,0.00123156886547804,-0.00452722236514091,0.00178148737177253,-0.0171465668827295
397,0.00216380157507956,-0.0188189912587404,0.000557047605980188,-0.0043837446719408,0.000930022390093654,-0.0185486804693937
398,0.00276453839614987,-0.0196844171732664,-9.14602278498933E-05,-0.00318640796467662,-0.00123824097681791,-0.0189108084887266
399,0.00237476895563304,-0.0213584452867508,-0.000515744264703244,-0.00148491992149502,-0.00419506756588817,-0.0182672012597322
400,0.000373632763512433,-0.0240867752581835,-0.00162779144011438,-0.00038702753954567,-0.00753320287913084,-0.0172454528510571
401,-0.00201119505800307,-0.0271579548716545,-0.00325776380486786,-9.36276264837943E-05,-0.00990456249564886,-0.015944505110383
402,-0.00227907579392195,-0.0287520978599787,-0.00353860924951732,0.000313424796331674,-0.00991713255643845,-0.013409405015409
403,-0.000312711141305044,-0.0282155107706785,-0.0027203366626054,0.00045854426571168,-0.00845930352807045,-0.0100449863821268
404,0.00197795359417796,-0.0267758071422577,-0.00257857539691031,-0.000606023415457457,-0.00702078593894839,-0.00791001226752996
405,0.00412143813446164,-0.0253736730664968,-0.00286985374987125,-0.00207349704578519,-0.00491407560184598,-0.00788410753011703
406,0.00658900616690516,-0.0244047977030277,-0.00246517476625741,-0.00280278106220067,-0.000863716762978584,-0.00920755509287119
407,0.00864503905177116,-0.0241878740489483,-0.0016799084842205,-0.00337296957150102,0.0040017799474299,-0.011254389770329
408,0.00928196962922812,-0.0240544583648443,-0.001519690384157,-0.00439670914784074,0.00709006376564503,-0.0130533119663596
409,0.00864793173968792,-0.0230053570121527,-0.00203327718190849,-0.0050662774592638,0.00751789892092347,-0.0129501782357693
410,0.00712764216586947,-0.0212626177817583,-0.00295008276589215,-0.00519357249140739,0.00594943342730403,-0.0112137049436569
411,0.0045953830704093,-0.0200309287756681,-0.00485918112099171,-0.0061453296802938,0.00223255041055381,-0.0104339756071568
412,0.0022224283311516,-0.0193756595253944,-0.00743338651955128,-0.00790661200881004,-0.00323264393955469,-0.0113448947668076
413,0.00198658765293658,-0.0180961955338717,-0.00889890734106302,-0.00874512083828449,-0.00816891528666019,-0.0123007614165545
414,0.00304396543651819,-0.0165332350879908,-0.00954503752291203,-0.00933425594121218,-0.0119239753112197,-0.0137902172282338
415,0.00345069100148976,-0.0159249547868967,-0.0109584350138903,-0.0115616098046303,-0.0155122755095363,-0.0171224270015955
416,0.00317447609268129,-0.0158247817307711,-0.0125846276059747,-0.0144749097526073,-0.0182739216834307,-0.0207371450960636
417,0.00295364996418357,-0.0150517206639051,-0.0123295271769166,-0.0153360404074192,-0.0180179830640554,-0.0219555217772722
418,0.00268660811707377,-0.0138717563822865,-0.00978907104581594,-0.013522514142096,-0.0145521489903331,-0.0203196834772825
419,0.00163893331773579,-0.0132964933291078,-0.00702859507873654,-0.0109530948102474,-0.0109526952728629,-0.0174988228827715
420,0.000574070494621992,-0.0129744373261929,-0.0051814429461956,-0.00852605700492859,-0.0093398243188858,-0.0143773658201098
421,0.000309237599140033,-0.0127731012180448,-0.00458401627838612,-0.00674661062657833,-0.0102237593382597,-0.0120871746912599
422,0.000796557927969843,-0.0129545535892248,-0.00506508257240057,-0.00567826861515641,-0.0129882367327809,-0.0116358157247305
423,0.0021667864639312,-0.0125336023047566,-0.00556851830333471,-0.00416843686252832,-0.0157005097717047,-0.0117504922673106
424,0.00411261431872845,-0.0108214085921645,-0.00549019873142242,-0.00221352279186249,-0.0165875554084778,-0.0111218430101871
425,0.00571237131953239,-0.00862813182175159,-0.00428119720891118,-0.00114242092240602,-0.0145020270720124,-0.00982116442173719
426,0.00561260245740414,-0.00747225014492869,-0.00266961753368378,-0.00218388671055436,-0.010996981523931,-0.00843110866844654
427,0.00482724374160171,-0.00730365281924605,-0.00165770761668682,-0.00382449757307768,-0.00835206173360348,-0.00614729057997465
428,0.00585343735292554,-0.00668772729113698,-0.000470307189971209,-0.00317068258300424,-0.00651251757517457,-0.0017472681356594
429,0.00829085521399975,-0.00531019689515233,0.00154276541434228,-0.000316059595206752,-0.00491230236366391,0.00350718293339014
430,0.00960219278931618,-0.00403054151684046,0.00278317229822278,0.00146897975355387,-0.00468098605051637,0.00671771308407187
431,0.00891154352575541,-0.00316928490065038,0.0017170668579638,0.000226406555157155,-0.00683880690485239,0.00705478712916374
432,0.00877559278160334,-0.00189208262600005,0.000754584791138768,-0.00118729704990983,-0.00866325944662094,0.00742191541939974
433,0.0103522958233953,-0.000336685305228457,0.00191828154493123,-0.000534459832124412,-0.00776841817423701,0.00945128407329321
434,0.0110336421057582,0.000298620318062603,0.00325377774424851,0.000490607810206711,-0.00599119113758206,0.0111016603186727
435,0.0101615088060498,0.000641664082650095,0.00392960384488106,0.00153169187251478,-0.00483478093519807,0.0118686389178038
436,0.00995309557765722,0.00245991256088018,0.00557892257347703,0.0042156744748354,-0.0031861555762589,0.013880455866456
437,0.0115906810387969,0.00600062683224678,0.00898469146341085,0.00881664641201496,8.26337127364241E-05,0.0183181576430798
438,0.0133692715317011,0.00913692358881235,0.0120751075446606,0.0124089773744345,0.00343011226505041,0.0225638002157211
439,0.0124279698356986,0.00931900646537542,0.0114254178479314,0.0110677378252149,0.00332749471999705,0.0221802331507206
440,0.00896913278847933,0.0067090792581439,0.00683606835082173,0.00535335764288902,-0.00105036585591733,0.0170812662690878
441,0.00482893409207463,0.00293671595863998,0.000689385866280645,-0.00159238441847265,-0.00746446941047907,0.010497160255909
442,0.00109498400706798,-0.000700655858963728,-0.00467314943671227,-0.00738708395510912,-0.0132749862968922,0.00535730784758925
443,-0.00120740698184818,-0.00291296374052763,-0.00712295016273856,-0.00993462558835745,-0.0164311714470387,0.0036324190441519
444,-0.00262977578677237,-0.0036159404553473,-0.00659174332395196,-0.00962099619209766,-0.0169835966080427,0.00447954377159476
445,-0.00376640539616346,-0.00322425412014127,-0.00438553746789694,-0.0082831084728241,-0.015788996592164,0.00642635487020016
446,-0.00362493772991002,-0.0014427142450586,-0.00139766477514058,-0.00626937486231327,-0.0132249016314745,0.00960517302155495
447,-0.00143211451359093,0.00174803601112217,0.00151766312774271,-0.00281082862056792,-0.00991676840931177,0.0139461262151599
448,0.00233533512800932,0.00543399527668953,0.00369829405099154,0.00159443647135049,-0.00702165719121695,0.0179445017129183
449,0.00583141902461648,0.0082030538469553,0.00450168550014496,0.00394445657730103,-0.00612310646101832,0.0196932889521122
450,0.00791529752314091,0.00980794988572598,0.00401988578960299,0.00316257658414543,-0.00679107708856463,0.0203605629503727
451,0.00842196401208639,0.0104307699948549,0.00294321542605758,0.00108366692438722,-0.00734379794448614,0.0219734217971563
452,0.00706634018570185,0.00976166035979986,0.00138170644640923,-0.000941684062127024,-0.00806361716240644,0.0235546305775642
453,0.00479538645595312,0.00873936433345079,-0.000120537726616021,-0.00163056026212871,-0.00947059225291014,0.0246323142200708
454,0.00250546727329493,0.00825947988778353,-0.00139379221946001,-0.00116776034701616,-0.0114198978990316,0.0252712853252888
455,0.00086969806579873,0.00806880183517933,-0.00234516710042953,-0.000897005491424352,-0.0131092378869653,0.0248608812689781
456,0.00154852634295821,0.00819300767034292,-0.00180996779818088,-0.000534941151272506,-0.0128709226846695,0.0240515861660242
457,0.00427627516910434,0.00842501409351826,-0.000158369221026078,-0.000143532335641794,-0.0109618976712227,0.0231485050171614
458,0.00671577081084251,0.0080703143030405,0.00110303435940295,-0.000288759241811931,-0.00916222017258406,0.0220233984291554
459,0.00837515015155077,0.00759969279170036,0.00235025002621114,0.000297881342703477,-0.00712658977136016,0.0220341980457306
460,0.0101452004164457,0.00838199071586132,0.00451813219115138,0.00286296429112554,-0.00358003238216043,0.0243941769003868
461,0.0115573555231094,0.0104973539710045,0.00684983609244227,0.0061501101590693,0.000328031252138317,0.0279027130454779
462,0.0121263451874256,0.0130236307159066,0.00826422963291407,0.00836940947920084,0.00260356860235333,0.0302220731973648
463,0.0124206217005849,0.0155975474044681,0.00848418194800615,0.00925067346543074,0.00269937911070883,0.0303853843361139
464,0.012917104177177,0.0184688977897167,0.00803475920110941,0.00912363640964031,0.00143767532426864,0.0289622228592634
465,0.013633874244988,0.0218028873205185,0.00805339124053717,0.0082154031842947,0.00012449714995455,0.0269370451569557
466,0.0139051228761673,0.0250594075769186,0.00858913641422987,0.00664726132526994,-0.00146778009366244,0.0247519686818123
467,0.0133456951007247,0.0276033151894808,0.00872992631047964,0.00518365064635873,-0.00405474146828055,0.0223109442740679
468,0.0129071027040482,0.0298061668872833,0.00886614993214607,0.00532668177038431,-0.00641331728547812,0.0201494563370943
469,0.012887223623693,0.0319692380726337,0.00985015742480755,0.0065509625710547,-0.00759444385766983,0.0185100492089987
470,0.0125505495816469,0.0337312407791615,0.0112801687791944,0.00687951175495982,-0.00798341352492571,0.0167857464402914
471,0.0112316412851214,0.0350623466074467,0.0117361089214683,0.00501828733831644,-0.00835125334560871,0.0141587508842349
472,0.00870135053992271,0.036126796156168,0.0105284750461578,0.00052261317614466,-0.00950118154287338,0.00997366942465305
473,0.00557085499167442,0.0367564707994461,0.00851932819932699,-0.00559122627601027,-0.011423347517848,0.00456313462927938
474,0.00276459008455276,0.0367575623095036,0.00653551612049341,-0.011887782253325,-0.0137131838127971,-0.00135760032571852
475,0.00117731362115592,0.03676937520504,0.00518778432160616,-0.0166439134627581,-0.0156822912395,-0.00654576485976577
476,0.000927626097109169,0.0377678275108337,0.00482110073789954,-0.0184229277074337,-0.016888041049242,-0.00954189337790012
477,0.0017265030182898,0.0399183742702007,0.00532996561378241,-0.0174545850604773,-0.0175335127860308,-0.00998516846448183
478,0.00336281466297805,0.0425714589655399,0.00641067558899522,-0.0151399383321404,-0.0176346823573112,-0.00895906891673803
479,0.00498396903276443,0.0448834300041199,0.00723791820928454,-0.0135488109663129,-0.0173646528273821,-0.00833237636834383
480,0.00624070595949888,0.0464191436767578,0.00755583494901657,-0.0136338388547301,-0.0166275594383478,-0.00882868748158216
481,0.00684145046398044,0.0467252284288406,0.00719672907143831,-0.0150239495560527,-0.0159215535968542,-0.0102293118834496
482,0.00581022398546338,0.0452234074473381,0.00549459969624877,-0.0173424910753965,-0.016930190846324,-0.0123414136469364
483,0.00424203416332603,0.0424670577049255,0.00369345676153898,-0.0188419111073017,-0.0188073497265577,-0.0136386854574084
484,0.00452506309375167,0.0399720668792725,0.00386932375840843,-0.0172881931066513,-0.0187731273472309,-0.0120722576975822
485,0.00636477908119559,0.0384019128978252,0.00541106471791863,-0.0133922686800361,-0.0167844146490097,-0.00840838439762592
486,0.00765480659902096,0.0374208316206932,0.00655257189646363,-0.00940089486539364,-0.0144515391439199,-0.00528511218726635
487,0.00750854471698403,0.0366694405674934,0.00728741195052862,-0.00662763975560665,-0.0120239118114114,-0.00397542305290699
488,0.00663267681375146,0.0363230668008327,0.00824315100908279,-0.00572622427716851,-0.00920058507472277,-0.00346615677699447
489,0.00603162450715899,0.0370763167738914,0.00926042627543211,-0.00614796532317996,-0.00591033790260553,-0.00170179852284491
490,0.00535272527486086,0.0387361533939838,0.00962303951382637,-0.0071944366209209,-0.00280254916287959,0.00127081805840135
491,0.0043377373367548,0.0403959788382053,0.0090311961248517,-0.00860517006367445,-0.00144199235364795,0.00370692275464535
492,0.00353503064252436,0.0410636998713017,0.00718973996117711,-0.0103297159075737,-0.00340159982442856,0.00413747876882553
493,0.00212203967384994,0.0396758913993835,0.0035181927960366,-0.0128713985905051,-0.00907560437917709,0.00174233561847359
494,-4.33368877565954E-05,0.0367332138121128,-0.000175434615812264,-0.0150569183751941,-0.0157128870487213,-0.00219467654824257
495,-0.000942798214964569,0.0339377894997597,-0.00100861268583685,-0.0145685356110334,-0.0194981675595045,-0.00513424631208181
496,0.000648402899969369,0.0323017165064812,0.000930416106712073,-0.0115147540345788,-0.019665502011776,-0.00554705038666725
497,0.00354355783201754,0.0316824987530708,0.00335589377209544,-0.00836910679936409,-0.0181923881173134,-0.00346733443439007
498,0.00525448052212596,0.0308252219110727,0.00424475083127618,-0.00750117655843496,-0.0174632798880339,-0.000790726684499532
499,0.00510373432189226,0.029094660654664,0.00375822326168418,-0.00890613161027431,-0.0173806324601173,0.000551493722014129
500,0.00406276248395443,0.027544554322958,0.00331342942081392,-0.0108878472819924,-0.0164404232054949,0.000393127847928554
501,0.00160057912580669,0.0265149436891079,0.00233255350030959,-0.0131936063989997,-0.0158199798315763,-0.00145909446291626
502,-0.00171644322108477,0.0256823040544987,0.000835173123050481,-0.0153776900842786,-0.0162476282566786,-0.00421174801886082
503,-0.00317270145751536,0.0256606545299292,0.000795193482190371,-0.0158593244850636,-0.0156596768647432,-0.00563451834022999
504,-0.00334831583313644,0.0257696937769651,0.000997431692667305,-0.0157264675945044,-0.0145201729610562,-0.00654225889593363
505,-0.00483675813302398,0.0244060419499874,-0.0010065616806969,-0.0165009945631027,-0.0153575781732798,-0.00890037138015032
506,-0.00694300467148423,0.0222098995000124,-0.00345694203861058,-0.0169421620666981,-0.017588322982192,-0.0114488760009408
507,-0.00740517443045974,0.021150179207325,-0.00365678803063929,-0.0161498188972473,-0.0187312848865986,-0.012045475654304
508,-0.0057644578628242,0.0224362313747406,-0.0019633392803371,-0.0145832356065512,-0.0180306658148766,-0.0101514672860503
509,-0.00383108342066407,0.0253669358789921,-0.000512532482389361,-0.0133952787145972,-0.0171688795089722,-0.00751203345134854
510,-0.00322223827242851,0.0280458945780993,-0.000551769509911537,-0.013649757951498,-0.0177292227745056,-0.00626266654580832
511,-0.00364828039892018,0.0295643359422684,-0.00143088947515935,-0.0149550056084991,-0.0192136466503143,-0.00656890217214823
512,-0.00469801388680935,0.0300231780856848,-0.00211913068778813,-0.0163760166615248,-0.0202635489404202,-0.00820897985249758
513,-0.00580954598262906,0.0300085376948118,-0.00207513850182295,-0.0170045252889395,-0.019657090306282,-0.0106963850557804
514,-0.00606360100209713,0.0300458557903767,-0.00127005693502724,-0.0165395885705948,-0.0173596013337374,-0.0128171872347593
515,-0.00455397367477417,0.0307802893221378,0.000683339836541563,-0.0148601271212101,-0.0138046620413661,-0.0132879540324211
516,-0.00118281529285014,0.032873310148716,0.00397026166319847,-0.0120375221595168,-0.00926659163087606,-0.0117588900029659
517,0.00201339996419847,0.0352752879261971,0.00670587969943881,-0.00997370202094316,-0.00563239073380828,-0.0102512994781137
518,0.00407722545787692,0.0369073934853077,0.00816880259662867,-0.00952690280973911,-0.00387391191907227,-0.00991326849907637
519,0.00642830552533269,0.0382383055984974,0.0102957515046,-0.00913496967405081,-0.00230763829313219,-0.00915951002389193
520,0.0093417726457119,0.0393974855542183,0.013468949124217,-0.00838125962764025,-0.000375476607587188,-0.00773355737328529
521,0.0115334605798125,0.0399125702679157,0.015737509354949,-0.00838627852499485,0.000367626111255959,-0.00732169160619378
522,0.0123429549857974,0.0399077981710434,0.0162428300827742,-0.00920277088880539,-0.000476778717711568,-0.00843406468629837
523,0.0115547720342875,0.0396142266690731,0.015345805324614,-0.0103979799896479,-0.00236232159659266,-0.010843756608665
524,0.00924740917980671,0.0390639454126358,0.0134655144065619,-0.0119330659508705,-0.00504522351548076,-0.0140969445928931
525,0.00649419240653515,0.038964107632637,0.011865540407598,-0.0126996226608753,-0.00669901445508003,-0.016375994309783
526,0.0036973706446588,0.0395810008049011,0.0113082062453032,-0.0117375114932656,-0.00597417494282126,-0.0167800392955542
527,0.000521873240359128,0.0397384017705917,0.0108544062823057,-0.0108611593022943,-0.00518033001571894,-0.0171208884567022
528,-0.00213467166759074,0.0390343181788921,0.00978496018797159,-0.0122568970546126,-0.00660399533808231,-0.0183127261698246
529,-0.00291027221828699,0.0388491898775101,0.00909083988517523,-0.0142002636566758,-0.00897098239511251,-0.0180008355528116
530,-0.00204750010743737,0.0397256277501583,0.00978634040802717,-0.0141127547249198,-0.0101814437657595,-0.0148970745503902
531,-0.000813727267086506,0.040624525398016,0.0115251084789634,-0.0127388229593635,-0.00951403100043535,-0.0108690103515983
532,7.55237633711658E-05,0.0408994071185589,0.0132047571241856,-0.0123006096109748,-0.00754000805318356,-0.00807806104421616
533,0.000802896043751389,0.0408552326261997,0.0141560696065426,-0.0131803499534726,-0.00511717330664396,-0.0068727433681488
534,0.00125854730140418,0.0403730534017086,0.0139354597777128,-0.0146195068955421,-0.00306675350293517,-0.00701326224952936
535,0.000798120920080692,0.0390818640589714,0.0123505583032966,-0.0165867935866117,-0.00231672963127494,-0.00883449800312519
536,8.19139586383244E-06,0.0374986566603184,0.0105823455378413,-0.0187033135443926,-0.00270111369900405,-0.0115928882732987
537,4.39468021795619E-05,0.0361265502870083,0.00971611775457859,-0.0203287489712238,-0.00370773556642234,-0.0139606399461627
538,0.000422438140958548,0.0348253957927227,0.00906415842473507,-0.0215934179723263,-0.00574541790410876,-0.0157207977026701
539,0.00020219998259563,0.0336138419806957,0.00774162076413631,-0.0223818328231573,-0.008621821179986,-0.0169651806354523
540,-2.17630404222291E-05,0.0331385880708694,0.00641677156090736,-0.0218939986079931,-0.0106132877990603,-0.0172919370234013
541,1.52133543451782E-05,0.0335373170673847,0.00551676796749234,-0.0205227192491293,-0.0111998524516821,-0.0170267298817635
542,0.000122269921121188,0.0344722084701061,0.00491116568446159,-0.018865654245019,-0.0108095444738865,-0.0161887723952532
543,0.00100489635951817,0.0358289070427418,0.00523068429902196,-0.0163528583943844,-0.00880454760044813,-0.0134096462279558
544,0.00228436151519418,0.0367475003004074,0.0059913145378232,-0.013826746493578,-0.00583388097584248,-0.00914687104523182
545,0.00237751984968781,0.0363388359546661,0.00538713159039617,-0.0133988494053483,-0.00430479785427451,-0.00621339911594987
546,0.00115940743125975,0.0351240001618862,0.00339522724971175,-0.0147836953401566,-0.00486559513956308,-0.00580792501568794
547,0.00018493106472306,0.034313477575779,0.00196932768449187,-0.0149334585294127,-0.00584105402231216,-0.00641954876482487
548,0.000443215103587136,0.0343183167278767,0.00211372040212154,-0.0123101184144616,-0.00626566214486957,-0.00679117441177368
549,0.00116965896449983,0.0343377850949764,0.00263809552416205,-0.00958066061139107,-0.0070341294631362,-0.00739411963149905
550,0.00149260764010251,0.0338462442159653,0.0024493036326021,-0.00918962806463242,-0.00850231666117907,-0.00792146474123001
551,0.00122869818005711,0.0330041907727718,0.00180486508179456,-0.0103047098964453,-0.00973289366811514,-0.00735453190281987
552,0.000411071319831535,0.031846359372139,0.0012964466586709,-0.0115503445267677,-0.00984682701528072,-0.00623744027689099
553,-0.000678920943755656,0.0304281357675791,0.00126843294128776,-0.0124941701069474,-0.00878338236361742,-0.00557726249098778
554,-0.00171522761229426,0.02901322953403,0.00181554793380201,-0.0128257600590587,-0.00740319956094027,-0.00539475912228227
555,-0.00174183514900506,0.0283379759639502,0.00340752676129341,-0.011594956740737,-0.00586464395746589,-0.00438490696251392
556,-0.000858615851029754,0.028335252776742,0.00486926874145865,-0.00988573487848043,-0.00489856814965606,-0.00231161550618708
557,-0.00023904450063128,0.0280595794320107,0.00418960768729448,-0.0101217431947589,-0.00588274700567126,-0.00074970762943849
558,0.000321955274557695,0.0274101458489895,0.00179308687802404,-0.0118578337132931,-0.00815684534609318,-0.000543364440090954
559,0.0011999721173197,0.0264855846762657,-0.00114902865607291,-0.0134113011881709,-0.0104138180613518,-0.00163153372704983
560,0.00264021544717252,0.0257810335606337,-0.0031290790066123,-0.0131646990776062,-0.0112896133214235,-0.00232967175543308
561,0.00447798334062099,0.0260558389127254,-0.00322617264464498,-0.010432418435812,-0.0101711945608258,-0.000990353175438941
562,0.00486817816272378,0.0262663159519434,-0.00353982881642878,-0.00769534520804882,-0.00898623652756214,0.000372241222066805
563,0.00298060290515423,0.0250761080533266,-0.00591141171753407,-0.00728786364197731,-0.00928110722452402,-0.00071348063647747
564,0.000758162641432136,0.0231235157698393,-0.00873568188399076,-0.0082110445946455,-0.00961201824247837,-0.00323517597280443
565,0.000100185759947635,0.0215347316116095,-0.00940182618796825,-0.00844459049403667,-0.00785200204700232,-0.00493772188201547
566,0.000368825712939724,0.0202214159071445,-0.00811717193573713,-0.0078379325568676,-0.00462187780067325,-0.00546581577509642
567,0.000909342430531979,0.0193822793662548,-0.00638968078419566,-0.00654059322550893,-0.00146221462637186,-0.00461152521893382
568,0.00242416863329709,0.0197390355169773,-0.0043593505397439,-0.00381628586910665,0.00175416457932442,-0.00181272719055414
569,0.00378935551270843,0.0199295151978731,-0.00292992196045816,-0.00102718314155936,0.00425286777317524,0.000427889404818416
570,0.00357757951132953,0.0185452587902546,-0.00302914157509804,-0.000358523393515497,0.00475805765017867,-0.000455058412626386
571,0.00271794805303216,0.0167997777462006,-0.00385072361677885,-0.00145541084930301,0.00389562803320587,-0.00257612601853907
572,0.00268459413200617,0.0162783861160278,-0.00423566438257694,-0.00225648703053594,0.00294479145668447,-0.00248780171386898
573,0.00355244963429868,0.0168997701257467,-0.00386265199631453,-0.00178633059840649,0.00215833843685687,0.000242182417423464
574,0.00453855516389012,0.0176021009683609,-0.00335679552517831,-0.000764256750699133,0.001126884133555,0.00355287361890078
575,0.00499445246532559,0.0175213441252708,-0.00361263682134449,-0.000257029751082882,-0.000549717689864337,0.00547492364421487
576,0.00394835323095322,0.0159498602151871,-0.00548068154603243,-0.00135243323165923,-0.00332913757301867,0.00478700688108802
577,0.00124724593479186,0.0129910307005048,-0.00829393230378628,-0.00371323921717703,-0.00639423308894038,0.00215959502384067
578,-0.0027242184150964,0.0095590315759182,-0.0101585015654564,-0.00594775611534715,-0.00754970544949174,-0.000842896057292819
579,-0.0069912881590426,0.00700558768585324,-0.00970935821533203,-0.00679410621523857,-0.0052376608364284,-0.00302416342310607
580,-0.0086530726402998,0.00682798866182566,-0.00695637287572026,-0.00515499617904425,-0.000789965386502445,-0.00322730257175863
581,-0.00627927202731371,0.0089647090062499,-0.00383280799724162,-0.00185558770317584,0.00223244866356254,-0.00125831237528473
582,-0.00275051547214389,0.0117006786167622,-0.00308048375882208,0.000447731174062938,0.00128728803247213,0.00141135335434228
583,-0.00191542587708682,0.0132389133796096,-0.00624013552442193,-0.000356311909854412,-0.00379798351787031,0.00229164795018733
584,-0.00350152654573321,0.0133837349712849,-0.0111770862713456,-0.00302729639224708,-0.00984361860901117,0.00113838899414986
585,-0.00442517548799515,0.013250588439405,-0.0139700556173921,-0.00438952166587114,-0.0129416417330503,0.000151235522935167
586,-0.00388449290767312,0.0132307643070817,-0.0141607187688351,-0.0042485841549933,-0.0131094744428992,-0.000249330565566197
587,-0.00306862057186663,0.0130092957988381,-0.0137285245582461,-0.00424119364470243,-0.0122463405132294,-0.00113122980110347
588,-0.00200563459657133,0.0128370402380824,-0.0129416007548571,-0.00400011939927936,-0.0104892887175083,-0.00162494892720133
589,-0.000353095412719995,0.0130080338567495,-0.0111951315775514,-0.00284086191095412,-0.00742848543450236,-0.000577417318709195
590,0.00106406968552619,0.0129571193829179,-0.00898379739373922,-0.00174689223058522,-0.00385986128821969,0.000601150677539408
591,0.00205041165463626,0.0124673610553145,-0.00662449700757861,-0.000984673039056361,-0.000761491304729134,0.00086759781697765
592,0.0037960447371006,0.0122484639286995,-0.00345996674150229,0.000714412948582321,0.00203293468803167,0.0014683841727674
593,0.00664971629157662,0.0122872311621904,0.000198902533156797,0.00346276559866965,0.00444096187129617,0.00291929254308343
594,0.00852064602077007,0.0114088617265224,0.00189961353316903,0.005601791664958,0.00466654868796468,0.00350953824818134
595,0.00706487521529198,0.00861173868179321,-0.000226199394091964,0.00515071675181389,0.00156986399088055,0.00101569900289178
596,0.00379133620299399,0.00492637185379863,-0.00414086738601327,0.00222030794247985,-0.00228422461077571,-0.00356761435978115
597,0.00198890687897801,0.00268881884403527,-0.00648955721408129,-0.000581248139496893,-0.00353547162376344,-0.00615665735676885
598,0.00139544031117111,0.00211948249489069,-0.00726001849398017,-0.00216776179149747,-0.00311077269725502,-0.00580038642510772
599,-0.000220251473365352,0.00184237421490252,-0.00845441222190857,-0.00367950974032283,-0.00404505571350455,-0.00528443744406104
600,-0.00239301146939397,0.00165248988196254,-0.00950394850224257,-0.00503286253660917,-0.00577580276876688,-0.0054808659479022
601,-0.00259052100591362,0.00205164984799922,-0.00772492773830891,-0.00457475567236543,-0.00499571999534965,-0.00461585912853479
602,-0.000156992842676118,0.00283214636147022,-0.00311915716156363,-0.00212343758903444,-0.00109772104769945,-0.00200040219351649
603,0.00235510501079261,0.00274330051615834,0.00100125675089657,-0.000146774473250844,0.00264652678743005,0.00047658706898801
604,0.00191800319589674,0.000225333118578419,0.00171742169186473,-0.00124631391372532,0.00292911008000374,9.95542068267241E-05
605,-0.001561532728374,-0.00482450006529689,-0.00121032923925668,-0.00552424462512136,-0.000285693822661415,-0.00386380264535546
606,-0.00513950269669294,-0.0105066653341055,-0.00550102675333619,-0.0107441488653421,-0.00393781997263432,-0.00938373245298862
607,-0.00646087853237987,-0.0146703477948904,-0.00868188962340355,-0.0149336056783795,-0.00504265306517482,-0.0144738452509046
608,-0.00639099022373557,-0.0169418677687645,-0.0106065655127168,-0.0179150272160769,-0.00377953262068331,-0.0188459903001785
609,-0.00598130421712995,-0.0182835962623358,-0.011585857719183,-0.0194255728274584,-0.00169436796568334,-0.02168376930058
610,-0.00384545000270009,-0.0187430400401354,-0.00988016743212938,-0.0175483319908381,0.00181076768785715,-0.0208103321492672
611,0.000802002381533384,-0.0175548624247313,-0.00469609815627337,-0.0117281628772616,0.00741587020456791,-0.0156204644590616
612,0.00615541078150272,-0.0152490828186274,0.00149434164632112,-0.00527170579880476,0.0133446855470538,-0.00870311446487904
613,0.00929158832877874,-0.0140189072117209,0.00498120160773396,-0.00246019079349935,0.0167926289141178,-0.0040312297642231
614,0.00873431004583836,-0.0152872651815414,0.00411764765158296,-0.00398416956886649,0.0162901915609837,-0.00330940447747707
615,0.0071626496501267,-0.0173050668090582,0.0019929432310164,-0.0052237706258893,0.0144868213683367,-0.0032852734439075
616,0.00764963636174798,-0.0178771056234837,0.00198770896531641,-0.00246897549368441,0.0148308500647545,-0.000877808372024447
617,0.00917688012123108,-0.01769033446908,0.00382090359926224,0.00186050590127707,0.0169822815805674,0.00223921379074454
618,0.00977343786507845,-0.0181375201791525,0.00593890435993671,0.00376490270718932,0.0188751015812159,0.00405480759218335
619,0.00896083563566208,-0.0188823956996202,0.00647122645750642,0.00250155362300575,0.0187326949089766,0.00506308395415545
620,0.00684335548430681,-0.0190852023661137,0.00436245137825608,-0.000342657207511365,0.015959395095706,0.00605507846921682
621,0.00441112834960222,-0.0187447890639305,0.00102791446261108,-0.00309652020223439,0.0122408624738455,0.00714392447844148
622,0.00317608658224344,-0.018296804279089,-0.00116953812539577,-0.00461496645584702,0.010313474573195,0.00833058729767799
623,0.00316049181856215,-0.0183584317564964,-0.00166161882225424,-0.00482432451099157,0.0109539981931448,0.00905383378267288
624,0.00383898662403226,-0.0189187675714493,-0.00073586346115917,-0.00398559821769595,0.0131963044404984,0.00911121349781752
625,0.00450496189296246,-0.0196758508682251,0.000642506114672869,-0.00313278916291893,0.0148939667269588,0.00841007381677628
626,0.0034540209453553,-0.0211340729147196,0.000526880205143243,-0.00396379362791777,0.0136403534561396,0.00616277055814862
627,0.000145912476000376,-0.0234769228845835,-0.00143338483758271,-0.0063242744654417,0.0102562885731459,0.00264637148939073
628,-0.00384983303956687,-0.0257190559059381,-0.00399699248373508,-0.00852980464696884,0.0074207135476172,-0.00053312408272177
629,-0.00619142083451152,-0.0264640673995018,-0.00514061003923416,-0.00853496324270964,0.00660087401047349,-0.00131543190218508
630,-0.00576125411316752,-0.0256349630653858,-0.00343773793429136,-0.00537340203300118,0.00792950671166182,0.00114470336120576
631,-0.00314531289041042,-0.0242332797497511,0.000509655685164034,-2.13055518543115E-05,0.0105886133387685,0.00574773503467441
632,-1.83117899723584E-05,-0.0229900181293488,0.0044960486702621,0.00520333414897323,0.0125772729516029,0.0103816017508507
633,0.00208404334262013,-0.0220866091549397,0.00664098700508475,0.00820004194974899,0.0123219648376107,0.013481542468071
634,0.0033888085745275,-0.0209027901291847,0.00765687972307205,0.0092767272144556,0.0109879318624735,0.0158579293638468
635,0.00428566103801131,-0.0192057508975267,0.0086636645719409,0.00950013659894466,0.00993043836206198,0.0184699464589357
636,0.00499316258355975,-0.0172097720205784,0.00996716693043709,0.0097756190225482,0.00966556277126074,0.0208778083324432
637,0.00625108508393168,-0.0149647025391459,0.0121456915512681,0.0111867431551218,0.0112355872988701,0.0225786156952381
638,0.00732351234182715,-0.0135872531682253,0.0141247343271971,0.0126783717423677,0.0139845395460725,0.0225802026689053
639,0.00613969564437866,-0.0144959194585681,0.0133743649348617,0.0119564877822995,0.0151065969839692,0.0196721758693457
640,0.0024166984949261,-0.0169694852083921,0.010070082731545,0.0090193385258317,0.0136017696931958,0.0149149103090167
641,-0.0019931118004024,-0.0188584718853235,0.00684264395385981,0.00578935677185655,0.0110669629648328,0.0115022342652082
642,-0.00542636541649699,-0.0192816667258739,0.00499051995575428,0.00365400989539921,0.00903576705604792,0.0110686412081122
643,-0.00732754962518811,-0.0190592315047979,0.00415496854111552,0.00253367377445102,0.00800792872905731,0.0124389017000794
644,-0.0082177696749568,-0.0188904386013746,0.00366653851233423,0.00160757708363235,0.00743132969364524,0.0136814909055829
645,-0.00911561213433743,-0.018617857247591,0.00312818447127938,0.000247510499320924,0.00651176273822784,0.0135234268382192
646,-0.0099090589210391,-0.017506554722786,0.00322582968510687,-0.000892355106770992,0.00578318536281586,0.0125685948878527
647,-0.00947846937924623,-0.0150246853008866,0.00511413207277656,8.59475858305814E-06,0.00659458618611097,0.0127678252756596
648,-0.00784110371023417,-0.012135018594563,0.00828621815890074,0.0029377993196249,0.0091589791700244,0.0142794726416469
649,-0.00594612676650286,-0.00994299724698067,0.0113260811194777,0.00606913724914193,0.0125255584716797,0.0157045815140009
650,-0.00459780171513557,-0.00856679119169712,0.0133057096973062,0.00796422734856606,0.0151135716587305,0.0160345509648323
651,-0.00409730570390821,-0.00802569091320038,0.013661116361618,0.00785272195935249,0.0154457939788699,0.0150662316009402
652,-0.00379013339988887,-0.00806259922683239,0.013001854531467,0.0064335111528635,0.0138048008084297,0.013837918639183
653,-0.00284206843934953,-0.00783752929419279,0.0126263871788979,0.00550004281103611,0.0119278188794851,0.0139396777376533
654,-0.00099098717328161,-0.00702517386525869,0.0127774709835649,0.00575116788968444,0.0110754398629069,0.0159168243408203
655,0.000913487921934575,-0.00680907629430294,0.0126727484166622,0.0061346017755568,0.010994641110301,0.0183303151279688
656,0.00134101370349526,-0.00826522056013346,0.0114549994468689,0.00548683013767004,0.0104770865291357,0.0189702771604061
657,0.000535520899575204,-0.0102939512580633,0.00951460935175419,0.00463904533535242,0.00939748995006084,0.0180034469813108
658,-0.000689341919496655,-0.011819614097476,0.00753328064456582,0.00443475833162665,0.00820856355130672,0.0167532376945019
659,-0.00232535693794489,-0.0130388736724854,0.00568640930578113,0.00433108955621719,0.00716461567208171,0.0153871001675725
660,-0.00338402716442943,-0.0134919909760356,0.00487337773665786,0.0048195724375546,0.00742407934740186,0.0147111425176263
661,-0.00342637044377625,-0.0133357001468539,0.00546257989481092,0.00651953648775816,0.00946758408099413,0.0151666831225157
662,-0.00406764494255185,-0.0145124234259129,0.00623386353254318,0.00776597298681736,0.011607457883656,0.0147149208933115
663,-0.00577052030712366,-0.0176548920571804,0.00636733183637261,0.00699327001348138,0.0125015722587705,0.0126874195411801
664,-0.00691436184570193,-0.0211641192436218,0.00634606927633286,0.00522498087957501,0.0133674507960677,0.0116339772939682
665,-0.00711812078952789,-0.0238435696810484,0.00648756604641676,0.00387192913331091,0.0156123489141464,0.0127010839059949
666,-0.00717390002682805,-0.0256248153746128,0.00647428585216403,0.00314322719350457,0.0183469075709581,0.0145770413801074
667,-0.00708831986412406,-0.0271347388625145,0.00551616353914142,0.00245465175248683,0.0195824634283781,0.0159871522337198
668,-0.00650037499144673,-0.0288804396986961,0.00297392532229424,0.00119683123193681,0.0184464398771524,0.0163229759782553
669,-0.0056572025641799,-0.0306424796581268,-0.000452769309049472,-0.00043215646292083,0.0156780201941729,0.0155547671020031
670,-0.00544470828026533,-0.0322178713977337,-0.00351096759550273,-0.00187593675218523,0.0122713185846806,0.0140359494835138
671,-0.00523447338491678,-0.0331876538693905,-0.00472840713337064,-0.00177303771488369,0.00992352049797773,0.0132242748513818
672,-0.00363252335228026,-0.0334369093179703,-0.00341578456573188,0.000879406346939504,0.00995066575706005,0.0145108951255679
673,-0.00245673977769911,-0.0344466306269169,-0.00231034448370337,0.00364807341247797,0.00982468295842409,0.01576735265553
674,-0.00377090321853757,-0.0368038453161716,-0.0038807075470686,0.00391206238418818,0.00755815533921123,0.0143159031867981
675,-0.00628746300935745,-0.0387053638696671,-0.00658404780551791,0.0025921028573066,0.0055810958147049,0.0109510589390993
676,-0.00812665186822414,-0.0386044308543205,-0.00822412222623825,0.00195966428145766,0.00583798345178366,0.00814526621252298
677,-0.00871279370039701,-0.0365892387926579,-0.00869034882634878,0.00313570955768228,0.00714183133095503,0.00758404610678554
678,-0.00916791800409555,-0.0341763831675053,-0.00991315115243196,0.00479976832866669,0.00706036388874054,0.00812621414661407
679,-0.0103082554414868,-0.0325242094695568,-0.0126653546467423,0.00544730853289366,0.00511981127783656,0.00781081942841411
680,-0.0109572531655431,-0.0311964266002178,-0.0147932562977076,0.00519140576943755,0.00319796334952116,0.00678509613499045
681,-0.0107514131814241,-0.029932327568531,-0.0153646171092987,0.00384445977397263,0.00207557086832821,0.00586523022502661
682,-0.00966921541839838,-0.0284876190125942,-0.0148073947057128,0.00224774284288287,0.0020859173964709,0.00609584804624319
683,-0.00750494003295898,-0.0265006516128778,-0.0132625121623278,0.00173728622030467,0.00341179757378995,0.00746759166941047
684,-0.0053321928717196,-0.0246731955558062,-0.0115392794832587,0.00164794467855245,0.00518332095816731,0.00816938932985067
685,-0.00339998956769705,-0.0233035441488028,-0.00969458185136318,0.00153060420416296,0.00771804247051477,0.00778579851612449
686,-0.00136641715653241,-0.0219284854829311,-0.00737695349380374,0.00198415433987975,0.0111359264701605,0.00749049568548799
687,0.000232316655456088,-0.020352553576231,-0.00509922439232469,0.0030658736359328,0.0143715068697929,0.00773403188213706
688,0.00132019456941634,-0.0181499421596527,-0.00307836732827127,0.00458084093406796,0.0172887090593576,0.00850129593163729
689,0.00218082615174353,-0.0151302963495255,-0.00128923426382244,0.00624251691624522,0.0196481496095657,0.00954953301697969
690,0.00207453360781074,-0.0124671244993806,-0.000713382789399475,0.00679467059671879,0.0197041835635901,0.00933250598609447
691,0.000424198689870536,-0.0111529026180506,-0.0019483829382807,0.00550535321235657,0.0165431555360556,0.00675408355891705
692,-0.00156181445345283,-0.0105524528771639,-0.00373156205751002,0.0035901207011193,0.0119406506419182,0.00338809634558856
693,-0.0030375684145838,-0.0102687068283558,-0.00541323935613036,0.00132714549545199,0.00748351635411382,0.000342535058734939
694,-0.00462494511157274,-0.0104142082855105,-0.00771520892158151,-0.00219297781586647,0.0030241054482758,-0.0033712238073349
695,-0.0059081083163619,-0.00974749680608511,-0.0101751880720258,-0.00571915740147233,-0.000950938789173961,-0.00764338113367558
696,-0.00593009078875184,-0.0072597018443048,-0.0115330908447504,-0.00770646240562201,-0.00345243839547038,-0.011726513504982
697,-0.00508725875988603,-0.0036617515143007,-0.0109955547377467,-0.0086635435000062,-0.00387724814936519,-0.0151748405769467
698,-0.00350984279066324,0.000849389238283038,-0.00774628855288029,-0.00832147896289825,-0.00109533593058586,-0.0159725602716208
699,-0.000974435999523848,0.00632191821932793,-0.00269919005222619,-0.00617607543244958,0.00427668495103717,-0.0133861135691404
700,0.00144166650716215,0.0113267125561833,0.0013073671143502,-0.00391062302514911,0.00886149797588587,-0.0104394126683474
701,0.00290501490235329,0.0145164001733065,0.00297911907546222,-0.00295320432633162,0.0109005877748132,-0.00996375922113657
702,0.00404474744573236,0.0162866152822971,0.0030110168736428,-0.00332083227112889,0.0115187065675855,-0.0115485759451985
703,0.00581051222980022,0.0183842238038778,0.00268621393479407,-0.00401223637163639,0.0120081668719649,-0.0124518210068345
704,0.00761473411694169,0.0214808806777,0.00229389918968081,-0.00427897833287716,0.011942757293582,-0.0117899850010872
705,0.00833997037261724,0.0244335792958736,0.00136818992905319,-0.00487452326342463,0.0111103504896164,-0.011723343282938
706,0.00866259168833494,0.0265324767678976,0.000516650674398988,-0.0059481393545866,0.0109178060665727,-0.0129211619496346
707,0.00909071695059538,0.0278670154511929,-0.000113314083137084,-0.00715510873124003,0.0110407471656799,-0.0140286544337869
708,0.00951157882809639,0.0288857333362103,-0.000635361415334046,-0.00846996530890465,0.0102729545906186,-0.0147749483585358
709,0.0105842873454094,0.0304911062121391,-0.000120426913781557,-0.0091849947348237,0.00966676231473684,-0.0157618466764688
710,0.0121452948078513,0.0327764563262463,0.00114409346133471,-0.00933417771011591,0.0100678699091077,-0.0175256337970495
711,0.0126822050660849,0.0346467308700085,0.0009232860757038,-0.0102496510371566,0.0095820464193821,-0.0207011010497808
712,0.0112344305962324,0.0355785936117172,-0.00201748497784138,-0.012200029566884,0.00618991954252124,-0.025148643180728
713,0.0093562938272953,0.0367943309247494,-0.00512181920930743,-0.0134666180238128,0.00178368762135506,-0.0288483500480652
714,0.00927122496068478,0.0392821207642555,-0.00546291749924421,-0.012814492918551,-0.00071830372326076,-0.0296296738088131
715,0.0113489190116525,0.0424633882939816,-0.00350341130979359,-0.0105936294421554,-0.0010992280440405,-0.0274036079645157
716,0.0155655704438686,0.0460078902542591,-3.79539960704278E-05,-0.00679388269782066,0.000858623418025672,-0.0228360500186682
717,0.0201947726309299,0.0492341630160809,0.00359085272066295,-0.00306341168470681,0.00404012901708484,-0.0183423608541489
718,0.0219119749963284,0.0507260411977768,0.004929986782372,-0.00270034139975905,0.00541999517008662,-0.0178135260939598
719,0.0199451111257076,0.0502200461924076,0.00374585296958685,-0.00619518710300326,0.00425611436367035,-0.0215999204665422
720,0.015961866825819,0.0485652275383472,0.00147156254388392,-0.0114095555618405,0.00167954922653735,-0.026254890486598
721,0.0117524163797498,0.046807549893856,-0.000677744392305613,-0.0160516425967216,-0.00120362511370331,-0.0288033783435822
722,0.00858147814869881,0.0455809235572815,-0.0017998346593231,-0.0186417475342751,-0.00283675501123071,-0.0288300253450871
723,0.00716713257133961,0.0450333766639233,-0.0013816065620631,-0.0184471942484379,-0.00170958798844367,-0.0273277927190065
724,0.00790120102465153,0.0453629568219185,0.000763806863687932,-0.0152079369872808,0.00194219395052642,-0.0247295703738928
725,0.0102407084777951,0.0464287139475346,0.00386752956546843,-0.0100887166336179,0.00581238837912679,-0.0213193204253912
726,0.0121181830763817,0.0469934307038784,0.00557023473083973,-0.00612402614206076,0.00693418504670262,-0.0190467052161694
727,0.0121112875640392,0.0462317280471325,0.00435392325744033,-0.00548464199528098,0.00439905375242233,-0.0195376742631197
728,0.0108819371089339,0.0451635234057903,0.00147852371446788,-0.00718657067045569,0.000198412599274889,-0.0214733686298132
729,0.00981682911515236,0.0455209724605083,-0.000274182239081711,-0.00851194467395544,-0.00267764809541404,-0.0221452135592699
730,0.00924660637974739,0.0475843772292137,0.000348869478330016,-0.00824840273708105,-0.00348981819115579,-0.0208733957260847
731,0.00862603913992643,0.049953568726778,0.00196578563190997,-0.00703543098643422,-0.00392741616815329,-0.0193906873464584
732,0.00777907809242606,0.0517671443521976,0.00280192191712558,-0.0053120986558497,-0.00501136435195804,-0.0190725140273571
733,0.00655230600386858,0.053074337542057,0.00233934237621725,-0.00395884923636913,-0.00677238497883081,-0.0203265361487865
734,0.00515967886894941,0.0535232834517956,0.00123990909196436,-0.00457185041159391,-0.00878218747675419,-0.0230858623981476
735,0.00533072417601943,0.0533250086009502,0.000847163319122046,-0.00641158362850547,-0.00976202916353941,-0.025211151689291
736,0.00870148837566376,0.0539798103272915,0.002812230726704,-0.00629205768927932,-0.00785563141107559,-0.023774417117238
737,0.0133021622896194,0.0556634776294231,0.00649106595665216,-0.00412437692284584,-0.00338496570475399,-0.0200245305895805
738,0.0156801119446754,0.0569486171007156,0.00937255378812552,-0.00280221179127693,0.000881502695847303,-0.0175757706165314
739,0.0152961853891611,0.0573596842586994,0.0105510652065277,-0.00308204884640872,0.00334476213902235,-0.0172047521919012
740,0.0124389482662082,0.0566159039735794,0.00908856280148029,-0.00542426900938153,0.00287091732025146,-0.0191325657069683
741,0.0081860339269042,0.0548288822174072,0.00496614957228303,-0.0099435867741704,-0.000736712943762541,-0.023474533110857
742,0.00574957905337214,0.0532582253217697,0.00110693159513175,-0.0140334405004978,-0.00447203451767564,-0.0279734674841166
743,0.00645185774192214,0.0519840717315674,-0.00083960359916091,-0.0162428878247738,-0.00554990256205201,-0.031054774299264
744,0.00854160636663437,0.0504899956285954,-0.00161284953355789,-0.0172092467546463,-0.00429625296965241,-0.0323614813387394
745,0.0100492490455508,0.0490184687077999,-0.00193373928777874,-0.0171055253595114,-0.00310733122751117,-0.0314748361706734
746,0.00981122814118862,0.0470965020358562,-0.00251157837919891,-0.0158965196460485,-0.00469172140583396,-0.0295112039893866
747,0.00792002305388451,0.0434713289141655,-0.0033678428735584,-0.0132739096879959,-0.00932217016816139,-0.0278862286359072
748,0.00539991678670049,0.0371091663837433,-0.00379347079433501,-0.0100804185494781,-0.0143114449456334,-0.0272965934127569
749,0.00308338762260973,0.028553968295455,-0.0038102101534605,-0.0084688039496541,-0.0169640071690083,-0.0274442676454782
750,0.00202688458375633,0.0205253623425961,-0.00322440732270479,-0.00776903424412012,-0.0161369014531374,-0.0257870629429817
751,0.00179142609704286,0.0144748715683818,-0.00233469950035214,-0.00654226494953036,-0.0134258326143026,-0.0219877157360315
752,0.000523074180819094,0.00959755945950747,-0.00225318735465407,-0.00524481991305947,-0.0116255981847644,-0.0185652673244476
753,-0.00134259485639632,0.00583897158503532,-0.00194965407717973,-0.00345069891773164,-0.0101035805419087,-0.0154689615592361
754,-0.00146846612915397,0.0038235115353018,0.000881101761478931,0.000111726716568228,-0.00607637269422412,-0.0109116528183222
755,-0.000130206768517382,0.00232456927187741,0.0047431793063879,0.00439668586477637,-0.00103670672979206,-0.0057057561352849
756,-0.000742717587854713,-0.00145805790089071,0.00486720632761717,0.00606000004336238,0.00022635688947048,-0.00337175535969436
757,-0.00399914430454373,-0.00824503879994154,0.000321100611472502,0.00420896103605628,-0.00279695191420615,-0.00522874761372805
758,-0.00757203530520201,-0.016113018617034,-0.00566348247230053,0.000682672776747495,-0.00686678616330028,-0.00929653644561768
759,-0.00976843107491732,-0.0227873511612415,-0.0097830556333065,-0.00216472032479942,-0.00914833508431911,-0.0127258831635118
760,-0.0100138271227479,-0.0273353289812803,-0.0106066968291998,-0.00209091207943857,-0.00859300512820482,-0.0132459290325642
761,-0.00909073650836945,-0.030749324709177,-0.00966813694685698,0.000770309357903898,-0.0067240702919662,-0.0113344267010689
762,-0.0074298856779933,-0.0340307988226414,-0.00808493979275227,0.00451760552823544,-0.0045902319252491,-0.00890121981501579
763,-0.0044427402317524,-0.0370222851634026,-0.00509301805868745,0.0079871229827404,-0.00134352443274111,-0.00609759474173188
764,-0.00115163577720523,-0.0400410406291485,-0.00170151109341532,0.0104774702340364,0.0022647853475064,-0.002826611045748
765,-0.000714820809662342,-0.0446278154850006,-0.000859926803968847,0.010583414696157,0.00344329001381993,-0.00154588546138257
766,-0.00395347224548459,-0.0508713610470295,-0.00306131271645427,0.00870953500270844,0.00223174365237355,-0.00360241904854774
767,-0.00775223039090633,-0.0566603094339371,-0.00557843130081892,0.0079054357483983,0.00189759361092001,-0.0064651845023036
768,-0.0100840469822288,-0.0610614083707333,-0.007002386264503,0.00923224631696939,0.00297334534116089,-0.00800899229943752
769,-0.0116793597117066,-0.0652359500527382,-0.00824288930743933,0.0105615006759763,0.00291911186650395,-0.00877117365598679
770,-0.0130454320460558,-0.0699717178940773,-0.00997647922486067,0.0101912207901478,0.000798437860794365,-0.00968002155423164
771,-0.0138191692531109,-0.0746099278330803,-0.0124778263270855,0.00830426812171936,-0.00240713241510093,-0.0106574017554522
772,-0.0133933601900935,-0.0778660699725151,-0.0152675220742822,0.00633711647242308,-0.00499210460111499,-0.010791702196002
773,-0.0120322462171316,-0.0797068178653717,-0.0170731842517853,0.00567334005609155,-0.00570543017238379,-0.0102925729006529
774,-0.0113542350009084,-0.0816580653190613,-0.0171904526650906,0.00611290894448757,-0.0052671697922051,-0.0112828528508544
775,-0.011484251357615,-0.083937332034111,-0.0154824303463101,0.00727095827460289,-0.00449661677703261,-0.0137148443609476
776,-0.0113844741135836,-0.0859104171395302,-0.0127950301393867,0.00907661765813828,-0.00379170523956418,-0.0160756222903728
777,-0.0108940508216619,-0.0882083922624588,-0.00996032357215881,0.0103594521060586,-0.00363699719309807,-0.0200259983539581
778,-0.0111194318160415,-0.0914731547236443,-0.00840727332979441,0.00830543227493763,-0.0050924732349813,-0.0272404905408621
779,-0.0128059349954128,-0.0940088927745819,-0.0101697640493512,0.00273730582557619,-0.00939918495714664,-0.0330518335103989
780,-0.0136218387633562,-0.0930571407079697,-0.013957504183054,-0.00157240801490843,-0.0145375309512019,-0.0318983234465122
781,-0.0121415322646499,-0.0888944268226624,-0.0174371749162674,-0.00222574174404144,-0.01761812902987,-0.0265617519617081
782,-0.0102744912728667,-0.0839933231472969,-0.0203491970896721,-0.000898272322956473,-0.019225612282753,-0.0228385217487812
783,-0.00916288327425718,-0.079407699406147,-0.0230175741016865,0.000621985702309757,-0.0212279204279184,-0.0214967969805002
784,-0.00876925326883793,-0.0753299072384834,-0.0259898751974106,0.000213656268897466,-0.0249333456158638,-0.0216172486543655
785,-0.0092255650088191,-0.0728970319032669,-0.0298989042639732,-0.00394116202369332,-0.0311798546463251,-0.0251811798661947
786,-0.00943229347467422,-0.0722933411598206,-0.0335809327661991,-0.0106579847633839,-0.0384855531156063,-0.0332218334078789
787,-0.00845452677458525,-0.0720291882753372,-0.0360279195010662,-0.0171456187963486,-0.0454245842993259,-0.0436427555978298
788,-0.0081885876134038,-0.0717630311846733,-0.0401485189795494,-0.0237842071801424,-0.0545287281274796,-0.0554994158446789
789,-0.00939435977488756,-0.0717439129948616,-0.0474810600280762,-0.0320162065327168,-0.0666192397475243,-0.0684419721364975
790,-0.00982172787189484,-0.0711669251322746,-0.0555399507284164,-0.0412549786269665,-0.0778447166085243,-0.0803407430648804
791,-0.00872632022947073,-0.0693852081894875,-0.062375545501709,-0.0508040934801102,-0.0862921625375748,-0.0897874683141708
792,-0.00662732543423772,-0.0656547322869301,-0.0666005089879036,-0.0586045496165752,-0.0935732424259186,-0.0961953550577164
793,-0.00446201814338565,-0.060244619846344,-0.0683697164058685,-0.0632773488759995,-0.101441897451878,-0.100619159638882
794,-0.00303502846509218,-0.054881002753973,-0.0699923858046532,-0.067033052444458,-0.109106443822384,-0.105888821184635
795,-0.00145178847014904,-0.0497239083051682,-0.0738135874271393,-0.0723778903484344,-0.116168282926083,-0.112558946013451
796,7.32627231627703E-05,-0.0441082492470741,-0.0824501067399979,-0.0813772529363632,-0.126432850956917,-0.120066903531551
797,-9.92962814052589E-05,-0.0386191569268703,-0.0972312539815903,-0.0954631119966507,-0.14258536696434,-0.129006192088127
798,-0.00229499535635114,-0.0341682769358158,-0.115393400192261,-0.112628981471062,-0.161920011043549,-0.139307007193565
799,-0.00597108341753483,-0.030600942671299,-0.131628558039665,-0.128124684095383,-0.179881259799004,-0.14891043305397
800,-0.010504218749702,-0.0268145110458136,-0.142088457942009,-0.138195648789406,-0.194018140435219,-0.155326426029205
801,-0.0145260579884052,-0.0221995562314987,-0.146629631519318,-0.143206134438515,-0.204377755522728,-0.158059895038605
802,-0.0168413463979959,-0.017325084656477,-0.148475348949432,-0.147202923893929,-0.212649524211884,-0.159222587943077
803,-0.0166127383708954,-0.0126798814162612,-0.15037040412426,-0.1524897813797,-0.219705492258072,-0.161424487829208
804,-0.0133796138688922,-0.00787787791341543,-0.152475759387016,-0.157730787992477,-0.224836140871048,-0.165492311120033
805,-0.00874072313308716,-0.00290088099427521,-0.154608696699142,-0.161808177828789,-0.228236719965935,-0.171181738376617
806,-0.00585420522838831,0.00124769262038171,-0.157655328512192,-0.165609732270241,-0.231187507510185,-0.178471744060516
807,-0.00606278935447335,0.00422497373074293,-0.161224350333214,-0.170021712779999,-0.233416214585304,-0.1862902790308
808,-0.00751319667324424,0.00694800866767764,-0.163364619016647,-0.174923658370972,-0.23384664952755,-0.191980212926865
809,-0.00766285415738821,0.0098993331193924,-0.164275795221329,-0.180065423250198,-0.233745157718658,-0.193838745355606
810,-0.00575180118903518,0.01265640091151,-0.165216773748398,-0.184807866811752,-0.234816938638687,-0.192729040980339
811,-0.00369202997535467,0.0141095537692308,-0.167029678821564,-0.189182415604591,-0.237589627504349,-0.191653952002525
812,-0.00303097115829587,0.0138257956132293,-0.169844180345535,-0.193142980337143,-0.241400569677353,-0.192351475358009
813,-0.00281663588248193,0.0127840852364898,-0.171773985028267,-0.195104494690895,-0.243857458233833,-0.193467527627945
814,-0.00274499109946191,0.0111423581838608,-0.17159241437912,-0.194810524582863,-0.243359327316284,-0.194217026233673
815,-0.00329406000673771,0.00887700077146292,-0.169854238629341,-0.192940756678581,-0.239391803741455,-0.194294556975365
816,-0.00306023377925158,0.00791827030479908,-0.166454955935478,-0.188401564955711,-0.230882152915001,-0.190899446606636
817,-0.000957055017352104,0.00959034822881222,-0.161572933197021,-0.181416124105453,-0.218673899769783,-0.182960823178291
818,0.000605940062087029,0.0119419218972325,-0.157323762774467,-0.175418674945831,-0.206810057163239,-0.174702882766724
819,-0.000738546659704298,0.0123388124629855,-0.154460430145264,-0.171932697296143,-0.198697745800018,-0.169785782694817
820,-0.00352968741208315,0.0108300233259797,-0.150920048356056,-0.168113857507706,-0.194033935666084,-0.166706681251526
821,-0.0048658954910934,0.00946506205946207,-0.145039677619934,-0.160549163818359,-0.189648911356926,-0.161911189556122
822,-0.00374315772205591,0.00918109714984894,-0.137290626764297,-0.149448722600937,-0.182739168405533,-0.155117452144623
823,-0.00183493341319263,0.00859994441270828,-0.129911005496979,-0.13965106010437,-0.174212008714676,-0.149960771203041
824,-0.000843453803099692,0.00687854737043381,-0.124598614871502,-0.134984880685806,-0.166583135724068,-0.147713139653206
825,-9.33404298848473E-05,0.00503126950934529,-0.121024712920189,-0.13360507786274,-0.160214379429817,-0.145021438598633
826,0.000518975197337568,0.00295133888721466,-0.119479611515999,-0.133275955915451,-0.155695855617523,-0.140568479895592
827,-0.000276530219707638,0.000285341928247362,-0.119799137115479,-0.132919311523438,-0.152984037995338,-0.135483890771866
828,-0.00102341861929744,-0.00108597718644887,-0.117879338562489,-0.128681093454361,-0.147858470678329,-0.127992585301399
829,-8.08025215519592E-05,-0.000457482412457466,-0.111310802400112,-0.119102261960506,-0.138034477829933,-0.116904504597187
830,0.00061766745056957,0.000209097575861961,-0.103390835225582,-0.108538381755352,-0.127097621560097,-0.10524483025074
831,0.000500462425407022,-1.21597104225657E-05,-0.0962491780519485,-0.0997768491506577,-0.11737934499979,-0.0949080064892769
832,0.000797100539784878,-0.000479212030768394,-0.0890396311879158,-0.092060461640358,-0.108044341206551,-0.0851866826415062
833,0.000810741621535271,-0.000711432832758874,-0.0817461907863617,-0.0849659070372581,-0.0984663590788841,-0.0758329480886459
834,-0.000349476089468226,-0.000545917719136924,-0.074492871761322,-0.0781170949339867,-0.0887905806303024,-0.066931426525116
835,-0.00289337453432381,-0.000559211708605289,-0.0668634325265884,-0.0714114457368851,-0.080730527639389,-0.0593102984130383
836,-0.00668019754812121,-0.00147498562000692,-0.0594300888478756,-0.0655493438243866,-0.0750051885843277,-0.0542868636548519
837,-0.0101612405851483,-0.00274366443045437,-0.0536343045532703,-0.0603448897600174,-0.0692466199398041,-0.0513847693800926
838,-0.0114057185128331,-0.00358956796117127,-0.0498248264193535,-0.0551113076508045,-0.0617022104561329,-0.048724677413702
839,-0.0100847566500306,-0.00409383559599519,-0.0470067448914051,-0.0496463738381863,-0.0530062168836594,-0.0453390218317509
840,-0.00737046683207154,-0.00432874960824847,-0.0439320877194405,-0.0434904135763645,-0.0444640070199966,-0.0412111915647984
841,-0.00571417901664972,-0.00477475207298994,-0.0411232970654964,-0.0375906862318516,-0.03803900629282,-0.0375793091952801
842,-0.00560878776013851,-0.0051482249982655,-0.039066094905138,-0.0321885645389557,-0.0336821377277374,-0.0346541628241539
843,-0.00491847703233361,-0.00430019479244947,-0.036467969417572,-0.0252720974385738,-0.0282554179430008,-0.0308825634419918
844,-0.00376668991521001,-0.00350910960696638,-0.0333252996206284,-0.0182781256735325,-0.0202974192798138,-0.0274350363761187
845,-0.00228110677562654,-0.00346936378628016,-0.0289281867444515,-0.0125572215765715,-0.00968737434595823,-0.0238177571445704
846,-0.000181017225258984,-0.00271156430244446,-0.0224408097565174,-0.006401970051229,0.00231341342441738,-0.016460258513689
847,-0.000126625032862648,-0.00170831102877855,-0.0157626066356897,-0.000663827231619507,0.0123744662851095,-0.00652107363566756
848,-0.000620978069491684,-0.00090573524357751,-0.00905659794807434,0.00423318659886718,0.0205782018601894,0.00294623081572354
849,0.00345895881764591,-5.84992740186863E-05,-0.00248655560426414,0.00899664591997862,0.0282556526362896,0.0101385032758117
850,0.00954638700932264,-0.000504035211633891,0.000893924909178168,0.0121080419048667,0.0347420834004879,0.0132537828758359
851,0.0116431498900056,-0.00228115986101329,0.000666015839669853,0.0142912855371833,0.0419555678963661,0.0148385213688016
852,0.00999084487557411,-0.00389888370409608,-0.000746590550988913,0.0177557468414307,0.0517237670719624,0.0186525247991085
853,0.00758867431432009,-0.00430036522448063,0.000671856163535267,0.0230223890393972,0.0621564500033855,0.024587219581008
854,0.00602770503610373,-0.00248498935252428,0.00924840103834867,0.0306421834975481,0.0708417594432831,0.0317440219223499
855,0.00870477687567472,0.00182296347338706,0.0220627970993519,0.0395668968558311,0.076058954000473,0.0388603210449219
856,0.0194002036005259,0.00707288784906268,0.0309097152203321,0.0468221679329872,0.0755743607878685,0.0442901998758316
857,0.0330042578279972,0.0109906969591975,0.0333181135356426,0.0513472706079483,0.0684410929679871,0.0487106628715992
858,0.0370847024023533,0.0126088308170438,0.033200565725565,0.0544913336634636,0.0577918812632561,0.0535796731710434
859,0.0261776782572269,0.0121053643524647,0.0336797572672367,0.0573302619159222,0.0485205762088299,0.0584233514964581
860,0.00724031776189804,0.010658266954124,0.0353596471250057,0.0606673546135426,0.0441901721060276,0.0632690489292145
861,-0.00910385232418776,0.0101474123075604,0.0380608960986137,0.0652691125869751,0.045615442097187,0.0693491399288177
862,-0.018381031230092,0.0112719405442476,0.0412087701261044,0.0702682659029961,0.0509576499462128,0.0753024443984032
863,-0.0221279133111238,0.0126316165551543,0.0436732023954391,0.0739098414778709,0.0577223524451256,0.0775640308856964
864,-0.0226229317486286,0.0126893911510706,0.0449173822999001,0.075984500348568,0.0639262273907661,0.0753263086080551
865,-0.0206539314240217,0.0121643971651793,0.0470287390053272,0.0779332593083382,0.0691731572151184,0.0720788538455963
866,-0.0155880218371749,0.0130598833784461,0.052228432148695,0.0809162929654121,0.0745364800095558,0.0717498362064362
867,-0.00766891613602638,0.0161097422242165,0.0594295896589756,0.0848164111375809,0.0804152339696884,0.0750338807702065
868,0.000434921326814219,0.0198228340595961,0.0655133351683617,0.0883534923195839,0.0854444578289986,0.07956313341856
869,0.00648704404011369,0.0222480166703463,0.0680665373802185,0.0902518108487129,0.088185153901577,0.0828073024749756
870,0.00991052202880383,0.0225804392248392,0.0665375217795372,0.0900644436478615,0.0881017595529556,0.0838386714458466
871,0.0108652049675584,0.0214623585343361,0.0635974332690239,0.0892401933670044,0.0870981588959694,0.0838200524449348
872,0.0108048478141427,0.0210153684020042,0.0643310099840164,0.0911646783351898,0.0898929610848427,0.0857485830783844
873,0.00961700081825256,0.0216790083795786,0.0692993402481079,0.095592312514782,0.0968936011195183,0.0894248485565186
874,0.00652799615636468,0.0217086281627417,0.0747664645314217,0.0991678014397621,0.103616282343864,0.0915059223771095
875,0.00325617054477334,0.0205859951674938,0.0785470455884933,0.10084930062294,0.107175260782242,0.0909548625349998
876,0.000743318814784288,0.0188535768538713,0.0794863626360893,0.100738741457462,0.107067778706551,0.088284358382225
877,-0.000499945308547467,0.0174573492258787,0.0784356147050858,0.100232794880867,0.10594330728054,0.0852598398923874
878,0.000193818792467937,0.0168990083038807,0.0774873867630959,0.100700050592422,0.106924638152123,0.083757147192955
879,0.000930703477934003,0.0161783248186111,0.0764862522482872,0.100607216358185,0.109113894402981,0.0827428549528122
880,-0.00060141523135826,0.0149319609627128,0.0751887932419777,0.0992132872343063,0.111035384237766,0.081170417368412
881,-0.00411278940737247,0.0143284434452653,0.0746926665306091,0.0985286384820938,0.112998552620411,0.0800969898700714
882,-0.00729486625641584,0.0150971161201596,0.0756402611732483,0.100201718509197,0.115344800055027,0.0801363363862038
883,-0.00768555328249931,0.0169214494526386,0.0785668715834618,0.104006931185722,0.118756026029587,0.0810953378677368
884,-0.0051588611677289,0.0186883434653282,0.0827813446521759,0.107653953135014,0.122877098619938,0.0827208682894707
885,-0.00188347487710416,0.019140288233757,0.0857619494199753,0.108842141926289,0.125482827425003,0.0845477506518364
886,0.000332718569552526,0.0183608289808035,0.0868081822991371,0.108243018388748,0.126237690448761,0.0865445137023926
887,0.000584946479648352,0.0170077048242092,0.0871400460600853,0.107684552669525,0.127318352460861,0.0886814892292023
888,-0.00113412411883473,0.0150906993076205,0.087812639772892,0.108049139380455,0.129639342427254,0.09074717015028
889,-0.00375515082851052,0.0128990905359387,0.089478924870491,0.109606206417084,0.132043600082397,0.0928005427122116
890,-0.00631938129663467,0.0108297821134329,0.0913904085755348,0.1110605224967,0.133081912994385,0.0939001068472862
891,-0.00754331657662988,0.0095371175557375,0.0925635471940041,0.111296512186527,0.132713809609413,0.0934731587767601
892,-0.00617600185796618,0.00957475882023573,0.0930247902870178,0.11123189330101,0.131986826658249,0.0926414057612419
893,-0.00349540635943413,0.00940920319408178,0.0918824523687363,0.110631920397282,0.130327448248863,0.0913013517856598
894,-0.00175070762634277,0.00748248677700758,0.088420607149601,0.108356922864914,0.1266038864851,0.0889724493026733
895,-0.00125392188783735,0.00477379932999611,0.0847576856613159,0.105747923254967,0.122543379664421,0.0873880013823509
896,-0.00129301252309233,0.0029623203445226,0.0838485285639763,0.105071596801281,0.121574148535728,0.0882059782743454
897,-0.00168800924438983,0.00212741480208933,0.0860308930277824,0.106518469750881,0.124867893755436,0.0908745005726814
898,-0.00247748289257288,0.00121365755330771,0.0889777913689613,0.108945108950138,0.129894852638245,0.0936561524868011
899,-0.00266288523562253,-3.60393605660647E-05,0.0911865755915642,0.111938200891018,0.133735120296478,0.0950790792703629
900,-0.000568094197660685,-0.000922565581277013,0.0935356393456459,0.115427508950233,0.136030226945877,0.0945946574211121
901,0.00304905418306589,-0.00166632176842541,0.0952912122011185,0.117408782243729,0.136778116226196,0.0924939885735512
902,0.00631800387054682,-0.00271718320436776,0.0945493057370186,0.116262227296829,0.136494040489197,0.0907572284340858
903,0.0086262496188283,-0.00387984607368708,0.0918144807219505,0.113230675458908,0.136719018220901,0.0912139192223549
904,0.00939334649592638,-0.00515521410852671,0.0888807624578476,0.110253214836121,0.138246729969978,0.0931504219770432
905,0.00941934995353222,-0.00573844183236361,0.0877437815070152,0.109239362180233,0.142006650567055,0.0961286574602127
906,0.00940809678286314,-0.00501113058999181,0.0886332094669342,0.110584512352943,0.147189155220985,0.100141704082489
907,0.00811381731182337,-0.0038320089224726,0.0900924503803253,0.112662956118584,0.150610655546188,0.103617958724499
908,0.0048037706874311,-0.00364046124741435,0.0902978256344795,0.113067835569382,0.149339452385902,0.104127317667007
909,0.000749762752093375,-0.00529529480263591,0.0877154842019081,0.110291123390198,0.142988905310631,0.100867263972759
910,-0.000738462607841939,-0.0069808098487556,0.084654226899147,0.107405513525009,0.136442050337791,0.0973911210894585
911,0.00115791510324925,-0.00697414856404066,0.0837584361433983,0.107493534684181,0.134054511785507,0.0965053364634514
912,0.00314892246387899,-0.00682872487232089,0.0833860710263252,0.108217619359493,0.133777156472206,0.0955036282539368
913,0.00343518634326756,-0.00778203690424562,0.0823526158928871,0.107512690126896,0.133055821061134,0.0923594385385513
914,0.00246884278021753,-0.00944317411631346,0.0815671011805534,0.106264024972916,0.132012888789177,0.0889554992318153
915,0.00103953597135842,-0.0112713919952512,0.0811160430312157,0.105258166790009,0.130874380469322,0.0870948061347008
916,0.000348663743352517,-0.0121475337073207,0.0804566219449043,0.104762598872185,0.129798084497452,0.0866769179701805
917,0.000752609339542687,-0.0114098358899355,0.0791873782873154,0.104582786560059,0.12877131998539,0.0868330970406532
918,0.00199299096129835,-0.00977428257465363,0.0775000378489494,0.10457805544138,0.127714022994041,0.0871490240097046
919,0.00434101885184646,-0.00775731028988957,0.0766122341156006,0.10598386824131,0.127495035529137,0.0876382663846016
920,0.00654866686090827,-0.00614846870303154,0.0767509862780571,0.108442381024361,0.127929642796516,0.0868846625089645
921,0.00628203945234418,-0.00644073542207479,0.0765082612633705,0.108470231294632,0.127225741744041,0.0829868242144585
922,0.00376553577370942,-0.0082898736000061,0.0750581324100494,0.10474344342947,0.125168561935425,0.0779977887868881
923,0.00116461934521794,-0.00976263452321291,0.0731131657958031,0.0997818633913994,0.123016402125359,0.0758496299386024
924,-0.000527634518221021,-0.00975714717060328,0.0718724727630615,0.0959256142377853,0.121238887310028,0.0765816271305084
925,-0.00185744452755898,-0.00844151992350817,0.071342408657074,0.0932445451617241,0.119491621851921,0.0772075355052948
926,-0.00352066173218191,-0.0069857919588685,0.0701665952801704,0.0904551595449448,0.117339678108692,0.0757108777761459
927,-0.00610465556383133,-0.00708481390029192,0.0668567046523094,0.0864488855004311,0.113953180611134,0.0722333416342735
928,-0.00858017709106207,-0.00866267178207636,0.062634214758873,0.0825132802128792,0.110253237187862,0.0690483823418617
929,-0.00915997568517923,-0.00981285609304905,0.0602254942059517,0.0807147324085236,0.108290277421474,0.0680738613009453
930,-0.00857078190892935,-0.00959364883601666,0.0597099438309669,0.0805338323116302,0.107371233403683,0.0686763674020767
931,-0.0073799486272037,-0.00761152943596244,0.0609332360327244,0.0815379843115807,0.107194669544697,0.0709434300661087
932,-0.00542458286508918,-0.00427416013553739,0.0634964480996132,0.0833709314465523,0.108343452215195,0.0743658021092415
933,-0.00432944856584072,-0.00212922529317439,0.0640841424465179,0.0837273374199867,0.108578495681286,0.0744290500879288
934,-0.00506243389099836,-0.0027972140815109,0.0609154962003231,0.0813650116324425,0.106329031288624,0.0680764615535736
935,-0.00565650267526507,-0.00458385841920972,0.0569663606584072,0.0781188160181046,0.104056484997272,0.0591615028679371
936,-0.00405153539031744,-0.00481731072068214,0.0552197955548763,0.0764932185411453,0.104015283286572,0.0540568716824055
937,-0.00133592425845563,-0.00264783389866352,0.0551687255501747,0.0766066759824753,0.105300977826118,0.0542726889252663
938,6.5374253608752E-05,0.000415914139011875,0.0553506501019001,0.0769606903195381,0.10610020160675,0.0567796342074871
939,-0.000822471221908927,0.00230184919200838,0.0550490543246269,0.0763152614235878,0.105271190404892,0.0585225932300091
940,-0.00232713739387691,0.00307449558749795,0.0546727403998375,0.0750971436500549,0.103750586509705,0.0588961876928806
941,-0.000921971048228443,0.00455863960087299,0.0557357929646969,0.0753412917256355,0.104174502193928,0.0593979209661484
942,0.00481138378381729,0.00740496348589659,0.0591606125235558,0.0778023973107338,0.107146561145782,0.0607765950262547
943,0.0122053474187851,0.0106828352436423,0.0639433041214943,0.0811926499009132,0.110290162265301,0.0624830052256584
944,0.0169819016009569,0.013240173459053,0.0665675550699234,0.0833734050393105,0.110524736344814,0.0639009922742844
945,0.0162715297192335,0.013974335975945,0.0637463480234146,0.082109272480011,0.105926424264908,0.0636986270546913
946,0.0106944525614381,0.0126699144020677,0.056584544479847,0.0770248025655746,0.0974198505282402,0.061067558825016
947,0.00320849334821105,0.0101332077756524,0.0488129630684853,0.0700001120567322,0.0881049558520317,0.0566875375807285
948,-0.00324799818918109,0.0074452618137002,0.0435767434537411,0.0637491121888161,0.0810894593596458,0.0519376769661903
949,-0.00634046643972397,0.00560301216319203,0.0424765944480896,0.0604085102677345,0.0782932639122009,0.0485388971865177
950,-0.00503272796049714,0.00513852667063475,0.0453538149595261,0.0610512159764767,0.0799874886870384,0.0479539595544338
951,2.37259064306272E-05,0.0059118983335793,0.0507573373615742,0.065563015639782,0.0850094854831696,0.050719577819109
952,0.00510141812264919,0.0063605266623199,0.0546246059238911,0.070622943341732,0.0891353040933609,0.0543031208217144
953,0.00668041035532951,0.00544658629223704,0.0543790943920612,0.0731187611818314,0.0891073197126389,0.0556665137410164
954,0.005687958560884,0.004424171987921,0.0529776252806187,0.0734881237149239,0.0874879211187363,0.0551294572651386
955,0.00426970282569528,0.00449532782658935,0.0531595461070538,0.0723719149827957,0.0873354896903038,0.0541138164699078
956,0.00358658889308572,0.00536758545786142,0.0541206896305084,0.0696809142827988,0.0881452858448029,0.0528762377798557
957,0.00377270835451782,0.00581408711150289,0.0538932755589485,0.0653939694166183,0.0877816155552864,0.0503118373453617
958,0.00393530959263444,0.00501139741390944,0.0516885109245777,0.0602246820926666,0.0850994288921356,0.0460473261773586
959,0.00378535152412951,0.00319000007584691,0.0481831356883049,0.0555053874850273,0.081008680164814,0.041313149034977
960,0.00484308460727334,0.00158070784527808,0.0454346872866154,0.0528114773333073,0.078539714217186,0.0379171818494797
961,0.00726432120427489,0.000753208121750504,0.0445937514305115,0.0521133244037628,0.0786601826548576,0.0360805653035641
962,0.00918866507709026,-0.000345473206834868,0.0445783697068691,0.051267433911562,0.0785061940550804,0.0340012535452843
963,0.0107924854382873,-0.00187463825568557,0.0452277399599552,0.0500030927360058,0.0770855247974396,0.0319958478212357
964,0.011215653270483,-0.00379142793826759,0.0452072508633137,0.0482396967709064,0.0744166821241379,0.0307756587862968
965,0.00873770657926798,-0.00625662971287966,0.0428034216165543,0.0452965497970581,0.0705707743763924,0.0294561553746462
966,0.00578862335532904,-0.00719838263466954,0.0408571735024452,0.0434937030076981,0.0685310885310173,0.0293421428650618
967,0.00497040152549744,-0.0051494101062417,0.0417915284633636,0.0444122850894928,0.0696735382080078,0.0315257981419563
968,0.0055218399502337,-0.00185342377517372,0.0437672398984432,0.0462614148855209,0.0715365335345268,0.0338748693466187
969,0.00597669137641788,0.000708111736457795,0.0449400991201401,0.047898817807436,0.0718975737690926,0.0345485620200634
970,0.00647594779729843,0.00258974405005574,0.0453556776046753,0.050215020775795,0.0704294219613075,0.0341053009033203
971,0.00787706859409809,0.00475567579269409,0.0453736372292042,0.0533736422657967,0.0679018646478653,0.0340007953345776
972,0.00964732933789492,0.00708535080775619,0.0448807068169117,0.0558451488614082,0.0651699006557465,0.0352550484240055
973,0.0105847045779228,0.00862635485827923,0.0440897978842258,0.0568531937897205,0.0628496408462524,0.0380301140248775
974,0.0101552819833159,0.00905846431851387,0.0434074997901917,0.0567896589636803,0.0609987899661064,0.0410872809588909
975,0.0080032292753458,0.00866017024964094,0.0421847328543663,0.0556771717965603,0.0587648823857307,0.0426656939089298
976,0.00461500510573387,0.00778543250635266,0.0400347039103508,0.053525410592556,0.0561553128063679,0.0422212295234203
977,0.00225532450713217,0.0069287340156734,0.0382971577346325,0.0511931516230106,0.0552874095737934,0.0408018678426743
