,AF3,AF4,Fp1,Fp2,AF7,AF8
0,0.00177557859569788,-0.00436309864744544,-0.0103803258389235,-0.0141923865303397,-0.0122557766735554,-0.021073205396533
1,-0.00134594726841897,-0.00658147549256682,-0.0140666188672185,-0.0180190559476614,-0.0157713498920202,-0.0268073547631502
2,-0.00518821552395821,-0.00888097751885653,-0.0176107883453369,-0.0227406397461891,-0.0196994449943304,-0.030860411003232
3,-0.00725942943245173,-0.00930351205170155,-0.0190509222447872,-0.0254847090691328,-0.0219180025160313,-0.0304632689803839
4,-0.00564153864979744,-0.00632218131795526,-0.0167907942086458,-0.0237814858555794,-0.0207302216440439,-0.0252023283392191
5,-0.00254136649891734,-0.00199618749320507,-0.0128088286146522,-0.020194111391902,-0.0178424026817083,-0.0194601509720087
6,-0.000364976818673313,0.00130245299078524,-0.0097490344196558,-0.0178611222654581,-0.0156394578516483,-0.0163175743073225
7,0.000449783459771425,0.00362525670789182,-0.00855448935180902,-0.0173557437956333,-0.0150226531550288,-0.0149626145139337
8,-0.000162200900376774,0.00563295371830463,-0.00923774018883705,-0.0182711482048035,-0.0160343255847692,-0.0140419080853462
9,-0.00131901481654495,0.00737135438248515,-0.0105959186330438,-0.0193053334951401,-0.0174431595951319,-0.0130709800869226
10,-0.00161652837414294,0.00890056136995554,-0.0112428776919842,-0.0190135538578033,-0.0178162064403296,-0.0121267456561327
11,-0.00112229480873793,0.0100872423499823,-0.011295273900032,-0.0180853363126516,-0.0170840099453926,-0.012234665453434
12,-0.00148844125214964,0.0100043751299381,-0.0117252841591835,-0.0184701252728701,-0.0161310099065304,-0.0147353885695338
13,-0.00360165839083493,0.00780851161107421,-0.0130703197792172,-0.0208748895674944,-0.0161898992955685,-0.0197238307446241
14,-0.00530434306710958,0.00442312378436327,-0.0150452833622694,-0.0241706687957048,-0.0181002039462328,-0.0252611115574837
15,-0.00417207507416606,0.00196573790162802,-0.0169119872152805,-0.0265835430473089,-0.0212898571044207,-0.0285146459937096
16,-0.00124237441923469,0.00149665120989084,-0.01824133656919,-0.0270990282297134,-0.0245248079299927,-0.0280381105840206
17,0.00124866084661335,0.0027769363950938,-0.0189863257110119,-0.0252469908446074,-0.0269677527248859,-0.024779099971056
18,0.00270439963787794,0.00486177112907171,-0.0190790761262178,-0.0214821752160788,-0.0283319391310215,-0.0215634759515524
19,0.00317052099853754,0.00629350496456027,-0.0186804439872503,-0.018602516502142,-0.0291122160851955,-0.0209104418754578
20,0.00303629320114851,0.00702918320894241,-0.0180370733141899,-0.0185893047600985,-0.029544934630394,-0.0215434748679399
21,0.00341743160970509,0.00866923201829195,-0.017055556178093,-0.0196906328201294,-0.0292005818337202,-0.0199097190052271
22,0.00392853002995253,0.011277318932116,-0.0164678711444139,-0.0205264259129763,-0.0289097409695387,-0.016303988173604
23,0.00407719053328037,0.0140358433127403,-0.0162504874169827,-0.0207379516214132,-0.0285987611860037,-0.0128647219389677
24,0.00425673695281148,0.0165850799530745,-0.0157148018479347,-0.0202693268656731,-0.0272050909698009,-0.0102416975423694
25,0.0030214199796319,0.0175504628568888,-0.0165894851088524,-0.0212627705186605,-0.0265211481601,-0.0101605569943786
26,0.000173369975527748,0.016894206404686,-0.0191749632358551,-0.023693636059761,-0.027464872226119,-0.0124908704310656
27,-0.00246837711893022,0.0165041163563728,-0.0213310029357672,-0.0249542966485024,-0.0286953244358301,-0.0143538787961006
28,-0.00464295269921422,0.0166405346244574,-0.0227495711296797,-0.0248911213129759,-0.030260106548667,-0.0151221491396427
29,-0.00622580200433731,0.0166914444416761,-0.0235026236623526,-0.0240470096468925,-0.0317451655864716,-0.015461003407836
30,-0.00663494830951095,0.0166784860193729,-0.0231160577386618,-0.0224143005907536,-0.0319271609187126,-0.0157193336635828
31,-0.00572752580046654,0.0168543942272663,-0.0216931942850351,-0.0205408129841089,-0.0306420344859362,-0.0161467771977186
32,-0.00313600338995457,0.0178814195096493,-0.0192241109907627,-0.0183970890939236,-0.0278522185981274,-0.0161314662545919
33,0.000542248599231243,0.0197729151695967,-0.0165790636092424,-0.0160520076751709,-0.0243840590119362,-0.0157648213207722
34,0.00316875800490379,0.021504994481802,-0.0154307093471289,-0.0149202523753047,-0.0225011687725782,-0.0166937317699194
35,0.00349666061811149,0.0223126001656055,-0.0162834264338017,-0.0164501704275608,-0.0232717506587505,-0.0198240652680397
36,0.00177714216988534,0.0217194743454456,-0.0191381443291903,-0.0204766485840082,-0.0261090397834778,-0.0241171326488256
37,-0.0014751449925825,0.0195424240082502,-0.0236427653580904,-0.0257074907422066,-0.0301616303622723,-0.0286569502204657
38,-0.00476768845692277,0.0168822649866343,-0.0277638398110867,-0.0304624233394861,-0.0338236503303051,-0.0327678956091404
39,-0.00589109119027853,0.0154474219307303,-0.0291756838560104,-0.0330736264586449,-0.0349739789962769,-0.0346796102821827
40,-0.00548685295507312,0.0150863397866488,-0.0286845751106739,-0.0344652608036995,-0.0342115759849548,-0.0348441489040852
41,-0.00519572151824832,0.0149649623781443,-0.0277406591922045,-0.0357442870736122,-0.0331767126917839,-0.034674409776926
42,-0.00382642168551683,0.0155060673132539,-0.0249801892787218,-0.0350368432700634,-0.0306688919663429,-0.0328665748238564
43,-0.000238124106545001,0.0166470836848021,-0.0198128167539835,-0.03146056458354,-0.0257397964596748,-0.0287850648164749
44,0.0034091267734766,0.0168514046818018,-0.0155451195314527,-0.0279638823121786,-0.0215218923985958,-0.0253925919532776
45,0.00401193462312222,0.0149858966469765,-0.015695545822382,-0.0278355218470097,-0.021929120644927,-0.0260094702243805
46,0.00214441260322928,0.0122592523694038,-0.0189318656921387,-0.0297968853265047,-0.0257051791995764,-0.0294007509946823
47,0.000789415207691491,0.0105090728029609,-0.0213664807379246,-0.0303821209818125,-0.0285268742591143,-0.0320097431540489
48,0.00166969082783908,0.010199218057096,-0.0209236666560173,-0.0282562300562859,-0.02815324626863,-0.0324478894472122
49,0.00401448784396052,0.0105965035036206,-0.0184894856065512,-0.0248033348470926,-0.0257734190672636,-0.0320728234946728
50,0.00585326319560409,0.0106544988229871,-0.0158604830503464,-0.022576255723834,-0.0239425115287304,-0.0325593762099743
51,0.00639328872784972,0.00997660867869854,-0.01394516043365,-0.0227206666022539,-0.023601496592164,-0.0332724265754223
52,0.0066692465916276,0.00958482641726732,-0.0127668045461178,-0.0234517585486174,-0.0235575195401907,-0.0320173166692257
53,0.00791631825268269,0.0108086131513119,-0.0113301314413548,-0.0222595147788525,-0.0221126675605774,-0.0278939753770828
54,0.00958522874861956,0.0129179758951068,-0.00936003960669041,-0.0197089910507202,-0.0191937144845724,-0.0231474470347166
55,0.0109302578493953,0.0144248278811574,-0.00749744102358818,-0.0176120195537806,-0.015602994710207,-0.0204089730978012
56,0.0118035478517413,0.0153066655620933,-0.00635949103161693,-0.0163519009947777,-0.0122925993055105,-0.0197409801185131
57,0.0108341379091144,0.0156543925404549,-0.00731753651052713,-0.0167812462896109,-0.0115142688155174,-0.020737187936902
58,0.00745055172592402,0.0149105563759804,-0.010512774810195,-0.0192999243736267,-0.014176569879055,-0.022918127477169
59,0.00429020775482059,0.0135241085663438,-0.0130156585946679,-0.0213143043220043,-0.0173705089837313,-0.0240995325148106
60,0.00297394581139088,0.0121238147839904,-0.0133261121809483,-0.0212619062513113,-0.01894286647439,-0.023772144690156
61,0.00160978850908577,0.0101523203775287,-0.0136060388758779,-0.0209241081029177,-0.0203322600573301,-0.0240447632968426
62,-0.00133217184338719,0.00739790918305516,-0.0155425537377596,-0.0217680465430021,-0.0229719672352076,-0.0256783980876207
63,-0.00521774590015411,0.0047919349744916,-0.0183777138590813,-0.0235776547342539,-0.0264145508408546,-0.0276275295764208
64,-0.00869492907077074,0.00326205301098526,-0.0207268185913563,-0.0252177119255066,-0.0296963956207037,-0.0284112449735403
65,-0.0107564516365528,0.00282497820444405,-0.0214368253946304,-0.0248882491141558,-0.0316069237887859,-0.0267316307872534
66,-0.0107042640447617,0.00322176469489932,-0.0188274998217821,-0.020910169929266,-0.0303061362355947,-0.0223352517932653
67,-0.00867813266813755,0.00431242445483804,-0.0119532840326428,-0.0137522192671895,-0.0245124399662018,-0.01678909920156
68,-0.00608079275116324,0.00514019327238202,-0.00312307314015925,-0.00679864455014467,-0.01575867831707,-0.0135154249146581
69,-0.00281859864480793,0.00501216715201736,0.00346988253295422,-0.00343966973014176,-0.00791227258741856,-0.0154389590024948
70,0.00198851735331118,0.00434159021824598,0.00435327086597681,-0.00580356689170003,-0.00491501251235604,-0.0230769012123346
71,0.00585528323426843,0.00346194463782012,-0.00206050812266767,-0.0140709802508354,-0.00898598227649927,-0.0340256653726101
72,0.00625467393547297,0.00273908698000014,-0.0125603461638093,-0.0238487049937248,-0.0171777680516243,-0.0434946492314339
73,0.00363418832421303,0.00142468325793743,-0.0214995611459017,-0.0306368991732597,-0.0239991191774607,-0.0496431142091751
74,-0.000701827055308968,-0.00172001426108181,-0.0263823829591274,-0.0341471247375011,-0.0273480676114559,-0.0542690604925156
75,-0.00387892266735435,-0.00502904364839196,-0.026491092517972,-0.0340188182890415,-0.0266051478683949,-0.0565417781472206
76,-0.00317540019750595,-0.00593630969524384,-0.022521834820509,-0.0296857804059982,-0.021757286041975,-0.054780587553978
77,-6.8868335802108E-05,-0.0052475300617516,-0.0181280914694071,-0.0240603480488062,-0.0157270897179842,-0.0517782755196095
78,0.00221368577331305,-0.00548781547695398,-0.0161802638322115,-0.0204475428909063,-0.0114221405237913,-0.0512189455330372
79,0.00262189726345241,-0.00716650998219848,-0.0165779329836369,-0.0192977618426085,-0.00925813335925341,-0.0533687025308609
80,0.00199536490254104,-0.00922597944736481,-0.0179756376892328,-0.0195257402956486,-0.00830606184899807,-0.0569190792739391
81,0.00143415911588818,-0.0109885400161147,-0.0190358944237232,-0.0199116487056017,-0.00718448543921113,-0.0610374733805656
82,0.00133246730547398,-0.0122481090947986,-0.0196718834340572,-0.0203220713883638,-0.00561827374622226,-0.0653354749083519
83,0.00171902915462852,-0.0126232299953699,-0.0202323403209448,-0.021141491830349,-0.00405166018754244,-0.0687968656420708
84,0.00236266967840493,-0.0120688499882817,-0.0203997772186995,-0.0219200439751148,-0.00227050669491291,-0.0703924149274826
85,0.00305666425265372,-0.0107128992676735,-0.0198926273733377,-0.0211269613355398,-8.80002771737054E-05,-0.0698039755225182
86,0.00380314257927239,-0.00855566002428532,-0.018559692427516,-0.0180291850119829,0.00191495625767857,-0.067119836807251
87,0.00432453164830804,-0.0061911097727716,-0.0160097274929285,-0.0144350128248334,0.00348899466916919,-0.063224196434021
88,0.00448368210345507,-0.00457358220592141,-0.012451933696866,-0.0122505854815245,0.00521121500059962,-0.0588831305503845
89,0.00401399796828628,-0.00467907730489969,-0.0100352894514799,-0.0122925452888012,0.00615049293264747,-0.0552807189524174
90,0.00275020650587976,-0.00648452481254935,-0.0106559144333005,-0.0147523069754243,0.00469223409891129,-0.0541218891739845
91,0.00267893518321216,-0.0076115857809782,-0.0123264873400331,-0.0172654446214437,0.00282876566052437,-0.0541432164609432
92,0.00498832575976849,-0.00663425540551543,-0.0127563076093793,-0.0178443025797606,0.00259012426249683,-0.053339771926403
93,0.00634450186043978,-0.00617023231461644,-0.0141581650823355,-0.0192182529717684,0.000801747606601566,-0.0538133643567562
94,0.00522218691185117,-0.00759366154670715,-0.0173704009503126,-0.0223342292010784,-0.00369294313713908,-0.0564744845032692
95,0.00413892278447747,-0.00836009252816439,-0.0193387158215046,-0.0235513150691986,-0.00746686430647969,-0.0578309260308743
96,0.00491731939837337,-0.00632553594186902,-0.0178865436464548,-0.0203374978154898,-0.00806117616593838,-0.0550424680113792
97,0.00874501466751099,-0.0015932492678985,-0.0122945168986917,-0.0124172484502196,-0.00391642143949866,-0.0477956496179104
98,0.0137794734910131,0.00341948168352246,-0.00560334697365761,-0.00358965015038848,0.00258357916027308,-0.0393773466348648
99,0.0158895514905453,0.00630871532484889,-0.00293381954543293,0.000528724514879286,0.0056311497464776,-0.0341471470892429
100,0.0154023412615061,0.0077601745724678,-0.00419409060850739,0.000123757577966899,0.00447026314213872,-0.0315986648201942
101,0.0137829184532166,0.0084140095859766,-0.00705554522573948,-0.00229368032887578,0.00148275820538402,-0.0299302544444799
102,0.00985684059560299,0.00729486532509327,-0.0112095279619098,-0.00602503446862102,-0.00268052029423416,-0.0297402702271938
103,0.00436765840277076,0.00499517889693379,-0.0156288910657167,-0.00889288447797298,-0.00688976841047406,-0.030526852235198
104,0.000259460037341341,0.00320553733035922,-0.0185178685933352,-0.00862764287739992,-0.009274379350245,-0.0304979421198368
105,-0.000644460262265056,0.00256772269494832,-0.0186978671699762,-0.0058881351724267,-0.00867971777915955,-0.0290520377457142
106,0.00102191558107734,0.00262198364362121,-0.0166744757443666,-0.00362095818854868,-0.00603129575029016,-0.0270890519022942
107,0.00292964372783899,0.00264424737542868,-0.0150892017409205,-0.00410107523202896,-0.00417484901845455,-0.0257378257811069
108,0.00392045453190804,0.00274077989161015,-0.0152659853920341,-0.00652446784079075,-0.00434524845331907,-0.0249846316874027
109,0.00435060961171985,0.00348816742189229,-0.0161974262446165,-0.00908308383077383,-0.00573789933696389,-0.0242507718503475
110,0.00458940956741571,0.00475086038932204,-0.0169176775962114,-0.0110143627971411,-0.00713742105290294,-0.0232587829232216
111,0.00437592761591077,0.00545096909627318,-0.0174630060791969,-0.0123253604397178,-0.00785717461258173,-0.0223499368876219
112,0.00302934250794351,0.00459724757820368,-0.0180952940136194,-0.0135460495948792,-0.00805606041103601,-0.0226276908069849
113,0.00148845661897212,0.00288198888301849,-0.0175687614828348,-0.0139282364398241,-0.00686716567724943,-0.0239466056227684
114,-4.47909369540866E-05,0.000691408000420779,-0.0161122884601355,-0.013496620580554,-0.00522099575027823,-0.0260247569531202
115,-0.0030738920904696,-0.00273039843887091,-0.0164080988615751,-0.0145815350115299,-0.00646700244396925,-0.0296851340681314
116,-0.00584065355360508,-0.0056436937302351,-0.0177430901676416,-0.0162681601941586,-0.00942949112504721,-0.0330272428691387
117,-0.00466462038457394,-0.00509203178808093,-0.0162409022450447,-0.0142359463497996,-0.00930989254266024,-0.0317680798470974
118,-1.03654099348205E-06,-0.00163153524044901,-0.0117257284000516,-0.00829133484512568,-0.0057062697596848,-0.025767182931304
119,0.00417434331029654,0.00174334924668074,-0.00776752596721053,-0.0027584214694798,-0.00187148398254067,-0.0201870854943991
120,0.00557303475216031,0.00348911969922483,-0.00533315446227789,8.05150193627924E-05,0.00160456437151879,-0.0184009801596403
121,0.00406924029812217,0.00323580321855843,-0.00382965081371367,-0.000283227040199563,0.00466164387762547,-0.0196563675999641
122,0.000990101718343794,0.00109574012458324,-0.00413011433556676,-0.00390173261985183,0.00525042368099093,-0.0217337254434824
123,-0.000769088976085186,-0.00114347564522177,-0.00534174358472228,-0.0080120787024498,0.00330395647324622,-0.0219794604927301
124,-0.000109886575955898,-0.00157669314648956,-0.00569245591759682,-0.00981136690825224,0.000310830801026896,-0.019772669300437
125,0.00101110013201833,-0.000598003680352122,-0.00579494517296553,-0.00995347555726767,-0.00365972029976547,-0.0173789504915476
126,0.000817730964627117,0.000168332335306332,-0.006961390376091,-0.0105261197313666,-0.00889129377901554,-0.0168697759509087
127,-0.000202829498448409,0.000308580754790455,-0.00900010764598846,-0.0121034169569612,-0.0142969293519855,-0.018012773245573
128,-0.000898556027095765,0.000130266300402582,-0.0104650789871812,-0.0138120157644153,-0.0177780166268349,-0.0195547230541706
129,-0.000194995387573726,0.000231715122936293,-0.0095363911241293,-0.0135402921587229,-0.0173451229929924,-0.019809328019619
130,0.00182613939978182,0.00112722325138748,-0.00631264923140407,-0.0102539053186774,-0.0138134248554707,-0.0179027654230595
131,0.00239816377870739,0.00144689111039042,-0.00377365970052779,-0.00670603755861521,-0.0112432260066271,-0.0159334354102612
132,-1.06806528492598E-05,0.000226203745114617,-0.00401528179645538,-0.00553429033607244,-0.0118292076513171,-0.0156964268535376
133,-0.00376155436970294,-0.00145021115895361,-0.00646379729732871,-0.00659884558990598,-0.0142788989469409,-0.0166376288980246
134,-0.00683532329276204,-0.00265996321104467,-0.00938043370842934,-0.0085579389706254,-0.0166604537516832,-0.0176406726241112
135,-0.00816585030406713,-0.00300910999067128,-0.0110805938020349,-0.0096307098865509,-0.0178836323320866,-0.017574654892087
136,-0.00844406522810459,-0.00254948227666318,-0.0118747605010867,-0.0092450175434351,-0.0184985101222992,-0.0166183430701494
137,-0.00903534982353449,-0.0020303966011852,-0.0132914958521724,-0.00840270239859819,-0.0195026081055403,-0.0163837727159262
138,-0.00956328026950359,-0.0018383915303275,-0.0147256096825004,-0.00776379043236375,-0.0201627537608147,-0.0171292033046484
139,-0.00896728131920099,-0.00170798320323229,-0.0146619481965899,-0.00720439245924354,-0.019433232024312,-0.0169735513627529
140,-0.00742312660440803,-0.00157108809798956,-0.013393945991993,-0.00654424820095301,-0.017856964841485,-0.0150879891589284
141,-0.00566169805824757,-0.00173965841531754,-0.0119582237675786,-0.00583255710080266,-0.0163671933114529,-0.0129761137068272
142,-0.00398890720680356,-0.00238475296646357,-0.010792464017868,-0.00523984199389815,-0.0150380712002516,-0.0115351174026728
143,-0.0034978196490556,-0.00401298003271222,-0.0108461454510689,-0.00617924518883228,-0.014850820414722,-0.0110559808090329
144,-0.00449471920728683,-0.00634383037686348,-0.0122276982292533,-0.00888168625533581,-0.0164179690182209,-0.011026730760932
145,-0.00489006610587239,-0.00749317789450288,-0.01293935906142,-0.0104312412440777,-0.0177495833486319,-0.00954204238951206
146,-0.00398666597902775,-0.0068603316321969,-0.0121581442654133,-0.0094869714230299,-0.0175856463611126,-0.00674406392499805
147,-0.00297043798491359,-0.00564000569283962,-0.0109337316825986,-0.0076112262904644,-0.0165573991835117,-0.00471159722656012
148,-0.00209154631011188,-0.00463180197402835,-0.0100798923522234,-0.00658075464889407,-0.0151533903554082,-0.00469685578718781
149,-0.000637768767774105,-0.00345720583572984,-0.00916954781860113,-0.006587078794837,-0.0131235532462597,-0.00569727923721075
150,0.000857832375913858,-0.00218376331031322,-0.0082662021741271,-0.00727202231064439,-0.0112825455144048,-0.00622911565005779
151,0.00117029587272555,-0.00175716006197035,-0.00837947521358728,-0.00851287040859461,-0.0109726348891854,-0.00612385338172317
152,0.000769334495998919,-0.00240242318250239,-0.00925604067742825,-0.00970224197953939,-0.0115344291552901,-0.00547809200361371
153,0.00111602211836725,-0.00335916294716299,-0.00946868490427732,-0.0102877831086516,-0.0111202318221331,-0.00437174877151847
154,0.00279006734490395,-0.0034536097664386,-0.00820815749466419,-0.0096796415746212,-0.00901047140359879,-0.00281297508627176
155,0.00475749932229519,-0.00244617532007396,-0.00631725322455168,-0.00813624635338783,-0.0064193862490356,-0.00148774811532348
156,0.00618507526814938,-0.00101099105086178,-0.00433784304186702,-0.00597412837669253,-0.00400220137089491,-0.000717013084795326
157,0.00736881606280804,0.000592093099839985,-0.00210233684629202,-0.0023999058175832,-0.00144883547909558,0.000490199017804116
158,0.00748483883216977,0.00156855792738497,-0.000943045248277485,0.00101200386416167,3.33154457621276E-05,0.00114093371666968
159,0.00561899039894342,0.00119190919212997,-0.00155494606588036,0.00137132476083934,-0.000544558570254594,0.000120064985821955
160,0.00295790657401085,0.000344206404406577,-0.00276341685093939,-0.000830299570225179,-0.00234369630925357,-0.000449433806352317
161,-0.000133702851599082,-0.00112841092050076,-0.00489079533144832,-0.00468664523214102,-0.00544789992272854,-0.000747049285564572
162,-0.00394554203376174,-0.00409814110025764,-0.00819169264286757,-0.00991536770015955,-0.00968841277062893,-0.00303975120186806
163,-0.00692508555948734,-0.00718405097723007,-0.0104798693209887,-0.0140526061877608,-0.0129139740020037,-0.00604080315679312
164,-0.00854351837188005,-0.0087338350713253,-0.0106655145063996,-0.0155428852885962,-0.0137739460915327,-0.0078391470015049
165,-0.0103141041472554,-0.00890588667243719,-0.00995438918471336,-0.0157947074621916,-0.0125046726316214,-0.00888433028012514
166,-0.0125235095620155,-0.00880979187786579,-0.00976007618010044,-0.0165419671684504,-0.0107499370351434,-0.0101879090070724
167,-0.0129829840734601,-0.00877913739532232,-0.00998619105666876,-0.0172220598906279,-0.00975044723600149,-0.0113145941868424
168,-0.0101840039715171,-0.00804755184799433,-0.00918786879628897,-0.0163684226572514,-0.00864127185195684,-0.0110392840579152
169,-0.00560982991009951,-0.00639481004327536,-0.0070231119170785,-0.0143504738807678,-0.00700406217947602,-0.0094504477456212
170,-0.00177204445935786,-0.00465038465335965,-0.0048883892595768,-0.0124250864610076,-0.00610150536522269,-0.00747086061164737
171,0.000370854017091915,-0.00352272065356374,-0.00373281468637288,-0.0107891829684377,-0.00645311083644629,-0.00533101102337241
172,0.00185300712473691,-0.00258524646051228,-0.00293803680688143,-0.00859367847442627,-0.00660840841010213,-0.00265017966739833
173,0.00325025897473097,-0.00136688910424709,-0.00256357132457197,-0.00605872273445129,-0.00619170349091291,-9.03838099475252E-06
174,0.0034751205239445,-0.000197505883988924,-0.00377249275334179,-0.00420433329418302,-0.00669007608667016,0.00115365604870021
175,0.00215969444252551,0.000750937790144235,-0.0059092273004353,-0.00301482249051332,-0.00809792708605528,0.000766188197303563
176,0.000305084453430027,0.00151357462164015,-0.00724214594811201,-0.00265492545440793,-0.00929729267954826,0.000348452304024249
177,-0.00128082616720349,0.00233114114962518,-0.00741951959207654,-0.00321501982398331,-0.00994930788874626,0.0014140906278044
178,-0.00187744421418756,0.00380096724256873,-0.00625324808061123,-0.00333357648923993,-0.009432228282094,0.0043275048956275
179,-0.00156702194362879,0.00561578292399645,-0.00429284898564219,-0.00292962254025042,-0.00784137845039368,0.00738088740035892
180,-0.00143384130205959,0.00692469114437699,-0.00327023933641613,-0.00340599846094847,-0.00663804681971669,0.00878809671849012
181,-0.00240352703258395,0.0074843349866569,-0.00386152672581375,-0.00519416388124228,-0.00685011455789208,0.00846497435122728
182,-0.00509051373228431,0.00719991140067577,-0.00587145052850246,-0.00850197952240705,-0.00859874114394188,0.00636903010308743
183,-0.00820512045174837,0.00682226847857237,-0.00794559996575117,-0.0120762223377824,-0.010315396822989,0.00351958675310016
184,-0.00874259695410728,0.00777419563382864,-0.00775596080347896,-0.0129370801150799,-0.00930634327232838,0.00251130107790232
185,-0.0059025976806879,0.010159021243453,-0.00497038383036852,-0.0103208981454372,-0.00513550452888012,0.00411593588069081
186,-0.00211592391133308,0.0127349691465497,-0.00167088699527085,-0.006453862413764,-0.000448331033112481,0.00674210768193007
187,0.000749289931263775,0.014319877140224,0.000519493187312037,-0.00344004551880062,0.00260340608656406,0.00894982554018497
188,0.00241489848122001,0.0143267717212439,0.00112006219569594,-0.00213211472146213,0.00337188714183867,0.00987092219293118
189,0.00279718195088208,0.0129366209730506,0.00016124606190715,-0.00280694919638336,0.00179090851452202,0.00889794435352087
190,0.0031364792957902,0.0114556690678,-0.000869752489961684,-0.00406896416097879,-0.000104599537735339,0.00726957013830543
191,0.0048350621946156,0.0111186010763049,-0.00019819250155706,-0.00358086149208248,6.27560148132034E-05,0.00725985039025545
192,0.00578639376908541,0.0107244905084372,0.000833870784845203,-0.00294387969188392,0.000357045908458531,0.00769017357379198
193,0.0030221224296838,0.00857315957546234,-0.000580809370148927,-0.00584037741646171,-0.00242641847580671,0.0060031721368432
194,-0.00151584576815367,0.00644306605681777,-0.00358142890036106,-0.0104648284614086,-0.00636317068710923,0.00425821542739868
195,-0.00397063698619604,0.00711812311783433,-0.00526012340560555,-0.0122014880180359,-0.00792719889432192,0.00566881150007248
196,-0.0039251777343452,0.0101714069023728,-0.00487110810354352,-0.0101717161014676,-0.00710189715027809,0.00940043944865465
197,-0.00283548096194863,0.0133010558784008,-0.00328386831097305,-0.00647251307964325,-0.00530640641227365,0.0129243545234203
198,-0.00125130487140268,0.0153448255732656,-0.00106182415038347,-0.00298931868746877,-0.00301600922830403,0.0152420466765761
199,0.000875092402566224,0.0165217649191618,0.00178907625377178,-3.02796433970798E-05,-0.000195972505025566,0.0165952052921057
200,0.00206271116621792,0.016556803137064,0.00385810295119882,0.00176580937113613,0.00151685625314713,0.0163763370364904
201,0.000697450363077223,0.0150890247896314,0.0033686060924083,0.00126693537458777,0.000284273730358109,0.0141524290665984
202,-0.00201985519379377,0.0133147239685059,0.00120249309111387,-0.000822704343590885,-0.00241833599284291,0.0115415621548891
203,-0.00437754672020674,0.012376457452774,-0.000947062275372446,-0.00344929052516818,-0.00446419278159738,0.00943462923169136
204,-0.00645118253305554,0.0116718597710133,-0.00278647849336267,-0.00669837556779385,-0.00587104680016637,0.00670580519363284
205,-0.00836993381381035,0.0102571658790112,-0.0041115372441709,-0.0098698390647769,-0.00692739291116595,0.00330635625869036
206,-0.00910263694822788,0.00868420023471117,-0.00401873420923948,-0.011145525611937,-0.00684378389269114,0.0011483394773677
207,-0.00875007640570402,0.00747382547706366,-0.0031038923189044,-0.0109339309856296,-0.00570413656532764,0.000145352329127491
208,-0.00878645479679108,0.0057408856227994,-0.00331556261517107,-0.0115504022687674,-0.00504426844418049,-0.00242944131605327
209,-0.00959512591362,0.00301600550301373,-0.00488745095208287,-0.013932241126895,-0.00550317717716098,-0.00723802670836449
210,-0.0104872211813927,0.000444211647845805,-0.00646627880632877,-0.0171052571386099,-0.00617964658886194,-0.01131378300488
211,-0.0109506966546178,-0.000651934649795294,-0.00718844728544354,-0.0191542189568281,-0.00571788102388382,-0.0119883408769965
212,-0.0113443294540048,-0.000532398466020823,-0.00698177050799131,-0.0191902592778206,-0.00351878860965371,-0.0100339530035853
213,-0.0118608837947249,-0.000226616582949646,-0.00624571368098259,-0.017853831872344,-0.000713201297912747,-0.00766808679327369
214,-0.0111415116116405,-6.61686572129838E-05,-0.00575265428051353,-0.0161283370107412,0.000856379163451493,-0.00613973755389452
215,-0.00794416200369596,0.000272433477221057,-0.00576018448919058,-0.0147718228399754,0.00118789740372449,-0.00533620500937104
216,-0.00302546541206539,0.00151833205018193,-0.00560285290703177,-0.0136214224621654,0.00172321172431111,-0.00378590845502913
217,0.00189247191883624,0.00413832580670714,-0.00476337363943458,-0.0118785947561264,0.00268632639199495,-0.000529164681211114
218,0.00531707471236587,0.00733202463015914,-0.0037662296090275,-0.00981503911316395,0.00287481443956494,0.00298588979057968
219,0.00758215226233006,0.0102688353508711,-0.00259285210631788,-0.00744758546352386,0.00223058392293751,0.00559174083173275
220,0.0100689753890038,0.0128172626718879,-0.000629679881967604,-0.00419097207486629,0.00200539175421,0.00764537695795298
221,0.012046187184751,0.014145789667964,0.00128947617486119,-0.00140961050055921,0.00250896578654647,0.00841659400612116
222,0.0118435490876436,0.0134869180619717,0.00224855239503086,-0.000484139425680041,0.00315276370383799,0.00719217071309686
223,0.0086234649643302,0.0110575025901198,0.00242632650770247,-0.000722848868463188,0.0029991758055985,0.00466718105599284
224,0.00237490772269666,0.0073717893101275,0.00264525436796248,-0.00108018366154283,0.0010958305792883,0.00175717426463962
225,-0.00490710185840726,0.00436718063428998,0.00383745413273573,-0.00038551923353225,-0.00259392405860126,0.000563880545087159
226,-0.0107077248394489,0.00440020626410842,0.00390658620744944,0.000675774354021996,-0.00859591830521822,0.00244134711101651
227,-0.013954222202301,0.00732620386406779,-0.000367317203199491,-0.0011874771444127,-0.0173262637108564,0.00515857664868236
228,-0.0144441118463874,0.0114341164007783,-0.00743448501452804,-0.00647327303886414,-0.0263350028544664,0.00700647523626685
229,-0.0141443917527795,0.0146141378208995,-0.0141105456277728,-0.0131611432880163,-0.0337200835347176,0.0079616941511631
230,-0.0152746755629778,0.015873908996582,-0.0191890671849251,-0.0197831951081753,-0.0395352430641651,0.00816853623837233
231,-0.0164337102323771,0.0167290568351746,-0.0212724357843399,-0.0242213569581509,-0.0423990413546562,0.00982655957341194
232,-0.016131104901433,0.0182264763861895,-0.0200722329318523,-0.0256115756928921,-0.0418783687055111,0.0143724037334323
233,-0.0160396844148636,0.0194653328508139,-0.0176017098128796,-0.025537921115756,-0.0406505651772022,0.0198687259107828
234,-0.0180562026798725,0.0194004010409117,-0.0157451648265123,-0.0250882022082806,-0.0410814434289932,0.0241957381367683
235,-0.021374836564064,0.0180246345698833,-0.0147456079721451,-0.0239559765905142,-0.0429022125899792,0.0269792377948761
236,-0.0238776169717312,0.0160034634172916,-0.0140405325219035,-0.0224828664213419,-0.044670470058918,0.0283273085951805
237,-0.0250280499458313,0.0137321222573519,-0.013466508127749,-0.0219001621007919,-0.0457525923848152,0.0281505454331636
238,-0.0251225586980581,0.0116048445925117,-0.0128699829801917,-0.0222737453877926,-0.0461638979613781,0.0270677041262388
239,-0.0243989992886782,0.00991228502243757,-0.0125972051173449,-0.023137092590332,-0.0463483184576035,0.0252195186913013
240,-0.0229205321520567,0.00898035150021315,-0.0126848816871643,-0.0241777338087559,-0.0462353080511093,0.0224807057529688
241,-0.0200903546065092,0.00960293132811785,-0.0118779102340341,-0.0246347170323133,-0.0448051169514656,0.0208025183528662
242,-0.0159110929816961,0.0117411315441132,-0.00953465700149536,-0.0239259731024504,-0.0415947586297989,0.0221052207052708
243,-0.0114519456401467,0.0137753831222653,-0.00586526328697801,-0.0219733994454145,-0.0365307740867138,0.0255037918686867
244,-0.00847221538424492,0.01387725956738,-0.00206728489138186,-0.0196322277188301,-0.0309126954525709,0.0287790670990944
245,-0.00847268849611282,0.0114876767620444,-0.000159951523528434,-0.0184230729937553,-0.0277783274650574,0.0300792381167412
246,-0.0106976786628366,0.00793954916298389,-0.000464844604721293,-0.0184887871146202,-0.0280769485980272,0.0292563661932945
247,-0.0127026978880167,0.00564924068748951,-0.00109421869274229,-0.0182012356817722,-0.0292861852794886,0.0283868927508593
248,-0.0129608968272805,0.00581255648285151,-0.000465798395453021,-0.0167160201817751,-0.0290491227060556,0.0290917940437794
249,-0.0121023403480649,0.00753117026761174,0.00100643129553646,-0.014845653437078,-0.0277783740311861,0.0310862697660923
250,-0.0119710136204958,0.00897655170410872,0.00203496287576854,-0.0134553210809827,-0.0266557093709707,0.0326835289597511
251,-0.014038641937077,0.00861729122698307,0.00148326193448156,-0.0133931078016758,-0.0264749806374311,0.0318032465875149
252,-0.017732959240675,0.00656132446601987,-0.000384329759981483,-0.0144755663350224,-0.0272103138267994,0.0288248509168625
253,-0.0195975564420223,0.00493977125734091,-0.000750767707359046,-0.0137725053355098,-0.0264408774673939,0.027241624891758
254,-0.0172709356993437,0.0055283522233367,0.00224040984176099,-0.00933835189789534,-0.0225115306675434,0.0294207651168108
255,-0.0124518712982535,0.00790306739509106,0.00708458060398698,-0.0031170800793916,-0.0172722395509481,0.0341425575315952
256,-0.00806555803865194,0.0104994336143136,0.0108318030834198,0.00179011677391827,-0.0136880222707987,0.0387320443987846
257,-0.00623321253806353,0.011675326153636,0.0108522782102227,0.00346929579973221,-0.0137541545554996,0.0404063127934933
258,-0.00691580073907971,0.010965277440846,0.00806559901684523,0.00242775282822549,-0.0164039172232151,0.0381835997104645
259,-0.00768181029707193,0.00967353209853172,0.00652293860912323,0.000966979656368494,-0.0178433451801538,0.0347905568778515
260,-0.00724297016859055,0.00895422976464033,0.00752045912668109,0.000350338028511032,-0.016357809305191,0.0330533981323242
261,-0.00601176358759403,0.00909423641860485,0.00957441795617342,0.00091747404076159,-0.0133464308455586,0.0331568643450737
262,-0.00463534519076347,0.00964921899139881,0.0114303873851895,0.00245603988878429,-0.0109245060011745,0.0339738056063652
263,-0.0044904351234436,0.00965018197894096,0.0115466695278883,0.0031867332290858,-0.0110819190740585,0.0339800305664539
264,-0.00629328656941652,0.00897596124559641,0.00889906659722328,0.00162915175314993,-0.0142507674172521,0.0323573760688305
265,-0.0092455642297864,0.00829098001122475,0.00425504380837083,-0.00186149985529482,-0.0190726798027754,0.0296693369746208
266,-0.0114435721188784,0.00858404766768217,0.00041739727021195,-0.00462511228397489,-0.0231406688690186,0.0280529707670212
267,-0.0114529728889465,0.0101869935169816,-0.000450126070063561,-0.00439517665654421,-0.0244925525039434,0.0286363083869219
268,-0.00958897080272436,0.0121252769604325,0.000831167679280043,-0.00176802382338792,-0.0232322737574577,0.0301318038254976
269,-0.00670420983806252,0.0138540184125304,0.0032277749851346,0.00248569389805198,-0.0204649474471807,0.0321691334247589
270,-0.00443456741049886,0.0150713147595525,0.00585357937961817,0.00702783884480596,-0.0179110113531351,0.0343983098864555
271,-0.00437998212873936,0.0150331929326057,0.00693965330719948,0.00923032220453024,-0.0173644553869963,0.0352094881236553
272,-0.00626184465363622,0.0136445797979832,0.00574278552085161,0.0078058298677206,-0.0190753620117903,0.0340614914894104
273,-0.00866545643657446,0.0116983838379383,0.00320951989851892,0.00374968419782817,-0.0216329712420702,0.0317292399704456
274,-0.00998860131949186,0.0104268388822675,0.000992863322608173,-6.644719542237E-05,-0.0230777505785227,0.0297796633094549
275,-0.00917608942836523,0.0102379499003291,0.000271501514362171,-0.000891812436748296,-0.0224601496011019,0.0290760789066553
276,-0.00592366373166442,0.0105733945965767,0.00184297165833414,0.00185436743777245,-0.0196525361388922,0.0291272290050983
277,-0.00116996536962688,0.0110073853284121,0.00545160053297877,0.00624727597460151,-0.0151408109813929,0.0294315218925476
278,0.00176790985278785,0.0108574721962214,0.00811076536774635,0.00840482395142317,-0.0109694534912705,0.0287504401057959
279,0.00030026093008928,0.00965758319944143,0.00790813472121954,0.00652832817286253,-0.00816423445940018,0.0261243898421526
280,-0.00407556025311351,0.00808886624872684,0.00630616070702672,0.00288067059591413,-0.00627260748296976,0.0227502211928368
281,-0.00783940497785807,0.00705009652301669,0.00423078704625368,-0.000261384731857106,-0.00642502680420876,0.0200465228408575
282,-0.0096313850954175,0.00655521498993039,0.00113171525299549,-0.00296748802065849,-0.00962326489388943,0.0179348215460777
283,-0.0102438712492585,0.00618596794083714,-0.00229324866086245,-0.00567831564694643,-0.013809934258461,0.0159041732549667
284,-0.00942648015916348,0.00626788614317775,-0.00403271848335862,-0.00710463058203459,-0.0157967433333397,0.0146833946928382
285,-0.0069690071977675,0.00725795375183225,-0.00391969084739685,-0.00614746380597353,-0.0152484960854054,0.015147770754993
286,-0.00408310629427433,0.00876658223569393,-0.00341518525965512,-0.00376216042786837,-0.0140389213338494,0.0167388301342726
287,-0.00289312284439802,0.0091995457187295,-0.0041315802372992,-0.00262818508781493,-0.0144656077027321,0.017144575715065
288,-0.00472622783854604,0.00699851522222161,-0.00713696051388979,-0.00486052315682173,-0.0179642923176289,0.0141331404447556
289,-0.00733072869479656,0.00316659524105489,-0.0106462240219116,-0.00859276205301285,-0.0223480351269245,0.00930595770478249
290,-0.00767429918050766,0.00022427253134083,-0.0118192695081234,-0.0103746205568314,-0.0241487286984921,0.00650172354653478
291,-0.00610791938379407,-0.000524892064277083,-0.0107841556891799,-0.00974923744797707,-0.0231525842100382,0.00692758616060019
292,-0.00487584574148059,0.00030743662500754,-0.00989976990967989,-0.00848701968789101,-0.0217234771698713,0.00849931873381138
293,-0.00471264496445656,0.00115620391443372,-0.0101352846249938,-0.00768827786669135,-0.0211553890258074,0.00888727232813835
294,-0.00453743105754256,0.00101162015926093,-0.0101405791938305,-0.00768849113956094,-0.0206009782850742,0.00776012660935521
295,-0.00372644513845444,8.10303099569865E-05,-0.009157276712358,-0.00862765777856112,-0.0194089412689209,0.00613800203427672
296,-0.00234340713359416,-0.000755677348934114,-0.00783691182732582,-0.00996248237788677,-0.0179988201707602,0.00498217670246959
297,0.000231695579714142,-0.000601524254307151,-0.00599516415968537,-0.0103386407718062,-0.0161201488226652,0.00546834897249937
298,0.00312657258473337,0.000141937445732765,-0.00418995600193739,-0.0101593481376767,-0.0143043547868729,0.00711624743416905
299,0.0050567532889545,0.000558824802283198,-0.00310144503600895,-0.0108340689912438,-0.0128603223711252,0.00795620214194059
300,0.0068335528485477,0.000855164311360568,-0.00142410222906619,-0.0115981232374907,-0.00991128012537956,0.00788576435297728
301,0.00829417444765568,0.000844163470901549,0.000950429763179272,-0.0118888635188341,-0.00570832099765539,0.00704533094540238
302,0.00810893625020981,-0.000104510101664346,0.00233689718879759,-0.0125626167282462,-0.00316178472712636,0.00485628703609109
303,0.00620583491399884,-0.0017226692289114,0.00174707092810422,-0.0138427466154099,-0.00388501258566976,0.00197295728139579
304,0.00356764066964388,-0.00314370333217084,-0.000630302354693413,-0.0151189360767603,-0.0069606602191925,-0.000208890342037193
305,0.00153362611308694,-0.00348337506875396,-0.00352048152126372,-0.0156495645642281,-0.00957081746309996,-0.0010354642290622
306,0.000833112339023501,-0.00260432483628392,-0.00544936349615455,-0.0152989849448204,-0.00967627111822367,-0.00121192715596408
307,0.000997364986687899,-0.00129696377553046,-0.00625850353389978,-0.0149322263896465,-0.0080102039501071,-0.00200486881658435
308,0.00158920953981578,-0.000228086413699202,-0.00635233987122774,-0.0151885244995356,-0.00615693442523479,-0.00370922358706594
309,0.00237921043299139,0.000410995911806822,-0.00595382554456592,-0.0152716198936105,-0.00509342178702354,-0.00564459525048733
310,0.00369504699483514,0.000932365190237761,-0.00458411173895001,-0.0125850299373269,-0.0043796319514513,-0.00670938519760966
311,0.00529594486579299,0.00129138014744967,-0.00197645556181669,-0.00693598994985223,-0.00370923639275134,-0.00682891113683581
312,0.00537257688120008,0.000984910409897566,0.000301683263387531,-0.0025279417168349,-0.00448326114565134,-0.00631251372396946
313,0.00330332643352449,0.000173393083969131,0.000798965222202241,-0.00239172601141036,-0.0072269095107913,-0.00518822716549039
314,0.000402533070882782,-0.000444231962319463,0.000132758330437355,-0.00525756971910596,-0.0102822715416551,-0.00415012892335653
315,-0.00165167741943151,-0.000190073027624749,-0.000392003479646519,-0.00780262984335423,-0.0117843188345432,-0.00294777518138289
316,-0.00158777995966375,0.00102130766026676,2.52210174949141E-05,-0.00781711004674435,-0.0109253143891692,-0.000645072024781257
317,0.0011906266445294,0.00303614768199623,0.00218925438821316,-0.00465067755430937,-0.00731055811047554,0.00326053379103541
318,0.00413656421005726,0.00448624091222882,0.00431646360084414,-0.000874295423272997,-0.00356827210634947,0.00697145564481616
319,0.00316825066693127,0.00342686148360372,0.00300511345267296,-0.000407555024139583,-0.00395444175228477,0.00707162078469992
320,-0.000629241636488587,0.000856714439578354,-0.000429335021181032,-0.00201470335014164,-0.00738287437707186,0.00407754722982645
321,-0.00354822631925344,-0.00127148721367121,-0.00267691561020911,-0.00235472829081118,-0.0102895721793175,0.00100823165848851
322,-0.00479660043492913,-0.0029650351498276,-0.00355337793007493,-0.00126276980154216,-0.0118037275969982,-0.00144065893255174
323,-0.00464532291516662,-0.00419917237013578,-0.00356176006607711,0.000686091429088265,-0.011926768347621,-0.00345229008235037
324,-0.00291668553836644,-0.00409399345517159,-0.00210925401188433,0.00338016543537378,-0.0102761769667268,-0.00435195630416274
325,-0.000388500629924238,-0.00274304207414389,0.00052541313925758,0.00557586830109358,-0.00734939519315958,-0.00394546985626221
326,0.00102946965489537,-0.00121889635920525,0.00241992645896971,0.00579334516078234,-0.00499771581962705,-0.00280171097256243
327,0.000874646415468305,0.000114981346996501,0.00279263779520988,0.00431202398613095,-0.00388499931432307,-0.00153485417831689
328,0.00081060134107247,0.00158156070392579,0.00294014881365001,0.00299890339374542,-0.00280408188700676,-0.000303116627037525
329,0.00133263587485999,0.00270773260854185,0.00303698168136179,0.0025179679505527,-0.00191460817586631,0.000524002825841308
330,0.00196348992176354,0.00290716649033129,0.00268405885435641,0.0024344811681658,-0.00192602642346174,0.00068441336043179
331,0.00233849394135177,0.00226155132986605,0.00224262871779501,0.00229459884576499,-0.00275419652462006,0.000291877193376422
332,0.00155851291492581,0.0012941169552505,0.00133038929197937,0.00138713559135795,-0.0046670469455421,-0.000556830840650946
333,0.000655371288303286,0.00163473340217024,0.000786459073424339,0.0010706945322454,-0.00586190167814493,-0.000213984312722459
334,0.0013400879688561,0.00365329720079899,0.00209045899100602,0.00276396959088743,-0.00410596607252955,0.00215213606134057
335,0.00281112594529986,0.00551781244575977,0.00433394778519869,0.00503165973350406,-0.000826009432785213,0.00469944812357426
336,0.0049662203527987,0.00713411346077919,0.00720702251419425,0.00774106383323669,0.00264083058573306,0.00712702516466379
337,0.00856546405702829,0.0099875321611762,0.0116116069257259,0.0125018712133169,0.00654954696074128,0.0107072545215487
338,0.0115271862596273,0.0135474158450961,0.0158211942762136,0.01786351762712,0.00908258371055126,0.0144368596374989
339,0.0119630834087729,0.0161818116903305,0.0175773464143276,0.0211455821990967,0.00871743261814117,0.0166141949594021
340,0.00959707051515579,0.0165933202952147,0.0159321539103985,0.0208866689354181,0.00595913827419281,0.0158735197037458
341,0.00485524861142039,0.0142230447381735,0.0117299007251859,0.0169066209346056,0.00199379376135767,0.0116039467975497
342,0.000859443156514317,0.0107447830960155,0.00849155243486166,0.012030185200274,-0.00111314549576491,0.00693965749815106
343,-0.000259765569353476,0.00776638928800821,0.00698474189266562,0.00807519815862179,-0.0033585955388844,0.00446105562150478
344,8.57399663800607E-06,0.00526837212964892,0.00490815611556172,0.00381463021039963,-0.00638670474290848,0.00237390422262251
345,0.000483574462123215,0.003679767716676,0.00235791248269379,-0.000468452111817896,-0.00944582931697369,-0.000560412823688239
346,0.00141607201658189,0.00359503296203911,0.00101946236100048,-0.0029810608830303,-0.0105888210237026,-0.00286098220385611
347,0.00249803718179464,0.00417655007913709,0.00103187630884349,-0.00353281595744193,-0.00979671441018581,-0.00371048622764647
348,0.00326629728078842,0.0041166297160089,0.00156552554108202,-0.0031232456676662,-0.00832639820873737,-0.00362732331268489
349,0.00392237212508917,0.00324314367026091,0.00211888365447521,-0.0026418287307024,-0.00678312592208385,-0.00337775959633291
350,0.00372626562602818,0.00162413495127112,0.0016942429356277,-0.00339936069212854,-0.00578042073175311,-0.00463568000122905
351,0.00283255684189498,8.35505488794297E-05,0.000821464811451733,-0.00459614396095276,-0.00465387338772416,-0.00695646973326802
352,0.00361463474109769,0.000304163346299902,0.00228947424329817,-0.00291312555782497,-0.000906991888768971,-0.00702001480385661
353,0.00586928660050035,0.00182667654007673,0.00585938757285476,0.00129737961106002,0.00470626866444945,-0.00468799099326134
354,0.00698477169498801,0.00274458294734359,0.00822031125426292,0.00426164083182812,0.00821369793266058,-0.00310600968077779
355,0.00669558718800545,0.00274737062864006,0.00847295671701431,0.00529762823134661,0.00854815635830164,-0.0029988787136972
356,0.0059982817620039,0.00245519750751555,0.00751349003985524,0.00605965545400977,0.00749313877895474,-0.00294731697067618
357,0.00478266831487417,0.00165098102297634,0.00551260588690639,0.00621366547420621,0.00585889397189021,-0.00290134106762707
358,0.00347203435376287,0.000591168296523392,0.00339387380518019,0.00516534084454179,0.00388694601133466,-0.00262631592340767
359,0.00280270911753178,0.000246536859776825,0.00191501551307738,0.00370694417506456,0.00196590460836887,-0.0010718849953264
360,0.00221716309897602,0.000230998382903636,0.000207422373932786,0.00186946731992066,-0.000233400889555924,0.000699833792168647
361,0.00259482953697443,0.000416047114413232,-0.000970702618360519,0.000588278169743717,-0.00131521443836391,0.00181843189056963
362,0.0056807859800756,0.00176044937688857,0.000451264291768894,0.00182078429497778,0.00130252202507108,0.00331216491758823
363,0.01062904112041,0.00435493979603052,0.00451863138005137,0.00566584756597877,0.00733714923262596,0.00602146936580539
364,0.0155388498678803,0.00741529930382967,0.00974840670824051,0.0110036190599203,0.0143622448667884,0.0102333389222622
365,0.0185477528721094,0.00953700952231884,0.0138844465836883,0.0157811921089888,0.0195711981505156,0.0143273565918207
366,0.0186461806297302,0.00992257241159678,0.0154756242409348,0.0181754324585199,0.0216040480881929,0.0160335004329681
367,0.0167002100497484,0.00902456697076559,0.0149524295702577,0.0179425980895758,0.0212698727846146,0.0151285594329238
368,0.0141131915152073,0.00735998619347811,0.0133692249655724,0.0158983021974564,0.0197142604738474,0.0125229405239224
369,0.0113713704049587,0.00494896667078137,0.0108457701280713,0.0129282753914595,0.0177408363670111,0.00845853798091412
370,0.00808014068752527,0.00163275317754596,0.00687378691509366,0.00933163892477751,0.0159943085163832,0.00257691997103393
371,0.00482409866526723,-0.00161476840730757,0.00307674007490277,0.0060784388333559,0.0151035459712148,-0.00341908051632345
372,0.00242710881866515,-0.00344285159371793,0.00131544552277774,0.00403142254799604,0.0148588037118316,-0.00637682806700468
373,0.000114333124656696,-0.0040286798030138,0.000625210348516703,0.00238731945864856,0.0140025420114398,-0.00607070047408342
374,-0.00173139898106456,-0.00357183697633445,0.000703556288499385,0.00136026821564883,0.0130066024139524,-0.00401533022522926
375,-0.000811250240076333,-0.00125499069690704,0.00348104652948678,0.00302812084555626,0.0144156534224749,2.14559895539423E-05
376,0.00223425799049437,0.00227022543549538,0.00855078548192978,0.00683151045814157,0.0180701296776533,0.00499437935650349
377,0.00422813277691603,0.00495338812470436,0.012828204780817,0.00991927739232779,0.0210106130689383,0.0081440694630146
378,0.00435574632138014,0.00596391316503286,0.0151836760342121,0.0116166360676289,0.0220505408942699,0.00907033123075962
379,0.00336408754810691,0.00549844047054648,0.016086932271719,0.0123200016096234,0.0214301627129316,0.00828627776354551
380,0.00196702824905515,0.00419944571331143,0.0158818326890469,0.0121360188350081,0.0197474081069231,0.00607381016016006
381,0.0011280681937933,0.0029674235265702,0.0152582116425037,0.0117033431306481,0.0183987654745579,0.0036376272328198
382,0.00090525601990521,0.00205194391310215,0.0144488476216793,0.0114865843206644,0.0179210901260376,0.00164686795324087
383,0.000149180297739804,0.000978030147962272,0.0130661455914378,0.0112688224762678,0.0171811357140541,-0.000331492308760062
384,-0.00118053087498993,-0.000306079833535478,0.0116808507591486,0.0112576512619853,0.0159548427909613,-0.00186327775008976
385,-0.00189976149704307,-0.00129781663417816,0.0111750392243266,0.0120187290012836,0.0151410680264235,-0.00225641089491546
386,-0.00129644968546927,-0.00140019087120891,0.0116307884454727,0.0142106786370277,0.0150299845263362,-0.00163310568314046
387,0.000655242649372667,-0.000325744942529127,0.0129646258428693,0.0172254610806704,0.0155288884416223,-0.000479536683997139
388,0.00235196249559522,0.000924722175113857,0.0139411306008697,0.0176731888204813,0.015550522133708,-7.67287856433541E-05
389,0.0021999585442245,0.00155972619540989,0.0133530292659998,0.014445848762989,0.014319833368063,-0.000532805919647217
390,-0.000131515524117276,0.00170263461768627,0.0110561270266771,0.00969450362026691,0.0116453804075718,-0.00135512254200876
391,-0.00384117220528424,0.00160709035117179,0.00766275357455015,0.00552198849618435,0.00787064153701067,-0.0022052472922951
392,-0.00743441609665751,0.00147293624468148,0.00433008139953017,0.00337090482935309,0.00437551224604249,-0.00197599804960191
393,-0.0108009940013289,0.000966709689237177,0.000831510114949197,0.00255104317329824,0.0010109799914062,-0.00100773689337075
394,-0.0142399277538061,-0.000126927421661094,-0.00354660442098975,0.00144997716415673,-0.0031992553267628,-0.000527203257661313
395,-0.0162938088178635,-0.00114850117824972,-0.00748188141733408,0.000346627290127799,-0.00675702793523669,-0.000381760735763237
396,-0.0147796757519245,-0.00074707082239911,-0.00806509424000978,0.0011956614907831,-0.006403180770576,0.000748940161429346
397,-0.00980968773365021,0.00191005109809339,-0.00425250176340342,0.0050094248726964,-0.00114759313873947,0.00383050111122429
398,-0.00419082026928663,0.00553550012409687,0.00122022337745875,0.0101866964250803,0.00604986771941185,0.00766554940491915
399,-0.000440758100012317,0.00799981504678726,0.00500941043719649,0.0140310730785131,0.0112509084865451,0.00992985442280769
400,0.00100846635177732,0.00867062341421843,0.00623732199892402,0.0152651639655232,0.0127786956727505,0.0100102927535772
401,0.000817736436147243,0.00771430600434542,0.00536952679976821,0.0139212086796761,0.0112189762294292,0.00846934970468283
402,0.00015106717182789,0.00584109174087644,0.00365058868192136,0.0114363553002477,0.00884582009166479,0.00642732437700033
403,-0.000408021471230313,0.00440984359011054,0.00254497397691011,0.00987181626260281,0.00748383812606335,0.00521569326519966
404,-0.00165321270469576,0.00399529747664928,0.00225897063501179,0.0093287592753768,0.00653298897668719,0.00498713925480843
405,-0.00440309382975101,0.00365307368338108,0.00181052053812891,0.00833569839596748,0.00455917092040181,0.00490768486633897
406,-0.00910267420113087,0.00184707611333579,-0.000707584782503545,0.00536096934229136,0.000252430269028991,0.00333861587569118
407,-0.0143587635830045,-0.000820125511381775,-0.00543058244511485,0.0013512015575543,-0.00537578482180834,4.2360402403574E-06
408,-0.0166360344737768,-0.00191007868852466,-0.00903811305761337,-0.000666554842609912,-0.00799414981156588,-0.00310028274543583
409,-0.0146571602672338,-0.000831532466690987,-0.00896726455539465,-0.00029055547202006,-0.00526751484721899,-0.00461200485005975
410,-0.0109636159613729,0.00111969909630716,-0.00650081317871809,0.000605889712460339,0.000251572666456923,-0.00426797149702907
411,-0.00829013623297215,0.00282713421620429,-0.00415602792054415,0.00100544281303883,0.00472127320244908,-0.00270068389363587
412,-0.00647122273221612,0.00446471944451332,-0.00202450575307012,0.00166149064898491,0.00755941541865468,-0.000714523193892092
413,-0.00417274655774236,0.00676700752228498,0.000909822236280888,0.00379600329324603,0.0104380808770657,0.00180233421269804
414,-0.0018050242215395,0.00912623852491379,0.00415045395493507,0.00704993354156613,0.0132093569263816,0.00451143924146891
415,-0.000711994187440723,0.0102635407820344,0.00643774354830384,0.00986764393746853,0.0143933659419417,0.00625322526320815
416,-0.00208910345099866,0.00958438310772181,0.00648129126057029,0.0104499300941825,0.0131963407620788,0.00574096711352468
417,-0.00666575506329536,0.00731025403365493,0.00368051161058247,0.00762821175158024,0.00991234742105007,0.00241044210270047
418,-0.0128880105912685,0.00444304011762142,-0.000553729303646833,0.00265024905093014,0.00589112937450409,-0.00232319673523307
419,-0.0169419478625059,0.00213162507861853,-0.0039035864174366,-0.00134365516714752,0.00271402834914625,-0.00589149119332433
420,-0.0166441332548857,0.00103936658706516,-0.00538782309740782,-0.00256074871867895,0.00123916158918291,-0.00719961151480675
421,-0.0127550512552261,0.00161978357937187,-0.00514778727665544,-0.00107369781471789,0.00160383910406381,-0.00670263962820172
422,-0.00812669470906258,0.00295481947250664,-0.00507675996050239,0.001003916724585,0.0020273553673178,-0.0065062060020864
423,-0.00509753497317433,0.00322980782948434,-0.00663671270012856,0.0011585708707571,0.000949130801018327,-0.00868512410670519
424,-0.0026906558778137,0.00270288856700063,-0.00764491036534309,0.00015813515346963,0.000320204475428909,-0.0112120462581515
425,-9.20011370908469E-05,0.00265353824943304,-0.00684769917279482,-0.000508089957293123,0.00139548361767083,-0.0112741319462657
426,0.00168111023958772,0.00319967651739717,-0.00571909826248884,-0.00084720179438591,0.0026746392250061,-0.00923528708517551
427,0.00244739023037255,0.00383808696642518,-0.00481471279636025,-0.000947282009292394,0.00318815116770566,-0.0065969848074019
428,0.00305370520800352,0.00466823810711503,-0.00359386438503861,-0.00059462379431352,0.00336714135482907,-0.00398307619616389
429,0.00369644351303577,0.00611184490844607,-0.0024910569190979,6.11744253546931E-05,0.00346671533770859,-0.0017478660447523
430,0.0037725477013737,0.00766170490533113,-0.00238779815845191,0.000287020666291937,0.00311577576212585,-0.000753011845517904
431,0.00301056494936347,0.00837020948529243,-0.00285642198286951,-8.70928706717677E-05,0.00235934462398291,-0.0011894287308678
432,0.0020024215336889,0.00831061787903309,-0.00255842134356499,-4.07361403631512E-05,0.00199181516654789,-0.00166407541837543
433,0.00167173985391855,0.00813854206353426,-0.000990535132586956,0.00126833003014326,0.00248951185494661,-0.000963536673225462
434,0.00106991443317384,0.00731868389993906,-0.000162663534865715,0.00215947651304305,0.00224906066432595,-0.000671688059810549
435,-0.00168504810426384,0.00512933451682329,-0.00220267102122307,0.000225818526814692,-0.000294070137897506,-0.00320332939736545
436,-0.00553281465545297,0.0024989191442728,-0.00572932371869683,-0.00353034632280469,-0.003343865275383,-0.00792613439261913
437,-0.00715240882709622,0.00107379362452775,-0.00716943806037307,-0.00491089932620525,-0.00365560199134052,-0.0112267471849918
438,-0.00558414729312062,0.00115273951087147,-0.00509430048987269,-0.00233181822113693,-0.000856773927807808,-0.0110240578651428
439,-0.00277186115272343,0.00185343332123011,-0.00141765072476119,0.00118042400572449,0.0025880194734782,-0.00811745692044497
440,-0.000142878212500364,0.00304987700656056,0.00186879455577582,0.00383664038963616,0.00512225553393364,-0.00286032888107002
441,0.00216842535883188,0.00509118940681219,0.00432018237188458,0.00634643668308854,0.00685020908713341,0.00383977754972875
442,0.00361330690793693,0.00720890006050467,0.00533297518268228,0.008203343488276,0.00743021909147501,0.00891036260873079
443,0.00327110034413636,0.00800186954438686,0.00419816374778748,0.00827925745397806,0.0060485121794045,0.0101266857236624
444,0.00191993953194469,0.00751393986865878,0.00238578300923109,0.00786380562931299,0.00377613306045532,0.00889624748378992
445,0.000684577913489193,0.00683448510244489,0.00161698600277305,0.00810406357049942,0.00220607779920101,0.00776000414043665
446,5.33018792339135E-05,0.00664051389321685,0.00192494911607355,0.00798488780856133,0.00170287396758795,0.00766092585399747
447,0.00011037119111279,0.00648249918594956,0.00240138871595263,0.00658492743968964,0.00173153856303543,0.0078232754021883
448,-0.000659652112517506,0.00499195605516434,0.00121351156849414,0.00340063194744289,0.000383708014851436,0.00626769289374352
449,-0.00264594191685319,0.00236285338178277,-0.00177039916161448,-0.000773221079725772,-0.00267959223128855,0.0028646953869611
450,-0.00378828565590084,0.000336086319293827,-0.00402190489694476,-0.00377436052076519,-0.00472042011097074,-8.95502744242549E-05
451,-0.00372281949967146,-0.00109497446101159,-0.00467053055763245,-0.00525285536423326,-0.00501407263800502,-0.00191149837337434
452,-0.00457286462187767,-0.00341224111616611,-0.00560817122459412,-0.00714096892625093,-0.00605933414772153,-0.00413338141515851
453,-0.00691281352192163,-0.00647579086944461,-0.00739712966606021,-0.00996052566915751,-0.00817739591002464,-0.00722937565296888
454,-0.00995100382715464,-0.00935443118214607,-0.00947115570306778,-0.0131054800003767,-0.0102232974022627,-0.0110754119232297
455,-0.0123636741191149,-0.0111049311235547,-0.0111583350226283,-0.0152516374364495,-0.0116436798125505,-0.0146062532439828
456,-0.0116526475176215,-0.0105468416586518,-0.0102520901709795,-0.0140738356858492,-0.0106438938528299,-0.0152781382203102
457,-0.00751468911767006,-0.00798114854842424,-0.00594411417841911,-0.0100932391360402,-0.00661419238895178,-0.0123973675072193
458,-0.00336048845201731,-0.0054222852922976,-0.00129715190269053,-0.00685370154678822,-0.00259497505612671,-0.00808732584118843
459,-0.00192781072109938,-0.00455735111609101,0.000727483304217458,-0.00651935627683997,-0.00163855846039951,-0.00518339173868299
460,-0.00254315999336541,-0.00502157071605325,0.000345326465321705,-0.0081263268366456,-0.00332286697812378,-0.00471378397196531
461,-0.00396206229925156,-0.00563506642356515,-0.00171434204094112,-0.0103658204898238,-0.00604123063385487,-0.00602674949914217
462,-0.00558615103363991,-0.00549044413492084,-0.00477748503908515,-0.0122950123623014,-0.00874787010252476,-0.00747774308547378
463,-0.00693800719454885,-0.0044287359341979,-0.00756360590457916,-0.013273804448545,-0.0106868641451001,-0.00794845633208752
464,-0.00693274661898613,-0.00273112673312426,-0.00840745866298676,-0.0126515729352832,-0.0106488587334752,-0.00703242141753435
465,-0.00399991916492581,-0.000211837148526683,-0.00591422943398356,-0.00919600576162338,-0.00723537523299456,-0.00358321121893823
466,0.000271734053967521,0.00209855474531651,-0.00260222144424915,-0.00501334154978395,-0.0025915268342942,0.000559130974579602
467,0.00260720448568463,0.002723453566432,-0.00232516508549452,-0.00358886597678065,-0.000506481679622084,0.0020820323843509
468,0.00292155030183494,0.00237787049263716,-0.00462048780173063,-0.00394455390051007,-0.000923750281799585,0.0018757008947432
469,0.002703916747123,0.00222203996963799,-0.0071260454133153,-0.00383960991166532,-0.00199163006618619,0.00174079765565693
470,0.00207654596306384,0.0021410514600575,-0.00898667424917221,-0.00400522723793983,-0.00345855788327754,0.0012681974330917
471,0.00129519810434431,0.00240081083029509,-0.00987987127155066,-0.00501874415203929,-0.00480958400294185,0.000992209883406758
472,0.00160650804173201,0.00346507807262242,-0.00933221448212862,-0.00534229911863804,-0.00456935213878751,0.00239830068312585
473,0.00240835710428655,0.00422364054247737,-0.00833561364561319,-0.00526121445000172,-0.00354940607212484,0.00424672570079565
474,0.00241088238544762,0.00383475562557578,-0.0080160740762949,-0.00606680475175381,-0.00357893598265946,0.00456606224179268
475,0.00255937362089753,0.00340560195036232,-0.00750032113865018,-0.0064728339202702,-0.0039677657186985,0.00426946999505162
476,0.00389058166183531,0.00393926165997982,-0.0058325408026576,-0.00524385832250118,-0.00323153100907803,0.00486455159261823
477,0.0054689347743988,0.00461919559165835,-0.00364036858081818,-0.00359120848588645,-0.00184062228072435,0.00574577739462256
478,0.00573690934106708,0.00453913025557995,-0.00223598279990256,-0.00288812094368041,-0.00137742096558213,0.00596994906663895
479,0.00531478878110647,0.00471941893920302,-0.00139710609801114,-0.0021645927336067,-0.00156522681936622,0.00682297954335809
480,0.00534664141014218,0.00558407977223396,-0.000464252923848107,-0.000680942088365555,-0.00155928416643292,0.00902606826275587
481,0.00499140750616789,0.00570445461198688,-0.000313488417305052,0.000477478257380426,-0.00221237214282155,0.0105544244870543
482,0.00370895327068865,0.0046759145334363,-0.00133800937328488,0.00136943766847253,-0.00392794935032725,0.00984360557049513
483,0.00241002417169511,0.00351490918546915,-0.00236592069268227,0.00294053624384105,-0.00521909119561315,0.00754711963236332
484,0.00192468392197043,0.00282510300166905,-0.00245656468905509,0.00447616260498762,-0.00474941078573465,0.00496823387220502
485,0.00171825208235532,0.00208541587926447,-0.00238927244208753,0.00352646107785404,-0.00346406525932252,0.00212965323589742
486,0.000684990605805069,0.000757168978452683,-0.0032728398218751,-0.000589062110520899,-0.00277268886566162,-0.000715887523256242
487,-0.00137700606137514,-0.000415710877859965,-0.00493771815672517,-0.0051460862159729,-0.00307615310885012,-0.00186639535240829
488,-0.00359777547419071,-0.000410782726248726,-0.00664970278739929,-0.00749717280268669,-0.00476655922830105,-0.000817142310552299
489,-0.00481687020510435,0.000614328018855304,-0.0075799897313118,-0.00714887399226427,-0.0071489317342639,0.0011566118337214
490,-0.00553005980327725,0.00153910869266838,-0.00819654297083616,-0.0060050985775888,-0.00956473965197802,0.00225265161134303
491,-0.00700361467897892,0.00159277289640158,-0.0100718112662435,-0.00621288316324353,-0.013244716450572,0.00134634354617447
492,-0.00852771289646626,0.00088765169493854,-0.0122507279738784,-0.00711858551949263,-0.0179806686937809,-0.00120651768520474
493,-0.00893072132021189,-0.000307995389448479,-0.0123406117781997,-0.00726306904107332,-0.0215726736932993,-0.0042934026569128
494,-0.00811507273465395,-0.00147368002217263,-0.00980118568986654,-0.00624310271814466,-0.0228979475796223,-0.00664764596149325
495,-0.00691731600090861,-0.00195316807366908,-0.00633256090804935,-0.00474767480045557,-0.0235464014112949,-0.00828955043107271
496,-0.00664582336321473,-0.00225027278065681,-0.00451671285554767,-0.00463972939178348,-0.0260756947100163,-0.0115439044311643
497,-0.00626424001529813,-0.00269773229956627,-0.00415816716849804,-0.0054514859803021,-0.0287944190204144,-0.0163686238229275
498,-0.00416939565911889,-0.00244742329232395,-0.00408896710723639,-0.00584006775170565,-0.0289790630340576,-0.0193224549293518
499,-0.00280079967342317,-0.00212363502942026,-0.00646872632205486,-0.008840118534863,-0.0299995075911283,-0.0204533189535141
500,-0.00444715283811092,-0.00310640246607363,-0.0115674678236246,-0.0160207729786634,-0.0351232141256332,-0.0228849370032549
501,-0.0065164715051651,-0.00442088628187776,-0.0145249692723155,-0.0224494487047195,-0.0411759540438652,-0.0269387364387512
502,-0.00526096438989043,-0.00364056811667979,-0.0127087291330099,-0.0236544255167246,-0.0438644252717495,-0.0293806362897158
503,-0.00115891045425087,-0.000531939382199198,-0.0105939861387014,-0.0222350247204304,-0.0440742969512939,-0.0292045902460814
504,0.00253665237687528,0.00287366611883044,-0.0138023709878325,-0.0234954357147217,-0.0462507866322994,-0.0298818200826645
505,0.00459538539871573,0.00528483046218753,-0.0226641856133938,-0.0282968450337648,-0.0523070096969604,-0.0332667455077171
506,0.00595655897632241,0.00663076667115092,-0.0330484546720982,-0.0337116904556751,-0.0603616423904896,-0.0374997816979885
507,0.00762452464550734,0.00750936940312386,-0.0404290407896042,-0.0374810583889484,-0.0678850635886192,-0.0411250442266464
508,0.00841679144650698,0.00769911846145988,-0.0446735583245754,-0.0409319847822189,-0.0753798708319664,-0.0460677072405815
509,0.0074199135415256,0.00639220234006643,-0.0477251149713993,-0.0455347113311291,-0.0838455334305763,-0.0537001304328442
510,0.00656673545017838,0.00440126284956932,-0.0497950427234173,-0.0496958643198013,-0.0917707234621048,-0.0615970864892006
511,0.00630365731194615,0.00223695090971887,-0.0522383451461792,-0.0534835197031498,-0.0990767925977707,-0.0693051218986511
512,0.00538913160562515,-0.000370285037206486,-0.0570033863186836,-0.0592950396239758,-0.107142478227615,-0.0785856992006302
513,0.00382578675635159,-0.00241774367168546,-0.0644611567258835,-0.0677670165896416,-0.116208240389824,-0.0885298401117325
514,0.00213377783074975,-0.00289738550782204,-0.0736789852380753,-0.0773617699742317,-0.125237375497818,-0.0973083525896072
515,0.000656121468637139,-0.00151837035082281,-0.0826513543725014,-0.0854548737406731,-0.132786050438881,-0.103811994194984
516,-0.000647061737254262,0.00116535217966884,-0.0907641351222992,-0.0917054265737534,-0.139668881893158,-0.108733914792538
517,-0.000729827035684139,0.00405499013140798,-0.0986987128853798,-0.0973947122693062,-0.147487729787827,-0.113529093563557
518,0.000855043705087155,0.00608112802729011,-0.106670767068863,-0.103399306535721,-0.156364098191261,-0.119176782667637
519,0.00222536805085838,0.00638742046430707,-0.114367477595806,-0.111105263233185,-0.165553793311119,-0.12694051861763
520,0.00325043499469757,0.00618277955800295,-0.120500735938549,-0.11959720402956,-0.173333063721657,-0.135110259056091
521,0.00439027464017272,0.00674478057771921,-0.125374272465706,-0.127216130495071,-0.179408848285675,-0.14160093665123
522,0.00529248407110572,0.00744921062141657,-0.130072772502899,-0.133606225252151,-0.184301301836967,-0.147452250123024
523,0.00623932806774974,0.00763056520372629,-0.134039252996445,-0.138486668467522,-0.187840849161148,-0.153372749686241
524,0.00651149963960052,0.00698764575645328,-0.137792751193047,-0.142979398369789,-0.190951466560364,-0.159456148743629
525,0.00547034339979291,0.0058772461488843,-0.142192229628563,-0.147985622286797,-0.194215148687363,-0.165386036038399
526,0.00373171642422676,0.00498306658118963,-0.14655801653862,-0.152698487043381,-0.197150662541389,-0.169919967651367
527,0.00228117895312607,0.00430684396997094,-0.150032311677933,-0.156518459320068,-0.199194923043251,-0.173089116811752
528,0.00223517441190779,0.00383052881807089,-0.152062624692917,-0.159604638814926,-0.199669495224953,-0.175737276673317
529,0.00419670203700662,0.0039644013158977,-0.152420401573181,-0.162237763404846,-0.198175340890884,-0.177956029772758
530,0.00803023017942905,0.00461679277941585,-0.151140704751015,-0.164506167173386,-0.194518744945526,-0.180026665329933
531,0.0122644146904349,0.00496933562681079,-0.148927435278893,-0.166237995028496,-0.18967679142952,-0.182092741131783
532,0.0141102848574519,0.00420608092099428,-0.14792200922966,-0.167905166745186,-0.186451107263565,-0.184295758605003
533,0.0130165703594685,0.00240205693989992,-0.149302020668983,-0.169901818037033,-0.18577378988266,-0.186951160430908
534,0.0115522583946586,0.000896053912583739,-0.151601046323776,-0.171226337552071,-0.185665965080261,-0.189066544175148
535,0.0103732785210013,-3.52909046341665E-05,-0.154131263494492,-0.172558635473251,-0.185801908373833,-0.190605267882347
536,0.0078763859346509,-0.00184212601743639,-0.157261595129967,-0.176041483879089,-0.187230348587036,-0.193665161728859
537,0.00474289292469621,-0.00432848231866956,-0.159427300095558,-0.180042952299118,-0.188966527581215,-0.197735220193863
538,0.00279851211234927,-0.00632752338424325,-0.159164890646935,-0.181505709886551,-0.189472243189812,-0.20068322122097
539,0.00293490313924849,-0.00754908286035061,-0.156050384044647,-0.180002942681313,-0.187145620584488,-0.202143475413322
540,0.00544359162449837,-0.00740278838202357,-0.149736166000366,-0.175862669944763,-0.180547147989273,-0.200834587216377
541,0.00921969301998615,-0.00592605816200376,-0.141524344682693,-0.169627010822296,-0.171075507998466,-0.19572725892067
542,0.0115211103111506,-0.00477808527648449,-0.134880766272545,-0.163631349802017,-0.162826389074326,-0.189617052674294
543,0.0105618368834257,-0.00470491033047438,-0.132147192955017,-0.159583956003189,-0.158055022358894,-0.185022726655006
544,0.00882714707404375,-0.00394995603710413,-0.130776882171631,-0.155144244432449,-0.153836026787758,-0.179617822170258
545,0.00907571241259575,-0.00176450703293085,-0.127424091100693,-0.148455157876015,-0.147249966859818,-0.171471878886223
546,0.0103627555072308,3.45635926350951E-05,-0.122386552393436,-0.141459554433823,-0.139262482523918,-0.162836253643036
547,0.0111702168360353,4.25570215156768E-05,-0.116938538849354,-0.135837808251381,-0.131276682019234,-0.156140998005867
548,0.0115415463224053,-0.00137192802503705,-0.111142441630363,-0.130819082260132,-0.123133689165115,-0.150982156395912
549,0.0121069801971316,-0.00287581351585686,-0.104947425425053,-0.124944977462292,-0.114404551684856,-0.145189136266708
550,0.0125731006264687,-0.00372572895139456,-0.0991089269518852,-0.118201971054077,-0.105461113154888,-0.138222351670265
551,0.0116583816707134,-0.00462277652695775,-0.0947037041187286,-0.112262979149818,-0.0974942520260811,-0.131883323192596
552,0.0090739568695426,-0.00610936060547829,-0.0919631123542786,-0.108448915183544,-0.0913362875580788,-0.12733319401741
553,0.00609686691313982,-0.00750876450911164,-0.0900342613458633,-0.106075018644333,-0.0866690054535866,-0.123567834496498
554,0.00359842414036393,-0.00791468471288681,-0.0878602489829063,-0.103179842233658,-0.082938626408577,-0.118805557489395
555,0.00225214939564466,-0.00709530944004655,-0.0837922319769859,-0.0985119268298149,-0.0788126215338707,-0.112141288816929
556,0.00317943538539112,-0.00542121659964323,-0.076772928237915,-0.0923092216253281,-0.0726497173309326,-0.103057473897934
557,0.00568717531859875,-0.00356972403824329,-0.0686434805393219,-0.08584825694561,-0.0652009919285774,-0.0919444039463997
558,0.00782435014843941,-0.00209008622914553,-0.0617074333131313,-0.0803426057100296,-0.0582623183727264,-0.0810003727674484
559,0.00879177823662758,-0.00100318936165422,-0.0565301962196827,-0.075814813375473,-0.0523028261959553,-0.0716778934001923
560,0.00882905535399914,-0.00013007313827984,-0.0530295930802822,-0.0716303884983063,-0.0470631569623947,-0.0633310973644257
561,0.00840991362929344,0.000728120328858495,-0.0506231524050236,-0.0673278942704201,-0.0420294664800167,-0.0549952611327171
562,0.00726485159248114,0.00116492796223611,-0.0487303771078587,-0.0630107149481773,-0.037258256226778,-0.0472416654229164
563,0.00490684527903795,0.000358860183041543,-0.0470887236297131,-0.0590282455086708,-0.0333445817232132,-0.0411036126315594
564,0.00162455590907484,-0.00192800688091666,-0.0454886928200722,-0.0556131303310394,-0.0305292941629887,-0.0367193147540092
565,-0.00133176380768418,-0.00478268414735794,-0.0434798784554005,-0.0522636845707893,-0.0282233990728855,-0.0333406962454319
566,-0.00238145445473492,-0.00671663833782077,-0.040385153144598,-0.0479931719601154,-0.0249759517610073,-0.029550775885582
567,-0.00147563626524061,-0.0072482586838305,-0.0361750833690166,-0.0427447594702244,-0.0199850965291262,-0.0247716661542654
568,-0.000193903906620108,-0.00698626227676868,-0.0317111313343048,-0.0374464467167854,-0.0139818796887994,-0.0196648556739092
569,0.000546669471077621,-0.00644510658457875,-0.0273489970713854,-0.0326512046158314,-0.00747285084798932,-0.0144732566550374
570,0.000826715084258467,-0.00559609150514007,-0.0225658547133207,-0.0275579243898392,-0.000560326734557748,-0.00890339538455009
571,0.000483518117107451,-0.0045475852675736,-0.0175136905163527,-0.0213639251887798,0.0055350624024868,-0.00330173107795417
572,-0.000249361270107329,-0.00371651677414775,-0.0124535132199526,-0.0147072458639741,0.0103822676464915,0.00193356687668711
573,-0.00143161485902965,-0.00348372547887266,-0.00794588308781385,-0.00958402827382088,0.0143005168065429,0.00661212997511029
574,-0.00330963497981429,-0.00347354938276112,-0.00449870014563203,-0.00663977721706033,0.0176758579909801,0.0110075622797012
575,-0.00440176436677575,-0.00274411030113697,-0.000292595679638907,-0.00346778868697584,0.0233461894094944,0.0159323085099459
576,-0.00330958818085492,-0.00157445482909679,0.00590947829186916,0.00127825979143381,0.0325484871864319,0.0210371427237988
577,-0.000143637938890606,-0.000566361239179969,0.0129102244973183,0.00708433939144015,0.0418501421809196,0.0262692365795374
578,0.00378748401999474,0.000479275680845603,0.0193350818008184,0.0139026492834091,0.0479580499231815,0.0329754278063774
579,0.00522234244272113,0.000791852420661598,0.0231770426034927,0.0199697483330965,0.0494073033332825,0.0403429754078388
580,0.00308872130699456,-7.8562916314695E-05,0.024207528680563,0.02415413223207,0.0480887666344643,0.0467477515339851
581,0.00037190577131696,-0.0010536634363234,0.0249985568225384,0.0281261280179024,0.0482260473072529,0.0522804036736488
582,-0.00161021796520799,-0.00175635085906833,0.0260070618242025,0.0319326370954514,0.0500782951712608,0.0563840046525002
583,-0.00319635728374124,-0.00207240041345358,0.0265880580991507,0.0350906141102314,0.0520024076104164,0.0588193014264107
584,-0.00420408602803946,-0.00168354285415262,0.0271143335849047,0.0382751300930977,0.0538791194558144,0.060524296015501
585,-0.00463699549436569,-0.000997637980617583,0.0279469545930624,0.0419551990926266,0.0555392429232597,0.0623750053346157
586,-0.00421369122341275,-0.000501623027957976,0.0298665501177311,0.0466784946620464,0.0574838072061539,0.0648704692721367
587,-0.00363306910730898,-0.000969285843893886,0.0327005833387375,0.0507335476577282,0.059953186661005,0.0666274428367615
588,-0.0044302036985755,-0.00316829257644713,0.0349768400192261,0.0510548241436481,0.0614101178944111,0.0661999434232712
589,-0.00551771558821201,-0.0057632583193481,0.0372236520051956,0.0494210310280323,0.0621784180402756,0.0662379488348961
590,-0.00517385033890605,-0.00725677236914635,0.0407658889889717,0.0496449694037437,0.0641470849514008,0.0693666636943817
591,-0.00393760623410344,-0.00812488980591297,0.0449317432940006,0.0520445182919502,0.0673803240060806,0.0740917548537254
592,-0.00172117445617914,-0.00829594675451517,0.0496932603418827,0.056547038257122,0.0722070410847664,0.0793396607041359
593,0.00128950353246182,-0.00742891011759639,0.0550512038171291,0.0625588223338127,0.078428328037262,0.0849287807941437
594,0.00317572057247162,-0.00619423482567072,0.0593629851937294,0.0679151266813278,0.0838648527860641,0.0901458337903023
595,0.00247025885619223,-0.00542179541662335,0.061223566532135,0.0714062601327896,0.0866638869047165,0.0945544540882111
596,-0.000192028906894848,-0.00530817173421383,0.0612687654793262,0.0737292170524597,0.0874950587749481,0.098138265311718
597,-0.00255276705138385,-0.00543643953278661,0.0616983883082867,0.0765558704733849,0.0890628173947334,0.101537488400936
598,-0.00386550091207027,-0.00602859072387218,0.0631547421216965,0.0797055140137672,0.0920591875910759,0.104042164981365
599,-0.00442609237506986,-0.00688884127885103,0.0651741251349449,0.0824856609106064,0.0952916890382767,0.104894377291203
600,-0.00318706780672073,-0.00626766355708241,0.0682998895645142,0.0863377824425697,0.0987176895141602,0.106085054576397
601,-0.000349752459442243,-0.00364217720925808,0.0719266161322594,0.0918917208909988,0.1019107401371,0.108991228044033
602,0.00132452917750925,-0.00129171158187091,0.0738036707043648,0.0965372323989868,0.103058345615864,0.111532583832741
603,0.000614004267845303,-0.000924305699300021,0.0738245025277138,0.0979680120944977,0.102187030017376,0.112279780209064
604,-0.00192954100202769,-0.00190518947783858,0.073259674012661,0.0967648029327393,0.100703038275242,0.112631164491177
605,-0.00624261656776071,-0.00354662165045738,0.0721791759133339,0.0944370403885841,0.0989057719707489,0.112965799868107
606,-0.0109097948297858,-0.00525468308478594,0.0714594051241875,0.0929239466786385,0.0975396111607552,0.112927980720997
607,-0.0136083364486694,-0.00588851282373071,0.0725189819931984,0.0938746407628059,0.0978160127997398,0.113755322992802
608,-0.0131157990545034,-0.0046059382148087,0.0758144184947014,0.0974204987287521,0.100281067192554,0.116685405373573
609,-0.0099947564303875,-0.00189232325647026,0.0805968791246414,0.101847067475319,0.104265160858631,0.121120437979698
610,-0.00732998177409172,0.000125336824567057,0.0839704424142838,0.103932410478592,0.107026800513268,0.124619103968143
611,-0.0078548975288868,-5.09270430484321E-05,0.0836228355765343,0.102213591337204,0.106349185109138,0.125352337956429
612,-0.0107653504237533,-0.00175637577194721,0.0810921713709831,0.0988359674811363,0.103278204798698,0.123906977474689
613,-0.013357974588871,-0.00363463023677468,0.0796912461519241,0.0969710052013397,0.100328743457794,0.121952027082443
614,-0.01366694457829,-0.00491038570180535,0.081259474158287,0.0980030745267868,0.0992184653878212,0.120889000594616
615,-0.0112299676984549,-0.00536155328154564,0.0855512097477913,0.101464755833149,0.100905321538448,0.121609926223755
616,-0.0067961560562253,-0.00502408016473055,0.0911442413926125,0.106393873691559,0.105500839650631,0.124370634555817
617,-0.00192292395513505,-0.00419230433180928,0.0964767709374428,0.111804097890854,0.111855037510395,0.128206163644791
618,0.00150927249342203,-0.00375192333012819,0.10021135956049,0.115932807326317,0.118076145648956,0.131188303232193
619,0.00297821988351643,-0.00397721491754055,0.102132759988308,0.117994159460068,0.12341246008873,0.133087977766991
620,0.00296431151218712,-0.00419165706261992,0.102677166461945,0.118952579796314,0.127889484167099,0.134794935584068
621,0.00172394479159266,-0.00451062573119998,0.101962387561798,0.11886515468359,0.130435600876808,0.135654345154762
622,-0.00049919867888093,-0.00565298553556204,0.100102737545967,0.117058113217354,0.12992550432682,0.135225638747215
623,-0.00373945408500731,-0.00773583073168993,0.0970949083566666,0.113633140921593,0.126589626073837,0.133906006813049
624,-0.0078844279050827,-0.0101714069023728,0.0930612161755562,0.108993485569954,0.121212042868137,0.130907669663429
625,-0.0115085253491998,-0.0120983086526394,0.0889058038592339,0.10417202860117,0.115152940154076,0.126184388995171
626,-0.0125814136117697,-0.0127062499523163,0.086422510445118,0.10125308483839,0.111240603029728,0.122201584279537
627,-0.0113130882382393,-0.0121168494224548,0.0863149613142014,0.100799940526485,0.111074164509773,0.120491869747639
628,-0.0090612955391407,-0.010979201644659,0.0881680995225906,0.102216102182865,0.114190481603146,0.120809383690357
629,-0.00517845991998911,-0.00885700806975365,0.0926288738846779,0.106563203036785,0.120411038398743,0.12374259531498
630,-0.000106056031654589,-0.00600483361631632,0.0988584533333778,0.11315992474556,0.12775507569313,0.128391653299332
631,0.00203476776368916,-0.00496782083064318,0.10245918482542,0.117121465504169,0.131302565336227,0.130156874656677
632,-0.000174881017301232,-0.00657398346811533,0.101633362472057,0.116417236626148,0.129706814885139,0.127276614308357
633,-0.00333160441368818,-0.0084147322922945,0.0995036959648132,0.114403530955315,0.126519799232483,0.123507298529148
634,-0.00592857412993908,-0.00938017666339874,0.0977098792791367,0.112945608794689,0.123159572482109,0.121122516691685
635,-0.00807139836251736,-0.00986789725720882,0.0963301658630371,0.112244687974453,0.119686931371689,0.120072327554226
636,-0.00823396351188421,-0.00950084906071424,0.0967236757278442,0.113313660025597,0.118068918585777,0.120741881430149
637,-0.00566590437665582,-0.00840442068874836,0.0991625189781189,0.115750707685947,0.119044192135334,0.122358903288841
638,-0.00221727765165269,-0.0076224310323596,0.101841904222965,0.117976680397987,0.121073856949806,0.122857823967934
639,-0.000618586491327733,-0.00806430168449879,0.103045158088207,0.118589997291565,0.122541390359402,0.120397716760635
640,-0.00160068890545517,-0.0100972829386592,0.102253295481205,0.1165601760149,0.122309274971485,0.114992879331112
641,-0.00275495694950223,-0.0125837614759803,0.100101977586746,0.112997174263,0.120625413954258,0.10972549021244
642,-0.00148154003545642,-0.0136240096762776,0.0982525646686554,0.110480614006519,0.119652524590492,0.107849821448326
643,0.00123149435967207,-0.0134181827306747,0.0972884520888329,0.109109230339527,0.119914002716541,0.10884964466095
644,0.00362803833559155,-0.0130576677620411,0.0968730747699738,0.107871659100056,0.120307415723801,0.110550433397293
645,0.00625668978318572,-0.0121919559314847,0.0978119373321533,0.107850611209869,0.121417939662933,0.112965166568756
646,0.00935992877930403,-0.0103917857632041,0.100502617657185,0.110124655067921,0.123493336141109,0.116881817579269
647,0.0113789178431034,-0.00856473110616207,0.103322342038155,0.113226525485516,0.124369643628597,0.120657056570053
648,0.0103452960029244,-0.00822991319000721,0.103789895772934,0.114018872380257,0.121937908232212,0.121004790067673
649,0.00606229901313782,-0.00987120717763901,0.100963987410069,0.110929854214191,0.116495303809643,0.116994075477123
650,0.00143888837192208,-0.0118525987491012,0.0974153578281403,0.106808356940746,0.111395113170147,0.112209387123585
651,-0.0011993293883279,-0.0126150660216808,0.0955285131931305,0.10447284579277,0.109281912446022,0.109537862241268
652,-0.00278102234005928,-0.01280309073627,0.0941285490989685,0.102565199136734,0.108754150569439,0.107504934072495
653,-0.00352661916986108,-0.0126844216138124,0.0927228108048439,0.100560337305069,0.108656480908394,0.10535517334938
654,-0.00244885543361306,-0.0115547701716423,0.0922678709030151,0.099427118897438,0.109526537358761,0.103581823408604
655,2.23681654460961E-05,-0.00978406146168709,0.092334970831871,0.0988768115639687,0.110956192016602,0.101640872657299
656,0.00227259076200426,-0.00850901752710342,0.0916925445199013,0.0983740538358688,0.111692138016224,0.0993597954511642
657,0.00309570855461061,-0.0082076033577323,0.0900072529911995,0.0979915037751198,0.111068867146969,0.0969107449054718
658,0.00340908137150109,-0.00810019578784704,0.0890420004725456,0.098692461848259,0.110570192337036,0.0950657799839973
659,0.00423187669366598,-0.0073994155973196,0.0899306237697601,0.10018827021122,0.111293621361256,0.0948099866509438
660,0.00380839756689966,-0.00680865906178951,0.0898997411131859,0.0993760824203491,0.110460102558136,0.0949379503726959
661,0.000586587586440146,-0.0075500481761992,0.0862052515149117,0.0940569117665291,0.10537101328373,0.0929862037301064
662,-0.00315450341440737,-0.00891868770122528,0.080822266638279,0.0867493450641632,0.0984762161970139,0.0892972722649574
663,-0.00380323245190084,-0.00893998425453901,0.0776360705494881,0.0820190608501434,0.094680942595005,0.0865573436021805
664,-0.000526358489878476,-0.00708770751953125,0.0775647759437561,0.0817248448729515,0.095767542719841,0.0861329212784767
665,0.00458392407745123,-0.00430794060230255,0.078668050467968,0.0847320929169655,0.0994315445423126,0.0879198461771011
666,0.00932284351438284,-0.00119531387463212,0.0797589421272278,0.0891075283288956,0.103048041462898,0.0912583321332932
667,0.0126842958852649,0.00146990187931806,0.0804930329322815,0.0923009067773819,0.105439879000187,0.0938771665096283
668,0.0135596720501781,0.00157925137318671,0.0791817232966423,0.0912109240889549,0.105301640927792,0.0924287214875221
669,0.0120025333017111,-0.00137145491316915,0.0759973675012589,0.0861764997243881,0.103168904781342,0.0870045498013496
670,0.0107872346416116,-0.00484064687043428,0.0746495872735977,0.0821274891495705,0.102528303861618,0.0823407992720604
671,0.0110920304432511,-0.00717620644718409,0.0762118697166443,0.081430971622467,0.104300916194916,0.080751083791256
672,0.0116812195628881,-0.00880483258515596,0.0782209187746048,0.0817701295018196,0.106408707797527,0.0798274874687195
673,0.0121229914948344,-0.00999682676047087,0.0790329724550247,0.0815635174512863,0.107580184936523,0.077972024679184
674,0.0116586107760668,-0.0109241520985961,0.0778095349669456,0.0807637944817543,0.106417894363403,0.0754982233047485
675,0.00950351543724537,-0.0118191177025437,0.0747770741581917,0.0793019011616707,0.10230079293251,0.0731027722358704
676,0.00645908294245601,-0.0124449459835887,0.0713786482810974,0.0773652121424675,0.0970192030072212,0.0719918385148048
677,0.00428169080987573,-0.0124007631093264,0.0690250992774963,0.0760463103652,0.0931204855442047,0.0731648206710815
678,0.00402275007218122,-0.0116756455972791,0.0683297887444496,0.0764487236738205,0.0917566046118736,0.0756035000085831
679,0.00529615534469485,-0.0105676110833883,0.0689337030053139,0.0780293866991997,0.0923081412911415,0.0770934447646141
680,0.00629750266671181,-0.00992698222398758,0.069350466132164,0.0778265967965126,0.0926461219787598,0.076104924082756
681,0.00508969416841865,-0.010840349830687,0.067655622959137,0.0732830166816711,0.090470977127552,0.0724634006619453
682,0.00204279599711299,-0.0128933945670724,0.0639396533370018,0.0659708827733994,0.0858035087585449,0.0676897615194321
683,-0.00110349548049271,-0.0146702965721488,0.0599335357546806,0.059380766004324,0.0799111053347588,0.0634987130761147
684,-0.00330476113595068,-0.0156777855008841,0.056812196969986,0.0551977977156639,0.0739123821258545,0.0602813102304935
685,-0.00368873099796474,-0.0159687232226133,0.0556615740060806,0.0540007539093494,0.070103220641613,0.0585927329957485
686,-0.00117991864681244,-0.0149162532761693,0.057873822748661,0.056696817278862,0.0712100565433502,0.0602338425815105
687,0.00364175857976079,-0.0122244823724031,0.0630861595273018,0.0626416578888893,0.0769667401909828,0.0655108466744423
688,0.0080286655575037,-0.00915171857923269,0.0684726983308792,0.0687043219804764,0.0833881795406342,0.0716948211193085
689,0.00934282876551151,-0.00767002999782562,0.0712485089898109,0.0714001879096031,0.0863724648952484,0.0747195482254028
690,0.00788092892616987,-0.00814992468804121,0.0715761035680771,0.0704645663499832,0.0856052935123444,0.0732123032212257
691,0.00627731764689088,-0.00852562487125397,0.0711190328001976,0.0686926767230034,0.0833880826830864,0.0699242427945137
692,0.00538762705400586,-0.00758024770766497,0.0691595897078514,0.0666371583938599,0.0803586840629578,0.0667058080434799
693,0.00427060481160879,-0.00646268203854561,0.064524382352829,0.0628084689378738,0.076996386051178,0.0626686662435532
694,0.00251328060403466,-0.00614481698721647,0.0591793693602085,0.0574332922697067,0.0754929333925247,0.0573265478014946
695,0.000480463553685695,-0.00675602070987225,0.0559142529964447,0.0519803762435913,0.0757771208882332,0.0518656745553017
696,-0.000185861747013405,-0.00755615532398224,0.0554414205253124,0.0487160459160805,0.0757613405585289,0.0493210293352604
697,0.00126446911599487,-0.00754255754873157,0.0564218908548355,0.0489349514245987,0.0743948370218277,0.0513932891190052
698,0.00296744867227972,-0.00709423422813416,0.0571500323712826,0.0512440651655197,0.071307010948658,0.0558681003749371
699,0.00408768886700273,-0.00655353209003806,0.0579460002481937,0.0547549054026604,0.0678673759102821,0.0606447979807854
700,0.00588435074314475,-0.00557040795683861,0.0604218542575836,0.0599276013672352,0.0667709037661552,0.0657226145267487
701,0.00853712391108274,-0.00446843728423119,0.0647416636347771,0.0656617730855942,0.0682900100946426,0.0708696469664574
702,0.0109246540814638,-0.00386747461743653,0.0692525207996368,0.0696662589907646,0.0701683387160301,0.0744271203875542
703,0.0121034868061543,-0.00397676462307572,0.0717234164476395,0.0705835521221161,0.0703706592321396,0.0744376257061958
704,0.0111950440332294,-0.00508367130532861,0.0705734118819237,0.0678672194480896,0.0679998621344566,0.0702318027615547
705,0.00874501187354326,-0.00687077455222607,0.0670154020190239,0.0627877712249756,0.0644872114062309,0.0636574625968933
706,0.0064664869569242,-0.00833545625209808,0.0638506561517715,0.0578398704528809,0.0625747814774513,0.0576369352638721
707,0.00487573072314262,-0.00933056510984898,0.0621650367975235,0.0541637875139713,0.0627591833472252,0.053560234606266
708,0.00329597503878176,-0.0102272499352694,0.061151921749115,0.0515589527785778,0.0629882961511612,0.0509687960147858
709,0.000737352296710014,-0.0113462889567018,0.0592207945883274,0.0488534606993198,0.0610436052083969,0.0481109470129013
710,-0.00237485882826149,-0.0126779396086931,0.0563496463000774,0.0457484982907772,0.0572105459868908,0.0445778407156467
711,-0.00418586144223809,-0.0133598754182458,0.0540743283927441,0.0439563356339931,0.0536390505731106,0.0419885776937008
712,-0.00363593432120979,-0.0125122247263789,0.0530738681554794,0.04469083994627,0.0517433658242226,0.0411599725484848
713,-0.00176080607343465,-0.0106316143646836,0.0525812171399593,0.0462616123259068,0.0510976389050484,0.0414610393345356
714,-0.000874768942594528,-0.00909699220210314,0.0513158887624741,0.0459968224167824,0.0500722900032997,0.0423473604023457
715,-0.00241303700022399,-0.00893320515751839,0.0486531481146812,0.0434134006500244,0.0473941154778004,0.0429390743374825
716,-0.00493403943255544,-0.00962535105645657,0.0462070964276791,0.0408231727778912,0.0444493852555752,0.0429175645112991
717,-0.00559835741296411,-0.0094575984403491,0.0464435406029224,0.0407318845391274,0.0440360456705093,0.0440089963376522
718,-0.00471753673627973,-0.0085564237087965,0.0478886924684048,0.041635524481535,0.0448750033974648,0.0458476692438126
719,-0.00460816454142332,-0.00816201698035002,0.0472222529351711,0.0405121631920338,0.0435550548136234,0.0459149815142155
720,-0.00503204949200153,-0.00770707428455353,0.0448957160115242,0.0381982922554016,0.0406493246555328,0.0446678288280964
721,-0.00468756165355444,-0.0064286645501852,0.0424676276743412,0.0367170795798302,0.0382594168186188,0.0436911508440971
722,-0.00380668556317687,-0.0048366617411375,0.039837971329689,0.0359834358096123,0.036567784845829,0.0425944924354553
723,-0.0020557795651257,-0.0031742318533361,0.0382718183100224,0.0363355614244938,0.0365760400891304,0.0415423884987831
724,0.000850666081532836,-0.00188106601126492,0.0388300493359566,0.0377786532044411,0.0393037721514702,0.0407510958611965
725,0.00363148050382733,-0.00202102144248784,0.0401945114135742,0.0388199128210545,0.0432875975966454,0.0391550324857235
726,0.00559981819242239,-0.00348472595214844,0.0411129035055637,0.0389338731765747,0.0462913401424885,0.0367219522595406
727,0.00652709370478988,-0.00543336942791939,0.040679544210434,0.0380520857870579,0.0468016676604748,0.0337836146354675
728,0.00663895346224308,-0.00695843296125531,0.0389817282557487,0.0367051549255848,0.0453095808625221,0.0308188833296299
729,0.007323760073632,-0.00684709241613746,0.0378010831773281,0.0368476137518883,0.0435920171439648,0.0296470578759909
730,0.00839159451425076,-0.00564098684117198,0.0373785383999348,0.0384213514626026,0.0416964963078499,0.0304223150014877
731,0.00725733721628785,-0.00592792872339487,0.0353411249816418,0.0379720404744148,0.0379751734435558,0.0298822093755007
732,0.00295827188529074,-0.00858446955680847,0.0305138528347015,0.0339934341609478,0.0319784767925739,0.0259008463472128
733,-0.00165030499920249,-0.0112511552870274,0.0256942063570023,0.0299147367477417,0.0264173578470945,0.0206906571984291
734,-0.00417778734117746,-0.0121771842241287,0.0236554704606533,0.0280585773289204,0.0237772986292839,0.0168864317238331
735,-0.00468562869355083,-0.0115354927256703,0.0239150878041983,0.0276964865624905,0.0234755985438824,0.0156399123370647
736,-0.00402898015454412,-0.00992516055703163,0.0246251486241817,0.0279209371656179,0.0236073415726423,0.0166361406445503
737,-0.00377184897661209,-0.00845767091959715,0.0240461751818657,0.0272716246545315,0.0222969818860292,0.0174247715622187
738,-0.00463285157456994,-0.00768239470198751,0.0223172921687365,0.0253730900585651,0.019512640312314,0.0168535057455301
739,-0.00636638840660453,-0.00781378708779812,0.0204407777637243,0.022911174222827,0.0164866056293249,0.015408368781209
740,-0.00839685648679733,-0.00898202415555716,0.0188304428011179,0.020591352134943,0.0137720890343189,0.0137349301949143
741,-0.00915858056396246,-0.00978457648307085,0.0187463853508234,0.0202247630804777,0.0122217042371631,0.0133958635851741
742,-0.00690963724628091,-0.00819379184395075,0.0218889117240906,0.0235939715057611,0.0136422263458371,0.0159753561019897
743,-0.00238463119603693,-0.00439014518633485,0.0274146646261215,0.0293670352548361,0.0177763048559427,0.0209427867084742
744,0.00112266046926379,-0.000678088399581611,0.0317117162048817,0.0335113741457462,0.0213435515761375,0.0252018943428993
745,0.00149898254312575,0.00139760109595954,0.0324176549911499,0.0338243283331394,0.0220972634851933,0.0264924839138985
746,-0.000492989551275969,0.00225192680954933,0.0302628148347139,0.031791478395462,0.0203814636915922,0.0261154156178236
747,-0.0025274574290961,0.00309498957358301,0.0273192264139652,0.0301581043750048,0.0181722324341536,0.0261988621205091
748,-0.00357954739592969,0.00381866353563964,0.024376867339015,0.0292183011770248,0.0168763920664787,0.0259890146553516
749,-0.00490810489282012,0.00314720580354333,0.0205117128789425,0.0270171798765659,0.0155341271311045,0.02309250831604
750,-0.00724579254165292,0.00100079155527055,0.0156911518424749,0.0233124308288097,0.0135091841220856,0.0171986594796181
751,-0.00979265011847019,-0.00141142401844263,0.0118017746135592,0.019859766587615,0.0122394822537899,0.0109247853979468
752,-0.0121641298756003,-0.00340762990526855,0.0100392997264862,0.017489168792963,0.0122878365218639,0.00720229558646679
753,-0.0132882678881288,-0.00468024658039212,0.010065414942801,0.0164376012980938,0.0123479869216681,0.00709214620292187
754,-0.010830344632268,-0.00439877016469836,0.0119389556348324,0.0178258046507835,0.0121539188548923,0.0100845340639353
755,-0.00497625302523375,-0.00205143913626671,0.0155328242108226,0.0216800719499588,0.0126641718670726,0.014785086736083
756,0.00140261079650372,0.00175372255034745,0.0193251315504313,0.0259209126234055,0.0137317990884185,0.019649550318718
757,0.00513957999646664,0.00515451235696673,0.0210094936192036,0.027753796428442,0.0134177282452583,0.0228896420449018
758,0.00463747791945934,0.00629564467817545,0.0192815717309713,0.0255783945322037,0.0100184865295887,0.0226249992847443
759,0.00209077820181847,0.00574053125455976,0.0161159783601761,0.0215830337256193,0.00522311916574836,0.0201129503548145
760,0.000190665901754983,0.005146240349859,0.0143074030056596,0.0189045630395412,0.00190157722681761,0.0181905087083578
761,-0.00104315369389951,0.00500125391408801,0.0142392292618752,0.018244156613946,0.000433340319432318,0.0174048356711864
762,-0.00213586795143783,0.00494950404390693,0.0150025878101587,0.0191340614110231,-0.000175649431184866,0.0170992538332939
763,-0.00313866115175188,0.00442213518545032,0.0155488178133965,0.0201954748481512,-0.000505284464452416,0.016457874327898
764,-0.00350272888317704,0.00372645538300276,0.0154491337016225,0.0201866999268532,-0.000106469124148134,0.01548255328089
765,-0.00264163920655847,0.00360032520256937,0.0146908098831773,0.0191394872963429,0.00133996654767543,0.0146676423028111
766,-0.000975276925601065,0.00381915085017681,0.0132395764812827,0.0174136329442263,0.00306623755022883,0.0132751148194075
767,2.35298352890823E-06,0.00344424392096698,0.0108018787577748,0.0141365071758628,0.00349483825266361,0.0100285364314914
768,-0.000557348597794771,0.00237808772362769,0.00729358522221446,0.0089759724214673,0.00182525510899723,0.0058590117841959
769,-0.0015366991283372,0.00146578508429229,0.00405415566638112,0.00428222352638841,-0.000721714866813272,0.00332476990297437
770,-0.00240645138546824,0.000654466974083334,0.00179094716440886,0.00138934096321464,-0.00343798915855587,0.00221593002788723
771,-0.00366780185140669,-0.000587635789997876,-7.03126061125658E-05,-0.000715886824764311,-0.00645470339804888,0.000331592949805781
772,-0.00446089962497354,-0.00146975636016577,-0.00102668558247387,-0.00189830560702831,-0.0084141343832016,-0.00194122770335525
773,-0.00370694533921778,-0.000857759499922395,-0.000773102976381779,-0.00129681755788624,-0.00830454844981432,-0.00253872619941831
774,-0.00250470358878374,0.000638891593553126,-0.00117871642578393,-0.000288369570625946,-0.00800586678087711,-0.00172180659137666
775,-0.00240591960027814,0.0017540572443977,-0.00355272181332111,-0.000602434331085533,-0.00943703111261129,-0.00123932014685124
776,-0.00247907545417547,0.00248618749901652,-0.00605360651388764,-0.00117731955833733,-0.0111007811501622,-0.000980498269200325
777,-0.00132144219242036,0.0029791200067848,-0.00679893651977181,-0.00072563934372738,-0.0109418109059334,-0.000140768941491842
778,0.000596159836277366,0.00284976279363036,-0.00640292419120669,0.000141037700814195,-0.00935118272900581,0.000606857996899635
779,0.00192932307254523,0.00191053992602974,-0.00645412039011717,0.000153704269905575,-0.00803010072559118,-0.000149352272273973
780,0.00235063442960382,0.000292644719593227,-0.00750554306432605,-0.00140324677340686,-0.00782087352126837,-0.0029602968133986
781,0.00236317655071616,-0.00198770989663899,-0.00920958910137415,-0.00452044093981385,-0.00869165454059839,-0.00753197865560651
782,0.000949156354181468,-0.00533988093957305,-0.0122258123010397,-0.00926249194890261,-0.0116173038259149,-0.0138028105720878
783,-0.00223326124250889,-0.00903279706835747,-0.0162654425948858,-0.0140240155160427,-0.0163510236889124,-0.0202926937490702
784,-0.00524290557950735,-0.0116270612925291,-0.0190160125494003,-0.016565402969718,-0.0203583259135485,-0.0247072838246822
785,-0.00676547130569816,-0.0126769375056028,-0.0194317754358053,-0.017075851559639,-0.0219771787524223,-0.0262682754546404
786,-0.00658197235316038,-0.011977237649262,-0.0182893965393305,-0.0162881631404161,-0.0210705082863569,-0.0250570308417082
787,-0.00509531982243061,-0.00969728827476501,-0.0164424441754818,-0.0144590875133872,-0.0185317937284708,-0.0221686325967312
788,-0.00362921180203557,-0.00700578931719065,-0.0148036181926727,-0.0126062985509634,-0.0162966642528772,-0.0196086168289185
789,-0.00360190635547042,-0.00532097555696964,-0.014613239094615,-0.01204823423177,-0.0161961931735277,-0.0187152791768312
790,-0.00505218049511313,-0.00521175842732191,-0.0159159302711487,-0.0125776659697294,-0.018051540479064,-0.0194671787321568
791,-0.00578053342178464,-0.00552442297339439,-0.0165019873529673,-0.0120900711044669,-0.0189642291516066,-0.0201917961239815
792,-0.00389217329211533,-0.00444558775052428,-0.0146265774965286,-0.0095076085999608,-0.0169081725180149,-0.0190808903425932
793,-0.000308820395730436,-0.00169624236878008,-0.0115905329585075,-0.00624485360458493,-0.0138870934024453,-0.0165897812694311
794,0.00240358873270452,0.000888264563400298,-0.0102649237960577,-0.0048878020606935,-0.0134325828403234,-0.0154546797275543
795,0.00191307056229562,0.000883782340679318,-0.0126105947420001,-0.00760887330397964,-0.0172801408916712,-0.0183624196797609
796,-0.00145872682332993,-0.00177943345624954,-0.0176449697464705,-0.0133046628907323,-0.0237511973828077,-0.0246331598609686
797,-0.00465818494558334,-0.0047571798786521,-0.0221560355275869,-0.0184015762060881,-0.0288737714290619,-0.0310351308435202
798,-0.00482001435011625,-0.00595030235126615,-0.0235125906765461,-0.0204622242599726,-0.0297810975462198,-0.0347078032791615
799,-0.00153004459571093,-0.00474430713802576,-0.0213343556970358,-0.0191592294722795,-0.0268928613513708,-0.0342575386166573
800,0.00278800097294152,-0.00209463946521282,-0.0177515801042318,-0.0163634829223156,-0.0231476295739412,-0.031049121171236
801,0.00458318181335926,-0.000205003656446934,-0.0164717100560665,-0.0150938471779227,-0.0220018979161978,-0.0289323683828115
802,0.00308205676265061,-0.000158637674758211,-0.018605737015605,-0.0157109629362822,-0.0240449197590351,-0.0296782031655312
803,0.00096098065841943,-0.000553039542865008,-0.0208979770541191,-0.0158835500478745,-0.025980282574892,-0.0308309588581324
804,0.000223448121687397,6.57350101391785E-05,-0.0208139549940825,-0.014730523340404,-0.0252907183021307,-0.0295861754566431
805,0.000822831760160625,0.00159140047617257,-0.0187766961753368,-0.0130061963573098,-0.0224030371755362,-0.0257565621286631
806,0.00125492177903652,0.00264460360631347,-0.0168860293924809,-0.0122508080676198,-0.0194315798580647,-0.0223577227443457
807,0.00106684386264533,0.00274239061400294,-0.0157489348202944,-0.0125144179910421,-0.0169886220246553,-0.0216152016073465
808,0.00177940190769732,0.00280478363856673,-0.0138819310814142,-0.012227101251483,-0.0138860857114196,-0.0223509222269058
809,0.00270944740623236,0.00181998824700713,-0.0129007520154119,-0.0130936373025179,-0.0122028104960918,-0.0249128434807062
810,0.00258632795885205,-0.00140701083000749,-0.0149206332862377,-0.0167934652417898,-0.0143042216077447,-0.0300365574657917
811,0.0026107591111213,-0.00512700201943517,-0.0179988369345665,-0.020602872595191,-0.0181502681225538,-0.0349960178136826
812,0.00320792500860989,-0.00772411469370127,-0.0202551931142807,-0.0224087610840797,-0.0216293185949326,-0.0379603877663612
813,0.00373007799498737,-0.00893101654946804,-0.0215349439531565,-0.0226183608174324,-0.0243940223008394,-0.0393640585243702
814,0.00338220433332026,-0.00919632613658905,-0.0226106662303209,-0.0228449739515781,-0.0270485393702984,-0.0402725525200367
815,0.00148149929009378,-0.00961491651833057,-0.0245930906385183,-0.0247477702796459,-0.0304494798183441,-0.0418539009988308
816,-0.000416141032474115,-0.0100196441635489,-0.0264836177229881,-0.0271458644419909,-0.0334445983171463,-0.0433050990104675
817,-0.000272275501629338,-0.00963777024298906,-0.026177316904068,-0.02760399132967,-0.0342615656554699,-0.0432485193014145
818,0.0014389103744179,-0.00869347061961889,-0.0237458348274231,-0.0257785338908434,-0.0329050906002522,-0.0415669903159142
819,0.00234406674280763,-0.00772274704650044,-0.0217726789414883,-0.0235388688743114,-0.0310294553637505,-0.0391959846019745
820,0.000961044046562165,-0.0070635792799294,-0.0218776129186153,-0.0226691346615553,-0.0302027128636837,-0.0379420518875122
821,-0.00150690344162285,-0.00663173012435436,-0.0225912351161242,-0.0224626418203115,-0.0301165971904993,-0.038351871073246
822,-0.0036876373924315,-0.00639642868191004,-0.0227518547326326,-0.0219669546931982,-0.0303260460495949,-0.0401196517050266
823,-0.00525677623227239,-0.00645764544606209,-0.022528288885951,-0.0219008419662714,-0.0309427082538605,-0.042964793741703
824,-0.00527330813929439,-0.00602824846282601,-0.0212643966078758,-0.0221334863454103,-0.0309022385627031,-0.0444801673293114
825,-0.00408148067072034,-0.0046225106343627,-0.0196379087865353,-0.0223863404244184,-0.030116856098175,-0.0431891605257988
826,-0.00253803422674537,-0.00238063116557896,-0.018535602837801,-0.0221377853304148,-0.0289185903966427,-0.039739690721035
827,-0.000357126264134422,0.000506045354995877,-0.0170691218227148,-0.0200222451239824,-0.026749961078167,-0.0344591401517391
828,0.000899912440218031,0.00253680790774524,-0.0161105878651142,-0.0177343990653753,-0.0252265948802233,-0.0299096703529358
829,-1.43623565236339E-05,0.00293217576108873,-0.0167156029492617,-0.0175384078174829,-0.0257519688457251,-0.0287147387862206
830,-0.00108429125975817,0.00335651799105108,-0.0174271520227194,-0.0178707577288151,-0.0266202334314585,-0.0292312577366829
831,-0.00121170643251389,0.00468144193291664,-0.017700020223856,-0.0172254089266062,-0.0267839338630438,-0.0294157825410366
832,-0.00108085968531668,0.00613974034786224,-0.0180919952690601,-0.0163489636033773,-0.0266774315387011,-0.029139120131731
833,-0.000922452774830163,0.00716689648106694,-0.018672714009881,-0.0165339559316635,-0.0267979148775339,-0.0288080982863903
834,-0.0012630510609597,0.00746962567791343,-0.0199058651924133,-0.0186005644500256,-0.0279244855046272,-0.0295892152935266
835,-0.0013538816710934,0.00726679665967822,-0.0207778997719288,-0.0209307335317135,-0.0286168064922094,-0.0314903184771538
836,0.000337848265189677,0.00715020205825567,-0.0196937415748835,-0.0212816148996353,-0.027036776766181,-0.0329799503087997
837,0.00295902695506811,0.00695741921663284,-0.0179053917527199,-0.0204743165522814,-0.024907685816288,-0.0340197347104549
838,0.00472046155482531,0.00601850263774395,-0.0177757609635592,-0.0207396205514669,-0.0245011411607265,-0.0358840338885784
839,0.00567768421024084,0.00497848633676767,-0.0193060822784901,-0.0220067854970694,-0.0254734493792057,-0.0379182659089565
840,0.00792805291712284,0.00576807884499431,-0.0197874363511801,-0.0216650832444429,-0.0257117450237274,-0.0372022204101086
841,0.011722881346941,0.00815179292112589,-0.0180871803313494,-0.0189536605030298,-0.0248267259448767,-0.0335740111768246
842,0.013160927221179,0.00899623427540064,-0.017525402829051,-0.0174241345375776,-0.0259164664894342,-0.0320958942174912
843,0.0113694537431002,0.0076201893389225,-0.0190971083939075,-0.0188328009098768,-0.0292390361428261,-0.0351550355553627
844,0.0101444767788053,0.0064660245552659,-0.0196634102612734,-0.0209937430918217,-0.031031746417284,-0.0388798415660858
845,0.0105995014309883,0.00638868752866983,-0.0188418459147215,-0.0228829476982355,-0.0305621009320021,-0.0401328466832638
846,0.0113611221313477,0.00695347366854548,-0.0181606635451317,-0.0247767046093941,-0.0296244397759438,-0.0391665138304234
847,0.0119987651705742,0.00798719748854637,-0.0178453624248505,-0.0263438783586025,-0.0289294440299273,-0.0371508710086346
848,0.0132061140611768,0.00942805595695972,-0.0173205621540546,-0.0265241432934999,-0.027866093441844,-0.0343313738703728
849,0.0149541879072785,0.0110109345987439,-0.0166508331894875,-0.025437930598855,-0.026170764118433,-0.0311938673257828
850,0.0155550986528397,0.0118122044950724,-0.0167378839105368,-0.0252191219478846,-0.0248687081038952,-0.0298305451869965
851,0.0137701984494925,0.0109513588249683,-0.0182796306908131,-0.0270282104611397,-0.0250821728259325,-0.0317205861210823
852,0.0105935698375106,0.00886597204953432,-0.0210216976702213,-0.0293108765035868,-0.0265652649104595,-0.0353075079619884
853,0.00783476699143648,0.00696060573682189,-0.0241043176501989,-0.0303276684135199,-0.0281011536717415,-0.0379853956401348
854,0.00592056754976511,0.00596785312518477,-0.027182687073946,-0.0304164458066225,-0.0291823223233223,-0.0391365736722946
855,0.00510363793000579,0.00607803091406822,-0.0290162581950426,-0.0295230746269226,-0.0290269069373608,-0.0385603159666061
856,0.00628499500453472,0.00747868372127414,-0.0276528187096119,-0.0262183845043182,-0.0262767169624567,-0.0352892875671387
857,0.00899041444063187,0.00948305800557137,-0.0239756628870964,-0.0212982092052698,-0.021608728915453,-0.0304352100938559
858,0.0103850550949574,0.0105933817103505,-0.0219888165593147,-0.0185381900519133,-0.0187742076814175,-0.0277725085616112
859,0.00933552533388138,0.0108468849211931,-0.0231268517673016,-0.0189809985458851,-0.0194641258567572,-0.0281540248543024
860,0.0086779398843646,0.0118429558351636,-0.0240905210375786,-0.0194185506552458,-0.0204670839011669,-0.0283747054636478
861,0.0100011080503464,0.0138037363067269,-0.022392651066184,-0.0179367251694202,-0.0195945594459772,-0.0268139448016882
862,0.0108518144115806,0.0147949904203415,-0.0199188888072968,-0.0164473690092564,-0.0189491827040911,-0.0254067797213793
863,0.00874828360974789,0.0132410395890474,-0.0200660470873117,-0.0177334174513817,-0.0211462303996086,-0.0265608094632626
864,0.00447367131710052,0.0102329263463616,-0.0231389887630939,-0.0212231520563364,-0.0255850702524185,-0.029927683994174
865,0.000429556384915486,0.00800550356507301,-0.0260590482503176,-0.0241038333624601,-0.0290784649550915,-0.0332314968109131
866,-0.0015222504734993,0.00763056240975857,-0.0261987578123808,-0.0250231362879276,-0.0293845254927874,-0.0342502109706402
867,-0.00140843412373215,0.00817515980452299,-0.0249562002718449,-0.0251814443618059,-0.0284529570490122,-0.0331244617700577
868,-0.000413163768826053,0.00814661663025618,-0.024683753028512,-0.0258267875760794,-0.0290261339396238,-0.031941045075655
869,0.000334332580678165,0.00731894932687283,-0.0256005004048347,-0.0266810785979033,-0.0313904248178005,-0.0316769070923328
870,-1.54703957377933E-05,0.00614071637392044,-0.0274053420871496,-0.0274264775216579,-0.0347962155938149,-0.0321696065366268
871,-0.00044693288509734,0.00543302809819579,-0.0288526229560375,-0.0273196082562208,-0.0370054952800274,-0.0321025513112545
872,0.000597433070652187,0.00562380580231547,-0.0285937134176493,-0.025612885132432,-0.0363424867391586,-0.0299846194684505
873,0.0037026337813586,0.00646658940240741,-0.0259210430085659,-0.0221106167882681,-0.0327574945986271,-0.0252550970762968
874,0.00751364883035421,0.00730615621432662,-0.0220256764441729,-0.0184851177036762,-0.0280394293367863,-0.0196700617671013
875,0.00864641275256872,0.00682545360177755,-0.020763386040926,-0.0183027982711792,-0.0265710968524218,-0.0174617432057858
876,0.00687436433508992,0.00521043315529823,-0.02274907566607,-0.0212737265974283,-0.0294434018433094,-0.0194880738854408
877,0.00586116779595613,0.00464167445898056,-0.0241526421159506,-0.0232188068330288,-0.0323696918785572,-0.0221513397991657
878,0.00728751951828599,0.0059534078463912,-0.0230057574808598,-0.0227618478238583,-0.032427616417408,-0.0235422439873219
879,0.0103256283327937,0.00837656296789646,-0.0196140855550766,-0.0208049323409796,-0.0297968592494726,-0.0234288666397333
880,0.0137275485321879,0.0110538974404335,-0.0149501953274012,-0.0181022901087999,-0.0254762303084135,-0.0212573427706957
881,0.015127626247704,0.0124722877517343,-0.0121344374492764,-0.0172788146883249,-0.0222543124109507,-0.018870847299695
882,0.013551845215261,0.011907234787941,-0.0132866622880101,-0.0197225511074066,-0.022466579452157,-0.0184202007949352
883,0.0107364235445857,0.010127860121429,-0.0167855285108089,-0.0237357243895531,-0.0249589458107948,-0.0199379529803991
884,0.00831209402531385,0.00803731940686703,-0.0199579559266567,-0.0279066190123558,-0.027032658457756,-0.022488359361887
885,0.00721297552809119,0.00701995426788926,-0.0210487637668848,-0.0305644925683737,-0.026639349758625,-0.0233631506562233
886,0.00683373957872391,0.00739779695868492,-0.0205778107047081,-0.0309986192733049,-0.024694224819541,-0.0215748101472855
887,0.00468728039413691,0.00732650235295296,-0.0216789618134499,-0.0318806543946266,-0.0250063054263592,-0.0206011738628149
888,0.000582817941904068,0.006490474101156,-0.0251684058457613,-0.0340661555528641,-0.028324943035841,-0.0219641961157322
889,-0.00269468664191663,0.00685371505096555,-0.0278977993875742,-0.0345716588199139,-0.0312390495091677,-0.0227216668426991
890,-0.00366296665742993,0.00886796694248915,-0.0281936582177877,-0.0323971398174763,-0.0316759422421455,-0.0212713088840246
891,-0.00246316683478653,0.0115999616682529,-0.0265935175120831,-0.028916185721755,-0.0298263188451529,-0.0187107250094414
892,0.000707925762981176,0.0148192709311843,-0.0233596842736006,-0.02435702085495,-0.0263771302998066,-0.015553992241621
893,0.00404361728578806,0.0174568425863981,-0.0202450659126043,-0.0199677031487226,-0.0234897453337908,-0.012825577519834
894,0.00415787659585476,0.0172433480620384,-0.0205291844904423,-0.0192612987011671,-0.0243343338370323,-0.0133375125005841
895,0.00148230220656842,0.0143624972552061,-0.023405384272337,-0.0218339525163174,-0.0280276425182819,-0.016633577644825
896,5.99692248215433E-05,0.0112764593213797,-0.0246163308620453,-0.0235890224575996,-0.0303896274417639,-0.0189729146659374
897,0.000778188928961754,0.00875781383365393,-0.0236378703266382,-0.0241541098803282,-0.0306477695703506,-0.0199267864227295
898,0.0027112876996398,0.00692292768508196,-0.0218917783349752,-0.024746511131525,-0.0294925626367331,-0.0208056904375553
899,0.00567784532904625,0.00678131030872464,-0.0193833820521832,-0.0245712418109179,-0.0265714768320322,-0.0209005922079086
900,0.00834744051098824,0.00824685115367174,-0.0168172251433134,-0.0233810376375914,-0.0230237133800983,-0.0196327622979879
901,0.00903624575585127,0.00969552341848612,-0.0156565420329571,-0.0224128253757954,-0.0210113860666752,-0.0180201213806868
902,0.00778329372406006,0.0100689744576812,-0.015963951125741,-0.0224961992353201,-0.0209129434078932,-0.0173026286065578
903,0.00661850580945611,0.0101700974628329,-0.0156674161553383,-0.0223913639783859,-0.0205210112035275,-0.0174363683909178
904,0.00626751780509949,0.0106831854209304,-0.0143794966861606,-0.0216528624296188,-0.019404599443078,-0.0183884482830763
905,0.00605550175532699,0.0116397021338344,-0.0131966453045607,-0.0213962662965059,-0.018939359113574,-0.0199678037315607
906,0.00651300419121981,0.0136360544711351,-0.0114741567522287,-0.0213839113712311,-0.0185381658375263,-0.0200445596128702
907,0.00772824650630355,0.0166372749954462,-0.00929631665349007,-0.0210912674665451,-0.0173009838908911,-0.0173361971974373
908,0.00899410247802734,0.0193610619753599,-0.00767875369638205,-0.0207032021135092,-0.0152914980426431,-0.0136459032073617
909,0.0099421190097928,0.0205923337489367,-0.00668576173484325,-0.0203284788876772,-0.0132055804133415,-0.0112068876624107
910,0.0101067051291466,0.0202356185764074,-0.00642094202339649,-0.0201221089810133,-0.01221754681319,-0.0104462374001741
911,0.00885829795151949,0.0189185589551926,-0.00780056975781918,-0.0209826957434416,-0.0131309982389212,-0.0114310346543789
912,0.00691931741312146,0.0176093094050884,-0.0106732938438654,-0.0228598564863205,-0.0151938982307911,-0.0139459883794189
913,0.00649098493158817,0.0173172298818827,-0.0130327250808477,-0.0236083772033453,-0.0164382662624121,-0.0162031929939985
914,0.00895298179239035,0.0182572603225708,-0.013475876301527,-0.0220159124583006,-0.015993682667613,-0.0163585990667343
915,0.0120204305276275,0.0187911931425333,-0.013869896531105,-0.0208513271063566,-0.0163361448794603,-0.0158416721969843
916,0.0111463870853186,0.0164788085967302,-0.0175538547337055,-0.0241815578192472,-0.0208168886601925,-0.0185269229114056
917,0.00632802117615938,0.0118172587826848,-0.0233894996345043,-0.0306024681776762,-0.0275225769728422,-0.0242596790194511
918,0.00147848506458104,0.00745852570980787,-0.0274580121040344,-0.0353858210146427,-0.0316403694450855,-0.0294080879539251
919,-0.00151107157580554,0.00500173447653651,-0.0286668743938208,-0.0368295237421989,-0.0313808247447014,-0.0320176780223846
920,-0.00309368851594627,0.00475237052887678,-0.0282404311001301,-0.0357595570385456,-0.0281703602522612,-0.0319718569517136
921,-0.00379883591085672,0.0056541170924902,-0.0281380396336317,-0.0339837186038494,-0.0252181887626648,-0.0309352725744247
922,-0.00329813850112259,0.00608050590381026,-0.0295991636812687,-0.0330583415925503,-0.0246385727077723,-0.0311050843447447
923,-0.00121237011626363,0.00579668115824461,-0.0311507545411587,-0.0327199511229992,-0.0254411604255438,-0.0321058332920074
924,0.00179753801785409,0.00574166839942336,-0.0307615678757429,-0.0320955999195576,-0.0260251089930534,-0.0315412878990173
925,0.00423809513449669,0.00616678548976779,-0.0291595384478569,-0.0314769446849823,-0.0264439508318901,-0.0286031868308783
926,0.00571553548797965,0.00667223893105984,-0.0276605598628521,-0.0310477688908577,-0.0265290811657906,-0.0248566493391991
927,0.00712624564766884,0.00735178124159575,-0.0256674848496914,-0.0297101009637117,-0.0251933410763741,-0.0216382723301649
928,0.00806388165801764,0.00789864733815193,-0.0232036076486111,-0.027947910130024,-0.0232564061880112,-0.0201215986162424
929,0.00764298066496849,0.00752998655661941,-0.0217549484223127,-0.0279879532754421,-0.0223266892135143,-0.0212487000972033
930,0.00690283579751849,0.00658247759565711,-0.0214317850768566,-0.0299839414656162,-0.0214526206254959,-0.0237601548433304
931,0.00639420142397285,0.00541727989912033,-0.0218669194728136,-0.0331073775887489,-0.0200766585767269,-0.026733985170722
932,0.00495779700577259,0.00373603776097298,-0.0234506633132696,-0.037262786179781,-0.0199904572218657,-0.031094703823328
933,0.00297377188690007,0.00242328178137541,-0.0251125730574131,-0.0408057682216167,-0.0210471116006374,-0.0357862487435341
934,0.00198980048298836,0.00261618359945714,-0.0254678130149841,-0.0416111350059509,-0.0213869865983725,-0.0378609411418438
935,0.00260328664444387,0.00393169652670622,-0.0244084112346172,-0.0395519770681858,-0.0206548925489187,-0.0363975688815117
936,0.00495881540700793,0.00550373969599605,-0.0220012348145247,-0.0357756651937962,-0.0190756190568209,-0.0329066663980484
937,0.00852722208946943,0.00702959299087524,-0.0189384315162897,-0.0319406278431416,-0.0169869605451822,-0.0294290389865637
938,0.0120579358190298,0.00854662992060184,-0.0167113207280636,-0.0295727699995041,-0.0153187271207571,-0.0272609144449234
939,0.0148219065740705,0.0100161554291844,-0.015791954472661,-0.0285487305372953,-0.0142928883433342,-0.0263481941074133
940,0.0166715122759342,0.0111757451668382,-0.0155485365539789,-0.0276999529451132,-0.0136421602219343,-0.0260045547038317
941,0.0168526470661163,0.0115975793451071,-0.0162290278822184,-0.0270793884992599,-0.0143213830888271,-0.0262313634157181
942,0.0147205740213394,0.0111448829993606,-0.0183404721319675,-0.0271226391196251,-0.0169163662940264,-0.0272703524678946
943,0.0107647720724344,0.00991348549723625,-0.0213255248963833,-0.0279795601963997,-0.0204611290246248,-0.0294627621769905
944,0.00684675248339772,0.00835416279733181,-0.0237165708094835,-0.0293607953935862,-0.023608610033989,-0.0319400168955326
945,0.00559318950399756,0.0075106555595994,-0.0240804385393858,-0.0297375191003084,-0.024804862216115,-0.0322114899754524
946,0.00771985622122884,0.00789353810250759,-0.0220755636692047,-0.028307817876339,-0.0227444004267454,-0.0299142226576805
947,0.0109131224453449,0.0088412631303072,-0.0186378732323647,-0.0262766946107149,-0.0181921496987343,-0.0272418260574341
948,0.0119742406532168,0.00902989134192467,-0.0158885829150677,-0.0257510263472795,-0.014163532294333,-0.0265910420566797
949,0.0101271774619818,0.00788698252290487,-0.0151832140982151,-0.0271484553813934,-0.0127210095524788,-0.0283458381891251
950,0.00723883416503668,0.00629894295707345,-0.0160110983997583,-0.0285378191620111,-0.0134118385612965,-0.0303305145353079
951,0.00552394241094589,0.00545654911547899,-0.0168942045420408,-0.0281005389988422,-0.014336503110826,-0.0305681340396404
952,0.00560046965256333,0.00573257496580482,-0.017130184918642,-0.0262527149170637,-0.0144516648724675,-0.0292769744992256
953,0.00637565460056067,0.00641522789373994,-0.0175557974725962,-0.0249758195132017,-0.0142301544547081,-0.0281410366296768
954,0.00742525234818459,0.00691104726865888,-0.0175847057253122,-0.0242188777774572,-0.0132270492613316,-0.027418689802289
955,0.00843355618417263,0.0072551304474473,-0.0160265862941742,-0.0227802060544491,-0.0113937398418784,-0.0261388290673494
956,0.00790634099394083,0.00749286497011781,-0.0143684390932322,-0.021116741001606,-0.0107968114316463,-0.0244113150984049
957,0.00528249377384782,0.00773975718766451,-0.0144453840330243,-0.0198060516268015,-0.0127341765910387,-0.0228234771639109
958,0.00157010788097978,0.00775418430566788,-0.0161947309970856,-0.0191634241491556,-0.0163978338241577,-0.0223679710179567
959,-0.00111423176713288,0.00760107673704624,-0.0180027224123478,-0.0188336856663227,-0.0196749046444893,-0.023172790184617
960,-0.000673012807965279,0.00808894261717796,-0.0179401859641075,-0.0171837937086821,-0.0203678160905838,-0.023168059065938
961,0.00256051449105144,0.0095600476488471,-0.0158980712294579,-0.0134571837261319,-0.0182860270142555,-0.0210645589977503
962,0.00602782052010298,0.0114505086094141,-0.013310662470758,-0.00900451373308897,-0.015291634015739,-0.0182310529053211
963,0.0072804419323802,0.0125536862760782,-0.0116952070966363,-0.00651644263416529,-0.0135802822187543,-0.0167055241763592
964,0.00571563467383385,0.0120330294594169,-0.0122502753511071,-0.00771300634369254,-0.0143839875236154,-0.0171546004712582
965,0.00310503761284053,0.0102358059957623,-0.014324008487165,-0.0112832607701421,-0.0165946744382381,-0.0187937933951616
966,0.00172378867864609,0.00829408317804337,-0.0157362706959248,-0.0144679704681039,-0.0177672393620014,-0.0203588660806417
967,0.00172418903093785,0.00700677232816815,-0.0156709011644125,-0.0161119867116213,-0.0172119848430157,-0.021328017115593
968,0.00233752513304353,0.00641593663021922,-0.0142373256385326,-0.0163248423486948,-0.0151656903326511,-0.0217481777071953
969,0.0032263717148453,0.00609801523387432,-0.0118627594783902,-0.0155443185940385,-0.0117691783234477,-0.0216833669692278
