,AF3,AF4,Fp1,Fp2,AF7,AF8
0,0.00380565086379647,0.00103649403899908,0.000517646956723183,0.00267706462182105,-0.00690112123265862,0.0150176649913192
1,0.00119531061500311,0.000290140829747543,-0.00125778722576797,0.00212360476143658,-0.0078550698235631,0.0132379857823253
2,-0.000814296130556613,-4.99708621646278E-05,-0.000237682324950583,0.00239990558475256,-0.00603466853499413,0.0118468664586544
3,-0.00177372782491148,-0.000177969137439504,0.00146573036909103,0.00170500343665481,-0.00336117180995643,0.0104720117524266
4,-0.0017657910939306,-0.000459991511888802,0.00129077187739313,-0.00100811815354973,-0.00258600176312029,0.00869892444461584
5,-0.00161544233560562,-0.00123420893214643,-0.00124173576477915,-0.0054758582264185,-0.00460713729262352,0.00723895244300365
6,-0.00211006519384682,-0.00251549459062517,-0.00475428346544504,-0.0100178113207221,-0.00814974494278431,0.00701152486726642
7,-0.00352224544622004,-0.00401990627869964,-0.00781348813325167,-0.0132831996306777,-0.0120107037946582,0.00712868571281433
8,-0.00539166899397969,-0.00525434222072363,-0.00952474493533373,-0.014832747168839,-0.0155600672587752,0.006693703122437
9,-0.0067613716237247,-0.0060005309060216,-0.00968177989125252,-0.0147081548348069,-0.017784109339118,0.00614272383973002
10,-0.00671195145696402,-0.00611361768096685,-0.00838444754481316,-0.0131002049893141,-0.018043989315629,0.00631651980802417
11,-0.00543572148308158,-0.00588484993204474,-0.00605651270598173,-0.0107382852584124,-0.0173964854329824,0.00714750541374087
12,-0.00492681795731187,-0.00665461597964168,-0.00464744865894318,-0.00965577177703381,-0.0181873999536037,0.00726687023416162
13,-0.00636080512776971,-0.00910904724150896,-0.00536308623850346,-0.010930041782558,-0.0207543130964041,0.00579629838466644
14,-0.00720418896526098,-0.0120788216590881,-0.006035340949893,-0.012409582734108,-0.0213291421532631,0.00409463467076421
15,-0.00541752856224775,-0.014378004707396,-0.0053416476584971,-0.0124588636681437,-0.0171037577092648,0.003701580921188
16,-0.00295900390483439,-0.0157579611986876,-0.00480147730559111,-0.0122229000553489,-0.0100707681849599,0.00421945843845606
17,-0.00212379288859665,-0.0159630160778761,-0.00465640611946583,-0.0123991277068853,-0.00381496106274426,0.0048884735442698
18,-0.00295942439697683,-0.0151043720543385,-0.00354429613798857,-0.0126122692599893,-0.000693680020049214,0.00550387473776937
19,-0.00379318627528846,-0.0138010969385505,-0.0010460710618645,-0.0121732456609607,-0.00117593060713261,0.00676054274663329
20,-0.00354453944601119,-0.012584594078362,0.00138491217512637,-0.0105175049975514,-0.00488040549680591,0.00915529858320951
21,-0.00248151132836938,-0.0115386303514242,0.00206320150755346,-0.0078422911465168,-0.0107716741040349,0.0108968885615468
22,-0.000653782160952687,-0.0103348325937986,0.00179473555181175,-0.00492187030613422,-0.0155815463513136,0.0104218609631062
23,0.0011373539455235,-0.0091530354693532,0.00210123532451689,-0.0034756395034492,-0.0168450400233269,0.0087123978883028
24,0.000692049157805741,-0.00853834766894579,0.00184763094875962,-0.00505286501720548,-0.016489552333951,0.00713013624772429
25,-0.00285838404670358,-0.00886062998324633,-0.000721705728210509,-0.0092051737010479,-0.017635140568018,0.0056900936178863
26,-0.00716614862903953,-0.00963517837226391,-0.00417669536545873,-0.0133620817214251,-0.0201414059847593,0.0048943143337965
27,-0.00962749309837818,-0.00963386427611113,-0.00614106142893434,-0.0155715961009264,-0.0221762768924236,0.00546970963478088
28,-0.0100466944277287,-0.00859978515654802,-0.00641827983781695,-0.0161238219588995,-0.023067669942975,0.0065349698998034
29,-0.00931302551180124,-0.00736110750585794,-0.0061096204444766,-0.016032762825489,-0.0228643976151943,0.00699863629415631
30,-0.008118343539536,-0.00630889972671866,-0.00589819019660354,-0.0158396735787392,-0.0215295981615782,0.00675816601142287
31,-0.00683356123045087,-0.00522299716249108,-0.0053297053091228,-0.0152703654021025,-0.0195655785501003,0.00643951259553432
32,-0.00548557424917817,-0.00419120164588094,-0.00427894853055477,-0.0137863829731941,-0.0185291431844234,0.00669850362464786
33,-0.00437586707994342,-0.00383557635359466,-0.00384536175988615,-0.011757398955524,-0.0196139626204968,0.00703844986855984
34,-0.00429359637200832,-0.00489240093156695,-0.00510068703442812,-0.0108513990417123,-0.0223254077136517,0.00543544674292207
35,-0.00423022452741861,-0.00687780464068055,-0.00707888603210449,-0.0115641681477427,-0.0242838449776173,0.00121315743308514
36,-0.00279153720475733,-0.00859552994370461,-0.0082436827942729,-0.01290338113904,-0.0239842738956213,-0.00390165043063462
37,-0.00178608996793628,-0.0096593527123332,-0.00919938553124666,-0.0144531223922968,-0.0230175852775574,-0.00824041571468115
38,-0.00399422738701105,-0.0100858081132174,-0.0110839772969484,-0.0163179114460945,-0.0232803896069527,-0.0111965453252196
39,-0.00869250483810902,-0.00973223056644201,-0.0126584526151419,-0.0176745187491179,-0.0237679835408926,-0.0123855397105217
40,-0.0117668509483337,-0.00804925709962845,-0.0112191298976541,-0.0163353644311428,-0.0218557342886925,-0.0109070632606745
41,-0.0108037097379565,-0.00486622890457511,-0.00671699224039912,-0.0119753684848547,-0.0170859098434448,-0.00686989724636078
42,-0.00778226228430867,-0.00168654532171786,-0.00253822142258286,-0.00791355781257153,-0.0119474688544869,-0.00245831534266472
43,-0.00635501509532332,-0.000498441513627768,-0.00218634097836912,-0.00774279143661261,-0.00962167885154486,-0.00074551091529429
44,-0.00743616558611393,-0.0012856392422691,-0.00531678088009357,-0.0113310441374779,-0.0108079165220261,-0.00284319906495512
45,-0.00872134044766426,-0.00253708590753376,-0.00778970401734114,-0.0153006492182612,-0.0132490657269955,-0.00590092223137617
46,-0.00829232670366764,-0.00325624621473253,-0.00705656409263611,-0.0171249862760305,-0.0148606514558196,-0.00641398970037699
47,-0.00682124914601445,-0.00358237116597593,-0.00499387132003903,-0.0171814002096653,-0.0161172635853291,-0.00427288794890046
48,-0.00618742639198899,-0.00380315189249814,-0.00463377824053168,-0.0171431209892035,-0.0189837515354156,-0.00180783332325518
49,-0.006910708732903,-0.00364805106073618,-0.00677420012652874,-0.0181235894560814,-0.0240502264350653,-0.00127091852482408
50,-0.0078932736068964,-0.00304909842088819,-0.00991048384457827,-0.0195065643638372,-0.0290551446378231,-0.00281176110729575
51,-0.00801942963153124,-0.00203259312547743,-0.0118173602968454,-0.0194739382714033,-0.0303581934422255,-0.00442440342158079
52,-0.00768007477745414,-0.000636572192888707,-0.0119082406163216,-0.0179564971476793,-0.0274944622069597,-0.00507885776460171
53,-0.00774130551144481,0.000977518386207521,-0.0113924285396934,-0.0164405535906553,-0.0240006092935801,-0.00532185891643167
54,-0.00822494272142649,0.00263543310575187,-0.0111387772485614,-0.0156076410785317,-0.0226599257439375,-0.00574212381616235
55,-0.00823806971311569,0.00437118485569954,-0.0101472493261099,-0.014391559176147,-0.0224451776593924,-0.00570313353091478
56,-0.0079162335023284,0.00591760408133268,-0.00821732357144356,-0.0127207404002547,-0.0222730934619904,-0.00486176833510399
57,-0.00897506531327963,0.00640112906694412,-0.00751434965059161,-0.0127862701192498,-0.0236916579306126,-0.0048896330408752
58,-0.010399735532701,0.00609212042763829,-0.00782168842852116,-0.013913257047534,-0.0256533324718475,-0.0054277298040688
59,-0.0102026024833322,0.0057364827953279,-0.00771478796377778,-0.0141216497868299,-0.0257330797612667,-0.00477383192628622
60,-0.00888833496719599,0.00553178088739514,-0.00777891138568521,-0.0136282201856375,-0.0249000117182732,-0.00330577697604895
61,-0.00749683612957597,0.00589752476662397,-0.00803390890359879,-0.0124784130603075,-0.0239681899547577,-0.00166204338893294
62,-0.00749544706195593,0.00654251175001264,-0.00775971123948693,-0.0111280288547277,-0.021834883838892,-0.000445345096522942
63,-0.00949272140860558,0.00655717728659511,-0.00686822319403291,-0.0103834606707096,-0.0184556506574154,-0.000389325665310025
64,-0.0116547560319304,0.00543481903150678,-0.00612123683094978,-0.00951073318719864,-0.015871649608016,-0.00172536063473672
65,-0.0117169432342052,0.00352533673867583,-0.00573878549039364,-0.00687216408550739,-0.0154712442308664,-0.00366430100984871
66,-0.0093491617590189,0.00170414068270475,-0.00487850233912468,-0.0030349250882864,-0.01626399718225,-0.004567866679281
67,-0.0069599230773747,3.40527658408973E-05,-0.00439420435577631,-0.00215368717908859,-0.0174139160662889,-0.00460096495226026
68,-0.00602201139554381,-0.00131156865973026,-0.00551419099792838,-0.00620880722999573,-0.0187633261084557,-0.00501871993765235
69,-0.00550337554886937,-0.00129708496388048,-0.00736059155315161,-0.0119072292000055,-0.0196224562823772,-0.005521634593606
70,-0.00521484483033419,0.000462535652332008,-0.00919385720044374,-0.0160182174295187,-0.0195072628557682,-0.00548016699030995
71,-0.00563761545345187,0.00291276397183537,-0.0109030976891518,-0.0181244257837534,-0.0183575749397278,-0.00515447882935405
72,-0.00658302195370197,0.00477033527567983,-0.0114299980923533,-0.0187849421054125,-0.0161298532038927,-0.00481868349015713
73,-0.00667618215084076,0.00633433414623141,-0.00936247780919075,-0.0177362337708473,-0.0127236200496554,-0.00368600222282112
74,-0.00505578052252531,0.00837571080774069,-0.00535711087286472,-0.0149010550230742,-0.00935292802751064,-0.00161373242735863
75,-0.00401047291234136,0.0102321822196245,-0.0024106812197715,-0.0119535671547055,-0.00818617362529039,-0.000240218156250194
76,-0.00538233015686274,0.0112554766237736,-0.00207304209470749,-0.00976512860506773,-0.00929135642945766,-3.00237206829479E-05
77,-0.00725983828306198,0.0123187741264701,-0.00208948249928653,-0.00702426722273231,-0.0101315518841147,0.000515543972142041
78,-0.00668056216090918,0.0145062580704689,0.000689931912347674,-0.00252529070712626,-0.00777293089777231,0.00282395072281361
79,-0.00416518561542034,0.0172134563326836,0.00534761603921652,0.00196441728621721,-0.00306791043840349,0.00610330887138844
80,-0.003576799063012,0.0184336137026548,0.00764733832329512,0.00262654526159167,-0.000769339734688401,0.00774362869560719
81,-0.00593643402680755,0.017371904104948,0.00626036431640387,-0.00107700820080936,-0.00202624290250242,0.00644282205030322
82,-0.00732062850147486,0.0158987604081631,0.00415917625650764,-0.00523564126342535,-0.00266328640282154,0.00359937152825296
83,-0.00514517864212394,0.0157714542001486,0.00365348276682198,-0.00677797803655267,-0.00120465876534581,0.00118151248898357
84,-0.00176811777055264,0.0157671347260475,0.00374341174028814,-0.00689808279275894,-0.00120945973321795,-0.00126258307136595
85,0.00043214758625254,0.0143637247383595,0.0033122634049505,-0.00728754512965679,-0.00446011126041412,-0.00431675696745515
86,0.00217726826667786,0.0127201462164521,0.00345933763310313,-0.00666835764423013,-0.00839794520288706,-0.00590292876586318
87,0.00363013823516667,0.0121513418853283,0.0045470236800611,-0.0043305205181241,-0.0109296943992376,-0.0044383336789906
88,0.00307992566376925,0.0118929538875818,0.00509033119305968,-0.00229888176545501,-0.0123027572408319,-0.00102926336694509
89,-6.45329055259936E-05,0.0107575422152877,0.00484287925064564,-0.00151356752030551,-0.0127066373825073,0.00255678803659976
90,-0.00429538078606129,0.00865052733570337,0.0049950247630477,-0.00100776855833828,-0.0115863848477602,0.00490527274087071
91,-0.00726685486733913,0.00608954532071948,0.00606066407635808,-0.000993750989437103,-0.00888737570494413,0.00407026847824454
92,-0.00834032893180847,0.00307521945796907,0.00664519425481558,-0.00393256358802319,-0.0066509461030364,-0.00217053457163274
93,-0.00847242586314678,0.000444971257820725,0.00496174488216639,-0.0107623534277081,-0.00685633486136794,-0.0120503734797239
94,-0.00712417811155319,0.000843455898575485,0.00240194494836032,-0.0164474006742239,-0.00753994984552264,-0.0176548417657614
95,-0.00391679303720593,0.00482972944155335,0.00163354526739568,-0.0158330015838146,-0.0060839825309813,-0.0140528436750174
96,-0.000753991713281721,0.0091950474306941,0.00264970446005464,-0.0106344502419233,-0.00324087706394494,-0.00565490033477545
97,0.000667238899040967,0.0109634781256318,0.00387081177905202,-0.00544678140431643,-0.000992938410490751,0.000997134950011969
98,0.000676110154017806,0.0104255257174373,0.0046938550658524,-0.00222013471648097,0.000356868462404236,0.00418195081874728
99,0.000660607707686722,0.0097555136308074,0.00573281059041619,-0.000243405025685206,0.00195320905186236,0.00559918256476521
100,0.000561434426344931,0.00958145875483751,0.00702475383877754,0.000795478699728847,0.00385203002952039,0.00585639663040638
101,-0.000919111596886069,0.00867856293916702,0.0077574709430337,0.000135036345454864,0.00535738235339522,0.00404149945825338
102,-0.00338581739924848,0.00678340531885624,0.00759907532483339,-0.00216575735248625,0.00627989415079355,0.000367990141967312
103,-0.00532932719215751,0.00511483987793326,0.00653173914179206,-0.00531240692362189,0.00614768359810114,-0.00409723492339253
104,-0.00595368165522814,0.00444595422595739,0.00461428984999657,-0.00828913133591414,0.00485644163563848,-0.00824537873268127
105,-0.00517165614292026,0.00437754718586802,0.00220279977656901,-0.0100312689319253,0.00299759139306843,-0.0107365678995848
106,-0.00398410577327013,0.00427519157528877,-0.000546063587535173,-0.0104921739548445,0.000661767204292119,-0.0113257803022861
107,-0.00405446952208877,0.00380392000079155,-0.00382922985590994,-0.0111177386716008,-0.00269977119751275,-0.0117671862244606
108,-0.00512432027608156,0.00359805300831795,-0.00663984194397926,-0.0122262723743916,-0.00605500349774957,-0.0126144327223301
109,-0.00511051388457417,0.00482222530990839,-0.00703160790726542,-0.0114900451153517,-0.00681904843077064,-0.0115600619465113
110,-0.00404631905257702,0.00691299373283982,-0.00553308753296733,-0.00838075391948223,-0.00564946746453643,-0.00844567827880383
111,-0.00321866292506456,0.00828790944069624,-0.00389554863795638,-0.005089505109936,-0.00528671639040113,-0.00577516946941614
112,-0.0025054479483515,0.00813703145831823,-0.00261851656250656,-0.00316362362354994,-0.00606295466423035,-0.00497142411768436
113,-0.000855558959301561,0.00717455102130771,-0.00109458260703832,-0.00175184558611363,-0.0061572352424264,-0.00536301545798779
114,0.00207141856662929,0.00673262355849147,0.00129717611707747,0.000953042472247034,-0.00407550157979131,-0.00549055868759751
115,0.0039519346319139,0.00628746254369617,0.00297658215276897,0.00290499697439373,-0.00151602947153151,-0.00633161282166839
116,0.00234527117572725,0.00501469429582357,0.00256770104169846,0.000779441208578646,-0.000739757670089602,-0.00894499570131302
117,-0.00209070718847215,0.00370667967945337,0.00110917293932289,-0.00401425221934915,-0.00168503995519131,-0.0109317246824503
118,-0.00604776572436094,0.00302980304695666,2.51788696914446E-05,-0.00756442127749324,-0.00345991249196231,-0.0100742913782597
119,-0.0063543994911015,0.00304704601876438,0.000224008923396468,-0.00773851852864027,-0.00473655806854367,-0.00689806649461389
120,-0.00383993308059871,0.00351609499193728,0.00150753126945347,-0.00575295556336641,-0.00544191710650921,-0.00355421681888402
121,-0.00223070289939642,0.00372750149108469,0.00234308000653982,-0.00450227223336697,-0.00786030571907759,-0.00208736048080027
122,-0.00357426679693162,0.00312616443261504,0.00126672454643995,-0.00558148976415396,-0.0137387849390507,-0.00301103550009429
123,-0.00655359122902155,0.00182887713890523,-0.0012268244754523,-0.008353341370821,-0.0213445536792278,-0.00538358045741916
124,-0.00849522557109594,0.00100355828180909,-0.00268788519315422,-0.0101684024557471,-0.0264398418366909,-0.00683270813897252
125,-0.00885478872805834,0.00166453456040472,-0.00147920555900782,-0.00892888568341732,-0.0264521241188049,-0.005502306856215
126,-0.00873520225286484,0.0033144352491945,0.00229224609211087,-0.00506057497113943,-0.0218389704823494,-0.00228902534581721
127,-0.00826478376984596,0.00472997082397342,0.00729278707876801,-0.000339458114467561,-0.0152241298928857,0.00099751353263855
128,-0.00712846126407385,0.00521185202524066,0.0112200221046805,0.00321828294545412,-0.00980439316481352,0.00353518594056368
129,-0.005875991191715,0.00491025298833847,0.0122798094525933,0.00401610787957907,-0.00683722505345941,0.00459431111812592
130,-0.00516777019947767,0.00413229921832681,0.0103013105690479,0.0021066926419735,-0.00590716954320669,0.00358393532224
131,-0.00488096429035068,0.00302808452397585,0.00670073460787535,-0.00074180745286867,-0.00606281589716673,0.0011223127366975
132,-0.00467624329030514,0.00198672967962921,0.00365122989751399,-0.00283130863681436,-0.00609981548041105,-0.00126541091594845
133,-0.00456368597224355,0.00150159338954836,0.00242182589136064,-0.00309728132560849,-0.00568332290276885,-0.00228067021816969
134,-0.0046804565936327,0.00168832880444825,0.00283501902595162,-0.00119348440784961,-0.00525150122120976,-0.00193512567784637
135,-0.00557115394622087,0.00187291367910802,0.00386620406061411,0.00102462363429368,-0.00491560576483607,-0.00181150750722736
136,-0.00729756150394678,0.00163166085258126,0.00486343121156096,0.00197491538710892,-0.00364750763401389,-0.00208549713715911
137,-0.00827489793300629,0.00177555053960532,0.00625054258853197,0.00244252919219434,-1.78226200659992E-05,-0.00093707611085847
138,-0.00772893987596035,0.00254637678153813,0.00750890513882041,0.00228736759163439,0.00481488602235913,0.00141965562943369
139,-0.00696006882935762,0.0031111657153815,0.00697762239724398,0.000897952762898058,0.00790189858525991,0.0031983582302928
140,-0.0067041371949017,0.00352826132439077,0.00473683094605803,-0.000666652049403638,0.0089545426890254,0.00392101425677538
141,-0.00580753339454532,0.00504003884270787,0.00320685678161681,-0.000535172293893993,0.0101812528446317,0.00514091039076447
142,-0.00362902041524649,0.00778035586699843,0.00406509591266513,0.00254176487214863,0.0117194447666407,0.00829474348574877
143,-0.00100731139536947,0.0103741381317377,0.00691573135554791,0.0080734845250845,0.012046723626554,0.0128296790644526
144,0.000314467441057786,0.01134860701859,0.0097876638174057,0.013272313401103,0.0103805717080832,0.0166205130517483
145,-3.28488531522453E-05,0.0106370775029063,0.0118893291801214,0.0162833258509636,0.00819848105311394,0.0185094457119703
146,-0.000591859803535044,0.00944605190306902,0.0143533358350396,0.0175974871963263,0.00812567584216595,0.0190115608274937
147,-0.0020519751124084,0.00755366031080484,0.0156210148707032,0.0160524565726519,0.00882749259471893,0.0169620644301176
148,-0.00437535112723708,0.00497125601395965,0.0145409908145666,0.01209129486233,0.0087064616382122,0.0128767834976316
149,-0.00549854896962643,0.00309754139743745,0.012788207270205,0.00902347546070814,0.00877723470330238,0.0102654481306672
150,-0.00597258750349283,0.00161585339810699,0.0106285801157355,0.00730216782540083,0.00827732495963573,0.00946150440722704
151,-0.0068798940628767,-0.000318662088830024,0.00857378914952278,0.00637356424704194,0.0072557469829917,0.00921842083334923
152,-0.00760397082194686,-0.00241564936004579,0.00801923498511314,0.00674566626548767,0.00745249539613724,0.00962091702967882
153,-0.00815204437822104,-0.00470041297376156,0.00815826095640659,0.00756200170144439,0.0073962239548564,0.00933138839900494
154,-0.00833597593009472,-0.00692799920216203,0.00835216231644154,0.00773930503055453,0.0055916290730238,0.00695280404761434
155,-0.00663417857140303,-0.00831587240099907,0.0094137080013752,0.00726551888510585,0.00425706570968032,0.00392816308885813
156,-0.00278778863139451,-0.00846436060965061,0.0110588911920786,0.00668720388785005,0.00566326407715678,0.00287010823376477
157,0.000938120356295258,-0.00738983042538166,0.0124692311510444,0.00651266006752849,0.00971348956227303,0.00438930373638868
158,0.0016842921031639,-0.00611118460074067,0.0127105806022882,0.00611983938142657,0.0135597884654999,0.0064817862585187
159,-0.0014687126968056,-0.00600036140531302,0.0107334535568953,0.00445097964257002,0.0137826213613153,0.00707437982782722
160,-0.00579049764201045,-0.00670911371707916,0.00760585907846689,0.00218488555401564,0.0107697518542409,0.00663543911650777
161,-0.00726478174328804,-0.00644920906051993,0.00611165910959244,0.00165739038493484,0.00780189223587513,0.00767342746257782
162,-0.00587661238387227,-0.00480027310550213,0.00667708599939942,0.00309034273959696,0.00611981749534607,0.0105049638077617
163,-0.00477724010124803,-0.00337883573956788,0.00697090942412615,0.00416469294577837,0.00444652698934078,0.0124710984528065
164,-0.00463908724486828,-0.00315657560713589,0.00632899673655629,0.00446119951084256,0.00263278908096254,0.0125592211261392
165,-0.00372840324416757,-0.0035303314216435,0.00598905608057976,0.0047157434746623,0.00144255277700722,0.0118414079770446
166,-0.00121199886780232,-0.00374947488307953,0.00647122040390968,0.0047893151640892,0.000782980408985168,0.0114411106333137
167,0.00215447368100286,-0.00371513492427766,0.0071533708833158,0.00479319272562861,0.000303022417938337,0.0121716530993581
168,0.00463994545862079,-0.00398980872705579,0.00671776197850704,0.00453508831560612,-0.000511962804012001,0.0136715080589056
169,0.00585644505918026,-0.00452566659078002,0.00571563933044672,0.00447627203539014,-0.00069091678597033,0.0156416017562151
170,0.00728857796639204,-0.00389422592706978,0.00671915058046579,0.0062093697488308,0.00270185968838632,0.0187963061034679
171,0.00834468100219965,-0.00237345183268189,0.00930256675928831,0.00838526338338852,0.00890880730003119,0.0213525183498859
172,0.00626871641725302,-0.00270384596660733,0.00969255436211824,0.00709043117240071,0.0125148976221681,0.0190527625381947
173,0.00162929866928607,-0.00499362731352448,0.00714060012251139,0.00269831996411085,0.0109241297468543,0.0123266261070967
174,-0.00218205037526786,-0.00643582548946142,0.00440056389197707,-0.0011239267187193,0.00589386001229286,0.00620990293100476
175,-0.00444551790133119,-0.00623253174126148,0.00233293045312166,-0.00379736814647913,-0.000314939999952912,0.00317872944287956
176,-0.00637601688504219,-0.00569029012694955,0.000322703854180872,-0.00598561204969883,-0.00572565570473671,0.00287994090467691
177,-0.00706748431548476,-0.00505540566518903,-0.000134473899379373,-0.00595305860042572,-0.00824000686407089,0.00510486029088497
178,-0.00539184035733342,-0.00399076426401734,0.00188780704047531,-0.00324620050378144,-0.00752531411126256,0.00844400376081467
179,-0.00292311538942158,-0.00316553795710206,0.00413579028099775,-0.000907269888557494,-0.00602495484054089,0.010132166557014
180,-0.00117168331053108,-0.00282829464413226,0.00494251353666186,-0.000836639199405909,-0.00545899616554379,0.00982144009321928
181,0.000464580371044576,-0.00209414795972407,0.00495958048850298,-0.001900220871903,-0.0058512189425528,0.00947478041052818
182,0.00244729709811509,-0.000722852651961148,0.0046451915986836,-0.00301938294433057,-0.00747350184246898,0.00956179760396481
183,0.00421050563454628,0.000566942151635885,0.00367747014388442,-0.00413780799135566,-0.00974028371274471,0.00933148059993982
184,0.00606604991480708,0.00161342800129205,0.00252059870399535,-0.00480509968474507,-0.0108668999746442,0.00919099617749453
185,0.00804111082106829,0.00262873596511781,0.00170317164156586,-0.00499724503606558,-0.0104467552155256,0.00975601002573967
186,0.00846503488719463,0.0034646955318749,0.0004896245081909,-0.00588491512462497,-0.0101563557982445,0.0106538310647011
187,0.00685096625238657,0.00405175238847733,-0.00131693959701806,-0.00780390901491046,-0.0107790939509869,0.0116154327988625
188,0.00465628644451499,0.00454471819102764,-0.00190639903303236,-0.00937609747052193,-0.0106101213023067,0.0129591431468725
189,0.00290624634362757,0.00511325150728226,0.00041837157914415,-0.00914376974105835,-0.00830776151269674,0.0147530399262905
190,0.00194060744252056,0.0056907432153821,0.00437392992898822,-0.00729193864390254,-0.00506223971024156,0.0165349170565605
191,0.00220111897215247,0.00584955327212811,0.00678503653034568,-0.00555171677842736,-0.00268595293164253,0.0175583865493536
192,0.00294855865649879,0.0050233150832355,0.00616506021469831,-0.00486431457102299,-0.00199893163517118,0.0169448647648096
193,0.00274461414664984,0.00301698734983802,0.00370120746083558,-0.00475582294166088,-0.0029013988096267,0.0142259011045098
194,0.00173938658554107,0.000582336273510009,0.00157418358139694,-0.00496170902624726,-0.00455312617123127,0.0104200933128595
195,0.000433047593105584,-0.00162510701920837,0.000416783295804635,-0.00581868132576346,-0.00659884698688984,0.0069908183068037
196,-0.000623453583102673,-0.00373614486306906,-0.000171020190464333,-0.0072434339672327,-0.00848074536770582,0.00430450960993767
197,1.07333753476269E-05,-0.00562460860237479,0.00024926321930252,-0.00832392461597919,-0.0087957289069891,0.00320673733949661
198,0.00218638684600592,-0.00709138810634613,0.00143822759855539,-0.0087352842092514,-0.0076754461042583,0.00443203933537006
199,0.00444075092673302,-0.00796813052147627,0.00256787450052798,-0.00874215550720692,-0.00626579113304615,0.00662775291129947
200,0.00554023496806622,-0.00844363309442997,0.00353875337168574,-0.00856566336005926,-0.00533738732337952,0.00771579565480351
201,0.00529881054535508,-0.00891705509275198,0.00506251165643334,-0.00765715725719929,-0.00459534907713532,0.00779517041519284
202,0.00586971594020724,-0.00885794591158628,0.00828962121158838,-0.00435416307300329,-0.0021080553997308,0.00894917733967304
203,0.00877384562045336,-0.00763908959925175,0.0130055639892817,0.00135647936258465,0.0026040559168905,0.0118983127176762
204,0.0121642248705029,-0.00551507016643882,0.0170127134770155,0.00666999584063888,0.00689616659656167,0.0151282027363777
205,0.0125497784465551,-0.00396786071360111,0.0174807291477919,0.00801196973770857,0.00779606914147735,0.0156462378799915
206,0.00903624482452869,-0.00450992165133357,0.0138827664777637,0.00438854610547423,0.00485401879996061,0.0115635469555855
207,0.00427299411967397,-0.00674076797440648,0.00865552015602589,-0.0018700408982113,-0.000370776309864596,0.00475405482575297
208,0.00169185339473188,-0.00884401425719261,0.00484093045815825,-0.00721988221630454,-0.00472511444240808,-0.000468580721644685
209,0.00250548520125449,-0.0100046694278717,0.00346541358157992,-0.00975050218403339,-0.00578267173841596,-0.00161528773605824
210,0.00443367240950465,-0.0109560713171959,0.00267801666632295,-0.0105677824467421,-0.00510643655434251,-0.000420843600295484
211,0.00575472181662917,-0.0116675840690732,0.00140424212440848,-0.0102753508836031,-0.00417326064780355,0.000955805939156562
212,0.00635219272226095,-0.012243814766407,-0.000249473814619705,-0.00957806129008532,-0.0030532474629581,0.00110983557533473
213,0.00621748063713312,-0.0134275164455175,-0.00243342434987426,-0.010325743816793,-0.00230747950263321,-0.000623590894974768
214,0.00516733340919018,-0.0145294470712543,-0.00513591663911939,-0.0126026459038258,-0.00271512684412301,-0.00256087444722652
215,0.00332944444380701,-0.0139615181833506,-0.00713459216058254,-0.0142773920670152,-0.00397170102223754,-0.00239430950023234
216,0.00207637087441981,-0.0110554127022624,-0.00618778867647052,-0.0130252921953797,-0.00383369694463909,0.000927798449993134
217,0.000825939874630421,-0.00792279094457626,-0.00394038530066609,-0.0106550669297576,-0.00297247897833586,0.00493258377537131
218,-0.00108260952401906,-0.0065495572052896,-0.00298133934848011,-0.00962004996836185,-0.00354086328297853,0.00718291150406003
219,-0.00250488636083901,-0.00627168640494347,-0.00258719455450773,-0.00897672399878502,-0.00473247654736042,0.00837515201419592
220,-0.00392788276076317,-0.00626640301197767,-0.00240196380764246,-0.0083885146304965,-0.00582698918879032,0.00863400287926197
221,-0.00512997573241591,-0.00558021292090416,-0.00168341409880668,-0.00747951911762357,-0.00637195911258459,0.00857006479054689
222,-0.00473967753350735,-0.00399993034079671,0.000177612833795138,-0.00582443783059716,-0.00620368961244822,0.00908300839364529
223,-0.00342176225967705,-0.00302071636542678,0.00129871012177318,-0.00505775958299637,-0.0068582440726459,0.00870384089648724
224,-0.00220869155600667,-0.00316548557020724,0.000791262544225901,-0.00532954884693027,-0.008332384750247,0.00650946469977498
225,-0.000639583158772439,-0.00340179167687893,0.000344063097145408,-0.00429788557812572,-0.00805757194757462,0.00400636158883572
226,0.0016158678336069,-0.00313404388725758,0.00156055716797709,-0.00165476440452039,-0.00477064540609717,0.00254023470915854
227,0.00417515635490417,-0.002263477537781,0.00394953973591328,0.000369336630683392,-0.000272770092124119,0.00268218014389277
228,0.00666057458147407,-0.000977925141341984,0.00520812440663576,0.000133328736410476,0.0021651447750628,0.00423568906262517
229,0.00800728611648083,-0.000630890426691622,0.00355292391031981,-0.00263625476509333,0.000536212523002177,0.00506238918751478
230,0.0077408030629158,-0.00189122778829187,1.92839306691894E-05,-0.0060715707950294,-0.00331809208728373,0.00426946161314845
231,0.00608760816976428,-0.00407022051513195,-0.00324766826815903,-0.00851322337985039,-0.00576890027150512,0.00236288947053254
232,0.00379462377168238,-0.00626863352954388,-0.00479946658015251,-0.0100226616486907,-0.00503213098272681,-0.000286893045995384
233,0.00305283605121076,-0.00763166835531592,-0.00375565234571695,-0.0100826732814312,-0.00192545878235251,-0.00205282960087061
234,0.00457493402063847,-0.00809032469987869,-0.00117076945025474,-0.00883262231945992,0.00111787603236735,-0.00219625886529684
235,0.00698982365429401,-0.00800205674022436,0.00103085895534605,-0.00754460087046027,0.00273663969710469,-0.00179440097417682
236,0.00866318494081497,-0.00806150864809752,0.00147802580613643,-0.00759266689419746,0.00273574027232826,-0.00262046349234879
237,0.00951333995908499,-0.00850206706672907,-2.87187831418123E-05,-0.00906223058700562,0.00159404857549816,-0.00509184366092086
238,0.0107862083241344,-0.00854275934398174,-0.00229103863239288,-0.0106316786259413,0.0004247845208738,-0.00739152543246746
239,0.0124567458406091,-0.00783958192914724,-0.00432360591366887,-0.0115824081003666,-0.000344024185324088,-0.00825347099453211
240,0.0141179459169507,-0.00645111687481403,-0.00521541200578213,-0.0113433385267854,-0.000774897984229028,-0.0075897453352809
241,0.0153934890404344,-0.00471944874152541,-0.00489588687196374,-0.00989657454192638,-0.00190221460070461,-0.0058816559612751
242,0.0154711892828345,-0.00337737146764994,-0.0047120382077992,-0.00790916662663221,-0.0045176250860095,-0.0044263624586165
243,0.0143530881032348,-0.00294792233034968,-0.00499653164297342,-0.00588238891214132,-0.00720152957364917,-0.00444653164595366
244,0.0129160890355706,-0.00334445107728243,-0.00437118299305439,-0.0042536212131381,-0.00799667928367853,-0.00494395429268479
245,0.0125979036092758,-0.00304715428501368,-0.00123106816317886,-0.00200545671395957,-0.00576555682346225,-0.00234902813099325
246,0.0142845548689365,-0.000787186319939792,0.00409840606153011,0.00183642166666687,-0.001322983764112,0.00477593531832099
247,0.0173605307936668,0.00225636782124639,0.0091226976364851,0.00586279109120369,0.00279817916452885,0.0129016935825348
248,0.0204667486250401,0.00464848428964615,0.0122547727078199,0.00830071792006493,0.0054137259721756,0.0178921725600958
249,0.0210610199719667,0.0057050297036767,0.0127966282889247,0.00793161522597075,0.00618962990120053,0.0179486926645041
250,0.0175775289535522,0.00483109755441546,0.0105803962796927,0.00476783281192183,0.00542305037379265,0.0136390142142773
251,0.0125232730060816,0.00264300522394478,0.00758438836783171,0.00103761884383857,0.00492415204644203,0.0078218262642622
252,0.0093094389885664,0.000630693219136447,0.00567045994102955,-0.00108804611954838,0.00514461752027273,0.00329752871766686
253,0.00743276812136173,-0.000868702481966466,0.00397644378244877,-0.00241089076735079,0.0044039124622941,-1.84772143256851E-05
254,0.00473751872777939,-0.00239550368860364,0.00128107215277851,-0.00529449293389916,0.00152082182466984,-0.00371367088519037
255,0.00213956879451871,-0.00330777931958437,-0.0012469117064029,-0.0090869041159749,-0.00235538044944406,-0.0070412028580904
256,0.000613215146586299,-0.00315474555827677,-0.00303225149400532,-0.011630873195827,-0.00585993612185121,-0.00919133238494396
257,0.000267277238890529,-0.00222341669723392,-0.0040423134341836,-0.011398215778172,-0.00748774083331227,-0.0102831134572625
258,0.0029069606680423,4.47615420853253E-05,-0.00225731986574829,-0.00715031614527106,-0.00437182141467929,-0.00883898045867682
259,0.00765526713803411,0.00287077343091369,0.00134982517920434,-0.00207586586475372,0.0019331268267706,-0.00552975339815021
260,0.0108667835593224,0.0041306777857244,0.0023897176142782,-0.00182078604120761,0.00654748268425465,-0.00408324133604765
261,0.0114624174311757,0.00329435965977609,-0.000908517569769174,-0.00750009203329682,0.00819932948797941,-0.00672800419852138
262,0.0102530112490058,0.00111037224996835,-0.00689216377213597,-0.015736335888505,0.00740989204496145,-0.0125904520973563
263,0.00817679986357689,-0.00108270766213536,-0.0119935991242528,-0.0214571822434664,0.00467378413304687,-0.0180161632597446
264,0.00619083270430565,-0.00172855891287327,-0.013088246807456,-0.0213370155543089,0.00172158912755549,-0.0193581469357014
265,0.0038528370205313,-0.000851665157824755,-0.0107066901400685,-0.0172779373824596,-0.000140856805955991,-0.0171066205948591
266,0.00147622008807957,0.000622202467638999,-0.0070371269248426,-0.013033582828939,-0.000801798363681883,-0.0135962152853608
267,0.00144584209192544,0.00276012578979135,-0.00326892477460206,-0.00962806027382612,-0.000824785616714507,-0.00924522615969181
268,0.00317511614412069,0.00526342494413257,-0.00122395413927734,-0.00750725669786334,-0.00221724505536258,-0.0052545228973031
269,0.00339543726295233,0.0070179495960474,-0.00202568294480443,-0.007220100145787,-0.00596928922459483,-0.00389471999369562
270,0.00171213957946748,0.0079888878390193,-0.0037564889062196,-0.00759061798453331,-0.00973178539425135,-0.00468527153134346
271,0.000521934416610748,0.00871497951447964,-0.00356951798312366,-0.00719289155676961,-0.0105882557108998,-0.00527308695018291
272,0.000900019775144756,0.00865970086306334,-0.00135090539697558,-0.00617995811626315,-0.00847248826175928,-0.00527080846950412
273,0.00215577543713152,0.0075615388341248,0.000834812002722174,-0.00519078224897385,-0.00477766757830977,-0.00598029978573322
274,0.0037638524081558,0.0061446838080883,0.00235901144333184,-0.00465939473360777,-0.000101112840638962,-0.00779784796759486
275,0.00488353474065661,0.00461696367710829,0.00348441791720688,-0.00561344064772129,0.00436820695176721,-0.00963207427412272
276,0.00464187422767282,0.00336595228873193,0.00358349969610572,-0.00786844827234745,0.00728038931265473,-0.00966937374323606
277,0.00282274303026497,0.00277131889015436,0.00165888853371143,-0.00994745828211308,0.00754866655915976,-0.00797551590949297
278,8.09845805633813E-05,0.00235147937200964,-0.00166257540695369,-0.0108200712129474,0.00513655692338943,-0.0064564379863441
279,-0.00189740385394543,0.0021919859573245,-0.00387664954178035,-0.00995473377406597,0.00262312404811382,-0.005748076364398
280,-0.00169088924303651,0.00299897533841431,-0.00345990504138172,-0.00752787524834275,0.00233168178237975,-0.00514394277706742
281,0.000696318165864795,0.00464422535151243,-0.00083622889360413,-0.00410484708845615,0.00412689801305532,-0.00415843306109309
282,0.00336554716341197,0.00596726126968861,0.00193526211660355,-0.000830168428365141,0.00608585309237242,-0.00321959028951824
283,0.0040912227705121,0.00595053005963564,0.00239196373149753,0.000586246547754854,0.0060209883376956,-0.00294294697232544
284,0.00255825347267091,0.00467933434993029,0.000526719493791461,-0.000486101169371977,0.00369149097241461,-0.00340397981926799
285,8.049654570641E-05,0.00325125781819224,-0.00164830812718719,-0.00258133397437632,0.00104632286820561,-0.00453753862529993
286,-0.00239030481316149,0.00253016059286892,-0.00314747239463031,-0.00379084353335202,-0.000472021929454058,-0.00604619970545173
287,-0.00549284229055047,0.00210538227111101,-0.00483345333486795,-0.00425710156559944,-0.00155203114263713,-0.00766469305381179
288,-0.00809044484049082,0.00162187940441072,-0.00705628283321857,-0.00465916097164154,-0.00263850903138518,-0.00878721754997969
289,-0.00648150919005275,0.00157354935072362,-0.00903704017400742,-0.00477345334365964,-0.00359992426820099,-0.00845733191817999
290,-0.000732648302800953,0.00195775739848614,-0.0104523552581668,-0.00512273842468858,-0.00515491049736738,-0.00745761534199119
291,0.00448611751198769,0.00217093341052532,-0.0110021168366075,-0.00592749519273639,-0.0075578847900033,-0.00747265387326479
292,0.00529280258342624,0.0014953640056774,-0.0113382628187537,-0.00676186475902796,-0.0106115974485874,-0.00945878494530916
293,0.00233936333097517,-0.000131215725559741,-0.0121312038972974,-0.00765083311125636,-0.0128203490749002,-0.0129357222467661
294,-0.000722512777429074,-0.00129251542966813,-0.0116622000932693,-0.00773920258507133,-0.0111047448590398,-0.0148291941732168
295,-0.00237624300643802,-0.000844530004542321,-0.00895525701344013,-0.00651513459160924,-0.00421502394601703,-0.0128598501905799
296,-0.00297682732343674,0.000793489452917129,-0.00500986026600003,-0.00474378606304526,0.00681880908086896,-0.00797304604202509
297,-0.00187502114567906,0.00299217831343412,-0.000631620700005442,-0.00239151902496815,0.0188630651682615,-0.00210124021396041
298,0.00108895148150623,0.00535254087299109,0.00287275295704603,0.000190572303836234,0.0262642912566662,0.0021830250043422
299,0.00449398905038834,0.00721941189840436,0.00371439917944372,0.00137992610689253,0.0256726182997227,0.00286692753434181
300,0.00704878987744451,0.00810954067856073,0.00183689501136541,0.000650213391054422,0.019698902964592,0.000805031799245626
301,0.00894053746014833,0.00836788956075907,-0.000563624664209783,-0.000677436881233007,0.01342598721385,-0.00143094384111464
302,0.0104645770043135,0.00819292198866606,-0.00217109499499202,-0.00196622777730227,0.00911724474281073,-0.00328656006604433
303,0.0113949365913868,0.00764168938621879,-0.00339866592548788,-0.00286735454574227,0.00621716724708676,-0.00585221499204636
304,0.0126705477014184,0.00786495953798294,-0.00315415812656283,-0.00154728104826063,0.00475067738443613,-0.00811263453215361
305,0.0147177251055837,0.00915329065173864,-0.000654985196888447,0.00169681571424007,0.0050239791162312,-0.00823360309004784
306,0.0158374775201082,0.0106276264414191,0.00224367924965918,0.00450896611437202,0.00681414594873786,-0.00544246705248952
307,0.0150536512956023,0.0124756516888738,0.00442212540656328,0.00640567112714052,0.0104076350107789,1.08986023406032E-06
308,0.0133820194751024,0.0144771263003349,0.00568267377093434,0.00748425303027034,0.0145938014611602,0.0058003282174468
309,0.0126119926571846,0.0153679447248578,0.00539838662371039,0.00735023804008961,0.0166715681552887,0.00915288738906384
310,0.0132224150002003,0.0150476573035121,0.00410956563428044,0.00645050732418895,0.0159220229834318,0.00926237553358078
311,0.0137407118454576,0.0143006034195423,0.00322776823304594,0.005844971165061,0.0136226443573833,0.00762406457215548
312,0.013172959908843,0.0137925101444125,0.00311320601031184,0.00622116448357701,0.0108743403106928,0.00631872331723571
313,0.0116332611069083,0.0136960539966822,0.00277899508364499,0.00723972916603088,0.00726274587213993,0.00575800938531756
314,0.00993653945624828,0.0136304786428809,0.0018267419654876,0.00842526089400053,0.00276395631954074,0.00556867476552725
315,0.00836520362645388,0.0130338091403246,0.000165465593454428,0.00895607657730579,-0.00145561061799526,0.00513881538063288
316,0.00615581218153238,0.0115715926513076,-0.00231493613682687,0.00763623462989926,-0.00413871230557561,0.00344034773297608
317,0.00325590767897666,0.0096260467544198,-0.00419547315686941,0.00515805976465344,-0.00387424905784428,0.000952495378442109
318,0.000392384186852723,0.00789275113493204,-0.00443836906924844,0.0033234185539186,-0.00144618761260062,-0.000950716726947576
319,-0.00152497494127601,0.00684129539877176,-0.00371313164941967,0.00300257769413292,0.000293864170089364,-0.0018496501725167
320,-0.00166151416487992,0.00694700935855508,-0.00255690538324416,0.00445246230810881,0.000491968006826937,-0.00138587900437415
321,0.000172986110555939,0.00856743473559618,-0.00127941626124084,0.00730678765103221,0.000423732824856415,0.00106315675657243
322,0.00281551806256175,0.0108563173562288,-0.00138901511672884,0.00997628550976515,-5.02172952110413E-05,0.00449935020878911
323,0.00466003315523267,0.0126411328092217,-0.0035190973430872,0.0114149311557412,-0.00159497943241149,0.00693423626944423
324,0.0057616694830358,0.014395235106349,-0.00453184125944972,0.0124692646786571,-0.00222131726332009,0.00819518137723207
325,0.0070747253485024,0.0170597806572914,-0.00180179276503623,0.0139335794374347,-4.18637591792503E-06,0.0100781982764602
326,0.00833349395543337,0.0195135697722435,0.00198244559578598,0.0149046322330832,0.00374500080943108,0.0129264378920197
327,0.00779473036527634,0.0191856306046247,0.0025378989521414,0.0134497713297606,0.00580228818580508,0.0138478642329574
328,0.00437868991866708,0.0155110005289316,-0.0005329106352292,0.00920145679265261,0.00446710223332047,0.0107891811057925
329,-0.000703428697306663,0.0102079939097166,-0.00462138839066029,0.003637166460976,0.00112274813000113,0.00472759269177914
330,-0.0043583158403635,0.00529250502586365,-0.00721975089982152,-0.000933527597226202,-0.00123794004321098,-0.00145576836075634
331,-0.00348533224314451,0.002875060075894,-0.00651447102427483,-0.00166213710326701,-0.000337912584654987,-0.0040510674007237
332,0.00166510895360261,0.00401104521006346,-0.00253548542968929,0.00204561813734472,0.00333357299678028,-0.00149189867079258
333,0.0082148527726531,0.0080364104360342,0.00303845177404583,0.00847620517015457,0.00814312323927879,0.0051366132684052
334,0.0139467315748334,0.0134650580585003,0.00864642765372992,0.0156567078083754,0.0131012434139848,0.0134451556950808
335,0.017647398635745,0.0181390438228846,0.0127104576677084,0.0210663285106421,0.0168173424899578,0.0199696682393551
336,0.0181500092148781,0.0198046248406172,0.0135566350072622,0.0221392158418894,0.0173500813543797,0.0215704087167978
337,0.0150695024058223,0.0177155304700136,0.0108370380476117,0.0183325465768576,0.0138822980225086,0.0177761018276215
338,0.0101574957370758,0.0134464241564274,0.00603482453152537,0.0123332450166345,0.0079945707693696,0.0114062540233135
339,0.00553917093202472,0.0090757068246603,0.000498278008308262,0.00718264235183597,0.00186096667312086,0.0051342211663723
340,0.00254127918742597,0.00561294099316001,-0.0044147172011435,0.00351086352020502,-0.00257792393676937,-0.000461106421425939
341,0.0015604377258569,0.00317241391167045,-0.00694937817752361,0.000680084631312639,-0.00359293073415756,-0.0048050913028419
342,0.000888913520611823,0.000827546580694616,-0.0076271309517324,-0.00272791623137891,-0.00230679963715374,-0.00817194860428572
343,-0.0005774648161605,-0.00174309522844851,-0.00802708137780428,-0.00708279479295015,-0.00129858148284256,-0.0117350202053785
344,-0.00135581765789539,-0.0029396943282336,-0.00811283010989428,-0.0101411808282137,-0.000908632064238191,-0.0145616000518203
345,-0.000618286954704672,-0.00165745813865215,-0.00806836131960154,-0.0105665931478143,-0.00122491584625095,-0.0154323223978281
346,0.00139992800541222,0.00149000436067581,-0.00805860012769699,-0.0086791729554534,-0.00206098472699523,-0.0143174836412072
347,0.00533714145421982,0.00564984371885657,-0.00624622078612447,-0.00433294801041484,-0.000286416587186977,-0.0100657548755407
348,0.0103769851848483,0.00972376950085163,-0.00243807747028768,0.00119971029926091,0.00484864180907607,-0.00242106895893812
349,0.0135691314935684,0.0121006900444627,0.000408740597777069,0.00475917104631662,0.00900725461542606,0.00519837718456984
350,0.0138884726911783,0.0125071257352829,0.000676633266266435,0.00516149587929249,0.00959874782711267,0.00906383525580168
351,0.0125011308118701,0.0119630247354507,-0.00116743426769972,0.00350033422000706,0.00733464397490025,0.00840096641331911
352,0.00945477560162544,0.0104947732761502,-0.00503254169598222,5.23723356309347E-05,0.00230821454897523,0.0041586677543819
353,0.00509491935372353,0.00848926417529583,-0.00969104282557964,-0.00379810831509531,-0.00387126323767006,-0.00087027734844014
354,0.00103193742688745,0.00717863626778126,-0.0127234235405922,-0.00581778353080153,-0.00763192493468523,-0.00407007103785872
355,-0.00280834035947919,0.00591352349147201,-0.0138932894915342,-0.0066094184294343,-0.00843607820570469,-0.00670856097713113
356,-0.00598939601331949,0.00418339995667338,-0.0126077923923731,-0.00585872726514935,-0.00603504944592714,-0.0093955509364605
357,-0.00659880787134171,0.00292415171861649,-0.00819109380245209,-0.00291183684021235,4.45680416305549E-06,-0.0104296542704105
358,-0.00422597816213965,0.00255118031054735,-0.00349160237237811,0.000111348963400815,0.00581653229892254,-0.00919210724532604
359,-9.93201638266328E-07,0.0030872190836817,-0.000960184610448778,0.00219860509969294,0.00804182700812817,-0.00575545569881797
360,0.00362920947372913,0.00402108998969197,-0.000536712410394102,0.00334898289293051,0.00749903777614236,-0.00163381488528103
361,0.00462066382169724,0.00440348591655493,-0.00160502432845533,0.00322053371928632,0.00577536085620523,0.000790300488006324
362,0.00343399634584785,0.0040627233684063,-0.00332226837053895,0.00228315521962941,0.00297333742491901,0.000991334323771298
363,0.00141262600664049,0.00359321432188153,-0.00523127522319555,0.00071982282679528,-0.00119216891471297,-0.000245572795392945
364,-0.00152046082075685,0.0032537137158215,-0.00815427023917437,-0.0023505762219429,-0.00667427247390151,-0.00253777415491641
365,-0.0049585085362196,0.00354308797977865,-0.011700913310051,-0.00612993258982897,-0.0117842750623822,-0.00480109686031938
366,-0.00702998414635658,0.00490565691143274,-0.0134084727615118,-0.00782505702227354,-0.0133916977792978,-0.00577040435746312
367,-0.00761849572882056,0.00598156452178955,-0.0122994594275951,-0.00695233093574643,-0.0115856193006039,-0.00644882209599018
368,-0.00661439960822463,0.00635122554376721,-0.0084086237475276,-0.00460123969241977,-0.00824299640953541,-0.00681598810479045
369,-0.00270319846458733,0.00759562756866217,-0.00216555153019726,-0.00106653082184494,-0.0040557193569839,-0.00504832854494452
370,0.00275620771571994,0.00943275634199381,0.00399438245221972,0.00246027461253107,-0.000726028520148247,-0.00253959815017879
371,0.0067436695098877,0.00990130752325058,0.0073868683539331,0.00438928976655006,-0.000760510039981455,-0.00311662047170103
372,0.00792664010077715,0.00819997303187847,0.00780517142266035,0.00423710281029344,-0.00498906243592501,-0.00902552343904972
373,0.00679772347211838,0.00519417459145188,0.00729454355314374,0.00252566230483353,-0.0117294434458017,-0.0184038132429123
374,0.00414109881967306,0.00253642746247351,0.0059343334287405,0.000273002980975434,-0.0189211089164019,-0.0258842557668686
375,0.000668822263833135,0.000807999924290925,0.00119964778423309,-0.00260923197492957,-0.0251703280955553,-0.0288615934550762
376,-0.00189458986278623,-0.00046520508476533,-0.00679730670526624,-0.00664621870964766,-0.0288588348776102,-0.0289955362677574
377,-0.00188089965377003,-0.000693166570272297,-0.0136249121278524,-0.00945734884589911,-0.0292017310857773,-0.0271357428282499
378,-0.000290614378172904,0.000801618967670947,-0.0156322307884693,-0.00859107542783022,-0.0276083759963512,-0.0242523681372404
379,0.00058465264737606,0.00323346327058971,-0.014058955013752,-0.00595031166449189,-0.0264832247048616,-0.0235936529934406
380,0.000483542098663747,0.00511260144412518,-0.0119087863713503,-0.0049683628603816,-0.0267094075679779,-0.027577193453908
381,-0.000297376827802509,0.00535095995292068,-0.0121162952855229,-0.00762943457812071,-0.028519032523036,-0.0350417606532574
382,-0.00301452819257975,0.00408253073692322,-0.0180407632142305,-0.0147227039560676,-0.0336173437535763,-0.0427121184766293
383,-0.0073791965842247,0.00268050376325846,-0.0281324684619904,-0.0241318829357624,-0.0419976711273193,-0.0486243553459644
384,-0.01090257614851,0.00210048048757017,-0.0368782021105289,-0.0317227393388748,-0.0511110350489616,-0.0532732531428337
385,-0.0124267302453518,0.00186155561823398,-0.0421660505235195,-0.035919900983572,-0.0593247413635254,-0.0581023991107941
386,-0.0121131958439946,0.00184354232624173,-0.0446071475744247,-0.0378732681274414,-0.0660561993718147,-0.063539020717144
387,-0.010484030470252,0.00244560954160988,-0.0464741252362728,-0.0404763780534267,-0.0724408626556396,-0.0701189115643501
388,-0.00884017162024975,0.00330156530253589,-0.0518558733165264,-0.0469491370022297,-0.0811579897999763,-0.0791826248168945
389,-0.00794285722076893,0.00379902287386358,-0.0615190640091896,-0.0574420727789402,-0.0923473164439201,-0.0910653695464134
390,-0.00764988083392382,0.00383063498884439,-0.0726271271705627,-0.0693502277135849,-0.103791169822216,-0.104497708380222
391,-0.00817318819463253,0.00372469588182867,-0.0834935978055,-0.0804748386144638,-0.114675641059875,-0.118133567273617
392,-0.00935218017548323,0.00347828376106918,-0.093456506729126,-0.090072400867939,-0.125286474823952,-0.131681397557259
393,-0.0105011463165283,0.00258941715583205,-0.102262526750565,-0.0985526740550995,-0.135523051023483,-0.144833609461784
394,-0.0108656864613295,0.00119190465193242,-0.110107570886612,-0.106529988348484,-0.144409239292145,-0.15661284327507
395,-0.00977114029228687,0.000637025281321257,-0.117092415690422,-0.113424077630043,-0.151169672608376,-0.165539294481277
396,-0.00834733620285988,0.00152142799925059,-0.124645821750164,-0.119461379945278,-0.157632306218147,-0.171643018722534
397,-0.00853598490357399,0.00220842869020998,-0.133795261383057,-0.126938477158546,-0.166127175092697,-0.177607879042625
398,-0.0100280614569783,0.00159531307872385,-0.142839103937149,-0.136280938982964,-0.176348596811295,-0.184408247470856
399,-0.0106926476582885,0.00115736189763993,-0.149402037262917,-0.144453153014183,-0.186283946037292,-0.189431771636009
400,-0.00971076544374228,0.00237423297949135,-0.152562633156776,-0.14914083480835,-0.194451883435249,-0.191093757748604
401,-0.00851003546267748,0.00468335673213005,-0.153845265507698,-0.151290595531464,-0.201356470584869,-0.19113826751709
402,-0.00875598657876253,0.00640451069921255,-0.156401991844177,-0.153976693749428,-0.208473339676857,-0.192868337035179
403,-0.0114581594243646,0.0061471126973629,-0.162305220961571,-0.160151749849319,-0.216599076986313,-0.198694929480553
404,-0.0152200488373637,0.00447398796677589,-0.170114412903786,-0.168728113174438,-0.224133670330048,-0.206654503941536
405,-0.0168460253626108,0.00302075268700719,-0.176894590258598,-0.175669401884079,-0.228904917836189,-0.212137773633003
406,-0.0161083210259676,0.0018066621851176,-0.182004541158676,-0.179159820079803,-0.231374308466911,-0.213696554303169
407,-0.0150277493521571,0.000480469694593921,-0.185255989432335,-0.179605484008789,-0.231212332844734,-0.21210190653801
408,-0.0144266812130809,2.9635119062732E-05,-0.185555353760719,-0.177372917532921,-0.227248981595039,-0.207570716738701
409,-0.0134249785915017,0.00128763495013118,-0.181757643818855,-0.170830756425858,-0.219512537121773,-0.200365245342255
410,-0.0111759947612882,0.00323243532329798,-0.173907667398453,-0.159068435430527,-0.208351448178291,-0.191506326198578
411,-0.00830769259482622,0.00385717838071287,-0.164743557572365,-0.147074893116951,-0.196152344346046,-0.183121234178543
412,-0.00498177576810122,0.00313833868131042,-0.155990973114967,-0.139728054404259,-0.18485289812088,-0.175823882222176
413,-0.00216507795266807,0.00200832798145711,-0.147697404026985,-0.136299893260002,-0.174360305070877,-0.168855488300323
414,-0.00169465318322182,0.000414881738834083,-0.140424624085426,-0.133960530161858,-0.164492160081863,-0.162696108222008
415,-0.00247623096220195,-0.000794446386862546,-0.133382454514503,-0.13017275929451,-0.154739409685135,-0.15686996281147
416,-0.00268483976833522,-0.000741195748560131,-0.12580332159996,-0.124594569206238,-0.145715892314911,-0.149961486458778
417,-0.00209820130839944,2.9563012503786E-05,-0.118137419223785,-0.118225358426571,-0.138033896684647,-0.141502201557159
418,-0.00109717785380781,0.000736450601834804,-0.11062978208065,-0.111584439873695,-0.130594655871391,-0.132141038775444
419,-0.000232718899496831,0.000844962312839925,-0.104042865335941,-0.105955645442009,-0.123061485588551,-0.123672924935818
420,0.000430528802098706,0.000299167615594342,-0.0991259068250656,-0.102122865617275,-0.116123765707016,-0.117087654769421
421,0.0010019022738561,-0.00024485174799338,-0.0952030643820763,-0.0984229147434235,-0.109934896230698,-0.111018098890781
422,0.000889403221663088,-2.00593167392071E-05,-0.0911620333790779,-0.0929515510797501,-0.10422108322382,-0.103647902607918
423,-0.000910325616132468,0.000774625572375953,-0.0866416990756989,-0.0859686732292175,-0.0984022840857506,-0.0953376442193985
424,-0.00399096077308059,0.00157143839169294,-0.081528015434742,-0.0779729038476944,-0.0915438532829285,-0.087341345846653
425,-0.00703694112598896,0.00200508395209908,-0.0761973708868027,-0.0693052485585213,-0.0839280039072037,-0.0804900154471397
426,-0.0103913079947233,0.0012417824473232,-0.0721087902784348,-0.062423299998045,-0.0777325853705406,-0.0755210965871811
427,-0.0136394929140806,-0.000396433839341626,-0.0694027990102768,-0.0583524331450462,-0.0729858875274658,-0.070565365254879
428,-0.0152419339865446,-0.00157512142322958,-0.0670275464653969,-0.055335309356451,-0.0676652416586876,-0.0632950812578201
429,-0.0155793465673923,-0.00224404083564878,-0.0648126751184464,-0.0521872490644455,-0.0623516291379929,-0.054666705429554
430,-0.0157860424369574,-0.00306967063806951,-0.0623660087585449,-0.0481862165033817,-0.0583395771682262,-0.0461622476577759
431,-0.015989987179637,-0.00425606919452548,-0.0587394014000893,-0.0429475791752338,-0.0542923621833324,-0.0383049547672272
432,-0.0151952570304275,-0.00541733391582966,-0.0532607361674309,-0.0370765328407288,-0.0477035716176033,-0.0312920473515987
433,-0.0130469501018524,-0.00617098342627287,-0.0464296042919159,-0.0310833118855953,-0.0385255813598633,-0.0250035766512156
434,-0.0109864929690957,-0.00704561686143279,-0.0398674421012402,-0.0239559691399336,-0.0293399337679148,-0.019805321469903
435,-0.0101575013250113,-0.00883108377456665,-0.0345635786652565,-0.0156474020332098,-0.0217297617346048,-0.0163676273077726
436,-0.00945811718702316,-0.0107594700530171,-0.029331823810935,-0.00826751254498959,-0.0145381921902299,-0.0130455642938614
437,-0.0076445727609098,-0.0114490296691656,-0.0225233547389507,-0.00261390605010092,-0.00651106471195817,-0.00658245058730245
438,-0.00584997981786728,-0.0111629571765661,-0.0152115114033222,0.00205023656599224,0.00134522665757686,0.0029795472510159
439,-0.00490403780713677,-0.0109119229018688,-0.00945432018488646,0.0064302533864975,0.00834814552217722,0.0127075454220176
440,-0.00309049035422504,-0.0104448050260544,-0.00508921407163143,0.0115421991795301,0.0157498195767403,0.0215153135359287
441,-3.062614632654E-05,-0.00927779171615839,-0.00166449544485658,0.0169943515211344,0.0235558487474918,0.0292459707707167
442,0.0016044465592131,-0.00814520660787821,0.000264209636952728,0.0207448415458202,0.0291808508336544,0.0346427783370018
443,0.000427016260800883,-0.0078315157443285,0.00132396467961371,0.022774850949645,0.0316738970577717,0.0380992069840431
444,-0.00160084408707917,-0.00792906899005175,0.00349876889958978,0.0256846603006125,0.0339108519256115,0.0423974543809891
445,-0.0019713391084224,-0.00703030824661255,0.00885702576488256,0.0326478332281113,0.0389105714857578,0.0506101064383984
446,-0.0016388826770708,-0.00504064280539751,0.0169579051434994,0.0434547662734985,0.0463776253163815,0.0624468401074409
447,-0.00334939430467784,-0.00401028897613287,0.0245147738605738,0.0533947572112083,0.0544484183192253,0.0733237788081169
448,-0.00696065137162805,-0.0056039784103632,0.0286891274154186,0.0587314702570438,0.0616389252245426,0.0787311568856239
449,-0.00940883439034224,-0.00924913492053747,0.0298844650387764,0.0598616823554039,0.0670992508530617,0.0780167505145073
450,-0.0079037006944418,-0.0126296561211348,0.0316475480794907,0.0596510395407677,0.0718713477253914,0.075382336974144
451,-0.00354254059493542,-0.014561758376658,0.0348628722131252,0.0595949552953243,0.0762035474181175,0.0749730840325356
452,0.000581542961299419,-0.015602276660502,0.0373581051826477,0.0597570054233074,0.0788629874587059,0.0771526694297791
453,0.00323333102278411,-0.0158267021179199,0.0391891598701477,0.0611029751598835,0.0801975429058075,0.0810587629675865
454,0.00389155931770802,-0.0153416851535439,0.0411989204585552,0.0636455342173576,0.0810765624046326,0.0853999480605125
455,0.00236709741875529,-0.0149658871814609,0.0433835089206696,0.0668078288435936,0.0822114273905754,0.0892358124256134
456,-0.000288052775431424,-0.0152274183928967,0.0459243431687355,0.0704085677862167,0.0839785858988762,0.0928620025515556
457,-0.00296051730401814,-0.0158315133303404,0.0485047250986099,0.0730388164520264,0.0853321924805641,0.0958974212408066
458,-0.00548801058903337,-0.0162336230278015,0.0504273287951946,0.0745944306254387,0.0857808738946915,0.0967959612607956
459,-0.00836220756173134,-0.0166477039456367,0.0514954850077629,0.0766880884766579,0.0866409614682198,0.094392441213131
460,-0.0112549578770995,-0.017192205414176,0.0519862249493599,0.0783118158578873,0.0886336863040924,0.0898638740181923
461,-0.0121499598026276,-0.0167908389121294,0.0528047941625118,0.0781280249357224,0.0916666612029076,0.0871099606156349
462,-0.0102420393377543,-0.0149894282221794,0.0549068972468376,0.077541396021843,0.0966976284980774,0.0879953354597092
463,-0.00740791484713554,-0.0129038477316499,0.0583573691546917,0.0783296078443527,0.104301691055298,0.0906174927949905
464,-0.0054914434440434,-0.0113289430737495,0.0623533949255943,0.0814244598150253,0.112623892724514,0.0932803228497505
465,-0.00503190141171217,-0.0106595084071159,0.0658101066946983,0.0856539085507393,0.118491970002651,0.0946587324142456
466,-0.00552731147035956,-0.0111000724136829,0.0681053027510643,0.0882396101951599,0.119721449911594,0.0947874039411545
467,-0.006349534727633,-0.0120029775425792,0.068885013461113,0.0882813408970833,0.116419486701488,0.0959191471338272
468,-0.00712517835199833,-0.012690088711679,0.0686166882514954,0.0871805176138878,0.111113823950291,0.0987076982855797
469,-0.00733657833188772,-0.0130496080964804,0.0684909597039223,0.0861662104725838,0.10697740316391,0.101463414728642
470,-0.00669890362769365,-0.0129376733675599,0.0694278255105019,0.0860189869999886,0.105885617434978,0.103054024279118
471,-0.00534355035051703,-0.0121070202440023,0.0720194056630135,0.0877466201782227,0.108135901391506,0.104459300637245
472,-0.00390874454751611,-0.010949089191854,0.0757879689335823,0.0911011546850204,0.112418375909328,0.106848530471325
473,-0.00275080953724682,-0.00961339194327593,0.0798727050423622,0.0954049825668335,0.116930559277534,0.110189236700535
474,-0.00111076410394162,-0.00711598014459014,0.0843721628189087,0.101114399731159,0.121422730386257,0.114512763917446
475,0.00153034832328558,-0.00333705637603998,0.0892095491290092,0.107481680810452,0.126372545957565,0.11921238899231
476,0.00368964741937816,-0.000470420374767855,0.092792697250843,0.111331582069397,0.130960017442703,0.12146620452404
477,0.0040801321156323,-1.84431828529341E-05,0.0948713645339012,0.111393086612225,0.135128751397133,0.11965075135231
478,0.0032805516384542,-0.00121848797425628,0.0967169106006622,0.109475292265415,0.139285087585449,0.115536071360111
479,0.00189964787568897,-0.00307176494970918,0.0974564775824547,0.10739304125309,0.141499668359756,0.111549988389015
480,0.000672077585477382,-0.0044299247674644,0.0963414683938026,0.10743509978056,0.140436723828316,0.109800413250923
481,-0.000159374176291749,-0.0048373625613749,0.0942631289362907,0.109956659376621,0.137068390846252,0.110221885144711
482,-0.00118836062029004,-0.00512010511010885,0.0918410271406174,0.111444428563118,0.133067920804024,0.11045353859663
483,-0.00185669551137835,-0.00516879186034203,0.0898914858698845,0.110126622021198,0.130220353603363,0.11024122685194
484,-0.00090178893879056,-0.00425804732367396,0.0893779620528221,0.108061604201794,0.129474461078644,0.111119501292706
485,0.00170866120606661,-0.0026939339004457,0.0901764929294586,0.106939822435379,0.130622372031212,0.11297033727169
486,0.00460009416565299,-0.00131082395091653,0.0912154316902161,0.10620753467083,0.132904440164566,0.114441759884357
487,0.00584455346688628,-0.00083039072342217,0.0908363312482834,0.103941231966019,0.134222164750099,0.114522881805897
488,0.0043869512155652,-0.00144069013185799,0.0881780311465263,0.10013435781002,0.132221058011055,0.113037250936031
489,0.00209151208400726,-0.00238794437609613,0.0856631025671959,0.0990018025040627,0.128506928682327,0.111383654177189
490,0.00212275329977274,-0.00246235984377563,0.0867723599076271,0.102820172905922,0.127148494124413,0.111648216843605
491,0.00428725825622678,-0.00173360214103013,0.0908101499080658,0.106980957090855,0.128054961562157,0.113266542553902
492,0.00554946530610323,-0.00184024078771472,0.0937283709645271,0.106498129665852,0.12782134115696,0.113568119704723
493,0.00423643318936229,-0.00361260259523988,0.0930193141102791,0.101563043892384,0.125092774629593,0.111314669251442
494,0.00132549519184977,-0.0062078065238893,0.0895542055368423,0.0952168852090836,0.121250748634338,0.107346661388874
495,-0.00132002250757068,-0.0086054764688015,0.0854916870594025,0.0902337282896042,0.118016332387924,0.103173784911633
496,-0.00300069758668542,-0.0107578681781888,0.081893190741539,0.0878758877515793,0.115667723119259,0.0994643568992615
497,-0.00442134449258447,-0.0136832688003778,0.0788333117961884,0.0871716216206551,0.113796807825565,0.0951939672231674
498,-0.00533079635351896,-0.0172984376549721,0.0772151723504066,0.0864051952958107,0.11348470300436,0.0900212079286575
499,-0.00418924912810326,-0.0193250738084316,0.0783119425177574,0.0856345146894455,0.115988977253437,0.0866060703992844
500,-0.0016098846681416,-0.0188812129199505,0.080777071416378,0.0851025432348251,0.119078367948532,0.0864174291491508
501,0.000951543799601495,-0.0173322036862373,0.0825706198811531,0.0850219577550888,0.120127871632576,0.0881495252251625
502,0.00329164252616465,-0.0154784144833684,0.0834227800369263,0.086076483130455,0.119492523372173,0.0906204283237457
503,0.00525672174990177,-0.013042576611042,0.084036186337471,0.0879791229963303,0.118913099169731,0.0930901914834976
504,0.00701471650972962,-0.00997617840766907,0.0851906687021255,0.0901950374245644,0.119763247668743,0.095450833439827
505,0.00872309785336256,-0.00724319787696004,0.0865456685423851,0.0920782387256622,0.121615178883076,0.0976315066218376
506,0.0101187555119395,-0.00598108069971204,0.0872799828648567,0.0925046503543854,0.123156689107418,0.0985480770468712
507,0.0108330538496375,-0.00653956877067685,0.0864914804697037,0.0900062844157219,0.122748710215092,0.096786193549633
508,0.0105021921917796,-0.00843000691384077,0.0836530327796936,0.0843298211693764,0.11918667703867,0.0921294540166855
509,0.00937271304428577,-0.0106842052191496,0.0800976008176804,0.0781978964805603,0.113884344696999,0.0862275063991547
510,0.00880556832998991,-0.0120270708575845,0.0780668556690216,0.0755163878202438,0.110009491443634,0.0818008333444595
511,0.00947299692779779,-0.0118078142404556,0.0783690214157104,0.0770574808120728,0.10931433737278,0.0801384821534157
512,0.00980494637042284,-0.0108384285122156,0.0797295421361923,0.0791500508785248,0.110385775566101,0.0798660889267921
513,0.00909421220421791,-0.0099626686424017,0.0801191180944443,0.0784881785511971,0.110525049269199,0.0796792954206467
514,0.0088012870401144,-0.00897389091551304,0.0790921896696091,0.0756977275013924,0.108814142644405,0.0798163041472435
515,0.00875936355441809,-0.00789468362927437,0.0772860497236252,0.0725019425153732,0.105126895010471,0.0799651145935059
516,0.0076794964261353,-0.00757176475599408,0.0747809186577797,0.0695514380931854,0.0992080718278885,0.0788121372461319
517,0.00614306284114718,-0.00864889565855265,0.0720661282539368,0.0672183185815811,0.0925153568387032,0.0757640674710274
518,0.00523890228942037,-0.0107308495789766,0.0700748190283775,0.0654959753155708,0.0878880023956299,0.0717531442642212
519,0.00514638144522905,-0.0126312533393502,0.0687666386365891,0.0641610771417618,0.0868766307830811,0.0687614679336548
520,0.00524084782227874,-0.0136237787082791,0.0670158863067627,0.0628903210163116,0.0877811685204506,0.0675543397665024
521,0.00563093973323703,-0.0131261935457587,0.0654255598783493,0.0624066963791847,0.0888773202896118,0.0681630223989487
522,0.00704750278964639,-0.0108950212597847,0.0659719333052635,0.0638561174273491,0.0910550355911255,0.0709468424320221
523,0.00718151172623038,-0.00879345647990704,0.0668377503752708,0.0648132041096687,0.0928953886032104,0.073172427713871
524,0.00397501466795802,-0.00850891228765249,0.0652804747223854,0.0630623251199722,0.0916227251291275,0.0715763419866562
525,0.000533247250132263,-0.00891980901360512,0.063062459230423,0.0608241483569145,0.0886585488915443,0.067681647837162
526,-0.000835934944916517,-0.00870510842651129,0.0614874511957169,0.0588747449219227,0.0855095237493515,0.0639147907495499
527,-0.00192916044034064,-0.00800916738808155,0.0588029101490974,0.0552186034619808,0.0816301628947258,0.0603546798229218
528,-0.00389618030749261,-0.00728911627084017,0.05433589220047,0.0497071146965027,0.0771569535136223,0.0571850761771202
529,-0.00598161201924086,-0.00715756136924028,0.0489909239113331,0.0438507981598377,0.0716777965426445,0.0549160540103912
530,-0.00669278111308813,-0.00805030204355717,0.0440654717385769,0.0388691984117031,0.0650716722011566,0.0533173754811287
531,-0.00369347934611142,-0.00887336768209934,0.0418654419481754,0.0365988314151764,0.0606845319271088,0.0533220544457436
532,0.00295623554848135,-0.00799929536879063,0.0437463633716106,0.0381962470710278,0.061759028583765,0.0560565888881683
533,0.00842519849538803,-0.00593990413472056,0.0472339503467083,0.0414164178073406,0.0658689364790916,0.0597417093813419
534,0.0086605092510581,-0.00459857936948538,0.048920776695013,0.0432905070483685,0.0681911185383797,0.0616795159876347
535,0.00526758609339595,-0.00462803011760116,0.0488000065088272,0.0438990332186222,0.0676411464810371,0.0613900572061539
536,0.00186627963557839,-0.00581782311201096,0.0484360717236996,0.0441340170800686,0.065966822206974,0.0596242472529411
537,-0.00010835423017852,-0.00803327467292547,0.0481576696038246,0.0433783046901226,0.0643327534198761,0.0567683838307858
538,-0.000145135694765486,-0.0102367755025625,0.0488983616232872,0.0425923950970173,0.064005084335804,0.0543788857758045
539,0.000831363082397729,-0.0116136129945517,0.0508704446256161,0.0430905185639858,0.0652128159999847,0.0538080483675003
540,0.00042792918975465,-0.0125635182484984,0.0519401356577873,0.0439415723085403,0.0662942007184029,0.0538943558931351
541,-0.00161281100008637,-0.0134232556447387,0.0512345395982265,0.0442754589021206,0.0665829256176949,0.0532116033136845
542,-0.00303199235349894,-0.0137062501162291,0.0502648465335369,0.0450442731380463,0.0671742185950279,0.0520930550992489
543,-0.0019539543427527,-0.0127885211259127,0.0502069257199764,0.0475812070071697,0.069220095872879,0.0513674467802048
544,0.000831765646580607,-0.0111885219812393,0.0505444258451462,0.0500915497541428,0.0716667100787163,0.0507264360785484
545,0.00369264744222164,-0.00942450948059559,0.0509541071951389,0.0500728189945221,0.0729046016931534,0.0504154711961746
546,0.00577872199937701,-0.00766559550538659,0.051073994487524,0.0477078855037689,0.0724224075675011,0.0509086959064007
547,0.00636087451130152,-0.00667353300377727,0.0499353669583797,0.043896708637476,0.0698967352509499,0.0508990213274956
548,0.00572927296161652,-0.00671480875462294,0.0480282716453075,0.0395930781960487,0.0659541711211205,0.0494033433496952
549,0.00479536969214678,-0.00747268367558718,0.0461201183497906,0.035236582159996,0.0612536482512951,0.046675942838192
550,0.00337085872888565,-0.00875616166740656,0.043240774422884,0.0300376750528812,0.0554135926067829,0.0431417487561703
551,0.000864387373439968,-0.010234858840704,0.0385479815304279,0.0248495098203421,0.0485571883618832,0.039110079407692
552,-0.000798337161540985,-0.0106166321784258,0.0345518738031387,0.0238451324403286,0.0437121577560902,0.0361125841736794
553,0.000727428938262165,-0.00927776657044888,0.0343620032072067,0.0277696121484041,0.0441563911736012,0.0360513888299465
554,0.00364246545359492,-0.00824255589395761,0.0367952696979046,0.0307516809552908,0.0482891947031021,0.037093311548233
555,0.00543082598596811,-0.00913475640118122,0.039355993270874,0.0295093152672052,0.0528024584054947,0.036283865571022
556,0.00606298679485917,-0.0111531792208552,0.0409605428576469,0.0263418313115835,0.0560134761035442,0.0343013033270836
557,0.00572967156767845,-0.0128350658342242,0.0409424491226673,0.023570979014039,0.0566628314554691,0.0334610119462013
558,0.00463034445419908,-0.0133858220651746,0.0396815426647663,0.022130923345685,0.0552208460867405,0.0342484824359417
559,0.00368302501738071,-0.0130637409165502,0.0380036421120167,0.0221141669899225,0.0538410320878029,0.0354899019002914
560,0.00328753679059446,-0.0124778319150209,0.0359627902507782,0.0231189467012882,0.0528668537735939,0.036371149122715
561,0.00261968444101512,-0.0118287596851587,0.0340208038687706,0.0243388526141644,0.0509702228009701,0.0367866009473801
562,0.00155735353473574,-0.0105000622570515,0.0336709655821323,0.0250441879034042,0.0485353022813797,0.0375347398221493
563,0.0018599844770506,-0.00764257973060012,0.0350848846137524,0.0255626812577248,0.0466815568506718,0.0397773273289204
564,0.00463503738865256,-0.00362058985047042,0.036539901047945,0.0265459604561329,0.0454213209450245,0.043372604995966
565,0.00738877337425947,-0.000215401116292924,0.0358895473182201,0.0267710443586111,0.0433009192347527,0.0459957681596279
566,0.00730508239939809,0.00132213614415377,0.0329392217099667,0.0248568970710039,0.0390198342502117,0.0455526597797871
567,0.00558684160932899,0.00146171206142753,0.0302453003823757,0.0223437007516623,0.0341262109577656,0.042933214455843
568,0.0034934557043016,0.000177998241269961,0.0287556797266006,0.0199809055775404,0.0297899302095175,0.0390464700758457
569,0.00192965567111969,-0.00223342631943524,0.0281952973455191,0.0181491766124964,0.0265134293586016,0.0351513735949993
570,0.00358372880145907,-0.00356799364089966,0.0294075477868319,0.0192586164921522,0.026483042165637,0.0338570103049278
571,0.00723446439951658,-0.0034756048116833,0.0308814980089664,0.0220215190201998,0.0288630351424217,0.0340876616537571
572,0.00766414869576693,-0.00424026977270842,0.0293353050947189,0.0215465631335974,0.0290878396481276,0.0323538966476917
573,0.00358290853910148,-0.00629264768213034,0.0252516381442547,0.0171816255897284,0.0261548347771168,0.0289747323840857
574,-0.0017327107489109,-0.00795685406774282,0.022173959761858,0.0125156035646796,0.0236259456723928,0.0264357477426529
575,-0.00564605975523591,-0.00872937310487032,0.0213704090565443,0.00955996476113796,0.0235926527529955,0.0250063575804234
576,-0.00757111888378859,-0.00928906071931124,0.0211859587579966,0.00795428082346916,0.0248764157295227,0.0235044751316309
577,-0.00792015437036753,-0.0100250728428364,0.0197807140648365,0.00664589880034328,0.025400897487998,0.0208492204546928
578,-0.00699629494920373,-0.0101419212296605,0.0174083355814219,0.0050849043764174,0.024602547287941,0.0173854734748602
579,-0.00516695203259587,-0.00839570350944996,0.0154456859454513,0.0039762519299984,0.0233417619019747,0.0154955526813865
580,-0.0035913607571274,-0.0051783206872642,0.0142568508163095,0.0039978944696486,0.0218166764825583,0.016482463106513
581,-0.00315535650588572,-0.00235985522158444,0.0140561750158668,0.00459247315302491,0.0197056159377098,0.0184981618076563
582,-0.00361471343785524,-0.00142472109291703,0.0150744449347258,0.00449256226420403,0.0175559334456921,0.0189800783991814
583,-0.00392053415998816,-0.00250300974585116,0.0167370513081551,0.00306239607743919,0.0161911454051733,0.0173013135790825
584,-0.00328320427797735,-0.00456195324659348,0.0182428024709225,0.00116408197209239,0.0156680345535278,0.0148725751787424
585,-0.00186466600280255,-0.00628297217190266,0.0187438149005175,7.13156896381406E-06,0.0155819226056337,0.0132252341136336
586,-0.000209830148378387,-0.00695962412282825,0.0178135372698307,-0.000251667370321229,0.0155889485031366,0.0126230986788869
587,0.000376631913240999,-0.0069846548140049,0.0155176613479853,-0.000694649526849389,0.0148311024531722,0.0116847893223166
588,-0.000894871016498655,-0.00694690318778157,0.012336983345449,-0.00168883672449738,0.0124860191717744,0.00937781855463982
589,-0.00250817788764834,-0.00686029065400362,0.00982156582176685,-0.00131919188424945,0.00966630782932043,0.00694041047245264
590,-0.00314076920039952,-0.00705124856904149,0.00881131924688816,0.00137487205211073,0.0078218150883913,0.00509085599333048
591,-0.00280692125670612,-0.00787302851676941,0.00875976774841547,0.00413073319941759,0.00725698657333851,0.00291510624811053
592,-0.00157359219156206,-0.00878697354346514,0.00912892166525126,0.00467573804780841,0.00800055731087923,0.000828994670882821
593,0.000261745124589652,-0.00906443782150745,0.00967836566269398,0.00339459720999002,0.00945491902530193,0.000696410366799682
594,0.00149716250598431,-0.00877318438142538,0.00985421426594257,0.000929305038880557,0.0098475543782115,0.00236434792168438
595,0.0013152495957911,-0.00809890031814575,0.00909953005611897,-0.00252784905023873,0.00826473627239466,0.00411238661035895
596,0.000270309305051342,-0.00731012737378478,0.00750879198312759,-0.0060233729891479,0.00579879432916641,0.00461475644260645
597,-0.000975783972535282,-0.00743035040795803,0.00542838079854846,-0.00921371672302485,0.0031882980838418,0.00269379816018045
598,-0.00168369559105486,-0.00850166846066713,0.00385654391720891,-0.0115805100649595,0.000730825471691787,-0.000508982746396214
599,-0.00123717577662319,-0.00902902241796255,0.00362515868619084,-0.0118449749425054,-0.000699732103385031,-0.00181387981865555
600,4.26201695518103E-05,-0.0082754073664546,0.00441892025992274,-0.0100973751395941,-0.000547990901395679,-0.000203117800992914
601,0.00104169524274766,-0.00733627658337355,0.00553113734349608,-0.00798726081848145,0.000387626205338165,0.00243918783962727
602,-2.96777579933405E-05,-0.00791933014988899,0.00565779581665993,-0.00742747681215405,-0.00027216924354434,0.00327415973879397
603,-0.00345274759456515,-0.0102146808058023,0.00413091527298093,-0.00888343155384064,-0.00373559794388711,0.00104534160345793
604,-0.00685660121962428,-0.0126320812851191,0.00249692006036639,-0.0105055654421449,-0.00777982687577605,-0.00240287836641073
605,-0.00899068079888821,-0.0141387414187193,0.00157530885189772,-0.0111240735277534,-0.0102830454707146,-0.00528963375836611
606,-0.010289010591805,-0.0147929154336452,0.000328197493217885,-0.0110842613503337,-0.0112180039286613,-0.00761275598779321
607,-0.0103414682671428,-0.0146349063143134,-0.00121242855675519,-0.010485234670341,-0.0108062010258436,-0.00946422573179007
608,-0.0088589871302247,-0.0135880084708333,-0.00177870504558086,-0.0098034180700779,-0.00953316781669855,-0.0103909559547901
609,-0.00653734244406223,-0.0117154391482472,-0.000988412764854729,-0.00950401183217764,-0.0080475527793169,-0.00938404817134142
610,-0.00458151893690228,-0.00940754543989897,-0.000323088956065476,-0.00985996332019567,-0.00736374873667955,-0.00686749489977956
611,-0.00301005016081035,-0.00641606049612165,-0.000494358770083636,-0.0100460108369589,-0.00782869011163712,-0.00381274870596826
612,-0.000457873684354126,-0.00211227359250188,-0.000109032254840713,-0.00798075366765261,-0.0078811701387167,0.000432607193943113
613,0.00254789600148797,0.00229205633513629,0.000641989056020975,-0.00431566080078483,-0.00727909756824374,0.00505588389933109
614,0.00441931560635567,0.00508394464850426,0.000523183669429272,-0.00170210073702037,-0.00723983719944954,0.00786013714969158
615,0.00468593509867787,0.00634112767875195,-0.000565418275073171,-0.00142921030055732,-0.00821649469435215,0.0081675024703145
616,0.00351085909642279,0.00707293534651399,-0.00245433556847274,-0.00321586197242141,-0.00987848080694675,0.00675793131813407
617,0.00163758464623243,0.00770898815244436,-0.00477794371545315,-0.00583273591473699,-0.0114029087126255,0.0048177819699049
618,0.000121684905025177,0.00787966977804899,-0.00656939251348376,-0.00787466391921043,-0.0117460638284683,0.0032888047862798
619,-0.000316368648782372,0.00746056344360113,-0.00667369831353426,-0.00836534239351749,-0.0102594885975122,0.00264053232967854
620,0.000383617996703833,0.00687128864228725,-0.0048083164729178,-0.00713373068720102,-0.00806769076734781,0.00286052376031876
621,0.00219719600863755,0.00647795153781772,-0.0015719379298389,-0.00421247119084001,-0.00645861681550741,0.0042923572473228
622,0.00440880842506886,0.00604310166090727,0.00170512753538787,-0.000383350270567462,-0.00543089536949992,0.00682902568951249
623,0.0057721734046936,0.0051703336648643,0.00368248485028744,0.00263790274038911,-0.00491843093186617,0.00891463179141283
624,0.00661883503198624,0.00435574119910598,0.00447265896946192,0.00445219967514277,-0.00464345375075936,0.00969994533807039
625,0.00737230060622096,0.00415707286447287,0.00462385918945074,0.00579291582107544,-0.00472442479804158,0.00985714234411716
626,0.00714198220521212,0.00397254386916757,0.00369496457278728,0.00674979528412223,-0.00619419617578387,0.00928230863064528
627,0.00629558460786939,0.00317837996408343,0.00247258436866105,0.00742207653820515,-0.00837748497724533,0.00769135123118758
628,0.00587939750403166,0.00211031711660326,0.0023816186003387,0.00766695011407137,-0.00954421237111092,0.0059669385664165
629,0.00522103998810053,0.000914750737138093,0.00230914750136435,0.00613680807873607,-0.00975944008678198,0.00385233317501843
630,0.00324856396764517,-0.00058651331346482,0.000869918207172304,0.00225597782991827,-0.00937469769269228,0.000317843776429072
631,0.00136242678854615,-0.00125349406152964,-0.000480663875350729,-0.0012535285204649,-0.0077903768979013,-0.00264471233822405
632,0.0018690328579396,8.86789057403803E-05,-0.000161253003170714,-0.00158036744687706,-0.0057002822868526,-0.00237992126494646
633,0.00386187853291631,0.00214469945058227,0.000999074894934893,0.00022525162785314,-0.00507315574213862,-0.000367227650713176
634,0.00517049944028258,0.00294368830509484,0.00222627655602992,0.00211205612868071,-0.00610794639214873,0.000734922126866877
635,0.00536291021853685,0.00252373283728957,0.00368094048462808,0.00300434255041182,-0.00682855257764459,0.000580134161282331
636,0.00441546179354191,0.00213996926322579,0.00452442606911063,0.00181210250593722,-0.0065218978561461,-0.000681357632856816
637,0.00252354005351663,0.00244650919921696,0.00349141913466156,-0.00108518160413951,-0.00668030884116888,-0.00291403708979487
638,0.00114341103471816,0.00292865955270827,0.00078409374691546,-0.00377417029812932,-0.00741603039205074,-0.00529146939516068
639,0.00127663742750883,0.00245615211315453,-0.00284042442217469,-0.00562127120792866,-0.00802596285939217,-0.00756585923954844
640,0.00214648130349815,0.000937159871682525,-0.00680457660928369,-0.00689150113612413,-0.00853599049150944,-0.00970782618969679
641,0.003346644109115,0.000116302289825398,-0.00979349482804537,-0.00685571366921067,-0.00811457168310881,-0.0104154450818896
642,0.0047109080478549,0.00086587795522064,-0.0115544106811285,-0.00565987080335617,-0.00758822960779071,-0.00926204863935709
643,0.00501061091199517,0.00175643723923713,-0.0132923871278763,-0.00489325355738401,-0.00921408832073212,-0.00809711217880249
644,0.00410185661166906,0.00218048295937479,-0.014228243380785,-0.00414760643616319,-0.0114585952833295,-0.00778055936098099
645,0.00275128171779215,0.0026717756409198,-0.0128110023215413,-0.00245843827724457,-0.0119281364604831,-0.00784438289701939
646,0.00152486935257912,0.0035143094137311,-0.00942683219909668,-0.000560004322323948,-0.0115151479840279,-0.00741449417546391
647,0.000766458106227219,0.00475348485633731,-0.00565340695902705,0.000775537337176502,-0.0116872489452362,-0.00568975182250142
648,-0.000235239873290993,0.00561403529718518,-0.00326617062091827,0.000753021624404937,-0.0129117583855987,-0.0042508072219789
649,-0.00163294514641166,0.0057624732144177,-0.00241822609677911,-0.000383471429813653,-0.0142217073589563,-0.00479476153850555
650,-0.00210514618083835,0.00619140407070518,-0.00158106884919107,-0.00120499893091619,-0.0135564990341663,-0.00603940663859248
651,-0.00147603743243963,0.0073349759913981,-0.000260245782556012,-0.00139967445284128,-0.0106352474540472,-0.006141671910882
652,-0.00128543248865753,0.00801764521747828,4.93432780785952E-05,-0.00187200261279941,-0.00783717446029186,-0.00559405935928226
653,-0.00278863054700196,0.00653638551011682,-0.00242741755209863,-0.00424142181873322,-0.00770411128178239,-0.00692381942644715
654,-0.00600876100361347,0.00252874358557165,-0.00727631663903594,-0.00916608888655901,-0.0104458620771766,-0.0118921929970384
655,-0.00894904974848032,-0.00173345929943025,-0.0111601911485195,-0.0137350279837847,-0.0135577749460936,-0.0182089582085609
656,-0.0101056983694434,-0.00394400116056204,-0.012247066013515,-0.0151992663741112,-0.0155184390023351,-0.0225526336580515
657,-0.0114624667912722,-0.00493144849315286,-0.0132450461387634,-0.0156894624233246,-0.0180684775114059,-0.0257688853889704
658,-0.0137659143656492,-0.00557710044085979,-0.0155898611992598,-0.016923813149333,-0.0208853464573622,-0.0286690723150969
659,-0.0147448843345046,-0.00493354396894574,-0.0171782150864601,-0.0172773972153664,-0.0211461633443832,-0.0295154824852943
660,-0.0144752822816372,-0.00304962997324765,-0.0175311435014009,-0.0169533919543028,-0.0193585641682148,-0.0283828265964985
661,-0.0146226081997156,-0.000770377460867167,-0.0181219037622213,-0.0174059420824051,-0.0181611273437738,-0.026396419852972
662,-0.0145135140046477,0.00179228361230344,-0.0191511530429125,-0.0180919133126736,-0.0185170918703079,-0.0239082109183073
663,-0.0130267096683383,0.00438957614824176,-0.0198867227882147,-0.0181624628603458,-0.0201005209237337,-0.0218022856861353
664,-0.0107032572850585,0.00619510654360056,-0.0204046927392483,-0.01799551025033,-0.0223115514963865,-0.0210380163043737
665,-0.00826353207230568,0.00705131515860558,-0.0208780281245708,-0.0179973915219307,-0.0239563081413507,-0.0211969837546349
666,-0.00602927291765809,0.00730897299945354,-0.0212377477437258,-0.0183702725917101,-0.0244329869747162,-0.0216296724975109
667,-0.00411228509619832,0.00708431517705321,-0.0215017702430487,-0.0190370753407478,-0.0239084903150797,-0.02222422324121
668,-0.00203846790827811,0.00679812300950289,-0.0213228594511747,-0.0190164595842361,-0.021677428856492,-0.0223147124052048
669,-0.0002226591022918,0.00651889061555266,-0.0211140289902687,-0.0183215234428644,-0.0185009781271219,-0.0222119186073542
670,6.30390932201408E-05,0.00589994993060827,-0.0218390263617039,-0.0181016363203526,-0.0172644518315792,-0.023044291883707
671,-0.000382107886252925,0.00551593629643321,-0.0224028062075377,-0.0175333321094513,-0.0179268214851618,-0.023766040802002
672,-0.000654763774946332,0.00553219206631184,-0.0218116324394941,-0.0157755091786385,-0.0188155025243759,-0.0234947241842747
673,-0.0017444760305807,0.00547832669690251,-0.021422253921628,-0.0141506278887391,-0.0205508302897215,-0.0230984687805176
674,-0.0024207376409322,0.00649842992424965,-0.020885493606329,-0.0123906908556819,-0.0220577791333199,-0.0217376947402954
675,-0.000372882466763258,0.00925873685628176,-0.0189108289778233,-0.00926895160228014,-0.0212285593152046,-0.018553176894784
676,0.00322912517003715,0.0119439177215099,-0.0170140247792006,-0.00637670187279582,-0.0198977701365948,-0.015863586217165
677,0.00605309661477804,0.0131038120016456,-0.0164076797664166,-0.00561800273135304,-0.0204779896885157,-0.0153527557849884
678,0.00724932225421071,0.01287074200809,-0.0165818743407726,-0.00648729922249913,-0.0228499937802553,-0.0156864728778601
679,0.00633411388844252,0.0114594390615821,-0.0179952438920736,-0.00850844942033291,-0.0265691392123699,-0.0164357535541058
680,0.00360037083737552,0.00907821580767632,-0.0209470503032207,-0.0116449696943164,-0.0305941998958588,-0.0184925831854343
681,0.000851966033224016,0.00678653083741665,-0.0236322153359652,-0.0144640896469355,-0.032584685832262,-0.0210710018873215
682,-0.00024331989698112,0.00602927943691611,-0.0241087358444929,-0.0155902057886124,-0.031136330217123,-0.02259829826653
683,-0.000385916529921815,0.00641712406650186,-0.0232473555952311,-0.0163480881601572,-0.0275161322206259,-0.0236425753682852
684,-0.00188410771079361,0.00586678553372622,-0.0235639661550522,-0.0192180909216404,-0.0244552418589592,-0.0261806100606918
685,-0.00455417903140187,0.00413383403792977,-0.024896651506424,-0.0232565477490425,-0.0225213188678026,-0.0297300778329372
686,-0.00612955819815397,0.00277369655668736,-0.0248954687267542,-0.0255990121513605,-0.020211910828948,-0.0323663167655468
687,-0.00556538160890341,0.00274703861214221,-0.02259811013937,-0.0254260450601578,-0.0171434599906206,-0.0333767049014568
688,-0.00334641337394714,0.003948790486902,-0.0194210689514875,-0.0231982264667749,-0.0144339213147759,-0.032497052103281
689,-0.001400520442985,0.00521109811961651,-0.0180908404290676,-0.0201945025473833,-0.0138580640777946,-0.0300849564373493
690,-0.000631024071481079,0.0057290755212307,-0.0189534779638052,-0.0174745451658964,-0.01540881767869,-0.0269838534295559
691,0.000115878756332677,0.00584569154307246,-0.0196769796311855,-0.0150122735649347,-0.0168189685791731,-0.0241149961948395
692,0.000689804437570274,0.00562908686697483,-0.019734213128686,-0.0135179422795773,-0.0173025522381067,-0.0230883397161961
693,0.000252554338658229,0.00476277619600296,-0.020212035626173,-0.0136006847023964,-0.0178565010428429,-0.024287149310112
694,-0.00114003324415535,0.0031043728813529,-0.021580945700407,-0.0144927492365241,-0.0189902912825346,-0.0262249410152435
695,-0.00337735656648874,0.000895572069566697,-0.0230483151972294,-0.0147227225825191,-0.0198862589895725,-0.027678370475769
696,-0.00476586539298296,-0.000312092422973365,-0.0219750627875328,-0.0125125115737319,-0.0190528891980648,-0.0272268820554018
697,-0.00330863636918366,0.00122610002290457,-0.0171396732330322,-0.00779860746115446,-0.0165313836187124,-0.0234316121786833
698,-0.000623897649347782,0.00455305119976401,-0.0113954972475767,-0.00367694650776684,-0.0139816030859947,-0.0179960709065199
699,7.8749108070042E-05,0.00705102691426873,-0.00830954778939486,-0.00332329026423395,-0.0124975079670548,-0.0149093670770526
700,-0.00216786097735167,0.00770521350204945,-0.00875549763441086,-0.0065169264562428,-0.0121325273066759,-0.0154981501400471
701,-0.00557622173801064,0.00716826412826777,-0.0109173227101564,-0.0101039325818419,-0.0119774043560028,-0.0175970587879419
702,-0.00776066770777106,0.00630200002342463,-0.0124253369867802,-0.0111557058990002,-0.0105190211907029,-0.0189215503633022
703,-0.00836821459233761,0.00525369727984071,-0.0131010375916958,-0.00986078288406134,-0.00824145879596472,-0.0195343885570765
704,-0.00858635548502207,0.00318126124329865,-0.015134853310883,-0.00951370969414711,-0.00841356161981821,-0.0214956346899271
705,-0.00885445158928633,6.84868064126931E-05,-0.0187006499618292,-0.0119912093505263,-0.0122070228680968,-0.0253056101500988
706,-0.00882421527057886,-0.00272264494560659,-0.0212747864425182,-0.0155799575150013,-0.0167827922850847,-0.0286164488643408
707,-0.00879924837499857,-0.0046383049339056,-0.0224288552999496,-0.0187924541532993,-0.0196755398064852,-0.030046196654439
708,-0.00849443487823009,-0.00506827747449279,-0.0223819185048342,-0.0200885981321335,-0.0197145212441683,-0.0291792657226324
709,-0.00790239311754704,-0.00354888243600726,-0.0211396776139736,-0.0186615455895662,-0.0178581010550261,-0.026386508718133
710,-0.00741154048591852,-0.00101467547938228,-0.0195402186363935,-0.0160550512373447,-0.0164299644529819,-0.0234434064477682
711,-0.00652404269203544,0.00155348470434546,-0.0182135440409184,-0.0139336101710796,-0.0161612890660763,-0.021597046405077
712,-0.00650803372263908,0.00303444708697498,-0.0189395789057016,-0.0143193453550339,-0.0182093493640423,-0.0220995675772429
713,-0.00799998920410872,0.00324442936107516,-0.0218507442623377,-0.016673918813467,-0.0224540047347546,-0.0241508577018976
714,-0.00927002355456352,0.00298731937073171,-0.0244577266275883,-0.0179403852671385,-0.0259015206247568,-0.0251671373844147
715,-0.00982806552201509,0.0024764770641923,-0.0255570933222771,-0.0173193570226431,-0.0269036311656237,-0.024904428049922
716,-0.0109593076631427,0.00153277430217713,-0.0257867313921452,-0.0169499944895506,-0.0268591232597828,-0.0252032931894064
717,-0.0131067903712392,0.000189756203326397,-0.0260368883609772,-0.0190936997532845,-0.0272853672504425,-0.0265074335038662
718,-0.0147133227437735,-0.000734822475351393,-0.0263363532721996,-0.0227848999202251,-0.0275573655962944,-0.0270047876983881
719,-0.0135744325816631,0.000164002121891826,-0.0251863431185484,-0.0244704894721508,-0.0256580002605915,-0.0251152329146862
720,-0.00864170677959919,0.0035112879704684,-0.0209245979785919,-0.0220328290015459,-0.0198477208614349,-0.0208634100854397
721,-0.00227549788542092,0.00721928337588906,-0.0156205706298351,-0.0181893277913332,-0.0122955897822976,-0.0172884091734886
722,0.0022110310383141,0.00846105720847845,-0.013065810315311,-0.016836142167449,-0.00801972206681967,-0.0175719019025564
723,0.00452974485233426,0.00715957954525948,-0.0131268473342061,-0.0177578665316105,-0.00841000117361546,-0.0207642205059528
724,0.00589513313025236,0.00520735792815685,-0.0130586847662926,-0.0187070295214653,-0.0108508318662643,-0.0238177012652159
725,0.00670656748116016,0.00390627374872565,-0.011532480828464,-0.0186421219259501,-0.0132891843095422,-0.0249433945864439
726,0.00720893032848835,0.00335307372733951,-0.00880186166614294,-0.0174122080206871,-0.0151276281103492,-0.0240032635629177
727,0.00750885531306267,0.00313940388150513,-0.00617408659309149,-0.0157296620309353,-0.0163783244788647,-0.0222378969192505
728,0.00615461263805628,0.00236262544058263,-0.00616206228733063,-0.0158529467880726,-0.0183377843350172,-0.0223361738026142
729,0.00301374727860093,0.000952070928178728,-0.009203240275383,-0.0182351190596819,-0.0210985708981752,-0.0251188389956951
730,0.000569848518352956,-6.66919004288502E-05,-0.0124664064496756,-0.0202137716114521,-0.0225442461669445,-0.0284587349742651
731,-7.17511909442692E-07,-0.000266925635514781,-0.0138418953865767,-0.0204904451966286,-0.0217288974672556,-0.0311306659132242
732,-0.000371064175851643,-0.000106366067484487,-0.0140961557626724,-0.021037457510829,-0.0200506951659918,-0.0338465720415115
733,-0.00119568139780313,0.000328184629324824,-0.0142409577965736,-0.0224817246198654,-0.0190332755446434,-0.0357074066996574
734,-0.00103855645284057,0.00129091378767043,-0.0140506960451603,-0.023061316460371,-0.0191235411912203,-0.0346356816589832
735,-0.000678143231198192,0.00168693903833628,-0.0146548906341195,-0.0234616566449404,-0.0212148819118738,-0.0323602668941021
736,-0.00150744908023626,0.00042671404662542,-0.0172504205256701,-0.0253053102642298,-0.0253921374678612,-0.0324388518929482
737,-0.0025838112924248,-0.00193837902043015,-0.0203683339059353,-0.0283671338111162,-0.0291998106986284,-0.0352090895175934
738,-0.00372349377721548,-0.0046604098752141,-0.0229259841144085,-0.0326517969369888,-0.03105946816504,-0.0392311215400696
739,-0.0055549880489707,-0.00709764147177339,-0.0253050494939089,-0.0375633984804153,-0.0314951799809933,-0.0431809760630131
740,-0.00613660085946321,-0.00764107657596469,-0.025784932076931,-0.0396039113402367,-0.0292795859277248,-0.0441672839224339
741,-0.00355183426290751,-0.00518768420442939,-0.0224719475954771,-0.0363097190856934,-0.0227880720049143,-0.0400749705731869
742,0.000416717666666955,-0.00115273473784328,-0.017279539257288,-0.0304323863238096,-0.0146858375519514,-0.033304326236248
743,0.00319937965832651,0.00196335976943374,-0.0135010546073318,-0.0262385718524456,-0.00961842387914658,-0.0284101217985153
744,0.0046239672228694,0.00352784572169185,-0.0118811819702387,-0.0243127234280109,-0.00887326709926128,-0.0266480818390846
745,0.00530558591708541,0.00473785027861595,-0.0112436208873987,-0.0230873953551054,-0.0106059107929468,-0.0260034874081612
746,0.00535484589636326,0.00623187143355608,-0.0110597312450409,-0.0220751706510782,-0.0130087668076158,-0.0255104247480631
747,0.00439648609608412,0.00732038309797645,-0.0119624799117446,-0.0215969830751419,-0.015737272799015,-0.0260918978601694
748,0.00187536829616874,0.00720565021038055,-0.0143521744757891,-0.0219181273132563,-0.0191322807222605,-0.0288720764219761
749,-0.00157657742965966,0.00583536457270384,-0.0170963425189257,-0.0232444480061531,-0.0227777119725943,-0.0333503857254982
750,-0.00455275876447558,0.0038792029954493,-0.0187458638101816,-0.0253392476588488,-0.0254207625985146,-0.0365207865834236
751,-0.00644981069490314,0.00203243270516396,-0.0195293389260769,-0.0274806339293718,-0.0261631552129984,-0.0358774103224278
752,-0.00713347783312202,0.00087718473514542,-0.019627382978797,-0.0286288280040026,-0.0248703919351101,-0.0320800505578518
753,-0.0055260849185288,0.00155744154471904,-0.0171973686665297,-0.0266409609466791,-0.0211584996432066,-0.0260939821600914
754,-0.00242238724604249,0.0034340051934123,-0.0128352846950293,-0.022312680259347,-0.0160561092197895,-0.0201727617532015
755,-0.00116781797260046,0.00418170262128115,-0.0101050408557057,-0.0198583472520113,-0.0120604131370783,-0.0179465040564537
756,-0.00187468668445945,0.00401809718459845,-0.00905670505017042,-0.0191728789359331,-0.00977935362607241,-0.0180168338119984
757,-0.00267384899780154,0.00437316810712218,-0.0079525001347065,-0.0176412425935268,-0.0092677054926753,-0.0171949919313192
758,-0.00322907860390842,0.00525921490043402,-0.00689161289483309,-0.0151735441759229,-0.010863309726119,-0.0160184260457754
759,-0.00269618723541498,0.00622553518041968,-0.0055749798193574,-0.0122628780081868,-0.0130754038691521,-0.0157986488193274
760,-0.00135783886071295,0.00639212457463145,-0.0048444508574903,-0.0106632644310594,-0.0155503768473864,-0.0175791401416063
761,-0.00062849500682205,0.00591384852305055,-0.00589646073058248,-0.0114248162135482,-0.0187602899968624,-0.0206524766981602
762,-3.60040830855723E-05,0.00696893036365509,-0.0065260068513453,-0.011660847812891,-0.0201661866158247,-0.0214505046606064
763,0.000345896725775674,0.0101338159292936,-0.00539958383888006,-0.0100876800715923,-0.0192417409271002,-0.0191359147429466
764,-0.000660756835713983,0.0134010445326567,-0.00426485296338797,-0.00869964342564344,-0.0190933141857386,-0.0163158662617207
765,-0.00296594458632171,0.0151503849774599,-0.00458188401535153,-0.00860787834972143,-0.0209830403327942,-0.014647320844233
766,-0.00631870934739709,0.0147879300639033,-0.00713897775858641,-0.0103147653862834,-0.0251013934612274,-0.0152960205450654
767,-0.0109833534806967,0.0122516546398401,-0.011761886999011,-0.0136045487597585,-0.0319796577095985,-0.0191577132791281
768,-0.0160165168344975,0.00832040794193745,-0.017073092982173,-0.01709702052176,-0.0401371456682682,-0.025492288172245
769,-0.0183706786483526,0.00495535042136908,-0.0209228359162807,-0.0196570344269276,-0.0457569286227226,-0.0314850658178329
770,-0.0166936423629522,0.0039422414265573,-0.0222185645252466,-0.0211417675018311,-0.0466531217098236,-0.0336975269019604
771,-0.0132565377280116,0.00508598750457168,-0.0223264172673225,-0.0218525659292936,-0.0445031709969044,-0.0313713736832142
772,-0.0101044150069356,0.00695793563500047,-0.0221020989120007,-0.0218464266508818,-0.0416847430169582,-0.026948107406497
773,-0.00872882641851902,0.00813963543623686,-0.0215108562260866,-0.0216509234160185,-0.0396405048668385,-0.02346514724195
774,-0.0102654155343771,0.00825448147952557,-0.0208943635225296,-0.0215653516352177,-0.0383038781583309,-0.0219250842928886
775,-0.0133553864434361,0.00862161163240671,-0.0196191556751728,-0.0202977936714888,-0.036035094410181,-0.020652512088418
776,-0.0162986237555742,0.0107277557253838,-0.0164286475628614,-0.0165248513221741,-0.0319466963410378,-0.0176287926733494
777,-0.0187402367591858,0.0142862657085061,-0.0117569593712687,-0.0112058315426111,-0.0270348377525806,-0.0134341800585389
778,-0.0204225890338421,0.0170951262116432,-0.00865812785923481,-0.00752376252785325,-0.0243379473686218,-0.01114915125072
779,-0.0204951968044043,0.017576901242137,-0.00884621776640415,-0.00702122692018747,-0.0252449605613947,-0.0121582010760903
780,-0.0180800594389439,0.016774931922555,-0.0103552108630538,-0.00759722851216793,-0.0270529147237539,-0.0141011672094464
781,-0.0138739887624979,0.0162933431565762,-0.0111815733835101,-0.00720045017078519,-0.0269133616238832,-0.0144197940826416
782,-0.008914764970541,0.016848411411047,-0.0102056488394737,-0.00517856515944004,-0.0233255457133055,-0.0119605073705316
783,-0.00502154650166631,0.0177577845752239,-0.00827278662472963,-0.00294113485142589,-0.0182912778109312,-0.00799924228340387
784,-0.00416808854788542,0.0174468699842691,-0.00787079799920321,-0.00295420526526868,-0.0164908617734909,-0.00566945364698768
785,-0.00450053252279758,0.0160176865756512,-0.00856058951467276,-0.00437915185466409,-0.0185162015259266,-0.00563794327899814
786,-0.00392355676740408,0.0143635254353285,-0.00887987669557333,-0.00542062195017934,-0.0220185052603483,-0.00708668772131205
787,-0.00385368266142905,0.0119996871799231,-0.0096961036324501,-0.0075510973110795,-0.0260619856417179,-0.0110540762543678
788,-0.00485567422583699,0.00896578095853329,-0.0110889561474323,-0.0117682628333569,-0.0291152447462082,-0.0168221779167652
789,-0.0053939213976264,0.00653108721598983,-0.0115615213289857,-0.0159738641232252,-0.0287389568984509,-0.0199855491518974
790,-0.00508826086297631,0.005029262509197,-0.010926628485322,-0.01868636906147,-0.0251284558326006,-0.018701309338212
791,-0.0040588085539639,0.0043214256875217,-0.00969768967479467,-0.0196511559188366,-0.0204753652215004,-0.0152545161545277
792,-0.00239728414453566,0.0041871159337461,-0.00801123026758432,-0.0190423894673586,-0.0166031271219254,-0.0125224329531193
793,-0.000870702089741826,0.00391588406637311,-0.00609024055302143,-0.0174370910972357,-0.0142553709447384,-0.0117546757683158
794,-0.00031174803734757,0.00288209016434848,-0.00478718802332878,-0.015600124374032,-0.0134476283565164,-0.0122141046449542
795,-0.000801270361989737,0.00111433630809188,-0.00487582618370652,-0.0147155681625009,-0.0137137062847614,-0.0132974144071341
796,-0.00156624522060156,-0.000502455281093717,-0.00562617322430015,-0.0148182427510619,-0.0137583632022142,-0.0146610178053379
797,-0.00163606554269791,-0.000743609038181603,-0.0050883861258626,-0.0140907987952232,-0.012078482657671,-0.0149992303922772
798,4.82847935927566E-05,0.00104052433744073,-0.00171287998091429,-0.011168229393661,-0.00738598173484206,-0.0132413785904646
799,0.00299601373262703,0.00383582222275436,0.00298687443137169,-0.00772178964689374,-0.000958994263783097,-0.0106842229142785
800,0.00515379989519715,0.00574117200449109,0.00537565257400274,-0.00638708425685763,0.0026852476876229,-0.00963103771209717
801,0.0049463389441371,0.0052694920450449,0.00317982048727572,-0.00847811438143253,0.000113007838081103,-0.0115672675892711
802,0.00349288084544241,0.00304298964329064,-0.00200594309717417,-0.0127692855894566,-0.00659407302737236,-0.0156831406056881
803,0.00350278243422508,0.00152505829464644,-0.00635553756728768,-0.0157200507819653,-0.011862913146615,-0.0189867150038481
804,0.00409062253311276,0.00104221038054675,-0.00915018189698458,-0.0168681181967258,-0.0143687725067139,-0.0215219724923372
805,0.00293439673259854,0.00026233127573505,-0.0111466413363814,-0.0183147415518761,-0.016769802197814,-0.0251780394464731
806,0.00055244960822165,-0.000837371277157217,-0.0115703465417027,-0.0201767515391111,-0.0198688115924597,-0.0286052320152521
807,-0.00198580673895776,-0.00180757709313184,-0.0111517515033484,-0.0220732409507036,-0.023565124720335,-0.0297041311860085
808,-0.0048207282088697,-0.00293261231854558,-0.0122285028919578,-0.0243938062340021,-0.0283123124390841,-0.0289899110794067
809,-0.0071638198569417,-0.00428464356809855,-0.014541644603014,-0.0264326203614473,-0.0324392914772034,-0.0277312472462654
810,-0.00712820515036583,-0.00509324017912149,-0.0155119122937322,-0.0266691371798515,-0.0336108729243279,-0.0258859843015671
811,-0.0048355283215642,-0.00457412051036954,-0.0139650581404567,-0.0244480967521667,-0.0315701849758625,-0.0228278953582048
812,-0.00311902514658868,-0.00337192928418517,-0.011443393304944,-0.0210265666246414,-0.0273518357425928,-0.0191262941807508
813,-0.00428190594539046,-0.00311793619766831,-0.0104643553495407,-0.0184476729482412,-0.0230440143495798,-0.0165449362248182
814,-0.00708664674311876,-0.0036721108481288,-0.0109691852703691,-0.016212847083807,-0.0201875381171703,-0.015351090580225
815,-0.00921673700213432,-0.00377709115855396,-0.0112355779856443,-0.0133822755888104,-0.0188081804662943,-0.0148935951292515
816,-0.00959337968379259,-0.00319080101326108,-0.0108159184455872,-0.0111858667805791,-0.0183319915086031,-0.0151942893862724
817,-0.00747916661202908,-0.00194023840595037,-0.00939311739057302,-0.00970462989062071,-0.0176620595157146,-0.0152618568390608
818,-0.00313246552832425,-0.000168312777532265,-0.00670896796509624,-0.0077057215385139,-0.0158996004611254,-0.0138673186302185
819,0.00187942327465862,0.00145941344089806,-0.00425098137930036,-0.00529395509511232,-0.0131087796762586,-0.0119566479697824
820,0.00590425729751587,0.00278420629911125,-0.00333987572230399,-0.00317856390029192,-0.010315309278667,-0.0111858872696757
821,0.00831459648907185,0.00438986718654633,-0.00272730947472155,-0.00146090460475534,-0.00808219611644745,-0.0110813025385141
822,0.00847434159368277,0.00620041228830814,-0.00186732213478535,-0.00100731290876865,-0.00661203870549798,-0.0104990769177675
823,0.00545266410335898,0.00747954240068793,-0.00251967553049326,-0.00287079880945385,-0.00735802855342627,-0.00968451704829931
824,0.000598727026954293,0.00825447309762239,-0.00510100554674864,-0.00599368521943688,-0.0107772117480636,-0.00899105612188578
825,-0.00329515151679516,0.00874715205281973,-0.00828628987073898,-0.00890361331403255,-0.0149366911500692,-0.00859572738409042
826,-0.00385937816463411,0.00919729005545378,-0.00958183594048023,-0.00972292013466358,-0.017005143687129,-0.00745090050622821
827,-0.000341308274073526,0.00983616337180138,-0.00727386865764856,-0.00682540191337466,-0.0155282048508525,-0.0040477174334228
828,0.00403475807979703,0.00943891890347004,-0.0039543816819787,-0.00290312874130905,-0.0127206547185779,-0.00057220010785386
829,0.00585099030286074,0.00736322347074747,-0.00228582811541855,-0.00110378651879728,-0.0104326140135527,0.000286576745565981
830,0.00555213913321495,0.00472386740148067,-0.00132706668227911,-0.000649565772619098,-0.00698617519810796,-0.000531904108356684
831,0.00436997879296541,0.00187160866335034,-0.000826907518785447,-0.000976099923718721,-0.00241511268541217,-0.0023229168727994
832,0.00269112642854452,-0.0011746424715966,-0.00179427454713732,-0.00278193131089211,0.000680482946336269,-0.0056361285969615
833,0.000862722983583808,-0.00360129214823246,-0.00374919106252491,-0.00538523215800524,0.00142204668372869,-0.00950892921537161
834,-0.000708548468537629,-0.00482578109949827,-0.00550516927614808,-0.00744866719469428,0.000557548075448722,-0.0121545512229204
835,-0.00146054511424154,-0.00444153835996985,-0.00595364533364773,-0.00797779392451048,-0.00101182830985636,-0.0111611615866423
836,-0.00127523997798562,-0.0021143367048353,-0.00424044020473957,-0.00643258215859532,-0.00270521058700979,-0.00479045649990439
837,-0.001282331882976,0.00117785378824919,-0.00112398469354957,-0.00394547497853637,-0.00442859577015042,0.00355834932997823
838,-0.00220498745329678,0.00388059997931123,0.00194263702724129,-0.00178239389788359,-0.00558797921985388,0.00844715163111687
839,-0.00221366877667606,0.00568437343463302,0.00461381301283836,0.000953559298068285,-0.0055620358325541,0.00877437833696604
840,0.000411127635743469,0.00674284482374787,0.0061470833607018,0.00399979064241052,-0.00555837666615844,0.00606383290141821
841,0.0047003710642457,0.00726782530546188,0.00555918645113707,0.00505058467388153,-0.00716111436486244,0.00207489519380033
842,0.00861295126378536,0.00765925971791148,0.00293329614214599,0.00290978676639497,-0.0102626597508788,-0.00189453235361725
843,0.0114731406792998,0.00809517037123442,-0.000172337749972939,-0.000905841996427625,-0.0128545770421624,-0.00536137400195003
844,0.0133310845121741,0.00876579340547323,-0.00148236402310431,-0.00336103397421539,-0.0124664669856429,-0.00742381019517779
845,0.0127788009122014,0.00938017852604389,-0.000799743284005672,-0.00364301376976073,-0.00953842792659998,-0.0076998551376164
846,0.00918817799538374,0.00957879051566124,0.000440240430179983,-0.00311210565268993,-0.00681836018338799,-0.00702041480690241
847,0.00493152253329754,0.00933941919356585,0.00114657741505653,-0.00308063114061952,-0.00467725144699216,-0.00689441850408912
848,0.00226627057418227,0.00825257785618305,0.000710464140865952,-0.00441955449059606,-0.00185698200948536,-0.00863960757851601
849,0.00102259870618582,0.00648097833618522,-0.000549204705748707,-0.00668568396940827,0.000261220498941839,-0.0114103397354484
850,-0.000801812100689858,0.00492069544270635,-0.00221670209430158,-0.00863400381058455,-0.000135420224978589,-0.0136668793857098
851,-0.00420321337878704,0.00395355047658086,-0.00468159141018987,-0.00958903133869171,-0.00234601274132729,-0.0154094211757183
852,-0.00604208325967193,0.0035344937350601,-0.00749497534707189,-0.00903737917542458,-0.00500834174454212,-0.0167407765984535
853,-0.00380995613522828,0.00295314053073525,-0.00953748449683189,-0.00767097901552916,-0.00790491327643394,-0.0184526089578867
854,-0.000148368999361992,0.00112175999674946,-0.0103136328980327,-0.00805567484349012,-0.0117045929655433,-0.0221949592232704
855,0.00205126870423555,-0.00142559059895575,-0.00947035290300846,-0.0110378433018923,-0.0156428888440132,-0.0266151055693626
856,0.00384750450029969,-0.00233165756799281,-0.00615518586710095,-0.0132772605866194,-0.0166947990655899,-0.0269803628325462
857,0.0062974076718092,-0.000654281873721629,-0.00117996102198958,-0.0122865168377757,-0.0141565203666687,-0.0218100920319557
858,0.00738002359867096,0.00173010374419391,0.00208780472166836,-0.0101437233388424,-0.0113422172144055,-0.0154883246868849
859,0.00580786447972059,0.00300948088988662,0.00247297086752951,-0.00865293573588133,-0.00961010903120041,-0.0113005489110947
860,0.00246876617893577,0.0029044970870018,0.00213591102510691,-0.00708325207233429,-0.00697609595954418,-0.00854168366640806
861,-0.000521273526828736,0.00217029871419072,0.00362150417640805,-0.0040151821449399,-0.00182151573244482,-0.00580107048153877
862,-0.000611826370004565,0.00213046604767442,0.00781867187470198,0.0014979315456003,0.00509394193068147,-0.00234238523989916
863,0.00309040560387075,0.00373988575302064,0.0124263260513544,0.00817312672734261,0.0104734105989337,0.00147653685417026
864,0.00988729670643806,0.00674932124093175,0.0136255957186222,0.0125538371503353,0.0114937592297792,0.00409343326464295
865,0.0175225678831339,0.00951596163213253,0.00963158812373877,0.0113827902823687,0.00825628452003002,0.00313298893161118
866,0.0221020299941301,0.0103984633460641,0.00186019251123071,0.00465245265513659,0.0020053843036294,-0.00250465096905828
867,0.0213259197771549,0.00932156387716532,-0.00673386408016086,-0.00383488484658301,-0.00640958780422807,-0.0102707017213106
868,0.0176892466843128,0.00803153496235609,-0.0126389786601067,-0.00950108841061592,-0.0141780860722065,-0.0155759984627366
869,0.0148678114637733,0.00805808044970036,-0.0144525365903974,-0.0110741071403027,-0.0185564029961824,-0.0166610050946474
870,0.0120557015761733,0.00800928846001625,-0.015882870182395,-0.0120335044339299,-0.0218343958258629,-0.0169868562370539
871,0.00819184631109238,0.00639240071177483,-0.019595654681325,-0.0153014836832881,-0.0264412462711334,-0.0193032175302505
872,0.00613350095227361,0.00509435776621103,-0.0230038445442915,-0.0189490262418985,-0.0301152057945728,-0.0205417536199093
873,0.00710323452949524,0.00538977095857263,-0.0247435048222542,-0.0211264807730913,-0.031208623200655,-0.0185801479965448
874,0.00935511942952871,0.00597554631531239,-0.0257579125463963,-0.0226530618965626,-0.0306098684668541,-0.0161897372454405
875,0.012166659347713,0.0065653664059937,-0.0255256481468678,-0.0234585553407669,-0.0283985789865255,-0.0150348115712404
876,0.014510384760797,0.00724482256919146,-0.0245327707380056,-0.0239200778305531,-0.0253971237689257,-0.0152159947901964
877,0.0148303704336286,0.00783701241016388,-0.0246590171009302,-0.0251341126859188,-0.0232583656907082,-0.0167895760387182
878,0.0136511046439409,0.00940175633877516,-0.0258925203233957,-0.026256000623107,-0.0218295995146036,-0.0180612672120333
879,0.0121418973430991,0.0118518965318799,-0.0272905416786671,-0.0266603287309408,-0.020939277485013,-0.0181364882737398
880,0.0108133172616363,0.0131079964339733,-0.0283362604677677,-0.026843199506402,-0.0208118073642254,-0.0184543989598751
881,0.00971309933811426,0.0121155623346567,-0.0283752828836441,-0.0268614739179611,-0.0204201117157936,-0.0196098648011684
882,0.0079022916033864,0.00984060671180487,-0.0275006480515003,-0.0270796176046133,-0.019526407122612,-0.0207381770014763
883,0.00519243301823735,0.00772744324058294,-0.0266421269625425,-0.0278803184628487,-0.0199029613286257,-0.0214317534118891
884,0.00325373304076493,0.00643117679283023,-0.0266416147351265,-0.028560034930706,-0.022899067029357,-0.0214518532156944
885,0.00304489117115736,0.00583264278247952,-0.0280068758875132,-0.0285347569733858,-0.0280141476541758,-0.0205544549971819
886,0.00366269960068166,0.00558636710047722,-0.0300540644675493,-0.0279869362711906,-0.0334559194743633,-0.019122363999486
887,0.00367563497275114,0.00522470055148005,-0.0316801629960537,-0.0276298876851797,-0.0377097874879837,-0.0182833317667246
888,0.00328918290324509,0.00494710775092244,-0.0319293662905693,-0.0271174237132072,-0.0395917855203152,-0.0185900777578354
889,0.00445084366947412,0.00559645518660545,-0.0293950065970421,-0.0243545733392239,-0.0371988341212273,-0.0185432359576225
890,0.00799872633069754,0.00737108383327723,-0.0234759394079447,-0.0186555087566376,-0.0301421713083982,-0.0161450039595366
891,0.0129216061905026,0.0100225526839495,-0.0157497115433216,-0.0116561930626631,-0.0214156303554773,-0.0107375970110297
892,0.0175469852983952,0.0130279380828142,-0.00897407624870539,-0.00522330356761813,-0.0144946184009314,-0.00381234474480152
893,0.0200806651264429,0.0153267988935113,-0.00485358852893114,-0.00126674480270594,-0.0104805417358875,0.00131483736913651
894,0.019734425470233,0.016175514087081,-0.00334602780640125,-0.00143558334093541,-0.00866784900426865,0.00249506323598325
895,0.0172398407012224,0.0154259987175465,-0.00363306910730898,-0.00571618089452386,-0.00824558828026056,0.000165895427926444
896,0.0138796912506223,0.0137215508148074,-0.00516121415421367,-0.0118533140048385,-0.00882058870047331,-0.00309425871819258
897,0.0109803155064583,0.0125520583242178,-0.00712100462988019,-0.0161613766103983,-0.00968788005411625,-0.00369796040467918
898,0.00913667306303978,0.012426994740963,-0.0086743263527751,-0.0170550961047411,-0.0104160187765956,-0.00121849239803851
899,0.00735834380611777,0.0123564898967743,-0.0105192260816693,-0.0168727189302444,-0.0121462922543287,0.000378262426238507
900,0.00444952724501491,0.0115331402048469,-0.0134495478123426,-0.0182087738066912,-0.0157139785587788,-0.00185288419015706
901,0.000999293057247996,0.010423369705677,-0.0160559732466936,-0.0205145161598921,-0.0195880848914385,-0.00576568907126784
902,-0.00198872294276953,0.0100052254274488,-0.0167137999087572,-0.0219121109694242,-0.0223501306027174,-0.00767947360873222
903,-0.00385870272293687,0.0106852343305945,-0.0153352655470371,-0.0214174166321754,-0.0234842393547297,-0.00671242410317063
904,-0.00368601689115167,0.011879357509315,-0.0125425318256021,-0.0192292165011168,-0.0229740086942911,-0.00427649077028036
905,-0.00155237165745348,0.0122515028342605,-0.0094152893871069,-0.0163619294762611,-0.0220693238079548,-0.00242534256540239
906,0.00167759018950164,0.0114158568903804,-0.00695037841796875,-0.0131098367273808,-0.0212542880326509,-0.00215659965761006
907,0.00467953504994512,0.00998492538928986,-0.00571378227323294,-0.0101563483476639,-0.0201884359121323,-0.00330649595707655
908,0.00556458346545696,0.00796026922762394,-0.00622547743842006,-0.00970126409083605,-0.0190662834793329,-0.00563044007867575
909,0.0038081225939095,0.00543050840497017,-0.00787225551903248,-0.012003636918962,-0.0174498837441206,-0.00814267620444298
910,0.0015217486070469,0.00365501455962658,-0.00824230629950762,-0.0139957396313548,-0.0138758206740022,-0.00909247435629368
911,0.00100664014462382,0.00344131281599402,-0.00667548784986138,-0.0137066300958395,-0.00875168107450008,-0.00780616793781519
912,0.00299791805446148,0.0042475163936615,-0.00476361345499754,-0.0118662621825933,-0.00449391547590494,-0.0047983517870307
913,0.00643723923712969,0.00501354830339551,-0.00359316915273666,-0.00998383481055498,-0.00302555947564542,-0.00097145268227905
914,0.00900590885430574,0.0050972648896277,-0.00284839770756662,-0.00871800910681486,-0.00459446618333459,0.00268258550204337
915,0.0100243426859379,0.0051883808337152,-0.000824839575216174,-0.00686335563659668,-0.00611659931018949,0.00559783121570945
916,0.0105839902535081,0.00643314607441425,0.00301642832346261,-0.00339928921312094,-0.00428209686651826,0.00736939441412687
917,0.0104969227686524,0.00830382388085127,0.00609579402953386,0.000208487806958146,-0.00153866212349385,0.00702435616403818
918,0.00805683247745037,0.00861775781959295,0.00519958417862654,0.000750818871892989,-0.0033846718724817,0.00318125262856483
919,0.00392742594704032,0.00697186402976513,0.00119679782073945,-0.0021280930377543,-0.0095673194155097,-0.00281172688119113
920,0.000370202120393515,0.00508252810686827,-0.00294121960178018,-0.00559385353699327,-0.0151133071631193,-0.00780153647065163
921,-0.00193023716565222,0.00386664131656289,-0.00601380178704858,-0.00783351343125105,-0.0175635293126106,-0.0106995860114694
922,-0.00302459276281297,0.00299662025645375,-0.00790456589311361,-0.00873266533017159,-0.0182950403541327,-0.0121524324640632
923,-0.00267431256361306,0.00216178363189101,-0.00865575298666954,-0.00822385028004646,-0.0187671054154634,-0.0130954803898931
924,0.000125857157399878,0.00189296680036932,-0.00660033943131566,-0.00559751922264695,-0.0166745949536562,-0.013156246393919
925,0.00551603408530355,0.00228708400391042,-0.000486953445943072,-0.00186019588727504,-0.00933253020048141,-0.0116779804229736
926,0.0107674468308687,0.0022867217194289,0.00624882103875279,7.70098122302443E-05,0.000326919776853174,-0.00929548498243093
927,0.0131537336856127,0.00160224665887654,0.00950260274112225,-0.000440857140347362,0.00651468196883798,-0.0062297391705215
928,0.0125167490914464,0.000775683845859021,0.00916770100593567,-0.00193644699174911,0.00686959456652403,-0.00287332991138101
929,0.0103262383490801,0.000163275108207017,0.00732668023556471,-0.00348932482302189,0.00379024678841233,-0.00046561611816287
930,0.00817910023033619,-9.01771345525049E-05,0.00563898496329784,-0.00461360672488809,0.00120137492194772,0.000718439347110689
931,0.00592442508786917,-0.000523110793437809,0.00430487468838692,-0.00567509094253182,0.000193377782125026,0.000623339612502605
932,0.00376961939036846,-0.00127017823979259,0.00348784867674112,-0.00684183184057474,-0.000499283312819898,-0.000346304383128881
933,0.00357992039062083,-0.00159853545483202,0.00336962123401463,-0.00724343443289399,-0.00220019672997296,-0.000648013141471893
934,0.00499083753675222,-0.00175046606454998,0.00235136458650231,-0.00742551637813449,-0.00638983678072691,-0.000550051860045642
935,0.00570748886093497,-0.00275096739642322,-0.000746077392250299,-0.00884077232331038,-0.012997061945498,-0.00191349082160741
936,0.00468971626833081,-0.0042165475897491,-0.00411780551075935,-0.0107449004426599,-0.0191213767975569,-0.00426107225939631
937,0.00179932580795139,-0.0048124180175364,-0.00520272506400943,-0.0111780175939202,-0.0217278599739075,-0.00578085798770189
938,-0.0024713184684515,-0.00458238692954183,-0.00367301888763905,-0.0102723753079772,-0.0200740061700344,-0.00645501213148236
939,-0.00603938847780228,-0.00428216997534037,-0.00124389899428934,-0.00918938405811787,-0.0157540179789066,-0.00618400983512402
940,-0.00763545418158174,-0.00357511639595032,0.000870232004672289,-0.00757657084614038,-0.011266958899796,-0.00362393236719072
941,-0.00873834267258644,-0.00258358963765204,0.00186486216261983,-0.00597198167815804,-0.00922407861799002,9.16425124160014E-05
942,-0.00804751738905907,-0.00198049284517765,0.00146617565769702,-0.00512984627857804,-0.0098744835704565,0.00279664131812751
943,-0.00137073372025043,-0.00122640153858811,0.00171085493639112,-0.0039741899818182,-0.00965546723455191,0.00473961047828197
944,0.00907166767865419,-0.00040655632619746,0.00391759723424912,-0.00312320864759386,-0.00696995109319687,0.0056749708019197
945,0.016580319032073,-0.000181049705133773,0.00701297260820866,-0.00367520283907652,-0.00341842230409384,0.00565722957253456
946,0.0189839359372854,0.000228234028327279,0.0101957023143768,-0.00420662155374885,0.000245948176598176,0.00657144794240594
947,0.0178848020732403,0.00137657031882554,0.0129783293232322,-0.0036148801445961,0.00317261926829815,0.00812443625181913
948,0.0144744599238038,0.00203213794156909,0.0136532559990883,-0.00317736552096903,0.0039275330491364,0.0072824121452868
949,0.0101547194644809,0.00133107847068459,0.011619626544416,-0.00364322843961418,0.00291486759670079,0.00311951525509357
950,0.0079311840236187,0.00075739377643913,0.00963687896728516,-0.002785824239254,0.00243022572249174,-0.000723861448932439
951,0.00858345162123442,0.00110171118285507,0.00940886978060007,0.000525846553500742,0.00339562795124948,-0.00220565125346184
952,0.00971347559243441,0.00100538169499487,0.00998267997056246,0.00457294890657067,0.00522560486570001,-0.00387811521068215
953,0.0104974433779716,2.96647212962853E-05,0.0111537184566259,0.00774394255131483,0.00803731288760901,-0.00679556652903557
954,0.0110736517235637,-0.00135547248646617,0.0113654779270291,0.00774514954537153,0.0103198168799281,-0.00932099297642708
955,0.0109321968629956,-0.00313071347773075,0.00807740725576878,0.00311998999677598,0.0091631980612874,-0.0105839660391212
956,0.00996074825525284,-0.00522979162633419,0.00233789090998471,-0.00354258413426578,0.00471870601177216,-0.0111024891957641
957,0.00906356237828732,-0.00633646035566926,-0.00133512681350112,-0.00744172325357795,0.00123643968254328,-0.0103854760527611
958,0.00869461987167597,-0.00530855637043715,-0.000422328856075183,-0.00693671032786369,0.00204925332218409,-0.00806735083460808
959,0.00712062511593103,-0.00374648231081665,0.00170364580117166,-0.00540908798575401,0.0046067088842392,-0.00661803456023335
960,0.00416295509785414,-0.00328690512105823,0.00203371816314757,-0.00478443223983049,0.00506214750930667,-0.00683293491601944
961,0.0017645435873419,-0.00356822810135782,0.00156071875244379,-0.00367051200009882,0.00251311063766479,-0.00656562484800816
962,0.000103144215245266,-0.00407042680308223,0.00105629093013704,-0.00209189276210964,-0.00304490444250405,-0.00522929988801479
963,-0.00143816275522113,-0.00435860687866807,0.00088516081450507,-0.000622907187789679,-0.0101379426196218,-0.00368875544518232
