,AF3,AF4,Fp1,Fp2,AF7,AF8
0,-0.00818184856325388,-0.00551753444597125,-0.0120425345376134,-0.0121209369972348,-0.0103150578215718,-0.0165089201182127
1,-0.00923524331301451,-0.0047639119438827,-0.0139065841212869,-0.0125629566609859,-0.0135045954957604,-0.0165120419114828
2,-0.00937453284859657,-0.00347664742730558,-0.0163007099181414,-0.0135472593829036,-0.0165635831654072,-0.0169476177543402
3,-0.00891172327101231,-0.00233957474119961,-0.0190662443637848,-0.0157459601759911,-0.0189504828304052,-0.0178097188472748
4,-0.00937626138329506,-0.00256079714745283,-0.0227224417030811,-0.0194818694144487,-0.021660452708602,-0.0206294506788254
5,-0.0106563419103622,-0.00375782325863838,-0.0261879563331604,-0.023136530071497,-0.0243474785238504,-0.0252023003995419
6,-0.0115887289866805,-0.00476532056927681,-0.0279189087450504,-0.025203799828887,-0.0256170835345984,-0.0292027518153191
7,-0.0119718918576837,-0.00506735686212778,-0.0279990211129189,-0.0261167325079441,-0.0254862811416388,-0.0307410173118114
8,-0.0110880406573415,-0.00424835737794638,-0.0265973135828972,-0.0262145921587944,-0.0241000149399042,-0.0296811293810606
9,-0.0085497135296464,-0.00237499317154288,-0.0238045249134302,-0.0257148705422878,-0.0217318274080753,-0.0274691227823496
10,-0.00555538758635521,-0.0006973558338359,-0.0205191504210234,-0.0254964996129274,-0.019839346408844,-0.0256983246654272
11,-0.00321265170350671,-0.000234822829952464,-0.0179951805621386,-0.0257820952683687,-0.0196153149008751,-0.0247142314910889
12,-0.00189940806012601,-0.000827223004307598,-0.0171232037246227,-0.0262149013578892,-0.0209935214370489,-0.0245607867836952
13,-0.00147206755355001,-0.00211575860157609,-0.0174628682434559,-0.0271074064075947,-0.0229755006730556,-0.0256162919104099
14,-0.00156519620213658,-0.00391894392669201,-0.0180713571608067,-0.0289385356009007,-0.0243233386427164,-0.0273904409259558
15,-0.00176661263685673,-0.00544186029583216,-0.0185393150895834,-0.0307671818882227,-0.0240157637745142,-0.0283504500985146
16,-0.00207587750628591,-0.00630549294874072,-0.0187588781118393,-0.0315453000366688,-0.0226072892546654,-0.0283887553960085
17,-0.00277540669776499,-0.00724257156252861,-0.0189810767769814,-0.0316196158528328,-0.0222063530236483,-0.0289935562759638
18,-0.00321253482252359,-0.0083797974511981,-0.0191879644989967,-0.0313372872769833,-0.0233352314680815,-0.0301603320986032
19,-0.00331441266462207,-0.00946931075304747,-0.0199105963110924,-0.0315029993653297,-0.0256668664515018,-0.0314124971628189
20,-0.00413895770907402,-0.0107634654268622,-0.0222868882119656,-0.0333613306283951,-0.0296980272978544,-0.033486146479845
21,-0.00520750507712364,-0.0117014497518539,-0.0253603029996157,-0.0358742065727711,-0.0339817143976688,-0.03563392162323
22,-0.00574912782758474,-0.011390833184123,-0.0276919063180685,-0.0371359400451183,-0.0365426391363144,-0.036401379853487
23,-0.00634002918377519,-0.00985527317970991,-0.0294117089360952,-0.0370113588869572,-0.0377852432429791,-0.0362399630248547
24,-0.00606866832822561,-0.00690494105219841,-0.029326505959034,-0.0349014550447464,-0.0371807068586349,-0.0349130928516388
25,-0.00468739354982972,-0.00353088625706732,-0.0272284485399723,-0.0312998294830322,-0.034547571092844,-0.0327206663787365
26,-0.00443766172975302,-0.00204234593547881,-0.025779876857996,-0.0290357545018196,-0.0323762707412243,-0.0323808304965496
27,-0.00538365682587028,-0.0026451728772372,-0.0250859651714563,-0.0284888409078121,-0.0312046892940998,-0.0344914495944977
28,-0.00563650252297521,-0.00395187642425299,-0.0231131445616484,-0.0281420405954123,-0.0296643394976854,-0.0362923368811607
29,-0.00504599278792739,-0.00487877894192934,-0.0204635784029961,-0.0279922913759947,-0.02825309894979,-0.0355165041983128
30,-0.00474119931459427,-0.0049578114412725,-0.0190618261694908,-0.0287928562611341,-0.0281724687665701,-0.0329022444784641
31,-0.00453582406044006,-0.0041636279784143,-0.018456744030118,-0.0296989027410746,-0.0286198779940605,-0.0298087149858475
32,-0.00278044142760336,-0.00225088372826576,-0.0164563152939081,-0.0283248387277126,-0.0274023078382015,-0.0257931780070066
33,0.00046276330249384,0.000273245357675478,-0.0130879608914256,-0.0245165284723043,-0.0244411509484053,-0.0211494565010071
34,0.00293056271038949,0.00196130876429379,-0.0108927125111222,-0.0209390558302403,-0.0224706493318081,-0.0176890809088945
35,0.0039777341298759,0.00258686090819538,-0.0106401536613703,-0.0187818966805935,-0.0228357128798962,-0.0156034016981721
36,0.00440391339361668,0.00257742824032903,-0.0112753249704838,-0.0175196398049593,-0.0243064071983099,-0.0139060728251934
37,0.00336702773347497,0.00128595612477511,-0.0129825798794627,-0.0179367642849684,-0.0260347221046686,-0.0130896652117372
38,0.000461420306237414,-0.00141069979872555,-0.0159750673919916,-0.0207526348531246,-0.0279730893671513,-0.0142218703404069
39,-0.00203724321909249,-0.00387955969199538,-0.0185577962547541,-0.0242345612496138,-0.0292363725602627,-0.0168790351599455
40,-0.00170502695254982,-0.00439808331429958,-0.0185133386403322,-0.025748373940587,-0.0277074966579676,-0.0190700795501471
41,0.00126011110842228,-0.00319779524579644,-0.0160886142402887,-0.0249053817242384,-0.0232498981058598,-0.0198432970792055
42,0.00501767313107848,-0.00173817225731909,-0.0134210726246238,-0.0233177244663239,-0.0187105480581522,-0.0200944524258375
43,0.00809609796851873,-0.000895658566150814,-0.0118304444476962,-0.0223526004701853,-0.0160968955606222,-0.0208800714462996
44,0.0100368661805987,-0.000581211817916483,-0.0111017348244786,-0.0215903930366039,-0.0152110038325191,-0.0220495071262121
45,0.0114152152091265,-0.000119921591249295,-0.0100882044062018,-0.0200971998274326,-0.0152347097173333,-0.0225307885557413
46,0.0122040985152125,0.000682967889588326,-0.00889218784868717,-0.0191079434007406,-0.0159338228404522,-0.0221960730850697
47,0.0119924442842603,0.00174332375172526,-0.00849950406700373,-0.0194448735564947,-0.0167977195233107,-0.0210139490664005
48,0.0111628212034702,0.00268914410844445,-0.00868719629943371,-0.0202149376273155,-0.0168168358504772,-0.0194354094564915
49,0.0103814210742712,0.00276476633735001,-0.00820259936153889,-0.020492784678936,-0.0154873747378588,-0.0188267212361097
50,0.0100004281848669,0.00211474904790521,-0.00646417308598757,-0.0198152326047421,-0.0135704474523664,-0.0192391611635685
51,0.00925438106060028,0.00151246867608279,-0.0048694689758122,-0.0191102400422096,-0.0129890479147434,-0.020073601976037
52,0.00731450226157904,0.0013276357203722,-0.00517485151067376,-0.0194292273372412,-0.0147191062569618,-0.0210409350693226
53,0.00496445829048753,0.0018067485652864,-0.00707328412681818,-0.020039526745677,-0.0176481548696756,-0.0212846100330353
54,0.00297066965140402,0.0027023097500205,-0.0093950629234314,-0.0201235339045525,-0.0207815524190664,-0.0203430578112602
55,0.00161619484424591,0.00334036466665566,-0.0111163593828678,-0.0195663645863533,-0.0230382215231657,-0.0186209958046675
56,0.00229914044030011,0.00417276192456484,-0.0102732507511973,-0.0176042076200247,-0.0215744990855455,-0.0162745546549559
57,0.00508035998791456,0.00531197478994727,-0.00686343619599938,-0.0148022603243589,-0.0161704588681459,-0.0141992308199406
58,0.00775154819712043,0.00568290241062641,-0.00370676862075925,-0.0131859853863716,-0.0107669308781624,-0.0136334113776684
59,0.00818702019751072,0.00479478109627962,-0.00327288801781833,-0.01425517257303,-0.00936704408377409,-0.0150752868503332
60,0.00639333622530103,0.00341293751262128,-0.00566955609247088,-0.0176046155393124,-0.01232092641294,-0.0179612003266811
61,0.00482648238539696,0.00270153721794486,-0.00850990694016218,-0.0205590520054102,-0.0158237386494875,-0.0206791944801807
62,0.00533304922282696,0.00304565508849919,-0.00938717368990183,-0.021432077512145,-0.0164632145315409,-0.0223249420523643
63,0.00787317659705877,0.00441688345745206,-0.00797823630273342,-0.0207156334072351,-0.0143229672685266,-0.0223426818847656
64,0.0114954058080912,0.00632730219513178,-0.00600546039640903,-0.0195559896528721,-0.0119513235986233,-0.020488727837801
65,0.0148497875779867,0.00791975203901529,-0.00473757740110159,-0.018830269575119,-0.0111265406012535,-0.0179449245333672
66,0.0160027891397476,0.00817280448973179,-0.00464903470128775,-0.0196626055985689,-0.0123130884021521,-0.0168351363390684
67,0.0133589031174779,0.00609162775799632,-0.00695005245506763,-0.0234240107238293,-0.0165470466017723,-0.0188630111515522
68,0.00789060071110725,0.00263331877067685,-0.0113295093178749,-0.0291588380932808,-0.0230427421629429,-0.0231354627758265
69,0.00280627515166998,0.000395041890442371,-0.0148091120645404,-0.0332613661885262,-0.0281053800135851,-0.0264704860746861
70,0.000810437486506999,0.000468095589894801,-0.0157162137329578,-0.0338091216981411,-0.0299664437770844,-0.0275313034653664
71,0.00297378282994032,0.00215889094397426,-0.014946068637073,-0.0322019979357719,-0.0294118132442236,-0.0276852250099182
72,0.00811032392084599,0.00438123615458608,-0.0134695339947939,-0.0303243678063154,-0.0269644111394882,-0.0277277752757072
73,0.0123891485854983,0.00556569918990135,-0.0124280992895365,-0.0294727440923452,-0.0240758936852217,-0.0277795363217592
74,0.0138011937960982,0.00491252448409796,-0.0124113634228706,-0.0293774120509624,-0.0220281574875116,-0.0280714761465788
75,0.0144088380038738,0.0036868853494525,-0.0123837711289525,-0.0285121481865644,-0.0201123598963022,-0.0282740835100412
76,0.0153885129839182,0.00350398127920926,-0.0120638441294432,-0.0272159464657307,-0.0184203032404184,-0.0279344841837883
77,0.0157883930951357,0.00449715182185173,-0.0124213639646769,-0.0267749633640051,-0.0184901095926762,-0.0267075430601835
78,0.0150679824873805,0.00553388288244605,-0.014002026990056,-0.0273184105753899,-0.0210357774049044,-0.0249778218567371
79,0.0128222294151783,0.00540588889271021,-0.017130933701992,-0.0288393963128328,-0.0256300009787083,-0.0245934687554836
80,0.0102457171306014,0.00465667434036732,-0.0203612726181746,-0.02985630184412,-0.0298151802271605,-0.0258715953677893
81,0.00967701245099306,0.00463696103543043,-0.0211047492921352,-0.0286490488797426,-0.0306959301233292,-0.0269675478339195
82,0.0106163844466209,0.00540117593482137,-0.0201964788138866,-0.0268759243190289,-0.0291379503905773,-0.0272007882595062
83,0.0114665506407619,0.00692661805078387,-0.0196756422519684,-0.0260711591690779,-0.027520626783371,-0.0264998972415924
84,0.0129004288464785,0.00961219519376755,-0.0186999328434467,-0.0248439200222492,-0.0257893782109022,-0.0240842197090387
85,0.0157966297119856,0.01291180588305,-0.0163972228765488,-0.0224026683717966,-0.0230910927057266,-0.0202455464750528
86,0.0183373857289553,0.0149306245148182,-0.0147498184815049,-0.0211146138608456,-0.0206818133592606,-0.0177948921918869
87,0.0180043075233698,0.0142464246600866,-0.0158968083560467,-0.0229590497910976,-0.0205636639147997,-0.0189063474535942
88,0.0154285179451108,0.0118778645992279,-0.0187722351402044,-0.0258575957268476,-0.0221977513283491,-0.0220403857529163
89,0.0129728512838483,0.00955667346715927,-0.0212560705840588,-0.027464359998703,-0.0239070355892181,-0.0251737982034683
90,0.0120823932811618,0.00801276136189699,-0.0221683029085398,-0.0273281745612621,-0.0245997458696365,-0.0274113118648529
91,0.013134129345417,0.00750125013291836,-0.0207519996911287,-0.0250289849936962,-0.0232181120663881,-0.0274413712322712
92,0.0146419666707516,0.00765595445409417,-0.0181541740894318,-0.0218974947929382,-0.0203367993235588,-0.0257393717765808
93,0.0143632059916854,0.00768883479759097,-0.0165991187095642,-0.0208177715539932,-0.018236318603158,-0.0251534171402454
94,0.0118699045851827,0.00713952258229256,-0.0168503299355507,-0.0225302558392286,-0.0185089334845543,-0.0269457940012217
95,0.00964414142072201,0.00664948392659426,-0.0173881743103266,-0.0242729224264622,-0.0199429858475924,-0.0289232302457094
96,0.0100536961108446,0.00714378897100687,-0.0167573131620884,-0.0234471596777439,-0.0206493157893419,-0.0290715172886848
97,0.0118857687339187,0.00803595501929522,-0.0159410685300827,-0.0208746548742056,-0.0213673543184996,-0.0283749960362911
98,0.012788750231266,0.00804054085165262,-0.0160978678613901,-0.0190302338451147,-0.0232990104705095,-0.0285430569201708
99,0.0129780368879437,0.00740928528830409,-0.0164739489555359,-0.0183917824178934,-0.0250975601375103,-0.0286272782832384
100,0.0142148556187749,0.0074214581400156,-0.0155653432011604,-0.0171377919614315,-0.0241288151592016,-0.0263891592621803
101,0.0162206776440144,0.00794920139014721,-0.0135354232043028,-0.0152377365157008,-0.0205880235880613,-0.0229896605014801
102,0.0176525507122278,0.00824132841080427,-0.0116931200027466,-0.0138649959117174,-0.0168953817337751,-0.0206340737640858
103,0.0176681857556105,0.00792415253818035,-0.0115037579089403,-0.0136476019397378,-0.0147752072662115,-0.0197600312530994
104,0.0158883575350046,0.00684926519170403,-0.0137835936620831,-0.0152643155306578,-0.0148841086775064,-0.0203611813485622
105,0.0134802823886275,0.00576267717406154,-0.017087584361434,-0.0181768015027046,-0.0165899358689785,-0.0216838698834181
106,0.0109028611332178,0.00485820742323995,-0.0203931834548712,-0.0219187382608652,-0.0195138547569513,-0.0238736290484667
107,0.00791116617619991,0.00385280535556376,-0.0231691487133503,-0.0257768668234348,-0.0222746264189482,-0.0270981322973967
108,0.00627937354147434,0.00344819738529623,-0.0236306563019753,-0.0277191791683435,-0.022118354216218,-0.029398238286376
109,0.00738230673596263,0.00408905046060681,-0.0218029320240021,-0.0276088491082191,-0.0199392586946487,-0.0297688487917185
110,0.00996798742562532,0.00527892727404833,-0.019538776949048,-0.0272826179862022,-0.0191687885671854,-0.0293561182916164
111,0.0126835247501731,0.00640767114236951,-0.0173780433833599,-0.0271814968436956,-0.0199789647012949,-0.0285307914018631
112,0.0152729721739888,0.00726351980119944,-0.0153010478243232,-0.0263529047369957,-0.0202113147825003,-0.026494812220335
113,0.0172581896185875,0.00778508186340332,-0.0141691537573934,-0.0246217008680105,-0.0194816868752241,-0.0234976820647717
114,0.0180390346795321,0.00788753852248192,-0.0145036960020661,-0.0229216367006302,-0.0187772028148174,-0.0212249960750341
115,0.0167822241783142,0.00717674428597093,-0.0170441716909409,-0.0230671353638172,-0.0197575557976961,-0.0218330286443233
116,0.0134564395993948,0.00539666367694736,-0.0219744984060526,-0.0254081524908543,-0.0233771447092295,-0.0256501995027065
117,0.0102541390806437,0.00351675320416689,-0.0262883268296719,-0.0273177064955235,-0.0270707421004772,-0.030232610180974
118,0.00913363695144653,0.00268086884170771,-0.0267676562070847,-0.0272258874028921,-0.0276039689779282,-0.0330760292708874
119,0.0100716846063733,0.00311626447364688,-0.0236324146389961,-0.0257929190993309,-0.0248834732919931,-0.0326269753277302
120,0.0121571514755487,0.0042618396691978,-0.0187497287988663,-0.0237202197313309,-0.0205235760658979,-0.0287567768245935
121,0.0140550173819065,0.00494854850694537,-0.0138622336089611,-0.0219284724444151,-0.0162395928055048,-0.0240032188594341
122,0.0144729185849428,0.00445433752611279,-0.010589737445116,-0.0212034713476896,-0.013405348174274,-0.0211869925260544
123,0.013567702844739,0.00334932096302509,-0.00923706591129303,-0.0212251245975494,-0.0118470881134272,-0.0206965506076813
124,0.0128825129941106,0.00282431999221444,-0.00866674166172743,-0.0211935844272375,-0.010312557220459,-0.0212583988904953
125,0.012793680652976,0.00311201810836792,-0.00849554594606161,-0.0212958846241236,-0.00889331288635731,-0.0220229793339968
126,0.0121510112658143,0.00326763791963458,-0.00920071732252836,-0.022466104477644,-0.00879442226141691,-0.0233196448534727
127,0.0113489404320717,0.00309485243633389,-0.00995655078440905,-0.0241367090493441,-0.00926817208528519,-0.0249630864709616
128,0.011932697147131,0.00357794854789972,-0.00911422725766897,-0.0242561977356672,-0.0084398603066802,-0.0252563543617725
129,0.0131748411804438,0.00465639960020781,-0.00696441298350692,-0.0226647518575192,-0.00691269105300307,-0.0238741580396891
130,0.0125973392277956,0.00489398185163736,-0.0060982508584857,-0.0218146983534098,-0.00723052257671952,-0.023251349106431
131,0.0104889580979943,0.00414752122014761,-0.0070385723374784,-0.0220706313848495,-0.00948227941989899,-0.0239670183509588
132,0.00966321676969528,0.00360798463225365,-0.00767536042258143,-0.0212581474334002,-0.0114593524485826,-0.0238638818264008
133,0.0110660251230001,0.00384437781758606,-0.00740435952320695,-0.0185155551880598,-0.012520594522357,-0.022110128775239
134,0.0125504843890667,0.00396606093272567,-0.00783308036625385,-0.0160098653286695,-0.0142238764092326,-0.0208699367940426
135,0.0116695752367377,0.00263864384032786,-0.0104121873155236,-0.0171355772763491,-0.0178789906203747,-0.0226290635764599
136,0.00997804664075375,0.00100120319984853,-0.0132929403334856,-0.0206191092729568,-0.021171098574996,-0.0249335318803787
137,0.00993609149008989,0.000782385701313615,-0.014070370234549,-0.0227227136492729,-0.0214551016688347,-0.0243695843964815
138,0.0105503918603063,0.00125621387269348,-0.0138047626242042,-0.0233949050307274,-0.0202137734740973,-0.0224519278854132
139,0.0107150683179498,0.00137409893795848,-0.0139986984431744,-0.023936016485095,-0.0194392520934343,-0.0213287062942982
140,0.0112233152613044,0.00136804324574769,-0.014083688147366,-0.0240250993520021,-0.0184756554663181,-0.0204903390258551
141,0.0124219367280602,0.00173395255114883,-0.0134946228936315,-0.0231794193387032,-0.0163314342498779,-0.0191337391734123
142,0.0129456566646695,0.0020938809029758,-0.0133543983101845,-0.022486362606287,-0.0144060328602791,-0.0180096123367548
143,0.0119781130924821,0.0020989126060158,-0.014238023199141,-0.0222198441624641,-0.0143169527873397,-0.0174509286880493
144,0.0100628333166242,0.00215465202927589,-0.0148797109723091,-0.020802304148674,-0.0155910430476069,-0.0163319911807776
145,0.00799551419913769,0.00251003121957183,-0.0138264484703541,-0.0177577249705791,-0.016611160710454,-0.0142180565744638
146,0.00718465261161327,0.00326532893814147,-0.0104265483096242,-0.0141298109665513,-0.0157459415495396,-0.0114806834608316
147,0.00866949651390314,0.00463506020605564,-0.00542273186147213,-0.0106380823999643,-0.0124470433220267,-0.00802518986165524
148,0.0110254650935531,0.0058671310544014,-0.00139880599454045,-0.00825322140008211,-0.00811577495187521,-0.00484568253159523
149,0.0115550085902214,0.00523899961262941,-0.00115136860404164,-0.00874821934849024,-0.00559581955894828,-0.00423056585714221
150,0.00937670283019543,0.00222149770706892,-0.00499008083716035,-0.0123879536986351,-0.00680989352986217,-0.00664010923355818
151,0.00543939042836428,-0.0018252661684528,-0.0106238648295403,-0.0174047369509935,-0.0113054579123855,-0.0106904879212379
152,0.0017300370382145,-0.00511781685054302,-0.0148639930412173,-0.0212065875530243,-0.0159864667803049,-0.0145305832847953
153,0.000183806681889109,-0.0068981321528554,-0.0161954760551453,-0.0218412894755602,-0.0175391435623169,-0.0167587623000145
154,0.0016198247903958,-0.00682171666994691,-0.0146161876618862,-0.0188433732837439,-0.0153586575761437,-0.0168947223573923
155,0.0051385541446507,-0.00461669731885195,-0.0106949852779508,-0.013801752589643,-0.0115393456071615,-0.015052180737257
156,0.00746044330298901,-0.00147423462476581,-0.00720601715147495,-0.010040482506156,-0.00936620496213436,-0.0123543618246913
157,0.00633985502645373,0.000763769960030913,-0.00656596617773175,-0.00912714097648859,-0.009903684258461,-0.00995435286313295
158,0.00209498265758157,0.00101480179000646,-0.00855241157114506,-0.0105421515181661,-0.0120865637436509,-0.00889484584331512
159,-0.00313103920780122,-0.000136471557198092,-0.011072451248765,-0.0126364883035421,-0.0146173425018787,-0.00919627770781517
160,-0.00552429305389524,-0.000630920112598687,-0.0118256900459528,-0.0131630646064878,-0.0160906538367271,-0.0090489536523819
161,-0.00337180751375854,0.000541178684215993,-0.0108023844659328,-0.0119359977543354,-0.0160800348967314,-0.00766540830954909
162,0.00164603721350431,0.00262061133980751,-0.00900976825505495,-0.010046225041151,-0.0147958938032389,-0.00558944372460246
163,0.0071122795343399,0.00429047737270594,-0.00719060096889734,-0.00830764044076204,-0.0126384440809488,-0.00376635300926864
164,0.0117757078260183,0.00483375694602728,-0.00572750577703118,-0.00735139986500144,-0.0104276472702622,-0.00325830886140466
165,0.0146728688850999,0.00403573270887136,-0.00483869295567274,-0.0080448929220438,-0.00924347620457411,-0.0048402058891952
166,0.0149718532338738,0.0018518065335229,-0.00505910767242312,-0.0108843650668859,-0.00948230735957623,-0.00892062298953533
167,0.0137581937015057,-0.000610751681961119,-0.00601077638566494,-0.0139898117631674,-0.0102670276537538,-0.0137413255870342
168,0.01294538192451,-0.001267324318178,-0.00621552392840385,-0.014391727745533,-0.0103406691923738,-0.0155815035104752
169,0.01327851600945,0.000496036023832858,-0.00491594523191452,-0.0118398144841194,-0.00886560697108507,-0.0132064195349813
170,0.0137993581593037,0.00286145764403045,-0.00342521746642888,-0.00917190592736006,-0.00652894284576178,-0.00939501170068979
171,0.0136452000588179,0.00443438300862908,-0.00283810799010098,-0.00806976109743118,-0.00445521622896194,-0.00686138169839978
172,0.0128434505313635,0.00523732230067253,-0.00312107196077704,-0.00809461809694767,-0.00330468104220927,-0.00683464901521802
173,0.0115429852157831,0.00569583708420396,-0.00362809631042182,-0.00857566203922033,-0.00329586886800826,-0.00886715762317181
174,0.0102685028687119,0.00656826794147491,-0.00283352565020323,-0.00859529711306095,-0.00365637079812586,-0.00989832635968924
175,0.00899276696145535,0.00790782272815704,-0.0014096749946475,-0.00825226865708828,-0.00469853496178985,-0.00816316250711679
176,0.00737850600853562,0.00910390727221966,-0.00159683462698013,-0.00877006351947784,-0.00728562939912081,-0.00545533746480942
177,0.00576431071385741,0.00994270108640194,-0.00342309940606356,-0.0102770207449794,-0.0102776242420077,-0.00375861045904458
178,0.00465866504237056,0.0106975566595793,-0.00530901644378901,-0.0112996287643909,-0.0114937955513597,-0.00278328033164144
179,0.0038482069503516,0.0114459544420242,-0.00675650266930461,-0.0110261617228389,-0.0105267995968461,-0.00180276529863477
180,0.00225099246017635,0.0115932365879416,-0.00874917395412922,-0.010459796525538,-0.00963107775896788,-0.00131111452355981
181,0.000156375288497657,0.0110775595530868,-0.0110771926119924,-0.00975530594587326,-0.0101064909249544,-0.00122728350106627
182,-0.00105443701613694,0.0102578960359097,-0.0125307869166136,-0.0085685858502984,-0.0111779663711786,-0.00131401885300875
183,-0.00100046012084931,0.00907056219875813,-0.0126392170786858,-0.00796064920723438,-0.0121559901162982,-0.0021707967389375
184,0.00122256518807262,0.00834253989160061,-0.0105210049077868,-0.0074312798678875,-0.0113857118412852,-0.00250263861380517
185,0.00571634387597442,0.00888509768992662,-0.00635215034708381,-0.00570925557985902,-0.0082014724612236,-0.000693365465849638
186,0.00936224404722452,0.00963309872895479,-0.00301203271374106,-0.00439500575885177,-0.00575296860188246,0.0012804827420041
187,0.00976595282554626,0.00960374623537064,-0.00210676109418273,-0.0046590706333518,-0.00580968847498298,0.00133077334612608
188,0.00772076705470681,0.00903058610856533,-0.00230015185661614,-0.00541240675374866,-0.00637779803946614,7.14345078449696E-05
189,0.00524321431294084,0.00808018539100885,-0.00250051287002862,-0.00609811395406723,-0.00635558227077127,-0.0017306508962065
190,0.00446964660659432,0.00700136506929994,-0.00258485996164382,-0.00650619482621551,-0.00639900518581271,-0.00351873273029923
191,0.00597903551533818,0.00631915545091033,-0.00286881346255541,-0.00637291837483644,-0.00723873870447278,-0.00436945864930749
192,0.00827112328261137,0.00615031830966473,-0.00379263795912266,-0.00582444807514548,-0.00904206186532974,-0.00392866227775812
193,0.00965480972081423,0.0061117778532207,-0.00540420087054372,-0.00557998428121209,-0.011161002330482,-0.00307536451146007
194,0.0102988770231605,0.00629919627681375,-0.0063986461609602,-0.0054825060069561,-0.0116149112582207,-0.00231551425531507
195,0.0110988691449165,0.00688001932576299,-0.00547230709344149,-0.00437804171815515,-0.00909109320491552,-0.00127769762184471
196,0.0123372878879309,0.00770338112488389,-0.00316017726436257,-0.00156096462160349,-0.00499311508610845,0.000464462500531226
197,0.0141611732542515,0.00897250976413488,-0.00041310113738291,0.00300203054212034,-0.00136200140696019,0.00296639883890748
198,0.0156218828633428,0.0101481825113297,0.00167624081950635,0.00714503368362784,0.000755682587623596,0.00480439746752381
199,0.0164836123585701,0.0108837522566319,0.00295366137288511,0.00948872976005077,0.00215947488322854,0.00621402822434902
200,0.0170252490788698,0.0117645859718323,0.00357444863766432,0.0107631413266063,0.00344129907898605,0.00888103619217873
201,0.0164440795779228,0.0124778663739562,0.00309614068828523,0.0107600251212716,0.00393221992999315,0.011723411269486
202,0.0146035756915808,0.0117464540526271,0.00188123795669526,0.00897118635475636,0.00358552718535066,0.0123639088124037
203,0.0118855638429523,0.00868074782192707,4.61636591353454E-05,0.00540226977318525,0.00205827527679503,0.00986635219305754
204,0.00869131460785866,0.00406340369954705,-0.00266501773148775,0.000519773282576352,-0.00111552781891078,0.00530358171090484
205,0.00613353680819273,0.000322824926115572,-0.0055542504414916,-0.00444645388051867,-0.00484576867893338,0.00086915836436674
206,0.00480834674090147,-0.00105923821683973,-0.00808716844767332,-0.00848189555108547,-0.00806724280118942,-0.00216695922426879
207,0.00391033384948969,-0.000813356193248183,-0.0103955110535026,-0.0109620792791247,-0.0109767811372876,-0.00373169640079141
208,0.00307988654822111,0.000551309494767338,-0.011794475838542,-0.0108513673767447,-0.0132925072684884,-0.00347171793691814
209,0.00318824173882604,0.00344212143681943,-0.0114719280973077,-0.00804798677563667,-0.0139287943020463,-0.00123141868971288
210,0.00432869279757142,0.00714513147249818,-0.0103564262390137,-0.0045623704791069,-0.0133723830804229,0.00157332059461623
211,0.00492691854014993,0.00999174918979406,-0.0101433396339417,-0.00283513637259603,-0.0136113660410047,0.00297820474952459
212,0.00424394058063626,0.0114600947126746,-0.0108388727530837,-0.00314249005168676,-0.0149919940158725,0.0028127443511039
213,0.00296722655184567,0.0120494151487947,-0.0117621449753642,-0.00422103190794587,-0.0171723421663046,0.00247559696435928
214,0.00188485241960734,0.0124680371955037,-0.0127539904788136,-0.00455781817436218,-0.020325742661953,0.0033407595474273
215,0.00174915452953428,0.0134225161746144,-0.0131543036550283,-0.00253003416582942,-0.0229128282517195,0.00590679096058011
216,0.00274606817401946,0.0147357182577252,-0.0119197377935052,0.00178017700091004,-0.0223068092018366,0.00952323712408543
217,0.00370940542779863,0.0153906587511301,-0.00960944872349501,0.00549101084470749,-0.0187998879700899,0.0128371044993401
218,0.00389774003997445,0.0151049019768834,-0.00772152189165354,0.0065571665763855,-0.014734635129571,0.015219908207655
219,0.00440109195187688,0.0145295085385442,-0.00608825171366334,0.00619064643979073,-0.0107892611995339,0.0169460400938988
220,0.00545840477570891,0.01353426463902,-0.00475470395758748,0.00545662734657526,-0.00772293051704764,0.0176877994090319
221,0.00665981834754348,0.0120787899941206,-0.00412870477885008,0.00457569072023034,-0.00602187728509307,0.0175823885947466
222,0.00799535866826773,0.011024497449398,-0.00359693099744618,0.00377486599609256,-0.00482922839000821,0.0173041503876448
223,0.0086316391825676,0.0103966137394309,-0.00319009507074952,0.0027613362763077,-0.00416201539337635,0.0163769237697124
224,0.00802202895283699,0.00951394904404879,-0.00334787624888122,0.00148648943286389,-0.00444129481911659,0.014086777344346
225,0.00673611788079143,0.00810632389038801,-0.00390795199200511,9.88856409094296E-05,-0.00551059329882264,0.0105683151632547
226,0.00530081987380981,0.00627369340509176,-0.00471551297232509,-0.00137008563615382,-0.00736428750678897,0.00658751185983419
227,0.00461777718737721,0.00500109745189548,-0.00483677349984646,-0.00188825139775872,-0.00909771304577589,0.0040460885502398
228,0.00516068190336227,0.00510356249287724,-0.00357894832268357,-0.00100400170776993,-0.00937914662063122,0.00407386012375355
229,0.00464120600372553,0.005388502497226,-0.0028993112500757,-0.00124234368558973,-0.00960507616400719,0.00441897707059979
230,0.00222897692583501,0.00522402161732316,-0.00308978976681829,-0.00339238508604467,-0.0101261101663113,0.00383081543259323
231,-0.000277958199148998,0.00496478984132409,-0.0026033241301775,-0.00557144032791257,-0.00925749912858009,0.00300569622777402
232,-0.00240035750903189,0.00387991056777537,-0.00218733726069331,-0.00778863020241261,-0.00785165373235941,0.00107957934960723
233,-0.00368512980639935,0.00199281028471887,-0.00243245530873537,-0.0103949187323451,-0.00685597816482186,-0.00141181529033929
234,-0.00406341161578894,0.000324807100696489,-0.00349269015714526,-0.0129577862098813,-0.00638982327654958,-0.00290161115117371
235,-0.00441040797159076,-0.000466101162601262,-0.00543521251529455,-0.0146046504378319,-0.00666692899540067,-0.00325979688204825
236,-0.00493896054103971,-0.000456025067251176,-0.00740162841975689,-0.0144048128277063,-0.00695970002561808,-0.00240314262919128
237,-0.00565815251320601,-0.000595911929849535,-0.00906230881810188,-0.0131635069847107,-0.0072605274617672,-0.00103324372321367
238,-0.00665511144325137,-0.00153896037954837,-0.0108931446447968,-0.0123340031132102,-0.00882830284535885,-0.000714609050191939
239,-0.00788685400038958,-0.00275748316198587,-0.013566492125392,-0.0126005932688713,-0.0121231535449624,-0.00210979487746954
240,-0.00886920653283596,-0.00338866375386715,-0.0168057195842266,-0.013923604041338,-0.0158226601779461,-0.00468499306589365
241,-0.00859934836626053,-0.00299232243560255,-0.0186568163335323,-0.0149148348718882,-0.0177281815558672,-0.00686355028301477
242,-0.00743016274645925,-0.00190466560889035,-0.0186662189662457,-0.014813682064414,-0.017491364851594,-0.00803774315863848
243,-0.00670589087530971,-0.000753924890886992,-0.0187593102455139,-0.0146840596571565,-0.0167573466897011,-0.00923202279955149
244,-0.00611793855205178,0.00075747084338218,-0.019044341519475,-0.0144398417323828,-0.0159071478992701,-0.0100547699257731
245,-0.00547511177137494,0.00254083331674337,-0.0188972726464272,-0.0137531580403447,-0.0149324489757419,-0.00984832178801298
246,-0.00534376781433821,0.00384567957371473,-0.0189516637474298,-0.0132671669125557,-0.0144232641905546,-0.0091558238491416
247,-0.00537392916157842,0.00472042709589005,-0.019225986674428,-0.0129422731697559,-0.0141498669981956,-0.0081971250474453
248,-0.00535372737795115,0.00517213763669133,-0.0193248093128204,-0.0127711938694119,-0.0138315819203854,-0.00738995568826795
249,-0.00609985273331404,0.00450113834813237,-0.0195362269878387,-0.0134435249492526,-0.0140152042731643,-0.00801101420074701
250,-0.0073222117498517,0.00297371647320688,-0.0194947309792042,-0.0140535486862063,-0.0141836619004607,-0.0100663378834724
251,-0.00728134904056787,0.0020222095772624,-0.0177996605634689,-0.0127357421442866,-0.0126798963174224,-0.011871287599206
252,-0.00619177566841245,0.00193257897626609,-0.0147835267707706,-0.0107398079708219,-0.0100946575403214,-0.0129535607993603
253,-0.00598255451768637,0.00188440678175539,-0.0126642854884267,-0.0106402980163693,-0.00868413876742125,-0.0135560808703303
254,-0.00779454177245498,0.00129676307551563,-0.0129154082387686,-0.012961633503437,-0.00979726575314999,-0.0135916527360678
255,-0.0107926726341248,0.000285725633148104,-0.0145987533032894,-0.0164657551795244,-0.0123870717361569,-0.0133827049285173
256,-0.0127807976678014,-0.000547171162907034,-0.0153705300763249,-0.019226735457778,-0.013671456836164,-0.013230636715889
257,-0.0120953638106585,-0.000627886853180826,-0.0137831689789891,-0.0194118153303862,-0.0122839631512761,-0.0127145741134882
258,-0.00837153382599354,0.00040549281402491,-0.00998342595994473,-0.0163149684667587,-0.00850160513073206,-0.0109877465292811
259,-0.00312274810858071,0.00219714385457337,-0.00573978247120976,-0.0116481734439731,-0.00369422882795334,-0.00806874595582485
260,0.000883247004821897,0.00381726818159223,-0.00327101652510464,-0.00810662098228931,-0.000830029021017253,-0.00521008018404245
261,0.00157847173977643,0.00401160353794694,-0.00388076039962471,-0.00785936322063208,-0.00262454687617719,-0.00451776478439569
262,-7.89139085100032E-06,0.00255209812894464,-0.00619119917973876,-0.0101836752146482,-0.00764312781393528,-0.00588595727458596
263,-0.000673702568747103,0.00131392956245691,-0.00651667825877666,-0.0109954923391342,-0.0112778032198548,-0.00578261492773891
264,0.000215407460927963,0.00168251851573586,-0.00400057248771191,-0.00887007266283035,-0.0117727285251021,-0.00274341576732695
265,0.000314419070491567,0.0025880082976073,-0.00171897083055228,-0.00671064667403698,-0.0114110177382827,0.000463816977571696
266,-0.0012482067104429,0.00283744162879884,-0.0014279653551057,-0.00611860072240233,-0.0116717973724008,0.00201456365175545
267,-0.00251600332558155,0.00317176664248109,-0.00164521811529994,-0.00518361339345574,-0.0113452337682247,0.00321152480319142
268,-0.00259358296170831,0.00378695642575622,-0.00169793213717639,-0.00289009581319988,-0.0104612885043025,0.003858657553792
269,-0.00195530639030039,0.00371305947192013,-0.00134769966825843,-0.000273547775577754,-0.00937602389603853,0.00261116749607027
270,-0.00108639104291797,0.00293690781109035,0.000202783296117559,0.00153913407120854,-0.00688371900469065,0.000666835519950837
271,-0.00147840974386781,0.00196571205742657,0.0017390752909705,0.00147164310328662,-0.00372914574109018,-0.000125534148537554
272,-0.00284954695962369,0.00129180680960417,0.00234339875169098,-5.35722429049201E-05,-0.00141626421827823,0.000863461405970156
273,-0.00270802993327379,0.0013986888807267,0.00284639070741832,-0.00150998309254646,0.000616786535829306,0.00321136810816824
274,-0.000500004214700311,0.00248123169876635,0.00426959665492177,-0.00184372486546636,0.00342400232329965,0.00634785229340196
275,0.00208383798599243,0.00429817661643028,0.00671810051426291,-0.000979769276455045,0.00637485738843679,0.0096709905192256
276,0.00306883431039751,0.00552992708981037,0.00821113493293524,-0.000761425122618675,0.00715357251465321,0.0110043929889798
277,0.00146752537693828,0.0046988963149488,0.00672869943082333,-0.00251231947913766,0.00460269628092647,0.00870142783969641
278,-0.000983907142654061,0.00267377402633429,0.00369637669064105,-0.00399676058441401,0.000851275632157922,0.0054514529183507
279,-0.00213701836764812,0.00119714764878154,0.00170968391466886,-0.00342938303947449,-0.00152133556548506,0.0045009613968432
280,-0.00240083667449653,0.000288782641291618,0.000944633386097848,-0.00260262726806104,-0.00216883816756308,0.0050082323141396
281,-0.00240320432931185,-0.000596061407122761,0.000361291051376611,-0.00333670759573579,-0.00189398578368127,0.00478278798982501
282,-0.00142388558015227,-0.00125452387146652,-0.000483137468108907,-0.0051625189371407,-0.00118778820615262,0.00351559836417437
283,0.000895695702638477,-0.000954044226091355,-0.000970148423220962,-0.00638834061101079,0.00014358498447109,0.00268098223023117
284,0.00342946802265942,0.00034623549436219,-0.000478978181490675,-0.00617761351168156,0.00190193939488381,0.00336934509687126
285,0.00471410667523742,0.00185139861423522,0.000664000341203064,-0.00517097441479564,0.00319180730730295,0.00493777496740222
286,0.00477610947564244,0.00324075785465539,0.00207750918343663,-0.00378434965386987,0.00387179595418274,0.00636963499709964
287,0.00455907033756375,0.00436522951349616,0.003215616568923,-0.00164686399511993,0.00416570529341698,0.00712542328983545
288,0.00384337897412479,0.00443755276501179,0.00318166543729603,0.000626696273684502,0.00328005431219935,0.0065283514559269
289,0.0020722325425595,0.00308394711464643,0.00216898042708635,0.00116091803647578,0.000903463922441006,0.00439304020255804
290,-0.000314015574986115,0.00101114402059466,0.000678647600580007,-0.00101295474451035,-0.00206890190020204,0.00158085173461586
291,-0.00202340073883533,-0.000712155073415488,-0.000807982520200312,-0.00423914846032858,-0.00403718743473291,-0.00029223581077531
292,-0.00224948977120221,-0.00171987572684884,-0.00173631799407303,-0.00658742617815733,-0.003881431883201,-0.00070648011751473
293,-0.00195128808263689,-0.00253338180482388,-0.00247655156999826,-0.00821623019874096,-0.00264370604418218,-0.00121605978347361
294,-0.00130468048155308,-0.00287595670670271,-0.00248691090382636,-0.00870083086192608,-0.00131938862614334,-0.00193497841246426
295,0.000601770938374102,-0.00193562428466976,-0.00115225906483829,-0.00759224547073245,-6.56249540043063E-05,-0.0019198099616915
296,0.00323531962931156,4.3523114072741E-06,0.000456045789178461,-0.0063610184006393,0.000466954952571541,-0.00182874861638993
297,0.00533966533839703,0.00197875639423728,0.00132996775209904,-0.006308204960078,2.12886698136572E-05,-0.00255457870662212
298,0.00621837843209505,0.00305972248315811,0.00104657385963947,-0.00768557144328952,-0.00143332162406296,-0.00451981090009212
299,0.00585980899631977,0.00298194773495197,-0.000206120399525389,-0.00975935906171799,-0.00416540401056409,-0.0071795373223722
300,0.00511072808876634,0.0024895325768739,-0.00110843742731959,-0.0107999946922064,-0.00725408596917987,-0.00859763659536839
301,0.00507122604176402,0.00267755426466465,-0.000362108083209023,-0.00962713453918695,-0.00875396933406591,-0.00762478215619922
302,0.00583229074254632,0.00383301451802254,0.0016465688822791,-0.0071244640275836,-0.0079643027856946,-0.00543365348130465
303,0.00660613551735878,0.00529948156327009,0.0034944626968354,-0.00488553056493402,-0.00609070621430874,-0.00362004968337715
304,0.0065619507804513,0.00645089335739613,0.00413004076108336,-0.00366502720862627,-0.00516760861501098,-0.00276063941419125
305,0.00545274373143911,0.00717703718692064,0.003197664860636,-0.00364976422861218,-0.00656399037688971,-0.0028219255618751
306,0.00462410459294915,0.00783338770270348,0.00186097936239094,-0.00367725663818419,-0.00904658809304237,-0.00272078695707023
307,0.0057132113724947,0.00880580116063356,0.00214725662954152,-0.00206482550129294,-0.00958046037703753,-0.00105398264713585
308,0.0085102366283536,0.0101569155231118,0.00456270016729832,0.00105168344452977,-0.00680486159399152,0.00225010747089982
309,0.0119949290528893,0.0121646700426936,0.00861097499728203,0.00532442750409245,-0.00162695138715208,0.00671132281422615
310,0.0148067241534591,0.0147673329338431,0.0134086469188333,0.0111128631979227,0.00413542008027434,0.011164047755301
311,0.0146279204636812,0.0162065606564283,0.0167918168008327,0.0162923280149698,0.00807448383420706,0.0126384235918522
312,0.0112917879596353,0.0156588926911354,0.0179418902844191,0.0181528441607952,0.00936164055019617,0.0106210894882679
313,0.00746470503509045,0.0148870106786489,0.0177311412990093,0.0171841438859701,0.00921208318322897,0.00856189429759979
314,0.00406952947378159,0.0147843640297651,0.0151869636029005,0.0141005832701921,0.00698635959997773,0.00743796583265066
315,0.00111002125777304,0.0152072357013822,0.00987107958644629,0.0091167064383626,0.00201867124997079,0.00557045871391892
316,-0.000221834008698352,0.0162502564489841,0.00386520056053996,0.00350578245706856,-0.00330286030657589,0.00262977159582078
317,-0.000285329791950062,0.0170249864459038,-0.00135113834403455,-0.00173527782317251,-0.00728889647871256,-0.000943402817938477
318,0.000175646608113311,0.0172266084700823,-0.00432661920785904,-0.00475084083154798,-0.00919903255999088,-0.00334101915359497
319,0.00164730392862111,0.0177170168608427,-0.00368087855167687,-0.00367244752123952,-0.00795222632586956,-0.0024567604996264
320,0.00287347473204136,0.0179585684090853,-0.00145380396861583,-0.000526790041476488,-0.00536674400791526,0.000317454716423526
321,0.00241302815265954,0.017140157520771,0.000139851123094559,0.00213628611527383,-0.00335898972116411,0.00276529230177403
322,0.00183542782906443,0.0160580929368734,0.00230799266137183,0.00510521745309234,-0.000506777665577829,0.00507349660620093
323,0.0025953792501241,0.0151579100638628,0.0055202622897923,0.00859833415597677,0.00291945575736463,0.0070498869754374
324,0.00406320579349995,0.0140325659886003,0.00825951900333166,0.0111386552453041,0.00478114653378725,0.00769931869581342
325,0.00496004056185484,0.0120360013097525,0.00885231699794531,0.0115218181163073,0.00449038250371814,0.00612962059676647
326,0.00454942183569074,0.00886284932494164,0.00626444583758712,0.00941231194883585,0.00233583641238511,0.00205452111549675
327,0.00369208469055593,0.0057818884961307,0.00188169849570841,0.00677584623917937,-0.000249668315518647,-0.00254822126589715
328,0.00405865721404552,0.00395345082506537,-0.0013296518009156,0.0057049160823226,-0.00127768563106656,-0.00586470915004611
329,0.00551869859918952,0.00287885288707912,-0.00252778409048915,0.00497210398316383,-0.000910406582988799,-0.00835142564028502
330,0.00588026735931635,0.00159555615391582,-0.00358050013892353,0.00249714590609074,-0.00114359438885003,-0.0107624297961593
331,0.00466179149225354,3.91254579881206E-05,-0.00484950002282858,-0.000936122087296098,-0.0021937838755548,-0.0127418041229248
332,0.00365510769188404,-0.00115346862003207,-0.00502048991620541,-0.00329862418584526,-0.00251310528255999,-0.0136886304244399
333,0.00400867080315948,-0.00146273488644511,-0.00399286672472954,-0.0037109013646841,-0.00133307790383697,-0.0133453337475657
334,0.00562267936766148,-0.000677110336255282,-0.00250764354132116,-0.00227542803622782,0.000855308317113668,-0.0114866942167282
335,0.00759670184925199,0.000688247033394873,-0.00139625556766987,-2.37440654018428E-05,0.00292595126666129,-0.00876365695148706
336,0.00913493055850267,0.00177194084972143,-0.000580272986553609,0.00212005455978215,0.0047725080512464,-0.00628592958673835
337,0.0108439167961478,0.00312083377502859,0.00131447531748563,0.00494926469400525,0.00746477069333196,-0.00353750586509705
338,0.0134463701397181,0.00553136272355914,0.00448976410552859,0.00901302043348551,0.0105955237522721,9.52103800955229E-05
339,0.0157337859272957,0.00758556509390473,0.00654661189764738,0.0121866129338741,0.0118476431816816,0.00264450488612056
340,0.0163645464926958,0.0080682709813118,0.00588329322636127,0.0128221167251468,0.0108724310994148,0.00266021117568016
341,0.01564303599298,0.00789591204375029,0.00384439877234399,0.0123067516833544,0.00955913029611111,0.00189226935617626
342,0.01384820882231,0.00736274011433125,0.00157707137987018,0.0116432998329401,0.00804966129362583,0.00166719441767782
343,0.0116755357012153,0.00606607180088758,-0.000464057666249573,0.0105781359598041,0.00641676085069776,0.0014817442279309
344,0.0109823439270258,0.00492162490263581,-0.00132222881074995,0.00964215863496065,0.00641540437936783,0.00125587312504649
345,0.0119582200422883,0.00443112617358565,-0.00171332084573805,0.00833721831440926,0.00756058841943741,0.000331595452735201
346,0.0130276083946228,0.00381472986191511,-0.0033827181905508,0.00520797120407224,0.00746629945933819,-0.002853580750525
347,0.0135354176163673,0.00290892645716667,-0.00596232293173671,0.00150210782885551,0.00585268158465624,-0.00769461644813418
348,0.0131417447701097,0.00176075974013656,-0.00805030483752489,-0.00044525065459311,0.00378712452948093,-0.012347711250186
349,0.0117056258022785,0.000306645379168913,-0.00866059586405754,-0.000469703925773501,0.00206212420016527,-0.0158655792474747
350,0.0107708144932985,-0.000327231216942891,-0.00707537867128849,0.000984208891168237,0.00170034868642688,-0.0166707243770361
351,0.0108910640701652,0.000577744969632477,-0.0044667162001133,0.00315437628887594,0.00251154135912657,-0.0142768314108253
352,0.0102695738896728,0.00198018015362322,-0.00339191919192672,0.00418875878676772,0.0027590945828706,-0.0112751359120011
353,0.00821239873766899,0.00270046107470989,-0.00463658571243286,0.00302639324218035,0.00176184962037951,-0.0103311715647578
354,0.00640834681689739,0.00284594180993736,-0.0063674752600491,0.00124783301725984,0.00114596413914114,-0.0111576924100518
355,0.00633673602715135,0.00342253292910755,-0.00652700429782271,0.00136683892924339,0.00272669829428196,-0.0111718997359276
356,0.00732917990535498,0.00454886304214597,-0.00502224918454885,0.00338785862550139,0.00560516864061356,-0.00918001402169466
357,0.00796958897262812,0.00543507980182767,-0.00317355454899371,0.00568829011172056,0.00743774138391018,-0.00641118315979838
358,0.00794997904449701,0.00573521666228771,-0.00231279712170362,0.0071046375669539,0.0071746576577425,-0.00447422405704856
359,0.00789002422243357,0.00560659356415272,-0.00270347995683551,0.00714513845741749,0.00541595136746764,-0.00374078354798257
360,0.00853716023266315,0.00563410203903914,-0.00320841185748577,0.00668298918753862,0.00385209661908448,-0.00319576030597091
361,0.00961177237331867,0.00624358467757702,-0.00332950195297599,0.00647292286157608,0.003160135820508,-0.00273719546385109
362,0.0103968353942037,0.00705042481422424,-0.00362541666254401,0.0061379810795188,0.00280055683106184,-0.00319486553780735
363,0.0108967898413539,0.00770211825147271,-0.00392687134444714,0.00608802959322929,0.00287822890095413,-0.00405885512009263
364,0.012078276835382,0.00867380481213331,-0.00289780786260962,0.00762896705418825,0.00434657745063305,-0.00344756687991321
365,0.014409608207643,0.0101167401298881,-3.27804918924812E-05,0.0105179231613874,0.00705932779237628,-0.000687780731823295
366,0.0163180250674486,0.0112071745097637,0.00313126156106591,0.0132747124880552,0.00925168301910162,0.00230453745462
367,0.0161193292587996,0.0111268842592835,0.00539990700781345,0.0150676360353827,0.0102325920015574,0.00340812536887825
368,0.013349617831409,0.00918077398091555,0.00667917029932141,0.0144457099959254,0.0102268438786268,0.00153167499229312
369,0.00983767583966255,0.00601701345294714,0.00743434764444828,0.0109777627512813,0.00976650975644588,-0.00209414795972407
370,0.00781565438956022,0.00319679290987551,0.0077111185528338,0.00655246991664171,0.00925274658948183,-0.00445814616978168
371,0.00696431659162045,0.00112001376692206,0.00691652437672019,0.00312107335776091,0.00804117042571306,-0.00430985167622566
372,0.00619893195107579,-2.11938786378596E-05,0.0053861178457737,0.00198127282783389,0.00581939844414592,-0.00207299995236099
373,0.00479905493557453,-2.31461963267066E-05,0.00369090936146677,0.00287767592817545,0.00262691895477474,0.00113539304584265
374,0.00275868503376842,0.000428514613304287,0.00235784938558936,0.00463516404852271,-0.00110211048740894,0.00387804140336812
375,0.00112361868377775,0.000586221343837678,0.00214414577931166,0.00653038313612342,-0.0040521826595068,0.00537453731521964
376,0.000948395987506956,0.000695567985530943,0.00313542247749865,0.00830609071999788,-0.00512656895443797,0.00593137834221125
377,0.00212583062238991,0.00119616941083223,0.00461350940167904,0.00955179054290056,-0.00446609640493989,0.00617538811638951
378,0.00373198604211211,0.00210131891071796,0.00593957118690014,0.0100849941372871,-0.00284887035377324,0.0065290555357933
379,0.00492704566568136,0.00286178337410092,0.00680353632196784,0.0102360267192125,-0.00107088941149414,0.00683740247040987
380,0.00501158321276307,0.00233640614897013,0.00664684968069196,0.00949905067682266,-0.000291792501229793,0.0059322570450604
381,0.00454523833468556,0.00079457531683147,0.00578042585402727,0.00804188381880522,-0.000702989578712732,0.0040716091170907
382,0.00455993600189686,-0.000534263032022864,0.0048900474794209,0.00672950409352779,-0.00167071388568729,0.00247586239129305
383,0.00429228041321039,-0.0016017600428313,0.00303732790052891,0.00542308948934078,-0.0038364517968148,0.000913359690457582
384,0.00364573090337217,-0.00192550325300545,0.000866116373799741,0.00544065795838833,-0.00629837019369006,0.000302591623039916
385,0.00298711005598307,-0.00138662697281688,0.000124371523270383,0.00679374672472477,-0.00698473211377859,0.000969775719568133
386,0.00073536520358175,-0.00142141571268439,-0.000276895763818175,0.00657762726768851,-0.00693136733025312,0.00119316740892828
387,-0.00240223831497133,-0.0018152684206143,-0.000455485074780881,0.00544288009405136,-0.00668967282399535,0.00161439809016883
388,-0.00342752574943006,-0.00137104920577258,0.00123477086890489,0.00588273862376809,-0.00478021474555135,0.00332599692046642
389,-0.00234157335944474,-0.00033428322058171,0.00413506804034114,0.00715262209996581,-0.00170688214711845,0.00546049233525991
390,-0.00169251346960664,0.000300896121188998,0.00588958710432053,0.00716317445039749,2.51534911512863E-05,0.00657360767945647
391,-0.00210108025930822,-5.72434009882272E-06,0.00603776331990957,0.00604588305577636,-0.000454856752185151,0.00610935175791383
392,-0.00267089437693357,-0.00125145062338561,0.00565548939630389,0.00478061195462942,-0.00216438225470483,0.00450446596369147
393,-0.00335944932885468,-0.00297810067422688,0.0050020394846797,0.00284355971962214,-0.00432658288627863,0.00194379908498377
394,-0.00370401632972062,-0.00422770716249943,0.00440953718498349,0.000585044908802956,-0.00607320573180914,-0.000844695896375924
395,-0.00343510159291327,-0.00445877527818084,0.00397756462916732,-0.000718468043487519,-0.00734094344079494,-0.00288439844734967
396,-0.00275925896130502,-0.00380817940458655,0.00340314046479762,-0.000517405394930393,-0.00841096416115761,-0.00366639578714967
397,-0.000900775194168091,-0.00231160875409842,0.00368517730385065,0.00153466837946326,-0.00804077554494143,-0.00254251854494214
398,0.00237212958745658,-0.000191620390978642,0.00598178897053003,0.00472741154953837,-0.0054314942099154,0.000106716186564881
399,0.0052719609811902,0.00138756388332695,0.00931172166019678,0.00683550303801894,-0.0019946291577071,0.00222654175013304
400,0.00549268908798695,0.00142801436595619,0.0109423641115427,0.00616460433229804,5.48157004232053E-06,0.00228586513549089
401,0.00291987555101514,0.000527025898918509,0.00978352595120668,0.00389906158670783,-0.000280347943771631,0.00130835722666234
402,0.000171651219716296,0.00031564335222356,0.00818591192364693,0.0033247706014663,-0.00134405505377799,0.00185444985982031
403,-0.00110635964665562,0.00114412978291512,0.00768926693126559,0.0054835076443851,-0.00198868662118912,0.00417842902243137
404,-0.00139610178302974,0.00197793915867805,0.00800949241966009,0.00854699779301882,-0.00208591762930155,0.00605996046215296
405,-0.00184243242256343,0.0020038322545588,0.00864903908222914,0.00990344118326902,-0.00228249211795628,0.00587096577510238
406,-0.00378983793780208,0.00113056390546262,0.0081471148878336,0.00837335083633661,-0.00450587831437588,0.00431362772360444
407,-0.00619852403178811,0.000631058763246983,0.00724459253251553,0.00644445838406682,-0.00782707706093788,0.00436255102977157
408,-0.00689690327271819,0.00141442834865302,0.00801470130681992,0.00625934917479753,-0.00918053835630417,0.00680900271981955
409,-0.00667463475838304,0.00198641349561512,0.00907104462385178,0.00585271511226892,-0.00939102377742529,0.0083240270614624
410,-0.0072749680839479,0.00103239039890468,0.00831143092364073,0.00357426120899618,-0.0110166408121586,0.00705919601023197
411,-0.00865768734365702,-0.000892374489922076,0.00612677214667201,0.000396643357817084,-0.0136974500492215,0.00434077670797706
412,-0.0108088068664074,-0.00359925092197955,0.00283601740375161,-0.00377440568991005,-0.0164223704487085,0.000224490402615629
413,-0.013100216165185,-0.00658203940838575,-0.000620848324615508,-0.00842398591339588,-0.0182288270443678,-0.00475797150284052
414,-0.0132379792630672,-0.00771339051425457,-0.00144645781256258,-0.0102604562416673,-0.0168667584657669,-0.0070565608330071
415,-0.0106496140360832,-0.00577744841575623,0.00108801817987114,-0.00767789268866181,-0.0118631990626454,-0.00481727952137589
416,-0.00755556672811508,-0.00200881366617978,0.00478288298472762,-0.00258736265823245,-0.00588791025802493,0.000111850102257449
417,-0.00683557242155075,0.000921897648368031,0.00652207527309656,0.00130375078879297,-0.00303437188267708,0.00414511887356639
418,-0.00870931707322598,0.00161942443810403,0.00515239359810948,0.00174359395168722,-0.00485653663054109,0.00474615255370736
419,-0.0101131955161691,0.00122859026305377,0.00302654388360679,0.000294089288217947,-0.00818961951881647,0.00329906260594726
420,-0.00982714537531137,0.000718135095667094,0.00148869247641414,-0.00148602924309671,-0.0105042578652501,0.00193205499090254
421,-0.00978892017155886,-0.000122112105600536,-0.000347009743563831,-0.00391812296584249,-0.0121127562597394,0.000436520029325038
422,-0.0106379771605134,-0.000921498751267791,-0.00188652612268925,-0.00625774031504989,-0.0123912747949362,-0.00115831941366196
423,-0.0107639227062464,-0.000632885727100074,-0.00181872770190239,-0.00680146412923932,-0.0103341927751899,-0.00142849725671113
424,-0.00994778517633677,0.000703114725183696,-0.00124020676594228,-0.00536932656541467,-0.00781864020973444,4.73318286822177E-05
425,-0.00994099862873554,0.00120834982953966,-0.00221611303277314,-0.0038749014493078,-0.00758300581946969,0.00118852802552283
426,-0.0106931226328015,0.000177752022864297,-0.00397311197593808,-0.00364000769332051,-0.00896738842129707,0.00110972265247256
427,-0.0103769544512033,-0.000645282270852476,-0.00459632975980639,-0.00382787408307195,-0.00984292849898338,0.00184577354229987
428,-0.00843084044754505,-0.000222894974285737,-0.00394582189619541,-0.00320772267878056,-0.009736861102283,0.00451031234115362
429,-0.00578292459249496,0.000825181661639363,-0.00270839408040047,-0.00152920430991799,-0.0090405996888876,0.00805128272622824
430,-0.00402644695714116,0.00150348234456033,-0.00213853060267866,-4.3233474571025E-05,-0.00897639524191618,0.010499095544219
431,-0.00385702471248806,0.0014476835494861,-0.00285544176585972,0.0001577560469741,-0.0104763861745596,0.0107582751661539
432,-0.00456078490242362,0.00100252858828753,-0.00366006651893258,-0.000391599693102762,-0.0124328434467316,0.00960903894156218
433,-0.00607518525794148,7.53133062971756E-05,-0.00417370954528451,-0.0016187522560358,-0.0139648076146841,0.00763731822371483
434,-0.00834244024008513,-0.00104510295204818,-0.00513623561710119,-0.00359761854633689,-0.0152587173506618,0.00509330350905657
435,-0.0100906854495406,-0.00139690970536321,-0.00636726943776011,-0.00539157306775451,-0.015876829624176,0.00281356880441308
436,-0.0105073265731335,-0.00115981337148696,-0.00733495596796274,-0.00646139914169908,-0.0151959573850036,0.000949507171753794
437,-0.00942996051162481,-0.00094516621902585,-0.00710102031007409,-0.00617510406300426,-0.0129542276263237,-9.51727561186999E-05
438,-0.00708566326647997,-0.000768226687796414,-0.00485254032537341,-0.00420092232525349,-0.00965517945587635,0.000367039698176086
439,-0.0043776729144156,-0.000400652934331447,-0.00131089345086366,-0.00171262794174254,-0.00609674071893096,0.00154567160643637
440,-0.00276717846281827,4.02941113861743E-05,0.00151675357483327,-0.000502596842125058,-0.00311649963259697,0.00178208178840578
441,-0.00354912830516696,-0.000180156377609819,0.00170261214952916,-0.00159427034668624,-0.00198341347277164,0.000163088014232926
442,-0.00542268482968211,-0.000625756802037358,2.60033357335487E-05,-0.00327738793566823,-0.00205578026361763,-0.00177010474726558
443,-0.00590952392667532,-0.000199290516320616,-0.00107685138937086,-0.00316238007508218,-0.00140607438515872,-0.00235773017629981
444,-0.00442094448953867,0.000699571159202605,-0.000629596179351211,-0.0013836839934811,0.000773648673202842,-0.00242437515407801
445,-0.00205239304341376,0.00112491589970887,0.000243304195464589,0.00069139979314059,0.00387460528872907,-0.00323374243453145
446,-0.000309435941744596,0.000935466203372926,-5.75742888031527E-05,0.00202925433404744,0.00601028231903911,-0.00493309181183577
447,0.000308751157717779,0.000581435800995678,-0.00150825479067862,0.00180279277265072,0.00611727731302381,-0.00667152507230639
448,0.000393694965168834,0.000655621464829892,-0.0028798570856452,-2.06903005164349E-05,0.00524793332442641,-0.00719676306471229
449,0.000896635639946908,0.00176683848258108,-0.00301483715884387,-0.00139438721816987,0.00479698972776532,-0.0052484842017293
450,0.00231778644956648,0.0040233051404357,-0.00172965438105166,-0.000212974147871137,0.00511443521827459,-0.000415773742133752
451,0.00393488630652428,0.00664817076176405,-0.000103275182482321,0.00274429866112769,0.00580279855057597,0.00575708178803325
452,0.00430779624730349,0.00852412823587656,0.000598112121224403,0.00543352356180549,0.00569987203925848,0.0110776573419571
453,0.00375468260608613,0.00945906899869442,0.000921041355468333,0.00795084424316883,0.004526705481112,0.0151912393048406
454,0.00421762326732278,0.0100416531786323,0.00231161620467901,0.0113392397761345,0.00351534807123244,0.0188725143671036
455,0.00576408160850406,0.0102151334285736,0.00438454514369369,0.0146408155560493,0.00303442124277353,0.0214614234864712
456,0.00650138780474663,0.00919369701296091,0.00549548910930753,0.0157846491783857,0.00264321826398373,0.0214203651994467
457,0.00543931592255831,0.00670913234353065,0.0047980803065002,0.0140570672228932,0.00248946715146303,0.0187893752008677
458,0.00357865635305643,0.00390975596383214,0.00317325466312468,0.0108288209885359,0.00277656619437039,0.0152317862957716
459,0.00197239359840751,0.00228743581101298,0.00171947339549661,0.0077886525541544,0.00276967091485858,0.0122536644339561
460,0.00094739644555375,0.00243012933060527,0.00109584489837289,0.00634289067238569,0.00221274653449655,0.0109797790646553
461,0.000919716665521264,0.00398007081821561,0.00202988716773689,0.00763002969324589,0.00184164836537093,0.0121702663600445
462,0.00153582578059286,0.00562070123851299,0.00394384562969208,0.0107262991368771,0.00169467006344348,0.0151024488732219
463,0.00203487020917237,0.00604430306702852,0.00578282726928592,0.0137787302955985,0.00163123081438243,0.0181079059839249
464,0.0018413404468447,0.00486910855397582,0.00697619048878551,0.0158455241471529,0.00153876782860607,0.019423445686698
465,0.000455596717074513,0.0023473515175283,0.00674663297832012,0.0162792038172483,0.000807959993835539,0.0179182942956686
466,-0.00190472940448672,-0.000907261273823678,0.00464886613190174,0.015071639791131,-0.000603719265200198,0.0139486491680145
467,-0.00375432334840298,-0.00381392217241228,0.00217521260492504,0.0138331661000848,-0.00109578075353056,0.00931714102625847
468,-0.00353944511152804,-0.00543095823377371,0.0019515457097441,0.0137986773625016,0.000964022416155785,0.00624367408454418
469,-0.00170654512476176,-0.00591821270063519,0.00418475549668074,0.0141503168269992,0.00462954211980104,0.00570951635017991
470,0.0011815382167697,-0.00537691777572036,0.00798112712800503,0.0149997258558869,0.0085575683042407,0.00798440631479025
471,0.00414525112137198,-0.00411122292280197,0.0119964564219117,0.0162488780915737,0.0114956637844443,0.0115333721041679
472,0.00397424399852753,-0.00362776010297239,0.0129942474886775,0.0153878619894385,0.0107398852705956,0.0128982067108154
473,-3.9477050449932E-05,-0.00408278405666351,0.0106263374909759,0.0123373745009303,0.00675350846722722,0.0117321088910103
474,-0.00368792144581676,-0.00363477715291083,0.00918016955256462,0.0108657339587808,0.00431161466985941,0.0115037309005857
475,-0.00417470885440707,-0.00197152676992118,0.0104433093219996,0.012203024700284,0.00483286380767822,0.0130936168134212
476,-0.00410014670342207,-0.00132870464585721,0.0108338044956326,0.0127316322177649,0.00452013034373522,0.0127205774188042
477,-0.00592927588149905,-0.00282655539922416,0.00791524723172188,0.0105923339724541,0.00130440492648631,0.00847848318517208
478,-0.00767444353550673,-0.00443499814718962,0.00410544639453292,0.00890025217086077,-0.00222673732787371,0.00400630058720708
479,-0.00735885836184025,-0.00430780276656151,0.00199390086345375,0.00964448042213917,-0.00341193377971649,0.0026828411500901
480,-0.00621213996782899,-0.00310809700749815,0.000996038201265037,0.0108898878097534,-0.00309661170467734,0.00332684000022709
481,-0.00533048715442419,-0.00177504378370941,0.000206333250389434,0.0114226993173361,-0.00286719785071909,0.00407477235421538
482,-0.00493469927459955,-0.00102676870301366,-0.000637090299278498,0.0110865915194154,-0.00311442976817489,0.00396520597860217
483,-0.00502092763781548,-0.00165245158132166,-0.00143843423575163,0.00955413840711117,-0.00320214405655861,0.00238864636048675
484,-0.00542619498446584,-0.00365513097494841,-0.00186657626181841,0.00689541315659881,-0.00259734317660332,-0.000589668226893991
485,-0.00601761322468519,-0.00617141183465719,-0.00223252386786044,0.00361947086639702,-0.00154942669905722,-0.00412706006318331
486,-0.00613139057531953,-0.00794360134750605,-0.002743762684986,0.00136095855850726,-0.000157136251800694,-0.00617970153689384
487,-0.00608505820855498,-0.00871826056391001,-0.00366874225437641,0.000717861286830157,0.000929495319724083,-0.00622911611571908
488,-0.0062529044225812,-0.0088645676150918,-0.00467262603342533,0.000689812353812158,0.00200015027076006,-0.00587098300457001
489,-0.00564009696245193,-0.00809184368699789,-0.0043127266690135,0.00167061795946211,0.00452747568488121,-0.00569901848211885
490,-0.00387190445326269,-0.00595256499946117,-0.00174193107523024,0.00514495419338346,0.00809468608349562,-0.00453248154371977
491,-0.00215158401988447,-0.00318280467763543,0.00192655809223652,0.00967225339263678,0.0103387581184506,-0.00207649613730609
492,-0.00222093658521771,-0.00153642252553254,0.00376116624101996,0.0111695760861039,0.00903499964624643,-0.00019499305926729
493,-0.00433889776468277,-0.00160903530195355,0.00238836999051273,0.00843177922070026,0.00457509839907289,-4.41633819718845E-05
494,-0.00663695530965924,-0.00233828346244991,-1.30563867060118E-05,0.00416505895555019,0.000174219108885154,-0.000791326980106533
495,-0.00752010056748986,-0.00278048682957888,-0.00120988569688052,0.00091424718266353,-0.0018953091930598,-0.00149577378761023
496,-0.00698918383568525,-0.00276820990256965,-0.00120294652879238,-0.00101419491693377,-0.00179196242243052,-0.00198096665553749
497,-0.00558972684666514,-0.0023049593437463,-0.000921122962608933,-0.00231217453256249,-0.000734260771423578,-0.0025357638951391
498,-0.00327486009337008,-0.00124975317157805,-0.000347745633916929,-0.00257040048018098,0.000672318215947598,-0.00320666143670678
499,-0.000729072606191039,-0.000398047966882586,0.000810509081929922,-0.00176985294092447,0.00217607663944364,-0.00405270466580987
500,0.000360577396349981,-0.00108551618177444,0.00206656148657203,-0.00155712512787431,0.00311723281629384,-0.00519481627270579
501,3.65007463187794E-06,-0.00281578861176968,0.00299051869660616,-0.00266526499763131,0.00368177122436464,-0.00629723398014903
502,-0.000186251665581949,-0.0039706127718091,0.00330581841990352,-0.00421105464920402,0.00437924126163125,-0.0069116884842515
503,0.000602015585172921,-0.00378765701316297,0.00322823598980904,-0.00523906527087092,0.00494884606450796,-0.00635396363213658
504,0.00150619260966778,-0.00265224021859467,0.00303118652664125,-0.0059244860894978,0.0043825451284647,-0.00510343350470066
505,0.00191412167623639,-0.00122815405484289,0.00276189646683633,-0.00657770689576864,0.00229478254914284,-0.00475605158135295
506,0.00213562021963298,5.1369523134781E-05,0.00283489655703306,-0.00660323863849044,-0.000264795293333009,-0.00545655796304345
507,0.00212116632610559,0.000879861880093813,0.00330143608152866,-0.00557262636721134,-0.00224267039448023,-0.00606355583295226
508,0.00184555759187788,0.00128903053700924,0.00375961442478001,-0.00398658215999603,-0.00307964393869042,-0.00607417384162545
509,0.00210294569842517,0.0017767638200894,0.00464412197470665,-0.00236731022596359,-0.00201026909053326,-0.0056014284491539
510,0.00308165838941932,0.00259171472862363,0.0061364839784801,-0.00102454237639904,0.000704700476489961,-0.00511899497359991
511,0.00365650397725403,0.00289441249333322,0.00692810118198395,-0.000345856038620695,0.0029552667401731,-0.00580997345969081
512,0.00317299994640052,0.00195104663725942,0.00633528362959623,-0.000221989685087465,0.00299763353541493,-0.00810642912983894
513,0.00216131331399083,0.000447742932010442,0.00513704121112823,-0.000317884841933846,0.00127366662491113,-0.010391035117209
514,0.00091840693494305,-0.000944642815738916,0.00313431839458644,-0.00134041381534189,-0.00141125964000821,-0.0114466771483421
515,-0.000348908768501133,-0.00229705334641039,-8.47223709570244E-05,-0.00370772695168853,-0.00479249190539122,-0.0119885178282857
516,-0.000629681220743805,-0.00332751520909369,-0.00276960479095578,-0.00569903803989291,-0.00765630276873708,-0.0119795715436339
517,-4.32759989053011E-05,-0.00374096282757819,-0.00364425242878497,-0.00637367740273476,-0.00927093718200922,-0.0110260853543878
518,0.00105972052551806,-0.00311424722895026,-0.00253872224129736,-0.00579161010682583,-0.00912919268012047,-0.00917164143174887
519,0.00280047068372369,-0.00139464624226093,0.000153345477883704,-0.0039997692219913,-0.00700977677479386,-0.00645101582631469
520,0.00415607448667288,-7.4326089816168E-05,0.00260800588876009,-0.00264097424224019,-0.00431933952495456,-0.00451605953276157
521,0.0053271297365427,0.000210377649636939,0.00455358065664768,-0.00217224028892815,-0.00106700079049915,-0.0042357761412859
522,0.00707060797140002,0.000406420236686245,0.00659273704513907,-0.00139475637115538,0.00293323025107384,-0.00408575544133782
523,0.00777071435004473,0.000206915981834754,0.00687523419037461,-0.000888666312675923,0.00462561100721359,-0.00378173659555614
524,0.00611604517325759,-0.00115507584996521,0.00440014526247978,-0.00149980944115669,0.00200614286586642,-0.00419563660398126
525,0.00332235242240131,-0.0026244311593473,0.00155793491285294,-0.00222424324601889,-0.00213577505201101,-0.00446905754506588
526,0.00074459397001192,-0.00312853092327714,-3.78944218937249E-06,-0.00261928350664675,-0.00457243621349335,-0.00382750714197755
527,-0.00150080467574298,-0.00300562707707286,-0.00115959334652871,-0.00344499759376049,-0.00501383980736136,-0.0032424870878458
528,-0.00382229383103549,-0.00289456686004996,-0.00304969493299723,-0.00490941386669874,-0.00490276236087084,-0.00351673155091703
529,-0.00618648016825318,-0.00301589909940958,-0.00581117393448949,-0.00628975359722972,-0.00543480506166816,-0.00412316340953112
530,-0.0081452839076519,-0.00344354985281825,-0.00872107688337564,-0.00683514634147286,-0.00666425283998251,-0.00418429775163531
531,-0.0105438623577356,-0.00447530718520284,-0.0118646882474422,-0.00687906937673688,-0.00906748417764902,-0.00414942158386111
532,-0.013150105252862,-0.00546253612264991,-0.0142798768356442,-0.00604718830436468,-0.0115140248090029,-0.0040634092874825
533,-0.0130115346983075,-0.00502133369445801,-0.0129104796797037,-0.0033072920050472,-0.0103562884032726,-0.00219319760799408
534,-0.00931343156844378,-0.00311316922307014,-0.00775018287822604,0.000163732867804356,-0.00534340506419539,0.00188600481487811
535,-0.00429546739906073,-0.000822025816887617,-0.00184419529978186,0.002797826891765,0.000343203166266903,0.00652087898924947
536,-0.000203577801585197,0.000780723465140909,0.00257926248013973,0.0044321701861918,0.00402635429054499,0.0099857384338975
537,0.00198489148169756,0.00147940590977669,0.00468625873327255,0.00534888822585344,0.00445892149582505,0.0118107460439205
538,0.0030347399879247,0.00221298215910792,0.00523933907970786,0.00659541413187981,0.003069459926337,0.0132218198850751
539,0.00404101004824042,0.00331248226575553,0.00563411088660359,0.00863152649253607,0.00239296443760395,0.014971025288105
540,0.00501607917249203,0.00376542937010527,0.006310791708529,0.0103041818365455,0.00342765939421952,0.0160891842097044
541,0.00466717453673482,0.00271946075372398,0.00640434585511684,0.0102249747142196,0.00522584468126297,0.0153476735576987
542,0.00227391207590699,0.000578944862354547,0.00505632627755404,0.00828810688108206,0.00603791233152151,0.0129341185092926
543,-0.000677320058457553,-0.00158240459859371,0.00265123671852052,0.00613425578922033,0.00509239640086889,0.010905078612268
544,-0.00325727951712906,-0.00367926037870348,0.000206099502975121,0.00531333964318037,0.00306184636428952,0.0104185389354825
545,-0.00594181939959526,-0.00628210417926311,-0.000712019391357899,0.00636851135641336,0.00171924685128033,0.0104621173813939
546,-0.00794703513383865,-0.00913551356643438,0.00134996441192925,0.00883243419229984,0.00305890059098601,0.0096846790984273
547,-0.0081330519169569,-0.0119437454268336,0.00456787925213575,0.00934537500143051,0.00660004978999496,0.00560377165675163
548,-0.00707165105268359,-0.0142812458798289,0.00441571976989508,0.00460112607106566,0.00872971676290035,-0.00314452778548002
549,-0.00564891938120127,-0.0149668520316482,-0.000461122079286724,-0.00262966332957149,0.00756096327677369,-0.0126908998936415
550,-0.00400796998292208,-0.0138717768713832,-0.00661337561905384,-0.0065357219427824,0.00541220791637897,-0.0183924417942762
551,-0.00248888181522489,-0.0121826697140932,-0.010286339558661,-0.00548627134412527,0.00467535015195608,-0.0196815393865108
552,-0.00193223904352635,-0.0108236204832792,-0.0112007018178701,-0.0025160382501781,0.00483904033899307,-0.0184840597212315
553,-0.00255300127901137,-0.00979647506028414,-0.0113154463469982,-0.000433458597399294,0.00473219249397516,-0.0163904149085283
554,-0.00374166737310588,-0.00894336029887199,-0.0115530276671052,0.000413931295042858,0.00471585430204868,-0.0143715450540185
555,-0.00489872740581632,-0.00876320619136095,-0.0117703070864081,9.22542094485834E-05,0.00567720318213105,-0.0141424648463726
556,-0.004963762126863,-0.00942730996757746,-0.0118297850713134,-0.00129612185992301,0.00788868684321642,-0.0165562909096479
557,-0.00358059909194708,-0.01081314496696,-0.0121201770380139,-0.00328799732960761,0.0109000420197845,-0.0205532591789961
558,-0.00093094544718042,-0.0124459089711308,-0.0122791128233075,-0.00470949010923505,0.0149575686082244,-0.0240509547293186
559,0.00377642759121954,-0.0127703230828047,-0.0104480125010014,-0.00358489761129022,0.0208856128156185,-0.0246590729802847
560,0.00925791915506125,-0.011634455062449,-0.00700071780011058,-0.000668980239424855,0.0268996190279722,-0.023328498005867
561,0.012242877855897,-0.0106475921347737,-0.00491497572511435,0.000859170046169311,0.0296826958656311,-0.0236082877963781
562,0.0115921115502715,-0.0108711877837777,-0.00589207839220762,-0.000147332713822834,0.0282077696174383,-0.026162751019001
563,0.00978813227266073,-0.0119664380326867,-0.00801016017794609,-0.00166017014998943,0.0252726450562477,-0.0279912650585175
564,0.0100545855239034,-0.0124787958338857,-0.00835264287889004,-0.00137630524113774,0.0244796629995108,-0.0265644583851099
565,0.0117154540494084,-0.0121474349871278,-0.00777207594364882,-9.43612540140748E-05,0.0250394847244024,-0.0234992317855358
566,0.0117079243063927,-0.0119066070765257,-0.0085711320862174,0.000786613207310438,0.0238141492009163,-0.0211622547358274
567,0.0094142509624362,-0.0115949418395758,-0.0106505099684,0.00211071851663291,0.020295474678278,-0.0196218527853489
568,0.00651930039748549,-0.0108786802738905,-0.0131775448098779,0.00407591182738543,0.0158990621566772,-0.0194438043981791
569,0.00452769687399268,-0.0103465970605612,-0.0155307464301586,0.00457507744431496,0.0120395673438907,-0.0217800904065371
570,0.00484146224334836,-0.0095276515930891,-0.0160709228366613,0.00307582761161029,0.0106946723535657,-0.0246109236031771
571,0.00760574359446764,-0.007110386621207,-0.0143120866268873,0.0019037073943764,0.0122509766370058,-0.0237155966460705
572,0.0106042940169573,-0.00358991348184645,-0.0120398169383407,0.00214601680636406,0.013818547129631,-0.0184623058885336
573,0.0119729125872254,-0.000646099331788719,-0.0105535248294473,0.00281153479591012,0.0130574982613325,-0.0121521949768066
574,0.012098559178412,0.00102545996196568,-0.00966216064989567,0.00331021589227021,0.010750581510365,-0.0073321838863194
575,0.0123944580554962,0.00200860318727791,-0.00876339338719845,0.00397861376404762,0.00914434529840946,-0.00384672707878053
576,0.0126578249037266,0.0030390196479857,-0.00813893880695105,0.00445147464051843,0.00899372156709433,-0.00110126193612814
577,0.0120923891663551,0.00422622496262193,-0.00785482116043568,0.00449208030477166,0.00982016231864691,0.00124059361405671
578,0.0101234782487154,0.00442527793347836,-0.00773243419826031,0.00407481379806995,0.0109007088467479,0.00281777651980519
579,0.00647859973832965,0.00291495956480503,-0.00761441048234701,0.00284351105801761,0.0116372676566243,0.00304963649250567
580,0.00300793396309018,0.00141711777541786,-0.00653793336823583,0.00178586679976434,0.0122373718768358,0.00354109797626734
581,0.000738861272111535,0.00102714437525719,-0.00551341427490115,0.000969905930105597,0.0116251166909933,0.00508861476555467
582,-0.000620619161054492,0.00111059099435806,-0.00600633630529046,-0.000170450948644429,0.00873102806508541,0.00699929054826498
583,-0.000511191028635949,0.00140149355866015,-0.0069809234701097,-0.000478001282317564,0.0048320209607482,0.00935830920934677
584,0.000744110147934407,0.00179278966970742,-0.00755760120227933,0.000219260706217028,0.00122323841787875,0.0115823168307543
585,0.00189904228318483,0.00204550824128091,-0.00793271977454424,0.000409223110182211,-0.00172775587998331,0.0123267266899347
586,0.00287221628241241,0.00252482551150024,-0.00793243758380413,-0.000145272497320548,-0.00329201365821064,0.0114272758364677
587,0.004233927000314,0.00389667134732008,-0.00759518891572952,-0.00020615296671167,-0.00326469144783914,0.0101959081366658
588,0.00471279956400394,0.00516748055815697,-0.00869890861213207,-5.50040494999848E-05,-0.00354149844497442,0.00863944366574287
589,0.0033212632406503,0.00495085073634982,-0.0113890487700701,-0.000177596186404116,-0.00490816216915846,0.0062788468785584
590,0.0016933954320848,0.00400354992598295,-0.0124523686245084,0.000475267821457237,-0.0054001696407795,0.00521107343956828
591,0.000455675966804847,0.00314785516820848,-0.0113502368330956,0.00101829983759671,-0.00488969264551997,0.00666533038020134
592,-0.00191095867194235,0.00163777847774327,-0.0115774627774954,-0.00152752525173128,-0.00597608089447021,0.00817691441625357
593,-0.00564723927527666,-0.000800754525698721,-0.014683018438518,-0.00749681703746319,-0.00976288318634033,0.00751451309770346
594,-0.00837881769984961,-0.00271280761808157,-0.0179705005139112,-0.0131580317392945,-0.0139536773785949,0.00594238145276904
595,-0.00843948312103748,-0.00294656306505203,-0.0187533963471651,-0.0153008550405502,-0.0154536450281739,0.00557670136913657
596,-0.00791954528540373,-0.00227311183698475,-0.0178024340420961,-0.0148820364847779,-0.0140666039660573,0.006138960365206
597,-0.0088988458737731,-0.00178740709088743,-0.0170387607067823,-0.0143770230934024,-0.0119352536275983,0.00639576185494661
598,-0.00984473712742329,-0.00154790049418807,-0.0167010203003883,-0.0145206125453115,-0.0103182196617126,0.00598866678774357
599,-0.00912901572883129,-0.00144905981142074,-0.0161891896277666,-0.0148936882615089,-0.00921591278165579,0.00483551761135459
600,-0.00738427927717566,-0.00149164185859263,-0.0150689333677292,-0.014532458037138,-0.00839878059923649,0.00370235089212656
601,-0.00588299846276641,-0.00176629202906042,-0.0137040615081787,-0.013125536032021,-0.00809333473443985,0.00326121528632939
602,-0.00473533105105162,-0.00213370169512928,-0.0126741267740726,-0.0115902945399284,-0.0083497567102313,0.00288883852772415
603,-0.00326964352279902,-0.00169156875927001,-0.011909238062799,-0.0105015719309449,-0.00860909651964903,0.00240390654653311
604,-0.00208886340260506,-0.00014752967399545,-0.0114525109529495,-0.00989747885614634,-0.00898740626871586,0.00230598100461066
605,-0.00261894590221345,0.00169950467534363,-0.0115423416718841,-0.00984208285808563,-0.0103055573999882,0.00280696479603648
606,-0.00478376029059291,0.00344330980442464,-0.0118644386529922,-0.00995787419378757,-0.0123122073709965,0.00404626876115799
607,-0.00660897139459848,0.00524449860677123,-0.0111345201730728,-0.00885309372097254,-0.0130736567080021,0.00631384365260601
608,-0.00726156774908304,0.00640761386603117,-0.00931775290518999,-0.00641559902578592,-0.012199642136693,0.00835824105888605
609,-0.0084173521026969,0.00562347052618861,-0.00854288879781961,-0.00554025964811444,-0.0120794260874391,0.00762919662520289
610,-0.0105457194149494,0.00329284789040685,-0.00913491938263178,-0.00753018399700522,-0.0134032946079969,0.00480559142306447
611,-0.0112314512953162,0.0016367583302781,-0.00852217245846987,-0.00898320507258177,-0.0136424321681261,0.00406758533790708
612,-0.00953739788383245,0.00138694245833904,-0.00609226524829865,-0.00774274952709675,-0.012118985876441,0.00652603106573224
613,-0.0069606015458703,0.00157966557890177,-0.00352321844547987,-0.00539205782115459,-0.0102684767916799,0.00953791569918394
614,-0.00487485202029347,0.00161092542111874,-0.00154223293066025,-0.00365859922021627,-0.00823631789535284,0.0111840041354299
615,-0.00490374397486448,0.000672268506605178,-0.000863465305883437,-0.00425186706706882,-0.00684636924415827,0.0104518551379442
616,-0.00755848456174135,-0.0017219630535692,-0.00188043504022062,-0.00736350426450372,-0.00728648388758302,0.00768130738288164
617,-0.0101364981383085,-0.00391754321753979,-0.00249350047670305,-0.00957760494202375,-0.00770444981753826,0.00583663210272789
618,-0.0103188967332244,-0.00414291210472584,-0.00113512028474361,-0.00871961656957865,-0.0061318832449615,0.00664845528081059
619,-0.0096172047778964,-0.00335093727335334,8.69033028720878E-05,-0.00673960661515594,-0.00422002049162984,0.00790724623948336
620,-0.0092123094946146,-0.00262983771972358,0.000106308281829115,-0.00438539125025272,-0.00338133424520493,0.00873041525483131
621,-0.00813089683651924,-0.00156387919560075,0.000545570452231914,-0.00119550758972764,-0.00243976432830095,0.0106446081772447
622,-0.0067988452501595,-0.000433409557444975,0.00117162172682583,0.00057980528799817,-0.0010807930957526,0.0127419270575047
623,-0.00649923412129283,6.16890101809986E-05,0.000487086363136768,-0.000894253025762737,-0.000846249458845705,0.0131497019901872
624,-0.00630287686362863,0.000670071400236338,-0.000422460929257795,-0.00332956621423364,-0.00170602079015225,0.0134079838171601
625,-0.00454279128462076,0.00234790798276663,0.000622620980720967,-0.00365758221596479,-0.0017515568761155,0.0157899763435125
626,-0.00201568100601435,0.00409434176981449,0.00292813498526812,-0.00251653813757002,-0.00089169351849705,0.0187840908765793
627,-0.000586042471695691,0.00458534248173237,0.00425194017589092,-0.00226909248158336,-0.000874693389050663,0.0198753159493208
628,-0.000889508286491036,0.00403555668890476,0.00368518359027803,-0.00389014789834619,-0.00300392741337419,0.0189238637685776
629,-0.00330439326353371,0.0026207088958472,0.000738897477276623,-0.00748492078855634,-0.00796620920300484,0.0162628218531609
630,-0.00774209853261709,0.000400487217120826,-0.00447100633755326,-0.011888719163835,-0.0148287387564778,0.0121802929788828
631,-0.0116022741422057,-0.000953064067289233,-0.0087090814486146,-0.0137376394122839,-0.0197888519614935,0.00908335484564304
632,-0.0128869498148561,-0.000518821878358722,-0.00882130675017834,-0.0119427451863885,-0.0206098537892103,0.00866187363862991
633,-0.0127671426162124,0.000697714160196483,-0.0054869968444109,-0.00894181709736586,-0.0187855381518602,0.0102680716663599
634,-0.0117546217516065,0.00279317237436771,-0.00024880183627829,-0.00495888525620103,-0.0147930709645152,0.014967629685998
635,-0.00929983519017696,0.00590268336236477,0.00598996598273516,0.00110685965046287,-0.00833382830023766,0.0233004447072744
636,-0.00662463763728738,0.00790997687727213,0.01210858207196,0.00806305091828108,-0.00130857434123755,0.0316503122448921
637,-0.0050811106339097,0.00687029492110014,0.0175968203693628,0.0140174422413111,0.00486449524760246,0.0357283316552639
638,-0.00387433986179531,0.00293968501500785,0.0220569409430027,0.0167070534080267,0.0105718104168773,0.0329754799604416
639,-0.00188862299546599,-0.00191535614430904,0.0232239700853825,0.0137757519260049,0.0144238593056798,0.0233152415603399
640,0.000596397730987519,-0.00488785374909639,0.0189822539687157,0.00651658372953534,0.0142216831445694,0.0111457966268063
641,0.00226200418546796,-0.00535455113276839,0.0107298940420151,-0.0012845357414335,0.0107020633295178,0.00112922012340277
642,0.00207697274163365,-0.00547043979167938,0.00202983524650335,-0.00767331244423985,0.00679330993443727,-0.00684170098975301
643,0.00101337372325361,-0.00651845335960388,-0.0040211696177721,-0.0116488169878721,0.00570124574005604,-0.0138683151453733
644,0.000128664803924039,-0.00820168200880289,-0.00727158924564719,-0.0132368551567197,0.00746518466621637,-0.0199474506080151
645,-0.00150569702964276,-0.0101045276969671,-0.0103672025725245,-0.0138193173334002,0.00837342999875546,-0.0250262599438429
646,-0.00358800240792334,-0.0114138284698129,-0.0133793912827969,-0.0128653906285763,0.00778876943513751,-0.0278271473944187
647,-0.00451905420050025,-0.0120446514338255,-0.0140507100149989,-0.0097100380808115,0.00841920264065266,-0.0284318421036005
648,-0.00396183272823691,-0.012829864397645,-0.012234172783792,-0.00576240569353104,0.0112417284399271,-0.0289677809923887
649,-0.00190481776371598,-0.0138980653136969,-0.0092022493481636,-0.00196522893384099,0.0163000449538231,-0.0304070804268122
650,0.000804132549092174,-0.0153611311689019,-0.00693058921024203,0.000978400814346969,0.0224130414426327,-0.0329486764967442
651,0.00301870191469789,-0.0172926392406225,-0.00687783351168036,0.00286545976996422,0.0273998938500881,-0.0365446694195271
652,0.00460822368040681,-0.0193258281797171,-0.00870811566710472,0.0038418797776103,0.0304358769208193,-0.0421203784644604
653,0.00542745087295771,-0.0216099601238966,-0.0120418183505535,0.00270380824804306,0.0313778780400753,-0.0508549511432648
654,0.00514763733372092,-0.0242722537368536,-0.0173422079533339,-0.0012535999994725,0.0302508287131786,-0.0608803182840347
655,0.00414113560691476,-0.0266082994639874,-0.0240385215729475,-0.0063010398298502,0.0282998494803905,-0.0691544711589813
656,0.00376599282026291,-0.0277891326695681,-0.0291963387280703,-0.00914608128368855,0.0281225219368935,-0.0742859393358231
657,0.00530058983713388,-0.0278362799435854,-0.0301233008503914,-0.00791167747229338,0.0320812538266182,-0.0768378376960754
658,0.00907532777637243,-0.027498634532094,-0.0270942747592926,-0.00355370668694377,0.0403453409671783,-0.0784411802887917
659,0.0137430801987648,-0.0278304368257523,-0.023105476051569,0.00105908105615526,0.0500172860920429,-0.080920398235321
660,0.0173169951885939,-0.0296144001185894,-0.021093362942338,0.0034085139632225,0.0573739148676395,-0.0858049690723419
661,0.0191124454140663,-0.0327329859137535,-0.0215173196047544,0.00361405895091593,0.0608036704361439,-0.0928972288966179
662,0.0192077532410622,-0.0364319011569023,-0.02354153431952,0.00307781342417002,0.0609413497149944,-0.100537121295929
663,0.0186720956116915,-0.0394202843308449,-0.025961622595787,0.00304818106815219,0.0601572021842003,-0.106909967958927
664,0.0195335485041142,-0.0403879322111607,-0.027255954220891,0.00467384094372392,0.0610515885055065,-0.110745199024677
665,0.0226393043994904,-0.0393145903944969,-0.0268298108130693,0.00816847756505013,0.0642875581979752,-0.112128995358944
666,0.0264765471220016,-0.0379467457532883,-0.025773586705327,0.0120666893199086,0.068266749382019,-0.112751372158527
667,0.0286436434835196,-0.0379452370107174,-0.0255662351846695,0.0146086001768708,0.0709796622395515,-0.114328995347023
668,0.0285826418548822,-0.0391967035830021,-0.0265358462929726,0.0153089947998524,0.0717041045427322,-0.117417685687542
669,0.0284139718860388,-0.040666688233614,-0.0281909815967083,0.0149471405893564,0.0708537399768829,-0.121646106243134
670,0.0301901753991842,-0.0416065901517868,-0.0298740603029728,0.0149058271199465,0.0695572346448898,-0.125987768173218
671,0.0335362106561661,-0.0415428318083286,-0.0306874867528677,0.0163754690438509,0.0692259222269058,-0.128946796059608
672,0.0368235819041729,-0.0400156825780869,-0.0306148659437895,0.0198394134640694,0.0701598972082138,-0.129271671175957
673,0.0379078537225723,-0.0380785688757896,-0.0315818078815937,0.0235999934375286,0.0708500221371651,-0.129164576530457
674,0.0369918346405029,-0.0369126237928867,-0.0329654142260551,0.026454072445631,0.0715398713946342,-0.13090980052948
675,0.0367835387587547,-0.0358196869492531,-0.0316571742296219,0.0294273030012846,0.0742301791906357,-0.132332846522331
676,0.0375238955020905,-0.0343688242137432,-0.0283121652901173,0.0320299603044987,0.0781098827719688,-0.132243126630783
677,0.0376909598708153,-0.0328115783631802,-0.0258708167821169,0.0328487195074558,0.0808124020695686,-0.132385149598122
678,0.0362780131399632,-0.0317214839160442,-0.0261422470211983,0.0312172397971153,0.0815010666847229,-0.134420603513718
679,0.0339503809809685,-0.0313226655125618,-0.0284346006810665,0.028256319463253,0.0815620869398117,-0.137350603938103
680,0.0324190780520439,-0.030900364741683,-0.0300986208021641,0.0268057379871607,0.0826233476400375,-0.138343691825867
681,0.0307982247322798,-0.0310715660452843,-0.0309379398822784,0.0266131497919559,0.0839000940322876,-0.138443127274513
682,0.0273934490978718,-0.033010195940733,-0.0327799208462238,0.0254814233630896,0.0837443470954895,-0.140499755740166
683,0.0235334616154432,-0.0355722680687904,-0.0354268588125706,0.0240453276783228,0.0820144638419151,-0.1434146463871
684,0.0208990462124348,-0.037198182195425,-0.0381351374089718,0.0226188283413649,0.0788272246718407,-0.14582684636116
685,0.0186762716621161,-0.0379718467593193,-0.0419109091162682,0.0198206976056099,0.0734045952558517,-0.148466616868973
686,0.0169307701289654,-0.0378893837332726,-0.0457819886505604,0.0171923283487558,0.0675378367304802,-0.150033667683601
687,0.0167178101837635,-0.0372790098190308,-0.0469245053827763,0.0170375928282738,0.064713254570961,-0.148969024419785
688,0.0169675219804049,-0.0374048240482807,-0.0453645884990692,0.0182094592601061,0.0651896968483925,-0.146582871675491
689,0.0176070295274258,-0.0380521975457668,-0.0416552647948265,0.0200509894639254,0.0683906599879265,-0.143421337008476
690,0.0201848987489939,-0.0379869677126408,-0.0353534258902073,0.0241150446236134,0.0739438757300377,-0.138042688369751
691,0.0232182331383228,-0.0374998524785042,-0.0287770424038172,0.0293689742684364,0.0782075375318527,-0.13136550784111
692,0.0246233996003866,-0.0373596362769604,-0.0245315954089165,0.0332128033041954,0.0785466209053993,-0.126016557216644
693,0.0256537348031998,-0.0369720309972763,-0.0217082276940346,0.0357224270701408,0.0772294253110886,-0.122225813567638
694,0.0265435148030519,-0.0365400798618793,-0.0200072415173054,0.0360995382070541,0.0752972662448883,-0.120204746723175
695,0.0261833984404802,-0.0366551652550697,-0.0203433278948069,0.0329644195735455,0.0717215612530708,-0.119653627276421
696,0.0244710389524698,-0.0367541685700417,-0.0223896708339453,0.0274846814572811,0.066842183470726,-0.118734925985336
697,0.021533664315939,-0.0366116762161255,-0.0248717367649078,0.021755512803793,0.0618796944618225,-0.116849713027477
698,0.0192105807363987,-0.0358149670064449,-0.0250270217657089,0.0187834296375513,0.0591941997408867,-0.112696968019009
699,0.0186243765056133,-0.034540668129921,-0.0221795532852411,0.0191165320575237,0.0592253617942333,-0.10627743601799
700,0.0185821317136288,-0.033825758844614,-0.0190564356744289,0.0201132893562317,0.0595725700259209,-0.100561164319515
701,0.0181953832507133,-0.0336552374064922,-0.0173806641250849,0.0201625153422356,0.0589834600687027,-0.097151592373848
702,0.0170043241232634,-0.0334709770977497,-0.0169628728181124,0.0190407056361437,0.0577037036418915,-0.0952543988823891
703,0.0153002021834254,-0.0325205586850643,-0.0168134719133377,0.0176891144365072,0.0565019622445107,-0.0928134694695473
704,0.0140995141118765,-0.0301049929112196,-0.0157609116286039,0.0174045078456402,0.0560955442488194,-0.08851108700037
705,0.0137615250423551,-0.0264696292579174,-0.0133870029821992,0.018422981724143,0.0565128363668919,-0.0827049985527992
706,0.0142204714938998,-0.022388331592083,-0.00997700169682503,0.0205272026360035,0.0578432939946651,-0.0757404491305351
707,0.0144201945513487,-0.0193585753440857,-0.00713911280035973,0.0223201178014278,0.0586129911243916,-0.0690723434090614
708,0.0133576467633247,-0.0183009747415781,-0.00637545250356197,0.0222291760146618,0.0568056255578995,-0.0645492523908615
709,0.01194419991225,-0.0181029662489891,-0.00688328593969345,0.0205567590892315,0.0535429529845715,-0.0618469975888729
710,0.0103426994755864,-0.018035389482975,-0.0081574572250247,0.0175745915621519,0.0499164313077927,-0.060753520578146
711,0.00785399507731199,-0.0184746589511633,-0.0104081565514207,0.013682777993381,0.0451258830726147,-0.0609044618904591
712,0.00624229339882731,-0.0186541359871626,-0.011715792119503,0.0112184900790453,0.0405722297728062,-0.059464979916811
713,0.00748123833909631,-0.0173147916793823,-0.00999751407653093,0.012299326248467,0.0388035401701927,-0.0545429550111294
714,0.00893907900899649,-0.0153860775753856,-0.00704960338771343,0.0153644783422351,0.0381538234651089,-0.0484591647982597
715,0.00667458167299628,-0.0147554976865649,-0.00632472056895494,0.0165126360952854,0.0350469388067722,-0.0446059294044971
716,0.00187411834485829,-0.0153232328593731,-0.00824919622391462,0.0146245937794447,0.0294592473655939,-0.0432939678430557
717,-0.00176941731479019,-0.0159317217767239,-0.0108442800119519,0.0118159698322415,0.0236980319023132,-0.0429000817239285
718,-0.00298649561591446,-0.0161605756729841,-0.0121803814545274,0.00956803094595671,0.0193640496581793,-0.0426094084978104
719,-0.00199948903173208,-0.0156345311552286,-0.0114544732496142,0.00815615989267826,0.0168611519038677,-0.0415580607950687
720,1.21487928481656E-05,-0.014124870300293,-0.00971096288412809,0.00768454978242517,0.0154459634795785,-0.0388830006122589
721,0.00163185154087842,-0.0118888979777694,-0.00769442413002253,0.00866626761853695,0.014873968437314,-0.0345353223383427
722,0.00277486513368785,-0.00906598381698132,-0.00485399877652526,0.0117234317585826,0.0156309250742197,-0.0284241698682308
723,0.00249162968248129,-0.00647719204425812,-0.00248398212715983,0.0147248841822147,0.0158848725259304,-0.0225337073206902
724,4.67245845356956E-05,-0.00502163032069802,-0.00198522582650185,0.0149680199101567,0.0140998093411326,-0.0197065100073814
725,-0.00251077068969607,-0.00426173163577914,-0.00187805853784084,0.0136003959923983,0.0122425649315119,-0.0187005307525396
726,-0.00377800408750772,-0.00325224292464554,-0.000579787418246269,0.0132934432476759,0.0123010985553265,-0.0163872111588717
727,-0.00513191660866141,-0.00196158885955811,0.00138319935649633,0.0143239740282297,0.0134341148659587,-0.0127631099894643
728,-0.00710778776556253,-0.00101322878617793,0.00287238438613713,0.0151696456596255,0.0133477719500661,-0.0097383838146925
729,-0.00691544450819492,0.000118598727567587,0.00461058877408504,0.0161067694425583,0.0122734112665057,-0.00699196197092533
730,-0.00362014444544911,0.0016616735374555,0.00726488512009382,0.0178363937884569,0.0118620609864593,-0.00396737502887845
731,-0.000684842118062079,0.00220229267142713,0.00911746732890606,0.0186867937445641,0.0109174521639943,-0.00200271815992892
732,0.000104009275673889,0.00162822694983333,0.00919167324900627,0.0177621729671955,0.00790549349039793,-0.00104138383176178
733,-0.000315186654916033,0.00115065614227206,0.00844584312289953,0.0158471334725618,0.00366684328764677,-3.4510617297201E-07
734,-0.00188446929678321,0.000941751757636666,0.00751543045043945,0.0132254604250193,-0.000941479345783591,0.0010186618892476
735,-0.00471019465476274,0.000434885645518079,0.00621299492195249,0.0101681584492326,-0.00583063159137964,0.00142971484456211
736,-0.00782655458897352,-0.000779558438807726,0.00482075847685337,0.00763848423957825,-0.010114423930645,0.00136895547620952
737,-0.00984057039022446,-0.00253091682679951,0.00451236451044679,0.00664246361702681,-0.012392858043313,0.00207231636159122
738,-0.0103424666449428,-0.00449365749955177,0.00541681982576847,0.00663641933351755,-0.0126191228628159,0.00366486818529665
739,-0.00997368339449167,-0.00658145267516375,0.00662578642368317,0.00632789032533765,-0.0118918977677822,0.0046863816678524
740,-0.00892389658838511,-0.00829539820551872,0.00797922816127539,0.00600132159888744,-0.0110023692250252,0.00505394116044044
741,-0.00767164770513773,-0.00927519239485264,0.00906510185450315,0.00592343788594007,-0.0108873341232538,0.00565743073821068
742,-0.00723154377192259,-0.00971684139221907,0.00889853108674288,0.00531558273360133,-0.012130887247622,0.0061563104391098
743,-0.00661618588492274,-0.00919709447771311,0.00869090389460325,0.00476741278544068,-0.0125582637265325,0.00657091243192554
744,-0.00375031144358218,-0.00711986422538757,0.0109874289482832,0.00570307578891516,-0.00886532012373209,0.00878712721168995
745,0.000144938472658396,-0.00434795813634992,0.0147994356229901,0.00740347476676106,-0.00215428532101214,0.0137944286689162
746,0.00164150877390057,-0.00270834728144109,0.0167682953178883,0.00758114596828818,0.00226326310075819,0.0196569878607988
747,0.000217739478102885,-0.00279223639518023,0.0163886714726686,0.00557651557028294,0.00184717972297221,0.0241336915642023
748,-0.00140401814132929,-0.00315186264924705,0.0159964859485626,0.00338673777878284,-0.000596656405832618,0.0276557579636574
749,-0.00179173017386347,-0.00280331005342305,0.0167479682713747,0.00236651767045259,-0.00239208550192416,0.0312228910624981
750,-0.00192993751261383,-0.00222725048661232,0.0177080407738686,0.00161085405852646,-0.00401831744238734,0.0342595241963863
751,-0.00173122412525117,-0.00139856024179608,0.0185642559081316,0.000654815172310919,-0.00563161028549075,0.0365476831793785
752,4.68743819510564E-05,0.000164936893270351,0.0200255401432514,0.000387530017178506,-0.00575698539614677,0.0390181392431259
753,0.00271266815252602,0.00213766330853105,0.0218957029283047,0.00138624280225486,-0.00420980947092175,0.0421803295612335
754,0.00311626517213881,0.00290412385948002,0.0221373457461596,0.00193425000179559,-0.0040351883508265,0.0442237295210361
755,4.98792178404983E-05,0.00169070600531995,0.0201202109456062,0.00103031215257943,-0.00744415353983641,0.0438628159463406
756,-0.00360672594979405,0.000500857247970998,0.0185577031224966,0.00131008063908666,-0.0122211342677474,0.0438916943967342
757,-0.00547632249072194,0.00114317005500197,0.0189140029251575,0.00397875066846609,-0.0157565623521805,0.0471588596701622
758,-0.00568888708949089,0.00337815983220935,0.0202036537230015,0.00706173339858651,-0.0174814984202385,0.0531472265720367
759,-0.0046265060082078,0.00674802158027887,0.0218601189553738,0.00933915283530951,-0.0174555573612452,0.059949517250061
760,-0.00291690859012306,0.0108604431152344,0.0233775805681944,0.0106835700571537,-0.0167391560971737,0.0658569559454918
761,-0.0017515259096399,0.0146966632455587,0.0238911770284176,0.0111475912854075,-0.0172281060367823,0.0700375065207481
762,-0.000687531719449908,0.0177518110722303,0.0242738220840693,0.0120558235794306,-0.0185628030449152,0.0732245743274689
763,0.00118546036537737,0.0199081022292376,0.0256411693990231,0.0141513226553798,-0.0190965719521046,0.0752645656466484
764,0.00272710551507771,0.0205967985093594,0.0269453506916761,0.0157947093248367,-0.0195079110562801,0.074540302157402
765,0.00330013991333544,0.0202423091977835,0.0277964565902948,0.0162186287343502,-0.020221084356308,0.0726843178272247
766,0.00408881669864058,0.0202485788613558,0.0289843175560236,0.0164385940879583,-0.0198302771896124,0.0733434110879898
767,0.00509547488763928,0.020672494545579,0.0294167716056108,0.0158489979803562,-0.0190245416015387,0.0757334902882576
768,0.00503261014819145,0.0203179642558098,0.0276145022362471,0.013140763156116,-0.0202548429369926,0.0766362547874451
769,0.00385750853456557,0.0184840969741344,0.0245085563510656,0.00918633583933115,-0.023676410317421,0.0756402686238289
770,0.00259569380432367,0.0152922971174121,0.0218350291252136,0.00550616998225451,-0.0273022800683975,0.0738503709435463
771,0.00210439413785934,0.011947063729167,0.0203258655965328,0.0030245000962168,-0.0293235499411821,0.0720643624663353
772,0.00228308024816215,0.00986314844340086,0.0195200983434916,0.00199054577387869,-0.0298414845019579,0.0708473920822144
773,0.00221010250970721,0.00921113416552544,0.0187219362705946,0.00163152487948537,-0.0301964432001114,0.0702770054340363
774,0.00188619515392929,0.00947131682187319,0.0186364948749542,0.00178867706563324,-0.030136950314045,0.0704365819692612
775,0.00140837242361158,0.00956363324075937,0.0195639431476593,0.00239453907124698,-0.0290659908205271,0.0708654299378395
776,-0.000396557239582762,0.00819683633744717,0.0199140571057796,0.00209354399703443,-0.0284397099167109,0.0702736601233482
777,-0.0031226989813149,0.00577044766396284,0.0193891245871782,0.00108689221087843,-0.0289606135338545,0.0692360997200012
778,-0.00460488768294454,0.00374119961634278,0.0195482652634382,0.00117601943202317,-0.0290425457060337,0.0698514580726624
779,-0.00432104198262095,0.00268505839630961,0.0209474377334118,0.00260807224549353,-0.0280229076743126,0.072162352502346
780,-0.00346582243219018,0.00238795625045896,0.0225856062024832,0.00400372548028827,-0.0273143071681261,0.0744388401508331
781,-0.00279581639915705,0.00282136118039489,0.0234353542327881,0.00443238532170653,-0.0279996730387211,0.0760238021612167
782,-0.00257790088653564,0.00386263360269368,0.0227782633155584,0.00402503367513418,-0.0303147099912167,0.0771134495735168
783,-0.00295210652984679,0.00510661723092198,0.0208480637520552,0.00351001624949276,-0.0336332283914089,0.0780914276838303
784,-0.00339791807346046,0.00632263906300068,0.0196229852735996,0.0042722774669528,-0.0354578085243702,0.0798215642571449
785,-0.00380234443582594,0.00659636128693819,0.0207281541079283,0.00754624232649803,-0.0337597243487835,0.0820512548089027
786,-0.0048172096721828,0.00455761700868607,0.0244768727570772,0.012437810190022,-0.0291175954043865,0.0831772983074188
787,-0.00577157502993941,0.000485503842355683,0.0301608107984066,0.0155586544424295,-0.0232145022600889,0.0819247364997864
788,-0.00536826020106673,-0.00383559381589293,0.0344937816262245,0.0133722936734557,-0.0186686329543591,0.0773034170269966
789,-0.00454241735860705,-0.00752607872709632,0.0330277979373932,0.0048208381049335,-0.0188421793282032,0.0684530809521675
790,-0.00366053311154246,-0.00995665416121483,0.0265269801020622,-0.00591247202828527,-0.0226689260452986,0.0576845295727253
791,-0.000884610402863473,-0.0102673284709454,0.0204819198697805,-0.0125815728679299,-0.0249799005687237,0.0498350448906422
792,0.00359722063876688,-0.00928385462611914,0.0174237936735153,-0.0139987403526902,-0.023859266191721,0.0462341271340847
793,0.00754389446228743,-0.00816705729812384,0.0162823926657438,-0.0126270176842809,-0.0208959467709064,0.0444956794381142
794,0.0100718066096306,-0.00694136414676905,0.0160522125661373,-0.00991906318813562,-0.0173134636133909,0.042979471385479
795,0.0119387423619628,-0.00557226082310081,0.0164009127765894,-0.00618570111691952,-0.0134284496307373,0.0414250753819942
796,0.0131934536620975,-0.0046166805550456,0.0166741013526917,-0.00206218287348747,-0.00991933606564999,0.039399977773428
797,0.0135967191308737,-0.00453224405646324,0.0165280234068632,0.00182918913196772,-0.00697858678176999,0.0368353426456451
798,0.0141152739524841,-0.00508238933980465,0.0169172696769238,0.0055372673086822,-0.00313466787338257,0.0342370495200157
799,0.0156852453947067,-0.00574124744161963,0.0187184233218431,0.00939650367945433,0.00273935263976455,0.0318615175783634
800,0.01812226139009,-0.00618002377450466,0.0212728139013052,0.0136172035709023,0.00956525839865208,0.0297251231968403
801,0.0201805848628283,-0.00674858363345265,0.0224954579025507,0.0170451197773218,0.0149771701544523,0.0270114149898291
802,0.020815085619688,-0.00826635397970676,0.0211140923202038,0.0182393547147512,0.0179089084267616,0.0226404592394829
803,0.0200510583817959,-0.0111006237566471,0.0179499667137861,0.0174569934606552,0.0190617013722658,0.0163290351629257
804,0.0188912451267242,-0.014497903175652,0.0145310079678893,0.0155356144532561,0.0196920651942492,0.00824761111289263
805,0.0176323037594557,-0.0176366344094276,0.0108859511092305,0.0125747751444578,0.0197152215987444,-0.00120227213483304
806,0.015663031488657,-0.0205157995223999,0.0064405994489789,0.00920653529465199,0.0184728894382715,-0.0109690064564347
807,0.0140309855341911,-0.0230609998106956,0.00270427484065294,0.00785357970744371,0.0177369713783264,-0.0194728542119265
808,0.014540215022862,-0.0249060280621052,0.00164197373669595,0.00979819241911173,0.0196395739912987,-0.0258754994720221
809,0.01701963506639,-0.0259463880211115,0.0027086972258985,0.0128681752830744,0.0231958068907261,-0.0302043966948986
810,0.0199886076152325,-0.02614307962358,0.00367992231622338,0.0147974109277129,0.0260549504309893,-0.0324569121003151
811,0.0225709397345781,-0.0251957401633263,0.00372500019147992,0.0160536114126444,0.0278796590864658,-0.0327240154147148
812,0.0237618777900934,-0.0234185568988323,0.00298100686632097,0.0176079384982586,0.0289934240281582,-0.0320628993213177
813,0.0230470634996891,-0.0216453783214092,0.00151690968777984,0.0192146971821785,0.0293003711849451,-0.0316701084375381
814,0.0225399900227785,-0.019708339124918,0.00113987235818058,0.0215796194970608,0.0301232282072306,-0.0305658373981714
815,0.0238006357103586,-0.017585264518857,0.0033950584474951,0.025648333132267,0.0327357798814774,-0.0280330330133438
816,0.0256068427115679,-0.0168202463537455,0.00759801361709833,0.0300339069217443,0.0369546338915825,-0.0263534039258957
817,0.0266849454492331,-0.0182082783430815,0.0126211838796735,0.033280435949564,0.041565302759409,-0.0267695877701044
818,0.0269314888864756,-0.0204160511493683,0.0173891447484493,0.0358261168003082,0.0449891686439514,-0.0274539086967707
819,0.0275215357542038,-0.0212686359882355,0.0221582278609276,0.0391823276877403,0.0476156063377857,-0.025732260197401
820,0.0288263820111752,-0.0199383441358805,0.0274592954665422,0.0433481298387051,0.050150990486145,-0.020965838804841
821,0.0289530400186777,-0.0178062412887812,0.0313106216490269,0.0459420792758465,0.051039382815361,-0.015615813434124
822,0.0266839936375618,-0.0165380053222179,0.0315684042870998,0.0452861152589321,0.0488847009837627,-0.0122226132079959
823,0.0227516051381826,-0.016860282048583,0.0285067185759544,0.0414765775203705,0.0444014668464661,-0.0115541098639369
824,0.0182738453149796,-0.0185995828360319,0.0242200568318367,0.035891804844141,0.0394759997725487,-0.0128390695899725
825,0.0142353950068355,-0.0203967802226543,0.0209145713597536,0.0308898910880089,0.0355132967233658,-0.0140130426734686
826,0.0118830977007747,-0.0203710347414017,0.0193695537745953,0.0280243270099163,0.0330723822116852,-0.0133578050881624
827,0.0110290320590138,-0.0184188764542341,0.0187442637979984,0.0266244914382696,0.0314755290746689,-0.011555545963347
828,0.0102777034044266,-0.0160632692277431,0.0187842138111591,0.025950925424695,0.0303429644554853,-0.00983081571757793
829,0.00964880920946598,-0.0140741067007184,0.0204563550651073,0.0264139845967293,0.0306242853403091,-0.00751466723158956
830,0.00954726617783308,-0.0125581230968237,0.0230323374271393,0.0271347388625145,0.0313798896968365,-0.00412807194516063
831,0.0100695164874196,-0.0115555869415402,0.024940624833107,0.0271683670580387,0.0314038060605526,-0.000486132776131853
832,0.0122388284653425,-0.0105199366807938,0.0267187468707561,0.0279505401849747,0.0323090068995953,0.00304596498608589
833,0.0156766884028912,-0.00944208353757858,0.0286255683749914,0.0293095726519823,0.0341270603239536,0.00602899771183729
834,0.0176045261323452,-0.00889443419873714,0.0290058702230453,0.028673630207777,0.0341882072389126,0.00818011816591024
835,0.0163317117840052,-0.00874038226902485,0.0274786707013845,0.0261572133749723,0.0322795882821083,0.0105609279125929
836,0.0135037889704108,-0.00847727339714766,0.0264484584331512,0.0245670657604933,0.0310050193220377,0.0143580799922347
837,0.0126581685617566,-0.00734016858041286,0.0279259048402309,0.0257799290120602,0.0317210517823696,0.0201882384717464
838,0.0143747022375464,-0.00544491410255432,0.0302748922258615,0.0282878912985325,0.0322609543800354,0.0266492962837219
839,0.0158549733459949,-0.00383459753356874,0.031341940164566,0.029527585953474,0.0302947498857975,0.0312799625098705
840,0.0154872750863433,-0.00274987542070448,0.0314856804907322,0.0292598847299814,0.0266826022416353,0.0335829667747021
841,0.0131842261180282,-0.00239356863312423,0.0310211088508368,0.0278273485600948,0.022565346211195,0.0337550938129425
842,0.00941208284348249,-0.00304952543228865,0.0293865166604519,0.0252356603741646,0.0177541747689247,0.031987801194191
843,0.00555997854098678,-0.00380069180391729,0.026684807613492,0.0224111322313547,0.0123188141733408,0.0296920575201511
844,0.00326952640898526,-0.00324312620796263,0.0245924461632967,0.0210439972579479,0.0076917209662497,0.0286315940320492
845,0.00296702212654054,-0.00107772566843778,0.0246449261903763,0.0218459814786911,0.00512806512415409,0.0295986924320459
846,0.00258261593990028,0.00125914509408176,0.0252259243279696,0.0227147974073887,0.00293153501115739,0.0312716700136662
847,0.00120586575940251,0.0028815942350775,0.0251199007034302,0.0221277438104153,0.000457498477771878,0.0322853475809097
848,0.000659625511616468,0.00441891979426146,0.0257461164146662,0.0212269835174084,-3.76868702005595E-05,0.0331481546163559
849,0.000730199972167611,0.00549413869157434,0.0266690012067556,0.0204001609236002,0.00108793831896037,0.0335793532431126
850,-0.000385337451007217,0.00524801015853882,0.026134330779314,0.0190837550908327,0.00131202000193298,0.0324220135807991
851,-0.00289412820711732,0.00379806174896657,0.0242190808057785,0.0165445320308208,-0.000227531971177086,0.0296056997030973
852,-0.00548830954357982,0.00195483816787601,0.0224533043801785,0.0128653347492218,-0.00238039041869342,0.027223689481616
853,-0.00695788394659758,0.00047788122901693,0.022034203633666,0.00979818869382143,-0.00360471312887967,0.0280615966767073
854,-0.00666522374376655,-0.000304149434668943,0.0234447438269854,0.00914039555937052,-0.00300528318621218,0.0326647534966469
855,-0.00485795922577381,-0.000372996437363327,0.0262497030198574,0.0107356766238809,-0.000822711677756161,0.0390051454305649
856,-0.00316219474188983,-8.37329862406477E-05,0.028758505359292,0.0125648565590382,0.00129290705081075,0.0444779843091965
857,-0.00266512460075319,0.000398677686462179,0.0299081671983004,0.0135640986263752,0.00198301486670971,0.0484293289482594
858,-0.00414426112547517,0.000382361729862168,0.0288163460791111,0.0127607984468341,0.000421136413933709,0.050318893045187
859,-0.00733258109539747,-0.000560604326892644,0.0251547805964947,0.00949411280453205,-0.00322395097464323,0.0495500862598419
860,-0.0104539850726724,-0.00141309120226651,0.0201808232814074,0.00503736408427358,-0.00783644709736109,0.0472224466502666
861,-0.0129620991647244,-0.00151708337944001,0.0148732736706734,0.000553309509996325,-0.0129925636574626,0.044142235070467
862,-0.0146580934524536,-0.000704893376678228,0.0107054198160768,-0.00259040226228535,-0.0176278483122587,0.0414402484893799
863,-0.0158008523285389,0.00072176253888756,0.00835327338427305,-0.00443959981203079,-0.0213254243135452,0.0396109409630299
864,-0.0170288123190403,0.00198383955284953,0.0069288550876081,-0.00649368576705456,-0.0245602298527956,0.0374384112656116
865,-0.0174787100404501,0.00301620969548821,0.00720970192924142,-0.00787336751818657,-0.025817234069109,0.0351687967777252
866,-0.0159695576876402,0.00456834025681019,0.0103426165878773,-0.00716001493856311,-0.0241314060986042,0.0347324796020985
867,-0.0122297527268529,0.00752516463398933,0.0151803689077497,-0.00484562618657947,-0.0213926732540131,0.0376442670822144
868,-0.00776317296549678,0.0114008160308003,0.0190166290849447,-0.00295277289114892,-0.0204722229391336,0.042377382516861
869,-0.00532536907121539,0.0143382623791695,0.0195976924151182,-0.00413810648024082,-0.0231137908995152,0.044264268130064
870,-0.00624208897352219,0.0154521269723773,0.0165446568280458,-0.00891652330756187,-0.0289788451045752,0.0408417172729969
871,-0.00857599265873432,0.0159233119338751,0.0122713940218091,-0.0138588743284345,-0.035123348236084,0.0350535809993744
872,-0.00983921438455582,0.0169577226042748,0.00989175215363503,-0.0163163710385561,-0.038541067391634,0.0304282568395138
873,-0.0100533589720726,0.0183084849268198,0.00972343236207962,-0.0181227214634418,-0.039310198277235,0.0274464506655931
874,-0.00951091386377811,0.0199329350143671,0.0106801586225629,-0.0207201596349478,-0.0380439572036266,0.0263205245137215
875,-0.00750316027551889,0.0228866469115019,0.0126977143809199,-0.0220767892897129,-0.0345446616411209,0.0279543921351433
876,-0.00403548777103424,0.0278591196984053,0.0156482085585594,-0.0203630998730659,-0.0301784668117762,0.0321377143263817
877,-0.000391830195439979,0.0339374579489231,0.018106684088707,-0.0173825360834599,-0.0270716864615679,0.036234974861145
878,0.00197163433767855,0.039333239197731,0.018843675032258,-0.0164903867989779,-0.0258399993181229,0.0369364395737648
879,0.0023328538518399,0.0432481691241264,0.0181057471781969,-0.0186455249786377,-0.0263310428708792,0.0341582074761391
880,0.00161181145813316,0.0470129586756229,0.0176168475300074,-0.0214179810136557,-0.0277276691049337,0.0315375067293644
881,0.00146005116403103,0.0523074232041836,0.0189511459320784,-0.0219279751181602,-0.0287228021770716,0.031896747648716
882,0.00189468474127352,0.0585747584700584,0.0214459616690874,-0.0201956760138273,-0.0293697901070118,0.0340723767876625
883,0.0020345903467387,0.0636942535638809,0.0237345024943352,-0.0176592115312815,-0.0298643931746483,0.0360720865428448
884,0.000880023813806474,0.0654575526714325,0.0248436499387026,-0.0159345772117376,-0.0302760805934668,0.0368240028619766
885,-0.00155093229841441,0.0632277205586433,0.024411266669631,-0.0160305425524712,-0.0313190333545208,0.0359810553491116
886,-0.00335622578859329,0.0587992109358311,0.0233145300298929,-0.0167131423950195,-0.0327436104416847,0.0350070968270302
887,-0.00325051252730191,0.0543357394635677,0.0224364772439003,-0.016649404540658,-0.0333929844200611,0.0355111993849278
888,-0.00152113742660731,0.0510113537311554,0.0218860749155283,-0.0158081259578466,-0.0325957611203194,0.0376548692584038
889,0.000775547930970788,0.0491215363144875,0.0212912671267986,-0.0145516423508525,-0.0307215303182602,0.0407602414488792
890,0.00230225175619125,0.0477650091052055,0.02042206376791,-0.0137983001768589,-0.0287762880325317,0.04351407289505
891,0.00269564054906368,0.045833133161068,0.0195935331285,-0.0141594912856817,-0.0275210328400135,0.0447637289762497
892,0.00329103483818471,0.0441765338182449,0.0196278747171164,-0.0141002470627427,-0.0267300959676504,0.0456426590681076
893,0.00441510928794742,0.0440301634371281,0.0204531364142895,-0.0124756218865514,-0.0263466853648424,0.0474890321493149
894,0.00446794647723436,0.044610757380724,0.0208736956119537,-0.0104760015383363,-0.0268992893397808,0.0491579174995422
895,0.00227571837604046,0.0444460436701775,0.0204046368598938,-0.00884527992457151,-0.0282683428376913,0.049709364771843
896,-0.00200376356951892,0.0428137220442295,0.0194409750401974,-0.00756479101255536,-0.0302253793925047,0.0492826029658318
897,-0.00645171105861664,0.0398349799215794,0.0186490286141634,-0.00740046473219991,-0.0326821394264698,0.0478278808295727
898,-0.00966577790677547,0.0363211892545223,0.0177851188927889,-0.00914890132844448,-0.0357405170798302,0.0464408881962299
899,-0.0127922436222434,0.0329119525849819,0.0157515741884708,-0.0125360786914825,-0.0395433343946934,0.0465693026781082
900,-0.0163224171847105,0.0298723727464676,0.0133609976619482,-0.0159235876053572,-0.0424705594778061,0.047784436494112
901,-0.0188631694763899,0.0276602860540152,0.0126235242933035,-0.0171961728483438,-0.042681310325861,0.0493170395493507
902,-0.0205877032130957,0.0260468926280737,0.0127832666039467,-0.0167125537991524,-0.0419512949883938,0.0503370948135853
903,-0.0220865532755852,0.0247961655259132,0.012426340021193,-0.0158055927604437,-0.0419587604701519,0.0506449043750763
904,-0.0214941296726465,0.0246168076992035,0.0132113825529814,-0.0139497965574265,-0.040166936814785,0.0519707314670086
905,-0.0182642694562674,0.0251640118658543,0.016112444922328,-0.011771815828979,-0.0352183654904366,0.0546102710068226
906,-0.0153135359287262,0.0247035231441259,0.0185836832970381,-0.0117935482412577,-0.0306068584322929,0.05633844435215
907,-0.0144616654142737,0.0224605351686478,0.0186699330806732,-0.014554912224412,-0.0295971296727657,0.0561045967042446
908,-0.0150867095217109,0.019432570785284,0.0169674456119537,-0.0181649085134268,-0.0317345969378948,0.0552121363580227
909,-0.0168842431157827,0.0166847016662359,0.0144396014511585,-0.0215528681874275,-0.035148199647665,0.054561909288168
910,-0.0198766272515059,0.0142819155007601,0.011521240696311,-0.025173831731081,-0.0387416072189808,0.053329560905695
911,-0.0237048212438822,0.0118888271972537,0.00813065655529499,-0.0294305849820375,-0.0425889007747173,0.0506344027817249
912,-0.0270124655216932,0.00983481667935848,0.00496325688436627,-0.0329645723104477,-0.0460882410407066,0.048081461340189
913,-0.0288092959672213,0.00883802399039268,0.00303949764929712,-0.0342520214617252,-0.0479892008006573,0.0479612238705158
914,-0.029950087890029,0.00868311244994402,0.0020783266518265,-0.034271776676178,-0.0480266064405441,0.0493495762348175
915,-0.0302405040711164,0.00909347087144852,0.00259794411249459,-0.0333702303469181,-0.0454867109656334,0.0510103106498718
916,-0.0287090390920639,0.010243427939713,0.00540620600804687,-0.0302670914679766,-0.0404095984995365,0.0537397339940071
917,-0.026287455111742,0.011791336350143,0.00893213599920273,-0.0254190731793642,-0.0355430655181408,0.0575519390404224
918,-0.0244070403277874,0.0137068592011929,0.0113301398232579,-0.0202758740633726,-0.0331054367125034,0.0615275166928768
919,-0.0235270299017429,0.0161550994962454,0.0122637674212456,-0.015806645154953,-0.0329407304525375,0.0644965469837189
920,-0.0240668058395386,0.0177181009203196,0.011390988714993,-0.0140086961910129,-0.0347536392509937,0.0643036514520645
921,-0.0254450030624866,0.0177022591233253,0.00965467840433121,-0.0151956714689732,-0.0371180288493633,0.061716802418232
922,-0.0256066881120205,0.018007654696703,0.00976729951798916,-0.0156763885170221,-0.036914523690939,0.0618211627006531
923,-0.024352440610528,0.0192038640379906,0.0126587646082044,-0.013433376327157,-0.0331752970814705,0.0661300644278526
924,-0.0224794112145901,0.0200836565345526,0.018269207328558,-0.00936174299567938,-0.0263046398758888,0.0711571350693703
925,-0.0199284106492996,0.0202831849455833,0.025283195078373,-0.00548226712271571,-0.0179702527821064,0.073169507086277
926,-0.0165937840938568,0.0204835254698992,0.0293951593339443,-0.00501323724165559,-0.0121229756623507,0.0699006319046021
927,-0.0118996016681194,0.0218190308660269,0.0281075779348612,-0.00832206569612026,-0.0105977291241288,0.0629926398396492
928,-0.00708239478990436,0.0239594262093306,0.0225079320371151,-0.0128309801220894,-0.0129980063065887,0.0558947138488293
929,-0.00404818635433912,0.0259286966174841,0.0159424133598804,-0.015586145222187,-0.0171056557446718,0.0502980388700962
930,-0.00236682686954737,0.0276052597910166,0.0118911294266582,-0.0153515767306089,-0.0191112291067839,0.045985508710146
931,-0.00227089552208781,0.0280857942998409,0.00952531490474939,-0.0148051576688886,-0.0193687919527292,0.0407951101660728
932,-0.00329094263724983,0.0273276828229427,0.00730005279183388,-0.01514857634902,-0.0198063030838966,0.0345861501991749
933,-0.00357677298597991,0.0265069454908371,0.00579300057142973,-0.0149495266377926,-0.0199170354753733,0.029201939702034
934,-0.00343238213099539,0.0256422013044357,0.00447460217401385,-0.0144751416519284,-0.019791129976511,0.0242248810827732
935,-0.00262804562225938,0.0250719990581274,0.00354184000752866,-0.0136192264035344,-0.0183529369533062,0.0186724718660116
936,0.000226453965296969,0.0254726000130177,0.00392861803993583,-0.0117198275402188,-0.0138393761590123,0.0124930059537292
937,0.00417563458904624,0.0261607617139816,0.00435427948832512,-0.0100201908499002,-0.00777854584157467,0.00541731715202332
938,0.00745088793337345,0.0265323277562857,0.00354852760210633,-0.00971266347914934,-0.00229826522991061,-0.002487578894943
939,0.00907212402671576,0.0263046771287918,0.001505849766545,-0.0106393210589886,0.00178779650013894,-0.0111777232959867
940,0.00771412113681436,0.0242062322795391,-0.00267906626686454,-0.0129825416952372,0.00285031227394938,-0.0219835881143808
941,0.00401383312419057,0.0204395540058613,-0.00880526844412088,-0.0156051311641932,0.000805977266281843,-0.0344048663973808
942,0.00164993398357183,0.0179368183016777,-0.0131678665056825,-0.0154833858832717,-0.000432483910117298,-0.0444996021687984
943,0.0027273918967694,0.0185510739684105,-0.013086749240756,-0.0120965726673603,0.00215151580050588,-0.0495970323681831
944,0.00508712744340301,0.0206702705472708,-0.0109212435781956,-0.00899606849998236,0.00659028021618724,-0.0517654046416283
945,0.00672958232462406,0.0221345629543066,-0.00950360950082541,-0.00862304121255875,0.0107720931991935,-0.0544294789433479
946,0.00810026004910469,0.0227241907268763,-0.00915674865245819,-0.00941790919750929,0.0150712570175529,-0.058436643332243
947,0.00888353772461414,0.0229417476803064,-0.0102062979713082,-0.0100970361381769,0.0187798254191875,-0.0637423172593117
948,0.00819266866892576,0.0230868812650442,-0.0129531295970082,-0.0110846431925893,0.0203540436923504,-0.0700271278619766
949,0.00735269905999303,0.0234520826488733,-0.0159352459013462,-0.0118400007486343,0.0206466969102621,-0.0754779726266861
950,0.00811072532087564,0.0241682529449463,-0.0173696596175432,-0.0113887973129749,0.0217730905860662,-0.0783096849918365
951,0.0096163684502244,0.0246207136660814,-0.0171033814549446,-0.010138294659555,0.0241893697530031,-0.0788410604000092
952,0.0108048133552074,0.0240176077932119,-0.0146443108096719,-0.00864597130566835,0.0284099876880646,-0.0788071751594543
953,0.0118157928809524,0.0224239472299814,-0.00949927885085344,-0.0066227619536221,0.0345826856791973,-0.0789848044514656
954,0.0125421108677983,0.0208069626241922,-0.00331948511302471,-0.00383362686261535,0.0405761934816837,-0.0786575376987457
955,0.013676886446774,0.0206693969666958,0.0024614876601845,3.71944679500302E-06,0.0451173223555088,-0.0765312388539314
956,0.016756184399128,0.0230957139283419,0.00829644594341516,0.00541507033631206,0.0493166446685791,-0.0714729502797127
957,0.0212482176721096,0.0277910064905882,0.0139675866812468,0.0117766037583351,0.0535585954785347,-0.0639528632164001
958,0.0237672105431557,0.0326469652354717,0.0170006696134806,0.0161836314946413,0.0555404275655746,-0.0573623031377792
959,0.0213725902140141,0.0351560190320015,0.0156326740980148,0.016077408567071,0.0532502047717571,-0.0552539452910423
960,0.0156954750418663,0.035448644310236,0.0119081856682897,0.0129478387534618,0.0481672026216984,-0.0567391365766525
961,0.011518407613039,0.0355018451809883,0.00858173612505198,0.00975092127919197,0.0425923466682434,-0.0583136789500713
962,0.0110145378857851,0.0358345732092857,0.00605547707527876,0.00704578449949622,0.0374114997684956,-0.058584101498127
963,0.0122883012518287,0.0357684977352619,0.00415536062791944,0.00423337472602725,0.0330743603408337,-0.0581913217902184
964,0.0124726025387645,0.0354050360620022,0.00227312394417822,0.00111136352643371,0.0290668085217476,-0.0579877868294716
965,0.0107855191454291,0.0354880951344967,-0.00067570130340755,-0.00207491382025182,0.0246972348541021,-0.0584089048206806
966,0.00862326938658953,0.0362906232476234,-0.00411348743364215,-0.00434748455882072,0.0205850284546614,-0.0591942369937897
