,AF3,AF4,Fp1,Fp2,AF7,AF8
0,0.00486902333796024,0.00622348207980394,0.00803309585899115,0.0112494090572,0.00786399561911821,0.0148394657298923
1,0.00237561482936144,0.00429938035085797,0.00333693157881498,0.00730963284149766,0.00272544007748365,0.00994443241506815
2,0.000935062998905778,0.00273549277335405,-0.000271264085313305,0.00368570582941175,-0.000909604830667377,0.00560708623379469
3,0.00139141373801976,0.0023643288295716,-0.00124479178339243,0.00186411605682224,-0.00117373873945326,0.00338472332805395
4,0.00193748122546822,0.00191816186998039,-0.00102643005084246,0.000552080920897424,-0.000300233921734616,0.00198590965010226
5,-0.000271252501988783,-0.000121116929221898,-0.00246343691833317,-0.00269119162112474,-0.00186585041228682,-0.000914093048777431
6,-0.00314945424906909,-0.00185576535295695,-0.00402695406228304,-0.0051711299456656,-0.00397891458123922,-0.00305301463231444
7,-0.00363038782961667,-0.00143463886342943,-0.00342102628201246,-0.00375075289048254,-0.00370205729268491,-0.0017121258424595
8,-0.00285259610973299,-0.000237287662457675,-0.00184282311238348,-0.000324705470120534,-0.00206248997710645,0.00103627634234726
9,-0.00121435930486768,0.0014414896722883,0.000803958566393703,0.00381528190337121,0.000779639172833413,0.00435425247997046
10,0.00099274842068553,0.0040555982850492,0.00401985459029675,0.00758571829646826,0.00422862498089671,0.00821523647755384
11,0.00234697619453073,0.00654036086052656,0.00589191308245063,0.00963713601231575,0.00656375754624605,0.01085823494941
12,0.0034742106217891,0.00799256097525358,0.00781546719372272,0.0111369369551539,0.00880379229784012,0.0120670655742288
13,0.00443747779354453,0.00801038090139627,0.0104660680517554,0.0118693709373474,0.0110682109370828,0.012095489539206
14,0.0027080976869911,0.00622845441102982,0.0102828042581677,0.00910842232406139,0.0100291352719069,0.00989573542028666
15,-0.00133229652419686,0.00362538825720549,0.00682996958494186,0.00370473763905466,0.00598959159106016,0.00622546812519431
16,-0.00366769707761705,0.00217925128526986,0.00430520530790091,0.000154166307765991,0.00395418191328645,0.00386057887226343
17,-0.00386642734520137,0.00185283948667347,0.00328344339504838,-0.000877126993145794,0.00452393293380737,0.00282926042564213
18,-0.00354607030749321,0.00192055979277939,0.00256581092253327,-0.000803613511379808,0.00511370319873095,0.00236913491971791
19,-0.00259346351958811,0.00265979859977961,0.00349097861908376,0.000912358635105193,0.00628093676641583,0.00362255028448999
20,-0.00224731443449855,0.00329757505096495,0.00589767238125205,0.00322211324237287,0.00849400740116835,0.00581946456804872
21,-0.00423515681177378,0.0022602747194469,0.00682098232209682,0.00314092868939042,0.00932244770228863,0.00583583628758788
22,-0.00711978366598487,-0.000412771856645122,0.00467937253415585,7.59007307351567E-05,0.00749624008312821,0.00269805709831417
23,-0.00844202190637589,-0.00311264162883163,0.00106059073004872,-0.00359702273271978,0.00446941610425711,-0.00142462446819991
24,-0.00795357581228018,-0.00464922841638327,-0.0021269170101732,-0.00569205172359943,0.00165986630599946,-0.00409263698384166
25,-0.00630140909925103,-0.00485380506142974,-0.00415567634627223,-0.00543053681030869,4.70413106086198E-05,-0.00379270780831575
26,-0.00443212501704693,-0.00450618471950293,-0.0054500917904079,-0.00408153096213937,-0.000327644898789003,-0.00169252825435251
27,-0.00388509361073375,-0.00491818366572261,-0.00729953777045012,-0.00427077990025282,-0.000942054379265755,-0.00128800130914897
28,-0.00461235642433167,-0.00643624365329742,-0.00971974804997444,-0.00673570297658443,-0.00206520967185497,-0.00364193832501769
29,-0.00364937796257436,-0.00692341150715947,-0.00992676522582769,-0.00777030596509576,-0.00109410646837205,-0.0048643653281033
30,0.000977716757915914,-0.00399290723726153,-0.00609777728095651,-0.0030921557918191,0.00349295395426452,-0.00108705798629671
31,0.006647112313658,0.000972733425442129,-0.000893293705303222,0.00572698004543781,0.00895086023956537,0.00536606693640351
32,0.00949612632393837,0.00413807388395071,0.00230711442418396,0.012833358719945,0.0119231604039669,0.00882458034902811
33,0.00823528598994017,0.0034633157774806,0.00258572120219469,0.0141060706228018,0.0118199130520225,0.0068995370529592
34,0.00401382567360997,-3.01717445836402E-05,0.000484559626784176,0.00993889849632978,0.00950969569385052,0.00161180144641548
35,-0.00119205424562097,-0.00415633851662278,-0.00272881262935698,0.00340733025223017,0.00563719961792231,-0.00404965598136187
36,-0.00626498647034168,-0.00773103535175323,-0.00623684749007225,-0.00284242699854076,0.000376784737454727,-0.00861168466508389
37,-0.0103716235607862,-0.0103940302506089,-0.00944274011999369,-0.00735638756304979,-0.00520036881789565,-0.011512253433466
38,-0.0118219116702676,-0.0115068256855011,-0.0106322206556797,-0.00887457001954317,-0.00825197156518698,-0.0118118179962039
39,-0.0100477878004313,-0.0107919685542583,-0.00930873397737741,-0.0073626902885735,-0.00745207769796252,-0.0100840954110026
40,-0.00653479807078838,-0.00880615785717964,-0.00737180514261127,-0.00492681143805385,-0.00476485956460238,-0.00891305413097143
41,-0.00296752154827118,-0.00631942972540855,-0.00641280133277178,-0.00321087567135692,-0.00245225918479264,-0.00909996591508389
42,-7.96202730271034E-05,-0.00380504759959877,-0.00631585204973817,-0.00220166915096343,-0.00096679845592007,-0.00957867503166199
43,0.00239225127734244,-0.00122044421732426,-0.00587263610213995,-0.00144108582753688,0.000835174054373056,-0.0100042251870036
44,0.003368956502527,0.000569085648749024,-0.00569342402741313,-0.00215807789936662,0.00199397723190486,-0.0118476282805204
45,0.00123500172048807,0.000458646449260414,-0.00753023475408554,-0.00559827033430338,0.000121665230835788,-0.0157696418464184
46,-0.00237107672728598,-0.00023633215459995,-0.0102723436430097,-0.00949450396001339,-0.00316902622580528,-0.0188958924263716
47,-0.00458077155053616,0.000278030405752361,-0.0120769431814551,-0.0113894874230027,-0.00523709133267403,-0.0189029406756163
48,-0.00471335835754871,0.00175234547350556,-0.0129496147856116,-0.0115990815684199,-0.00624246802181005,-0.0167793072760105
49,-0.00337999383918941,0.00337729416787624,-0.0128449602052569,-0.0106994863599539,-0.00657663820311427,-0.0137233892455697
50,-0.00122596859000623,0.00463532004505396,-0.0114945704117417,-0.00865530781447887,-0.00608073733747005,-0.0103958547115326
51,0.000416399096138775,0.00478604948148131,-0.0101547138765454,-0.0065867374651134,-0.00593229755759239,-0.00858809892088175
52,0.000630112539511174,0.00382773345336318,-0.0101686269044876,-0.00539692118763924,-0.0069483919069171,-0.00934956409037113
53,0.000192210471141152,0.00247588730417192,-0.0108265150338411,-0.00454644346609712,-0.00767037644982338,-0.0117257330566645
54,0.000629929360002279,0.00134797266218811,-0.0101850898936391,-0.00361623708158731,-0.00651123002171516,-0.0137849329039454
55,0.00265834270976484,0.00132379226852208,-0.00756331952288747,-0.00220071547664702,-0.00340839778073132,-0.0132526895031333
56,0.00562504306435585,0.00299934856593609,-0.00427158642560244,0.000118913660116959,0.000573304016143084,-0.00955838710069656
57,0.00881390646100044,0.00596992578357458,-0.00101895723491907,0.00349526014178991,0.00437226984649897,-0.00427403440698981
58,0.0115258414298296,0.00886443536728621,0.00231930706650019,0.00730556901544333,0.00733241392299533,0.000312994146952406
59,0.0117138223722577,0.00966683868318796,0.00370187545195222,0.00871644262224436,0.00758018950000405,0.00135039607994258
60,0.0077781630679965,0.00740822078660131,0.000809076125733554,0.00536594726145267,0.00318590691313148,-0.00261110439896584
61,0.00167132588103414,0.00368715403601527,-0.00443882727995515,-0.000681656703818589,-0.00370010733604431,-0.00901860930025578
62,-0.00257890950888395,0.00149821001105011,-0.0076641901396215,-0.00483704032376409,-0.00840699952095747,-0.0132594238966703
63,-0.0030121982563287,0.00215744343586266,-0.00702860532328486,-0.00462822569534183,-0.00903843995183706,-0.0130562698468566
64,-0.00129097793251276,0.00428334390744567,-0.00452103605493903,-0.00162498990539461,-0.00760426511988044,-0.0100682741031051
65,-0.000163186123245396,0.00599953066557646,-0.00294970208778977,0.000983567209914327,-0.0069211246445775,-0.00740861054509878
66,-0.000365173298632726,0.00688595650717616,-0.00315853860229254,0.00178149854764342,-0.00781111139804125,-0.00662516755983233
67,-0.000971310713794082,0.00756392162293196,-0.00438730791211128,0.00117109343409538,-0.00952193606644869,-0.00754564581438899
68,-0.00149902526754886,0.0079005928710103,-0.0060339504852891,-0.000334600830683485,-0.0113132186233997,-0.00975732691586018
69,-0.00211073784157634,0.00731073506176472,-0.00822558999061584,-0.00234929658472538,-0.012325637973845,-0.0124937444925308
70,-0.00241128588095307,0.00629740208387375,-0.0103304227814078,-0.00383688579313457,-0.01131013315171,-0.0141510395333171
71,-0.00244532618671656,0.00515829864889383,-0.0115994615480304,-0.00452279206365347,-0.00880219880491495,-0.0142697719857097
72,-0.00267914612777531,0.00370995257981122,-0.0122024044394493,-0.00458187982439995,-0.00646167155355215,-0.0134083749726415
73,-0.00236440543085337,0.00270992261357605,-0.0117262443527579,-0.00267725787125528,-0.0041375788860023,-0.0118201542645693
74,-0.00103189703077078,0.00282760243862867,-0.00962997600436211,0.0015453805681318,-0.00134198064915836,-0.00979648437350988
75,-0.000830283388495445,0.00289298966526985,-0.00818026624619961,0.00433857226744294,-0.000184837554115802,-0.00827010534703732
76,-0.00420937547460198,0.00113731273449957,-0.0107813291251659,0.00156343227718025,-0.00297403964214027,-0.00893126893788576
77,-0.0089122774079442,-0.00148978631477803,-0.0156381595879793,-0.00421835947781801,-0.00689086643978953,-0.0109269302338362
78,-0.010200378485024,-0.00236056861467659,-0.0176610331982374,-0.00697988225147128,-0.0067759738303721,-0.0109977750107646
79,-0.00673603359609842,-0.000716162379831076,-0.0152910044416785,-0.00534632196649909,-0.0018312472384423,-0.00809758808463812
80,-0.000663229671772569,0.00231362483464181,-0.0104366252198815,-0.00144903524778783,0.00466730771586299,-0.00351223489269614
81,0.00517928879708052,0.00512059405446053,-0.00553944520652294,0.00289255939424038,0.00964102707803249,0.00135676411446184
82,0.00865254551172256,0.00621866388246417,-0.00265204440802336,0.00586315291002393,0.0116345658898354,0.0048442161642015
83,0.00912914052605629,0.00527063384652138,-0.00259433197788894,0.00629676831886172,0.0101503785699606,0.00539874285459518
84,0.00804148986935616,0.00349425477907062,-0.00425413344055414,0.00514471624046564,0.00639083981513977,0.00349417910911143
85,0.00754767330363393,0.00228531961329281,-0.00542658800259233,0.00423853704705834,0.00340721337124705,0.00132699683308601
86,0.00837088096886873,0.0019453561399132,-0.00440797675400972,0.00460106180980802,0.00350641529075801,0.000415218673879281
87,0.00912222824990749,0.00154225819278508,-0.00236286921426654,0.005041538272053,0.00500703928992152,-7.59511967771687E-05
88,0.00874943193048239,0.000739560346119106,-0.00160616694483906,0.00413898518308997,0.00487984204664826,-0.000856408034451306
89,0.00760403741151094,0.000228339791647159,-0.00245571346022189,0.00240466301329434,0.00281591922976077,-0.00114023080095649
90,0.0050464435480535,-0.00074972992297262,-0.00518628628924489,-0.000503944465890527,-0.000848864961881191,-0.00199501332826912
91,0.00116886827163398,-0.00324625498615205,-0.00906708557158709,-0.00447497703135014,-0.00476599158719182,-0.00424438156187534
92,-0.000966364692430943,-0.00589671405032277,-0.0103782461956143,-0.00629921164363623,-0.00493036070838571,-0.00501253083348274
93,-0.00024875660892576,-0.00728002144023776,-0.00808432977646589,-0.00499787647277117,-0.000449659215519205,-0.00334038748405874
94,0.00146133685484529,-0.00757114076986909,-0.00509683880954981,-0.0028785562608391,0.00508452393114567,-0.00176904024556279
95,0.00278954766690731,-0.00743257394060493,-0.00355155044235289,-0.000780273170676082,0.00882572866976261,-0.00160858151502907
96,0.00236083101481199,-0.00835387408733368,-0.00451261037960649,0.000693311390932649,0.00972992647439241,-0.00367459864355624
97,0.00100672792177647,-0.0106981499120593,-0.0062402356415987,0.00116097962018102,0.00956638343632221,-0.00702775735408068
98,0.000765728706028312,-0.0126277459785342,-0.00587163679301739,0.00153793441131711,0.0103029124438763,-0.00804458651691675
99,0.00112126092426479,-0.0130807058885694,-0.00392366107553244,0.00228335685096681,0.0109605044126511,-0.00542805204167962
100,0.00169478543102741,-0.0126404464244843,-0.0017169025959447,0.00365789234638214,0.011340674944222,-0.00120678404346108
101,0.00278535019606352,-0.0121837975457311,0.000189161204616539,0.00553587777540088,0.011870926246047,0.00225515803322196
102,0.00295567605644464,-0.0126254484057426,0.000507754506543279,0.00641540950164199,0.0106115378439426,0.00310931634157896
103,0.00129446515347809,-0.0141087174415588,-0.00106073589995503,0.00535434763878584,0.00639856467023492,0.00107537466101348
104,-0.000531447643879801,-0.0149536477401853,-0.00248555513098836,0.00382234319113195,0.00182838027831167,-0.00135357538238168
105,-0.00152582069858909,-0.0138534931465983,-0.00284531060606241,0.00299453991465271,-0.00117979885544628,-0.00208477163687348
106,-0.00244549731723964,-0.0117750680074096,-0.00342795834876597,0.00221569114364684,-0.00382212083786726,-0.00179726968053728
107,-0.00336021836847067,-0.0102344322949648,-0.00461977533996105,0.00107447023037821,-0.00646812887862325,-0.00202759052626789
108,-0.00387329654768109,-0.00985676422715187,-0.00569687597453594,-0.000271227123448625,-0.00788831617683172,-0.00371458427980542
109,-0.00423566624522209,-0.0108291665092111,-0.00654313713312149,-0.00187452952377498,-0.00804828200489283,-0.0067270970903337
110,-0.00414342526346445,-0.0124042313545942,-0.00678362511098385,-0.00286428933031857,-0.00715300813317299,-0.009231879375875
111,-0.00362004386261106,-0.0135064888745546,-0.00612497422844172,-0.00258986419066787,-0.00527687603607774,-0.00994420051574707
112,-0.00409958232194185,-0.0143746361136436,-0.00607729516923428,-0.00246796058490872,-0.00419031409546733,-0.0101098986342549
113,-0.00468253903090954,-0.0147683648392558,-0.00656567048281431,-0.00239860452711582,-0.00365925533697009,-0.00972090195864439
114,-0.00350684858858585,-0.0138992313295603,-0.00605622632429004,-0.00122865359298885,-0.00186341279186308,-0.00764559768140316
115,-0.00102386448998004,-0.0120216524228454,-0.00455567892640829,0.000525832816492766,0.00113709573633969,-0.00447720987722278
116,0.00172514701262116,-0.0098539600148797,-0.00223169638775289,0.00234476337209344,0.00499356957152486,-0.00129255116917193
117,0.00327675952576101,-0.00843916181474924,-0.000298865721561015,0.00366348470561206,0.00814653933048248,0.000574555771891028
118,0.00315990881063044,-0.00807113479822874,-0.0005778216291219,0.00444987276569009,0.00874021463096142,0.000487059500301257
119,0.00288700149394572,-0.00820975750684738,-0.0027706443797797,0.00511000817641616,0.00769412145018578,-0.00115768134128302
120,0.00332257780246437,-0.00867580715566874,-0.00519701698794961,0.00457804976031184,0.00704455934464931,-0.00376567081548274
121,0.00404588831588626,-0.00915765576064587,-0.0065334471873939,0.00242865202017128,0.00776855740696192,-0.00544532667845488
122,0.00489538302645087,-0.00966386683285236,-0.00623320881277323,0.000312220421619713,0.00988072995096445,-0.00461933761835098
123,0.00609637424349785,-0.0106517588719726,-0.00443075457587838,-0.000295331527013332,0.0126350885257125,-0.00209729908965528
124,0.0068691074848175,-0.012278457172215,-0.00269173365086317,5.48465141037013E-05,0.0142543315887451,-8.69885188876651E-05
125,0.00661437772214413,-0.0141944335773587,-0.00251094764098525,-5.12030492245685E-05,0.0138934329152107,-4.28990642831195E-05
126,0.00618019141256809,-0.0155197400599718,-0.00329672847874463,-0.00031482323538512,0.0127861928194761,-0.000929613830521703
127,0.00515023758634925,-0.0162519533187151,-0.00465890066698194,-0.000538787629920989,0.0112161049619317,-0.00185446487739682
128,0.00265057920478284,-0.0174175295978785,-0.00690285163000226,-0.00155526853632182,0.00853069964796305,-0.00338929356075823
129,0.000363507453585044,-0.0191173981875181,-0.00901912804692984,-0.00279512396082282,0.00565960025414824,-0.00486697861924767
130,0.000152762746438384,-0.0202638432383537,-0.00970523897558451,-0.00311668589711189,0.00408281059935689,-0.0050068199634552
131,0.0013840114697814,-0.0204116441309452,-0.00944866705685854,-0.002563685644418,0.00348745193332434,-0.00428001256659627
132,0.00274877622723579,-0.0198273714631796,-0.00925827864557505,-0.0015724478289485,0.00278928689658642,-0.00377103383652866
133,0.00389674608595669,-0.0184740331023932,-0.00893247313797474,-0.000405902217607945,0.00197924580425024,-0.0034899590536952
134,0.00547342235222459,-0.0163962636142969,-0.00721245445311069,0.00124551402404904,0.00204600300639868,-0.00278743868693709
135,0.00850521773099899,-0.0140327839180827,-0.00324018625542521,0.00411674007773399,0.00404524616897106,-0.00132097862660885
136,0.0130548626184464,-0.0116052301600575,0.0021266988478601,0.00832760985940695,0.00793422758579254,0.00109738961327821
137,0.0177510716021061,-0.00910582114011049,0.00701892329379916,0.0128944255411625,0.0120593262836337,0.00443133432418108
138,0.020210700109601,-0.00748694222420454,0.0094340443611145,0.0155625082552433,0.0139781320467591,0.00692724203690887
139,0.018953338265419,-0.00823553744703531,0.00818886049091816,0.0148288607597351,0.0127410795539618,0.00616541551426053
140,0.0156110608950257,-0.0107914563268423,0.00469242734834552,0.012019133195281,0.0102650988847017,0.00245648762211204
141,0.0127852279692888,-0.0128991641104221,0.00156757072545588,0.00881786178797483,0.00884251389652491,-0.00160190067254007
142,0.0105637973174453,-0.0139679089188576,-0.000808788929134607,0.00512205250561237,0.00808610208332539,-0.00453147385269403
143,0.00927265267819166,-0.0140381408855319,-0.00217071641236544,0.00214857165701687,0.00790690258145332,-0.00524877896532416
144,0.0108470767736435,-0.0122665455564857,-0.000880140985827893,0.00254238652996719,0.0101782698184252,-0.00219262298196554
145,0.0147362556308508,-0.00919580645859241,0.00265806540846825,0.00626279879361391,0.0147847775369883,0.00393908703699708
146,0.0178095772862434,-0.00651751179248095,0.00572999007999897,0.0103563750162721,0.0189432092010975,0.00980972126126289
147,0.0177305340766907,-0.00512252887710929,0.00617738626897335,0.0118791842833161,0.0201824065297842,0.0125020500272512
148,0.0140781011432409,-0.00506568048149347,0.00366720068268478,0.00977355614304543,0.0180154945701361,0.0112343905493617
149,0.00864757876843214,-0.00553942006081343,-0.000226091258809902,0.00577984051778913,0.0141601441428065,0.00737005658447742
150,0.00500053446739912,-0.00498989876359701,-0.00246908259578049,0.00344752613455057,0.0112786190584302,0.00413803709670901
151,0.00543825933709741,-0.00245671207085252,-0.00106034683994949,0.00466113490983844,0.0108532346785069,0.00430173706263304
152,0.00877709873020649,0.00168444984592497,0.00280640576966107,0.00805371627211571,0.0123712308704853,0.00733487261459231
153,0.0121573973447084,0.00623722700402141,0.00672792736440897,0.0109878936782479,0.0145395761355758,0.00997610297054052
154,0.0132849691435695,0.0098479138687253,0.00909732468426228,0.011447437107563,0.0162126570940018,0.00939847156405449
155,0.0113307079300284,0.0117974719032645,0.00932179857045412,0.00930544827133417,0.0168622564524412,0.00550099322572351
156,0.00752333458513021,0.0125847393646836,0.00871060695499182,0.00651625636965036,0.0171370077878237,0.000560629589017481
157,0.00412039645016193,0.0129656288772821,0.00855415407568216,0.00426747882738709,0.0171840954571962,-0.00380388065241277
158,0.00378730637021363,0.0135627631098032,0.00874246191233397,0.00253615016117692,0.0172245297580957,-0.00730957370251417
159,0.00699062179774046,0.0151766361668706,0.00886244978755713,0.00202726945281029,0.0177894346415997,-0.00941232778131962
160,0.0108648361638188,0.0181236509233713,0.00892534479498863,0.00352838239632547,0.0180144272744656,-0.00989349279552698
161,0.0135850589722395,0.0217439774423838,0.0099228136241436,0.00645367475226521,0.0177440103143454,-0.00900672469288111
162,0.015513333491981,0.0252916552126408,0.0125163989141583,0.00947205256670713,0.018130162730813,-0.00646778475493193
163,0.0163146052509546,0.0283608362078667,0.0154559146612883,0.0113776419311762,0.0189755707979202,-0.00274722906760871
164,0.0151333622634411,0.0305959396064281,0.0173945818096399,0.0117073785513639,0.0195849575102329,0.000732526066713035
165,0.0121209248900414,0.0319523736834526,0.018262006342411,0.0107801696285605,0.0200871396809816,0.00294944946654141
166,0.00823310390114784,0.0327085703611374,0.0181639455258846,0.00903730653226376,0.0204235911369324,0.00342696392908692
167,0.00510363513603807,0.0333003848791122,0.0178201161324978,0.00774215301498771,0.0212025754153728,0.00316167715936899
168,0.00342852645553648,0.0338673777878284,0.0180466584861279,0.00789920892566442,0.0226895567029715,0.00338557944633067
169,0.0026319706812501,0.034273948520422,0.0185373611748219,0.00907474849373102,0.023626234382391,0.00404446898028255
170,0.00158526108134538,0.0340065471827984,0.0181365571916103,0.00954911578446627,0.022684883326292,0.00391800282523036
171,-0.000193935818970203,0.0330781675875187,0.0165849830955267,0.00816754810512066,0.0200107116252184,0.00208473321981728
172,-0.00157159788068384,0.032362412661314,0.0149453300982714,0.00567942438647151,0.017165707424283,-0.00102553539909422
173,-0.0023328245151788,0.0317051634192467,0.013224103488028,0.00238176994025707,0.0146699482575059,-0.00546451797708869
174,-0.00192374747712165,0.0311902761459351,0.0121664917096496,-0.000491526676341891,0.0134007539600134,-0.00992123316973448
175,0.00124151259660721,0.0318021476268768,0.0138372806832194,-0.000448981299996376,0.0150715792551637,-0.0116258980706334
176,0.00570784555748105,0.0331726595759392,0.0173156522214413,0.00180173863191158,0.0182990618050098,-0.0109423082321882
177,0.00749465823173523,0.0335967354476452,0.0187524743378162,0.00252339616417885,0.0191920157521963,-0.0109632825478911
178,0.00500154914334416,0.0321959480643272,0.0161771811544895,-0.000332086667185649,0.0162220448255539,-0.0130893150344491
179,0.0018328616861254,0.0308182369917631,0.0129658402875066,-0.00331654609180987,0.0133918821811676,-0.0143330665305257
180,0.00169289426412433,0.0311395078897476,0.0128655852749944,-0.00212686229497194,0.0149981416761875,-0.0123262973502278
181,0.00304259918630123,0.0317645706236362,0.0145257031545043,0.0019877206068486,0.0193705819547176,-0.00968723464757204
182,0.00341537361964583,0.0313765183091164,0.0158478934317827,0.00603197189047933,0.0228063520044088,-0.00840871781110764
183,0.00283623416908085,0.0302293356508017,0.016536008566618,0.00881706736981869,0.0239994172006845,-0.00778091233223677
184,0.00112572638317943,0.0279790461063385,0.015539949759841,0.00930092856287956,0.0224097557365894,-0.00866812467575073
185,-0.00181135779712349,0.0241061188280582,0.0126914605498314,0.00738797057420015,0.0182247441262007,-0.0124190077185631
186,-0.00436902139335871,0.0197773147374392,0.0100961998105049,0.00474763615056872,0.0137249259278178,-0.0168519578874111
187,-0.00517207942903042,0.0170194506645203,0.00884114019572735,0.00316837639547884,0.0109418490901589,-0.0180834885686636
188,-0.00395106012001634,0.0167788024991751,0.00851823296397924,0.0036464580334723,0.0103337513282895,-0.0152195366099477
189,-0.00105657242238522,0.0185935869812965,0.00929470546543598,0.00596722960472107,0.0120006371289492,-0.0105098159983754
190,0.00249461992643774,0.0215903986245394,0.01122453995049,0.00901447515934706,0.0153917754068971,-0.00624159956350923
191,0.00543344067409635,0.0251126196235418,0.0133860083296895,0.011808805167675,0.019116310402751,-0.00339197018183768
192,0.00721985939890146,0.0287271607667208,0.0151597103103995,0.0139144361019135,0.0224515981972218,-0.00202245963737369
193,0.00866973772644997,0.0323390662670136,0.016995782032609,0.0155333979055285,0.025719178840518,-0.00128652935381979
194,0.0105819841846824,0.0358626246452332,0.0189681742340326,0.0167974773794413,0.0287175420671701,-0.000252406462095678
195,0.0123914014548063,0.0380222797393799,0.0199628360569477,0.0169307254254818,0.0304213184863329,6.94039481459185E-05
196,0.0135755417868495,0.0374382436275482,0.0197180695831776,0.01613450050354,0.0306411646306515,-0.00128492538351566
197,0.0138276014477015,0.0344537049531937,0.0187423564493656,0.0157464817166328,0.0292356684803963,-0.00321211130358279
198,0.0123324301093817,0.0300452038645744,0.0166119150817394,0.0153556941077113,0.0255633853375912,-0.00523869134485722
199,0.00966496858745813,0.0249406304210424,0.0137272337451577,0.0142052667215467,0.0212349519133568,-0.00732307508587837
200,0.0079257283359766,0.0200348310172558,0.0122246937826276,0.013695833273232,0.0193310305476189,-0.00777209037914872
201,0.00866929534822702,0.0166219770908356,0.0140054589137435,0.016053831204772,0.0212418735027313,-0.00440173037350178
202,0.0109747890383005,0.0147889917716384,0.0179238002747297,0.0205854773521423,0.024996979162097,0.00161646073684096
203,0.0122538693249226,0.0128187043592334,0.0204102173447609,0.023745272308588,0.0268348325043917,0.00590628292411566
204,0.0112010734155774,0.00955465063452721,0.0194705277681351,0.0235321670770645,0.024784816429019,0.00592454336583614
205,0.00855476222932339,0.00547484448179603,0.0158083792775869,0.0208103731274605,0.0195218920707703,0.00218866765499115
206,0.00588418077677488,0.00156012631487101,0.0112435081973672,0.0176084786653519,0.0136157236993313,-0.00370034831576049
207,0.004838977009058,-0.00145624380093068,0.00866802409291267,0.0160553567111492,0.01079460978508,-0.00913170538842678
208,0.00636449689045548,-0.00321895652450621,0.0104985507205129,0.0175629649311304,0.0133608933538198,-0.0107561750337482
209,0.00833835080265999,-0.00482186069712043,0.0144125763326883,0.0202655997127295,0.018662640824914,-0.00880112778395414
210,0.00811136793345213,-0.00748785538598895,0.0168419554829597,0.0212773103266954,0.0224332716315985,-0.00682098139077425
211,0.00595941441133618,-0.0108610829338431,0.0174655299633741,0.0206599850207567,0.0235754959285259,-0.00652491627261043
212,0.00215468276292086,-0.0151958763599396,0.0158298872411251,0.0184327717870474,0.0219781864434481,-0.00866507738828659
213,-0.00238100346177816,-0.0203657448291779,0.0128925638273358,0.0154955927282572,0.0192852318286896,-0.0123097244650126
214,-0.00455214083194733,-0.0238932687789202,0.0124328704550862,0.0152654871344566,0.0195127967745066,-0.0135717121884227
215,-0.00403305515646935,-0.0247791688889265,0.0146301267668605,0.0179010406136513,0.0229251813143492,-0.0116447256878018
216,-0.00320020387880504,-0.0244076438248158,0.0169331170618534,0.0210507456213236,0.0266257300972939,-0.00855528190732002
217,-0.00329303136095405,-0.0240946542471647,0.0182725600898266,0.0237647220492363,0.0287791285663843,-0.00525835296139121
218,-0.0056480560451746,-0.0250591933727264,0.0168352518230677,0.0242912787944078,0.0272017363458872,-0.00412672711536288
219,-0.0100686736404896,-0.0267511252313852,0.012501678429544,0.0225536376237869,0.0220937170088291,-0.00613870844244957
220,-0.0138458227738738,-0.0276223942637444,0.0087526012212038,0.0216206014156342,0.0177492294460535,-0.00849105231463909
221,-0.0158737823367119,-0.0282725282013416,0.00739667192101479,0.022157484665513,0.0166895464062691,-0.0101210931316018
222,-0.0163248013705015,-0.0293914340436459,0.00809962023049593,0.023080276325345,0.0183255821466446,-0.0112714134156704
223,-0.0149548687040806,-0.0301318559795618,0.0105048399418592,0.0246608182787895,0.021672461181879,-0.0107386568561196
224,-0.0127017889171839,-0.0304658655077219,0.0127318268641829,0.0261000674217939,0.0245755296200514,-0.00935218017548323
225,-0.0109896045178175,-0.0311851389706135,0.0131133003160357,0.0261018332093954,0.025222958996892,-0.00945555791258812
226,-0.00938473828136921,-0.0317698791623116,0.0133422240614891,0.0263010617345572,0.0251872427761555,-0.0100790057331324
227,-0.00771349854767323,-0.0321526043117046,0.0147271417081356,0.0279551763087511,0.0258424077183008,-0.00989370606839657
228,-0.00769721157848835,-0.0337859243154526,0.0152426231652498,0.0291004609316587,0.025760468095541,-0.0105209164321423
229,-0.00991272833198309,-0.0364515259861946,0.0130276549607515,0.028309503570199,0.0238782186061144,-0.0124821504577994
230,-0.0122395921498537,-0.0384153090417385,0.0096522169187665,0.0265480745583773,0.0217507835477591,-0.0141837811097503
231,-0.012178965844214,-0.0387346222996712,0.00891426485031843,0.0255337543785572,0.0221342947334051,-0.0143352895975113
232,-0.0105558410286903,-0.0375605709850788,0.0117031997069716,0.0256382189691067,0.0254575610160828,-0.0124514857307076
233,-0.0110425679013133,-0.0363835357129574,0.0147326057776809,0.0250879004597664,0.0287946034222841,-0.00989449210464954
234,-0.0147911421954632,-0.0366571061313152,0.0150131843984127,0.022587550804019,0.0289478972554207,-0.00889557041227818
235,-0.0192535743117332,-0.0383421778678894,0.0123479999601841,0.0191118456423283,0.0257478188723326,-0.00971877854317427
236,-0.0222496408969164,-0.0407711192965508,0.00816676300019026,0.0159467943012714,0.0215851385146379,-0.0113700861111283
237,-0.0238447058945894,-0.0434297472238541,0.00384377618320286,0.013489137403667,0.0185711979866028,-0.013400967232883
238,-0.024314783513546,-0.0456562489271164,0.000943343213293701,0.0124509930610657,0.018145838752389,-0.0149223394691944
239,-0.0236381255090237,-0.0470359846949577,0.00045686773955822,0.0131331458687782,0.020351018756628,-0.0150218242779374
240,-0.0236944742500782,-0.0485965795814991,0.000402735982788727,0.0134459733963013,0.02214146964252,-0.0155391786247492
241,-0.0251915417611599,-0.0504381842911243,-0.000376752024749294,0.0126557927578688,0.0221728011965752,-0.0176083967089653
242,-0.0259908922016621,-0.0505544282495975,-0.000166155630722642,0.0128011191263795,0.0225312244147062,-0.0191581472754478
243,-0.0254545696079731,-0.0482066422700882,0.000997804454527795,0.0138543536886573,0.0238865856081247,-0.0196692869067192
244,-0.0242693815380335,-0.044328898191452,0.00190992024727166,0.0144174424931407,0.0256190225481987,-0.0203998815268278
245,-0.022231001406908,-0.0397796146571636,0.00308209983631969,0.0150309018790722,0.028023149818182,-0.0210393238812685
246,-0.0189736410975456,-0.0348122492432594,0.00560710579156876,0.0172188375145197,0.0319486297667027,-0.020324157550931
247,-0.0159556325525045,-0.0299167577177286,0.00848129484802485,0.0205701068043709,0.0360178127884865,-0.0187410060316324
248,-0.0162393786013126,-0.0268389098346233,0.00860437285155058,0.0220941491425037,0.0363143123686314,-0.0193291343748569
249,-0.0204154998064041,-0.0264218598604202,0.00495676789432764,0.0198147185146809,0.031305119395256,-0.0236709769815207
250,-0.0246312916278839,-0.0264687854796648,0.000680238590575755,0.016077084466815,0.0242400262504816,-0.0277926586568356
251,-0.0249612219631672,-0.0242693051695824,-0.00097739021293819,0.0148835526779294,0.0191692542284727,-0.0267666075378656
252,-0.022429246455431,-0.020391970872879,-0.000941268401220441,0.0158305037766695,0.0162830911576748,-0.0224226880818605
253,-0.0202953442931175,-0.0173194706439972,-0.00176576303783804,0.0155989741906524,0.0138885425403714,-0.0201074555516243
254,-0.0191504471004009,-0.0156373530626297,-0.00353008601814508,0.0137159656733274,0.0120674641802907,-0.0210844781249762
255,-0.0179572347551584,-0.014405133202672,-0.0050700418651104,0.0115918731316924,0.0112450495362282,-0.0238181874155998
256,-0.0155141158029437,-0.0124037247151136,-0.00531607447192073,0.0105255730450153,0.0115887112915516,-0.0265006702393293
257,-0.0118692172691226,-0.00924002658575773,-0.00435231206938624,0.010690706782043,0.0128685273230076,-0.0280703660100698
258,-0.00857660360634327,-0.00619523879140615,-0.00357258040457964,0.0108198504894972,0.014430895447731,-0.0291943699121475
259,-0.00631687743589282,-0.00421446608379483,-0.00336579466238618,0.010234298184514,0.0163808427751064,-0.0304233301430941
260,-0.00422949017956853,-0.00253606191836298,-0.00243516126647592,0.00976768229156733,0.019125547260046,-0.0312581993639469
261,-0.00136578653473407,0.00010143964755116,0.00018736366473604,0.0104340352118015,0.0221133101731539,-0.0313167050480843
262,0.00105074897874147,0.00370911904610693,0.00262016733177006,0.0110065713524818,0.0230408944189548,-0.0316145494580269
263,0.0017478687223047,0.00751355057582259,0.00299961701966822,0.0100007550790906,0.0206546317785978,-0.0328959003090858
264,0.0021598101593554,0.0114386407658458,0.00295647094026208,0.00897994916886091,0.0169449299573898,-0.0336448550224304
265,0.00426169997081161,0.0157703030854464,0.00492146937176585,0.0103865610435605,0.0148978363722563,-0.0320066511631012
266,0.00820294488221407,0.0203264970332384,0.00873844232410192,0.0142799792811275,0.0155763123184443,-0.0280208699405193
267,0.012231545522809,0.0242388471961021,0.0120269367471337,0.0182174444198608,0.0175307393074036,-0.0237724389880896
268,0.0146238217130303,0.0263752862811089,0.0130838640034199,0.0196210853755474,0.0193137973546982,-0.0219364333897829
269,0.0148974638432264,0.026168854907155,0.0118724266067147,0.0178315546363592,0.0205006785690784,-0.0235431436449289
270,0.0133527889847755,0.0239795539528131,0.00894801132380962,0.0139081561937928,0.0204427111893892,-0.0272748600691557
271,0.0108867762610316,0.020943695679307,0.00511938938871026,0.00927744898945093,0.0187872461974621,-0.0311349518597126
272,0.00828025955706835,0.0179948192089796,0.00113126763608307,0.00461083929985762,0.0161058530211449,-0.0344568267464638
273,0.00599962659180164,0.0154000110924244,-0.00222944235429168,0.000689597392920405,0.0134643791243434,-0.0376903563737869
274,0.00497475592419505,0.0135594317689538,-0.00377609301358461,-0.000821965804789215,0.0121515039354563,-0.0407125130295753
275,0.0053899809718132,0.0125790210440755,-0.00336896535009146,0.000226917793042958,0.0123193059116602,-0.0426100008189678
276,0.00588699150830507,0.0119134346023202,-0.00251575256697834,0.00195747660472989,0.0128705278038979,-0.0428005680441856
277,0.00675644632428885,0.0118585014715791,-0.000976790557615459,0.00449172221124172,0.0149066857993603,-0.04054269567132
278,0.00898829661309719,0.0127559099346399,0.00226820656098425,0.00903652235865593,0.0193494204431772,-0.0357071086764336
279,0.0100836791098118,0.01313581969589,0.00447006989270449,0.0131477201357484,0.021899102255702,-0.0309269279241562
280,0.00836257450282574,0.0122556984424591,0.00329889333806932,0.0141217401251197,0.0195028223097324,-0.0282126870006323
281,0.00684658717364073,0.0116830756887794,0.00163152150344104,0.0137034123763442,0.0159944742918015,-0.0256485585123301
282,0.008045744150877,0.0117892567068338,0.00317117758095264,0.014948345720768,0.0158786159008741,-0.0211896039545536
283,0.0101018724963069,0.0105603048577905,0.00776878790929914,0.0179951880127192,0.018933704122901,-0.0160076171159744
284,0.00997225195169449,0.0070232329890132,0.0130903115496039,0.0214776806533337,0.0222645364701748,-0.0119967227801681
285,0.00736616458743811,0.00305245770141482,0.0175759829580784,0.0254744943231344,0.0236366298049688,-0.00890178140252829
286,0.0045749950222671,0.00109706725925207,0.0197867080569267,0.0292679164558649,0.0219036471098661,-0.00609813211485744
287,0.00372484652325511,0.00148458429612219,0.0176963172852993,0.0291947349905968,0.0167740639299154,-0.00479183858260512
288,0.00553429825231433,0.00347579829394817,0.0119497710838914,0.0240125451236963,0.00993991829454899,-0.00481091206893325
289,0.00874858908355236,0.00632899440824986,0.00614974740892649,0.0170967467129231,0.00369040085934103,-0.00393929146230221
290,0.0109862070530653,0.00831702630966902,0.00301566952839494,0.0113688418641686,-0.000985262217000127,-0.00161630450747907
291,0.0116782197728753,0.00844774581491947,0.00309483497403562,0.00786864850670099,-0.00379756651818752,0.00221335329115391
292,0.0100206062197685,0.00712846266105771,0.00348423840478063,0.00518300291150808,-0.00713511230424047,0.00743708992376924
293,0.00512531166896224,0.00529772043228149,0.000989976339042187,0.00143710279371589,-0.0140000591054559,0.0134952468797565
294,7.5449250289239E-05,0.00454815709963441,-0.00216052704490721,-0.000987302628345788,-0.0218701455742121,0.0216981321573257
295,-0.00267357681877911,0.00478337099775672,-0.00289737619459629,-0.000187453988473862,-0.0265469737350941,0.0318270288407803
296,-0.00510805286467075,0.00370823172852397,-0.00262070656754076,4.55513645647443E-06,-0.0293214283883572,0.0396818816661835
297,-0.00876645557582378,0.000365059153409675,-0.00396216055378318,-0.0044397204183042,-0.0346035063266754,0.0433621853590012
298,-0.0125625915825367,-0.00361223751679063,-0.00763549283146858,-0.0121944909915328,-0.0439904630184174,0.0460400655865669
299,-0.0147178452461958,-0.00586646469309926,-0.0121176419779658,-0.0188850350677967,-0.0546146109700203,0.0510978512465954
300,-0.0145211135968566,-0.00569844711571932,-0.0155222564935684,-0.0223462618887424,-0.0626066699624062,0.0586015023291111
301,-0.0128504810854793,-0.00439298432320356,-0.0171964131295681,-0.0238111689686775,-0.0665425807237625,0.0662324205040932
302,-0.0115464068949223,-0.00348097854293883,-0.017520135268569,-0.0250658355653286,-0.0675281807780266,0.0721068680286407
303,-0.0122708920389414,-0.00401483848690987,-0.0176497213542461,-0.0266853664070368,-0.0680067017674446,0.0759821310639381
304,-0.0147136719897389,-0.00591243896633387,-0.018788181245327,-0.0286897737532854,-0.070129856467247,0.0785659551620483
305,-0.0168822780251503,-0.00724155874922872,-0.0209437347948551,-0.0307890735566616,-0.0741793587803841,0.0809965431690216
306,-0.0169157423079014,-0.00620810175314546,-0.0223147515207529,-0.0316681638360024,-0.0782531574368477,0.0846774578094482
307,-0.0158716440200806,-0.0039367345161736,-0.0229068733751774,-0.0321328416466713,-0.0820827335119247,0.0886526927351952
308,-0.0157977920025587,-0.00202903291210532,-0.0239231754094362,-0.0342293158173561,-0.086053155362606,0.091022714972496
309,-0.0157091114670038,0.00025179740623571,-0.0236426405608654,-0.0364620052278042,-0.0874457135796547,0.0934364125132561
310,-0.0149773992598057,0.00327882170677185,-0.0213584769517183,-0.0376968309283257,-0.086261585354805,0.0971566289663315
311,-0.0140281785279512,0.00650804117321968,-0.0177712813019753,-0.0379183106124401,-0.0850677639245987,0.101472318172455
312,-0.0125896157696843,0.00970402918756008,-0.0124229565262794,-0.0358703546226025,-0.083480678498745,0.106696613132954
313,-0.011895602568984,0.0116267893463373,-0.00710749579593539,-0.0330502167344093,-0.0819323360919952,0.111561305820942
314,-0.0126786241307855,0.0116798970848322,-0.00400850363075733,-0.0314717926084995,-0.0816119983792305,0.1142473295331
315,-0.0137793216854334,0.0113286366686225,-0.00281324656680226,-0.0303415134549141,-0.0819161757826805,0.115029908716679
316,-0.014912105165422,0.0111786397174001,-0.00345792295411229,-0.0298000033944845,-0.0831030905246735,0.113678805530071
317,-0.0158500727266073,0.0107034202665091,-0.00578083842992783,-0.030917214229703,-0.085048608481884,0.109564997255802
318,-0.0150398816913366,0.0105787059292197,-0.0077006695792079,-0.0328106395900249,-0.0853877514600754,0.103621557354927
319,-0.012119397521019,0.0116552654653788,-0.00764222582802176,-0.0340050645172596,-0.0831360146403313,0.0970991626381874
320,-0.00910082086920738,0.0130757335573435,-0.00637525226920843,-0.0349680632352829,-0.0802384242415428,0.0901378095149994
321,-0.00689136469736695,0.0141831059008837,-0.00442204577848315,-0.0357390865683556,-0.0774570778012276,0.0842063203454018
322,-0.00502694956958294,0.0155070070177317,-0.00196270877495408,-0.0350022166967392,-0.0743114873766899,0.0817445069551468
323,-0.00429873308166862,0.0167131088674068,-0.000325931730912998,-0.0331951789557934,-0.0715549141168594,0.0817009434103966
324,-0.00567360315471888,0.0164563246071339,-0.000640056096017361,-0.0319002419710159,-0.0697387903928757,0.0805966258049011
325,-0.00788143742829561,0.0147773157805204,-0.0021537565626204,-0.0309914294630289,-0.0677338615059853,0.0777429416775703
326,-0.00830776989459991,0.0134857734665275,-0.00294505339115858,-0.0292539969086647,-0.0641712471842766,0.0752070620656013
327,-0.00746885687112808,0.0127785848453641,-0.00350915174931288,-0.0280483942478895,-0.0607298202812672,0.0722039416432381
328,-0.00693268561735749,0.0119640342891216,-0.00423055794090033,-0.0279109831899405,-0.0587084554135799,0.0677199959754944
329,-0.0060509298928082,0.011590457521379,-0.00308759091421962,-0.0262848343700171,-0.0561989434063435,0.0643062219023705
330,-0.00529742194339633,0.0113630853593349,-0.000765688484534621,-0.0236680693924427,-0.0532625652849674,0.0622344352304935
331,-0.0057717370800674,0.0109511716291308,-0.000211902108276263,-0.0231802277266979,-0.0521427989006042,0.0590907260775566
332,-0.00779479229822755,0.0107188448309898,-0.00304988981224597,-0.026489544659853,-0.0542948544025421,0.0539208948612213
333,-0.0100691160187125,0.0107419602572918,-0.00705347815528512,-0.0310461148619652,-0.0578672327101231,0.0483968444168568
334,-0.00980270374566317,0.0113026611506939,-0.00759885925799608,-0.0320667549967766,-0.0583941303193569,0.0453125983476639
335,-0.00671394215896726,0.0124203320592642,-0.00392735144123435,-0.0287757776677608,-0.0544509179890156,0.0453402064740658
336,-0.00236153206788003,0.0139409983530641,0.00204910733737051,-0.0228250734508038,-0.0474973656237125,0.0474897250533104
337,0.00193324312567711,0.0156231606379151,0.00873897410929203,-0.0157456919550896,-0.0396134406328201,0.0503223761916161
338,0.0033603732008487,0.0156704280525446,0.0125218247994781,-0.0112037155777216,-0.0346692055463791,0.0505291894078255
339,0.000298183003906161,0.0126675488427281,0.0106196142733097,-0.0118994098156691,-0.0351534858345985,0.0459061451256275
340,-0.00349016790278256,0.009047438390553,0.00629026722162962,-0.0143769718706608,-0.037750780582428,0.0401075333356857
341,-0.0047555728815496,0.00732846977189183,0.00336107308976352,-0.0149744795635343,-0.0388602688908577,0.036809828132391
342,-0.0053154481574893,0.0063428208231926,0.00108555518090725,-0.0152327064424753,-0.0394417680799961,0.0343389585614204
343,-0.00633602356538177,0.00530614051967859,-0.00103310751728714,-0.0158887580037117,-0.0398683063685894,0.0313502289354801
344,-0.00694817816838622,0.00487401848658919,-0.00205084239132702,-0.0156170167028904,-0.039064560085535,0.0285333842039108
345,-0.0071481941267848,0.00442598899826407,-0.00220387778244913,-0.0147346425801516,-0.0372944921255112,0.0256490409374237
346,-0.00687474803999066,0.00360811548307538,-0.00150255346670747,-0.0133299082517624,-0.0344200953841209,0.0231508314609528
347,-0.0058833546936512,0.00310419755987823,0.000256868224823847,-0.0105975773185492,-0.0301336888223886,0.0222711153328419
348,-0.00468834722414613,0.00286556663922966,0.00210151262581348,-0.00681748753413558,-0.0253652706742287,0.0225107092410326
349,-0.00373239512555301,0.00185702869202942,0.00340627715922892,-0.00360852060839534,-0.0210225209593773,0.0219045449048281
350,-0.00311391265131533,-0.000724351149983704,0.00412988662719727,-0.0031377759296447,-0.0176362562924623,0.0195394698530436
351,-0.00332388584502041,-0.00477537699043751,0.0034785286989063,-0.00613321317359805,-0.016180906444788,0.0164759811013937
352,-0.00367160141468048,-0.00926755834370852,0.00239883037284017,-0.00981217622756958,-0.0154732409864664,0.0147697944194078
353,-0.00255700666457415,-0.0130722802132368,0.00331878173165023,-0.0106971189379692,-0.0123497107997537,0.01559635438025
354,-0.000223045062739402,-0.0163465589284897,0.00623158970847726,-0.00881277956068516,-0.00682999892160296,0.0176816452294588
355,0.0026452939491719,-0.0190828908234835,0.0100431982427835,-0.0051413425244391,-0.000909404479898512,0.0199064444750547
356,0.00581246009096503,-0.0201342795044184,0.0140045955777168,0.00021245218522381,0.00440402328968048,0.0227920971810818
357,0.00778497010469437,-0.0199227202683687,0.0162072200328112,0.00528994482010603,0.00755493715405464,0.0253799557685852
358,0.00746126007288694,-0.020404139533639,0.0153698986396194,0.00776362186297774,0.00762120867148042,0.0255187321454287
359,0.00678079714998603,-0.0216437745839357,0.0135981738567352,0.00871429964900017,0.00694242911413312,0.0238728281110525
360,0.00760250072926283,-0.0225894823670387,0.0132410395890474,0.010043166577816,0.00759553071111441,0.0225575584918261
361,0.00906636100262403,-0.0234219692647457,0.0139324367046356,0.011277967132628,0.00867945607751608,0.0214538779109716
362,0.0100637609139085,-0.0245951507240534,0.0144018027931452,0.0117858881130815,0.00931160431355238,0.0197644010186195
363,0.010244207456708,-0.0261178836226463,0.0140527309849858,0.0118192434310913,0.00964632071554661,0.0174693632870913
364,0.00979897659271955,-0.0273393895477057,0.013498610816896,0.011785589158535,0.010162771679461,0.0149987498298287
365,0.00935811176896095,-0.0269521400332451,0.0134561536833644,0.0125135891139507,0.0111399926245213,0.0136428773403168
366,0.00787437334656715,-0.0253651756793261,0.012167357839644,0.0131730483844876,0.0104675833135843,0.0129242036491632
367,0.003974883351475,-0.0244446359574795,0.00780200678855181,0.0117256538942456,0.00619591400027275,0.0106159187853336
368,-4.92329809276271E-06,-0.0237909387797117,0.00300174602307379,0.00945002026855946,0.00135369435884058,0.00755331851541996
369,-0.00126065476797521,-0.0222693514078856,0.00108793063554913,0.00871136970818043,-0.000335487100528553,0.00578394066542387
370,-0.000346623244695365,-0.0206228438764811,0.00198992225341499,0.00980555266141891,0.000987152452580631,0.00546956853941083
371,0.00122704263776541,-0.0193599164485931,0.00496827252209187,0.0127020934596658,0.00430726632475853,0.0064409845508635
372,0.00289448304101825,-0.0182501263916492,0.00970114581286907,0.0165866520255804,0.00918096397072077,0.00791149213910103
373,0.00433760322630405,-0.0175846945494413,0.0140764890238643,0.0192150752991438,0.0134812435135245,0.00798710435628891
374,0.0045367032289505,-0.0177319664508104,0.014614524319768,0.0186471771448851,0.0143994707614183,0.00484446110203862
375,0.0028093340806663,-0.0184826608747244,0.01065593957901,0.0150164579972625,0.0122154047712684,-0.00178451684769243
376,0.000318943581078202,-0.0189952217042446,0.00526358978822827,0.0104045672342181,0.00989178381860256,-0.00945333018898964
377,-0.00152637029532343,-0.0185655113309622,0.000932919501792639,0.00647872965782881,0.00904618669301271,-0.0148886647075415
378,-0.00221296260133386,-0.0170494839549065,-0.00150998902972788,0.00401656562462449,0.00914933532476425,-0.0167337525635958
379,-0.000877491605933756,-0.0140437185764313,-0.00124276359565556,0.00428274786099792,0.010075350292027,-0.0152061264961958
380,0.00217504659667611,-0.0101186661049724,0.000903187901712954,0.00663733715191484,0.0115217044949532,-0.0126025760546327
381,0.00480368547141552,-0.00699783209711313,0.00271787773817778,0.00830112583935261,0.012375739403069,-0.0121292918920517
382,0.00588177656754851,-0.00536690140143037,0.00345770083367825,0.00837915483862162,0.0126501591876149,-0.01432681735605
383,0.00526735838502645,-0.00488089583814144,0.00311547284945846,0.00743842171505094,0.0122362095862627,-0.0178112499415874
384,0.00354743492789567,-0.00479607377201319,0.00223174574784935,0.00632926728576422,0.0108538148924708,-0.0209129843860865
385,0.00264623644761741,-0.00465818028897047,0.00236668880097568,0.00631678570061922,0.00999156571924686,-0.0224984027445316
386,0.00336218159645796,-0.00449424190446734,0.00366130960173905,0.00729902926832438,0.0103594614192843,-0.0229475237429142
387,0.00529120117425919,-0.00370845780707896,0.00570966769009829,0.00901468191295862,0.0118237491697073,-0.022544763982296
388,0.00789156276732683,-0.00232923333533108,0.00871139392256737,0.0113598369061947,0.0150066465139389,-0.0217910204082727
389,0.009721664711833,-0.00184181914664805,0.0114849675446749,0.0128963245078921,0.0189774855971336,-0.0223285369575024
390,0.00977146998047829,-0.002864332171157,0.0125412987545133,0.0131109580397606,0.0217255782335997,-0.0245288964360952
391,0.00834952853620052,-0.00489647779613733,0.0116201555356383,0.0127306170761585,0.0224446374922991,-0.0278413239866495
392,0.00609061494469643,-0.00752873858436942,0.00899124052375555,0.0118942270055413,0.0211395099759102,-0.0321800112724304
393,0.00441025802865624,-0.00951948389410973,0.00611678976565599,0.0112933330237865,0.0188635159283876,-0.0359191186726093
394,0.00403785705566406,-0.00990593619644642,0.00428317440673709,0.0111740250140429,0.016803439706564,-0.0376669615507126
395,0.00339294178411365,-0.0096146035939455,0.00270501850172877,0.0099679371342063,0.0145849687978625,-0.0390648059546947
396,0.00179721263702959,-0.00954386126250029,0.00105852319393307,0.00745611963793635,0.0124393496662378,-0.0413775146007538
397,0.000167066682479344,-0.00983983930200338,-0.000139048948767595,0.00473219435662031,0.0114055583253503,-0.0441779941320419
398,-0.000655762443784624,-0.0100972792133689,-0.000320845778333023,0.00278195505961776,0.0120385829359293,-0.046479370445013
399,-7.23839257261716E-05,-0.00957056786864996,0.00113517907448113,0.00277192797511816,0.0147404465824366,-0.0469864681363106
400,0.00167593755759299,-0.00833716709166765,0.00365648069418967,0.00455766823142767,0.0191933307796717,-0.0460104458034039
401,0.00398341007530689,-0.00650178408250213,0.00608840025961399,0.0071681896224618,0.0241628177464008,-0.0451552867889404
402,0.00545875402167439,-0.00464491359889507,0.00708572333678603,0.00886098854243755,0.0269824769347906,-0.0462459549307823
403,0.00459199817851186,-0.00437605055049062,0.00583644676953554,0.00734811276197433,0.0256609302014112,-0.0499657914042473
404,0.00291525828652084,-0.00518541131168604,0.00380407017655671,0.00394588615745306,0.0223122015595436,-0.0532435066998005
405,0.00259305303916335,-0.00543096708133817,0.00259480834938586,0.00187374011147767,0.0199723765254021,-0.0533649101853371
406,0.00342974415980279,-0.00524961575865746,0.00244800886139274,0.00187275256030262,0.0194143485277891,-0.0514980107545853
407,0.00458234455436468,-0.0052577150054276,0.00323259737342596,0.00284657417796552,0.0203736089169979,-0.0495320223271847
408,0.00584822986274958,-0.00566103542223573,0.00444959057494998,0.00321921380236745,0.0223863944411278,-0.0486565716564655
409,0.00751164834946394,-0.00653450144454837,0.00597547180950642,0.00249038729816675,0.0256186202168465,-0.0489600338041782
410,0.00935751479119062,-0.00768938520923257,0.00857356563210487,0.0024554030969739,0.0305272899568081,-0.0483258552849293
411,0.0104719093069434,-0.00875634141266346,0.0129868686199188,0.00556309008970857,0.0360685735940933,-0.0442707613110542
412,0.0097519513219595,-0.00998259335756302,0.0186062399297953,0.0116694904863834,0.0402466766536236,-0.0376538299024105
413,0.00721557438373566,-0.0114254569634795,0.0234144702553749,0.0186237953603268,0.0416539311408997,-0.0313751175999641
414,0.00426124129444361,-0.0115906167775393,0.0244503039866686,0.0229772012680769,0.0384136028587818,-0.0279035624116659
415,0.00142588431481272,-0.00978059414774179,0.0192795544862747,0.019887138158083,0.0289884153753519,-0.029696898534894
416,-0.000629235059022903,-0.00692274142056704,0.0101240631192923,0.00954689271748066,0.0163975991308689,-0.0353674665093422
417,-0.000781187147367746,-0.00385221419855952,0.00251861265860498,-0.00139823369681835,0.00616767350584269,-0.0391187444329262
418,-9.4206647190731E-05,-0.00118527095764875,-0.000745782162994146,-0.00762464618310332,8.53911915328354E-05,-0.0371745824813843
419,-0.000466842611785978,0.000788839301094413,-0.0010439216857776,-0.00921296793967485,-0.00358797726221383,-0.0309579204767942
420,-0.00185594544745982,0.00270655401982367,-0.000772878585848957,-0.00857599731534719,-0.0062705110758543,-0.0238803792744875
421,-0.00300051039084792,0.00554030621424317,-0.000493791711051017,-0.00733884889632463,-0.00848541036248207,-0.0172840692102909
422,-0.00389854842796922,0.00911036226898432,-9.52193295233883E-05,-0.00734472274780273,-0.0111202150583267,-0.0111749246716499
423,-0.00493244733661413,0.0129453260451555,0.00108772132080048,-0.00873028952628374,-0.0137469274923205,-0.00447805365547538
424,-0.00599417742341757,0.0170922018587589,0.00431062933057547,-0.00915558077394962,-0.0152389658614993,0.00424611568450928
425,-0.00745409913361073,0.0215129051357508,0.00913050211966038,-0.00743916211649776,-0.0161882452666759,0.0147285275161266
426,-0.00959778483957052,0.026284608989954,0.0141166802495718,-0.00412358716130257,-0.0174037031829357,0.0257814023643732
427,-0.0124027263373137,0.0310978982597589,0.017433974891901,-0.00140208599623293,-0.0201076176017523,0.0354677997529507
428,-0.0146700832992792,0.0352167226374149,0.0177293736487627,-0.00161302706692368,-0.0252279378473759,0.0423132069408894
429,-0.0149315167218447,0.0385766364634037,0.0158342942595482,-0.00444122636690736,-0.0311489775776863,0.0468321777880192
430,-0.0138950971886516,0.0414849855005741,0.0131584806367755,-0.00866090133786201,-0.0361663810908794,0.0496846400201321
431,-0.0134533001109958,0.0438332855701447,0.0103184431791306,-0.0136881303042173,-0.0407155565917492,0.0512240305542946
432,-0.0142276016995311,0.0458158440887928,0.00794951058924198,-0.0180550664663315,-0.0454285442829132,0.0529457852244377
433,-0.0148238250985742,0.0480477325618267,0.00735940178856254,-0.0198738183826208,-0.049236211925745,0.0564086772501469
434,-0.0136108594015241,0.0508841499686241,0.00959406793117523,-0.018621513620019,-0.0509461387991905,0.0619740560650826
435,-0.0108616733923554,0.0547518618404865,0.0135930394753814,-0.0156177934259176,-0.0515877306461334,0.0690931975841522
436,-0.00864213798195124,0.0590933226048946,0.0162763874977827,-0.0138181736692786,-0.0534198507666588,0.0758451595902443
437,-0.00807974487543106,0.0624567158520222,0.0166795924305916,-0.0143794110044837,-0.0563506335020065,0.0805906727910042
438,-0.00846693478524685,0.0648638159036636,0.0171245988458395,-0.0152055341750383,-0.0581339336931705,0.0839289054274559
439,-0.00979984179139137,0.0669476091861725,0.0184007007628679,-0.0154885062947869,-0.0588257275521755,0.086799144744873
440,-0.0111908195540309,0.0698058679699898,0.0205556936562061,-0.0147096058353782,-0.0589704588055611,0.0907293036580086
441,-0.0107203777879477,0.0743713900446892,0.024185037240386,-0.0120945889502764,-0.0576653257012367,0.0965879261493683
442,-0.00865002628415823,0.0794344916939735,0.0281656160950661,-0.00926560815423727,-0.0555329360067844,0.102500565350056
443,-0.00634642178192735,0.0838465392589569,0.0311797875910997,-0.00760951265692711,-0.0542561076581478,0.107015356421471
444,-0.00528869032859802,0.087222196161747,0.0321394801139832,-0.00793562177568674,-0.055433165282011,0.109300248324871
445,-0.00659722369164228,0.089065246284008,0.030132420361042,-0.0112263923510909,-0.0597217939794064,0.108010366559029
446,-0.00984779465943575,0.0896416902542114,0.0261948592960835,-0.0171133689582348,-0.0656371787190437,0.103656150400639
447,-0.0126494150608778,0.0903934687376022,0.0231567174196243,-0.0230885110795498,-0.0702119544148445,0.100024878978729
448,-0.0131544359028339,0.0924808233976364,0.0227098576724529,-0.0269869975745678,-0.0720004364848137,0.0999951958656311
449,-0.011374332010746,0.0958996042609215,0.0249275211244822,-0.0285165421664715,-0.0711281448602676,0.10300949215889
450,-0.00828476995229721,0.0999495759606361,0.0288194809108973,-0.0278045050799847,-0.0683694109320641,0.107813306152821
451,-0.00632165838032961,0.103245511651039,0.0319204293191433,-0.0260650329291821,-0.066284216940403,0.112649150192738
452,-0.00780626060441136,0.104365639388561,0.0319619737565517,-0.025452284142375,-0.0676600858569145,0.115166313946247
453,-0.0120178684592247,0.103124007582664,0.0291825570166111,-0.0261113550513983,-0.0722523480653763,0.11492657661438
454,-0.0148309515789151,0.101274058222771,0.0274955406785011,-0.0252306573092937,-0.0751369372010231,0.114112339913845
455,-0.0139690330252051,0.100215055048466,0.0296296589076519,-0.021485336124897,-0.0727406218647957,0.113716296851635
456,-0.0105988662689924,0.0999249741435051,0.0341422185301781,-0.0161882098764181,-0.0664591416716576,0.113007053732872
457,-0.00617186119779944,0.100238278508186,0.0384311899542809,-0.0112584158778191,-0.0594470165669918,0.111448861658573
458,-0.00273011578246951,0.100579872727394,0.0401030816137791,-0.00907672103494406,-0.0552552230656147,0.107881292700768
459,-0.00186047749593854,0.100415110588074,0.0382753051817417,-0.0106356330215931,-0.0551065914332867,0.101705774664879
460,-0.00293651339598,0.100025281310081,0.0344533622264862,-0.0145197324454784,-0.0567317046225071,0.0941480398178101
461,-0.00375413754954934,0.10016767680645,0.0312648490071297,-0.0180424936115742,-0.0572413429617882,0.0874419808387756
462,-0.00390544650144875,0.100253470242023,0.0288044214248657,-0.0207278877496719,-0.0568492375314236,0.0818335637450218
463,-0.00427569448947906,0.0992288812994957,0.026300486177206,-0.0230909045785666,-0.0562497824430466,0.0764396041631699
464,-0.00409489497542381,0.0979174450039864,0.0252180695533752,-0.0235224366188049,-0.0538893155753613,0.0722650066018105
465,-0.00342268613167107,0.0969935655593872,0.0254937056452036,-0.0217544548213482,-0.0503647364675999,0.0695937424898148
466,-0.00326586188748479,0.0958209857344627,0.0255255792289972,-0.0195327680557966,-0.0480610504746437,0.0673632547259331
467,-0.00390406046062708,0.0938616991043091,0.0245752297341824,-0.0184065531939268,-0.0478008575737476,0.064727284014225
468,-0.00545209832489491,0.0911906957626343,0.0225391183048487,-0.0190089289098978,-0.0490615330636501,0.0609356053173542
469,-0.00762686505913734,0.0885699987411499,0.0197639670222998,-0.0202638898044825,-0.051189586520195,0.0560680776834488
470,-0.0096328342333436,0.0868206098675728,0.0170292388647795,-0.0208521392196417,-0.0534093379974365,0.0509749688208103
471,-0.0102780712768435,0.0859124138951302,0.0157897174358368,-0.0205489937216043,-0.0539119988679886,0.0469290763139725
472,-0.00856816675513983,0.0853387489914894,0.0168201755732298,-0.0189785771071911,-0.0510779358446598,0.0457499660551548
473,-0.00481004640460014,0.084360808134079,0.0192562267184258,-0.0157088525593281,-0.0454700216650963,0.0474996715784073
474,-0.000291097559966147,0.0818577706813812,0.0218495391309261,-0.0115081407129765,-0.0391603410243988,0.0494415275752544
475,0.00352590018883348,0.0772131681442261,0.0233370419591665,-0.00806982629001141,-0.0341033823788166,0.0491068363189697
476,0.00564511818811297,0.071271039545536,0.0228446703404188,-0.00661346036940813,-0.031023109331727,0.0462943539023399
477,0.00642029335722327,0.0655755251646042,0.0211118776351213,-0.00706999842077494,-0.0291257370263338,0.0423464924097061
478,0.00668020406737924,0.0607162564992905,0.0196311939507723,-0.00847941730171442,-0.0272924657911062,0.0386021323502064
479,0.0061301477253437,0.0561903454363346,0.0183998085558414,-0.00977959204465151,-0.0255592744797468,0.0354721322655678
480,0.00484680384397507,0.0516276583075523,0.0168219469487667,-0.00983937364071608,-0.0244742501527071,0.0333298519253731
481,0.00376448128372431,0.0469916760921478,0.0150237046182156,-0.00840560812503099,-0.0235468074679375,0.0321209654211998
482,0.00339497136883438,0.0422530360519886,0.013546796515584,-0.00644801929593086,-0.0211257953196764,0.0307406615465879
483,0.0044200886040926,0.0377659611403942,0.0134655674919486,-0.00432740151882172,-0.0164028834551573,0.0289212763309479
484,0.00622336566448212,0.0337517932057381,0.0141997430473566,-0.00271439622156322,-0.011863480322063,0.0268093794584274
485,0.00646741734817624,0.0299434196203947,0.0131693007424474,-0.00342445028945804,-0.0109456963837147,0.0235902853310108
486,0.00489496765658259,0.0266101621091366,0.00994126219302416,-0.00616386253386736,-0.0134508591145277,0.0194855332374573
487,0.00331604038365185,0.0242111664265394,0.00636254204437137,-0.00823522266000509,-0.0168513488024473,0.0160889364778996
488,0.0031064972281456,0.022750360891223,0.00407124683260918,-0.00735070323571563,-0.0192090235650539,0.0146348355337977
489,0.00461136596277356,0.0218051299452782,0.00363707472570241,-0.00353804882615805,-0.0194385349750519,0.0150628108531237
490,0.00659412704408169,0.0203664135187864,0.00373997841961682,0.000584684894420207,-0.0179369580000639,0.0158194750547409
491,0.00830913800746202,0.018730228766799,0.00355628761462867,0.00391341233626008,-0.0146751524880528,0.0168949197977781
492,0.00958432257175446,0.0180616788566113,0.00326150516048074,0.00678115244954824,-0.00979594606906176,0.0189021080732346
493,0.00977791007608175,0.0183054972440004,0.00277159083634615,0.00830130092799664,-0.00522582791745663,0.0201547984033823
494,0.00939734652638435,0.0184025410562754,0.00199737376533449,0.00757255125790834,-0.00255613098852336,0.0188813488930464
495,0.00948230363428593,0.0171664990484715,0.000236842155572958,0.00442792475223541,-0.0022820399608463,0.0148232178762555
496,0.0105852540582418,0.0151549680158496,-0.00206553074531257,0.000960613251663744,-0.00311537529341877,0.0102084847167134
497,0.0118662873283029,0.0135718267410994,-0.00347209186293185,-0.000184509495738894,-0.00366392964497209,0.00763309188187122
498,0.0127176837995648,0.0127267483621836,-0.00290838582441211,0.00205306522548199,-0.00331467413343489,0.00788908079266548
499,0.0135791720822454,0.0123829245567322,-0.000950845773331821,0.00647011492401361,-0.00224927696399391,0.0101764090359211
500,0.0138386972248554,0.0112539147958159,-0.0004281286674086,0.00944082159548998,-0.00223758211359382,0.0114345010370016
501,0.0141148651018739,0.00903132557868958,-0.00184174347668886,0.00980470888316631,-0.00277048675343394,0.0100903445854783
502,0.0157587938010693,0.00707764318212867,-0.00345154129900038,0.00972572900354862,-0.00142801064066589,0.00763613497838378
503,0.01789934001863,0.00613488722592592,-0.00492056924849749,0.010838788934052,0.00180732435546815,0.00523951416835189
504,0.0191079527139664,0.00581967178732157,-0.0063386308029294,0.0124044874683023,0.00495118880644441,0.00266717164777219
505,0.0192474666982889,0.00542637426406145,-0.00707303173840046,0.0126222213730216,0.00707273790612817,-0.000104585458757356
506,0.018775574862957,0.00460232654586434,-0.00699895666912198,0.0110712936148047,0.00870998110622168,-0.00224968232214451
507,0.0186717677861452,0.00414021871984005,-0.00613154005259275,0.00938193872570992,0.0104063851758838,-0.00285547412931919
508,0.0198330190032721,0.00512597197666764,-0.0045019262470305,0.00936655886471272,0.0117114745080471,-0.00165999005548656
509,0.0212038978934288,0.00685045588761568,-0.00361766945570707,0.0104845045134425,0.0111121740192175,-4.36829432146624E-05
510,0.0219000056385994,0.0079411743208766,-0.00388510967604816,0.0119123822078109,0.0089855520054698,0.000876694510225207
511,0.0223218593746424,0.00751516781747341,-0.00410393485799432,0.0135640818625689,0.00742415199056268,0.00116299581713974
512,0.0223673619329929,0.00464283721521497,-0.00448416732251644,0.0143237709999084,0.00729935243725777,0.000184710253961384
513,0.0214737728238106,-0.000874690827913582,-0.00623805169016123,0.0131802139803767,0.00785422883927822,-0.0029884569812566
514,0.0195356607437134,-0.00802259147167206,-0.00950294081121683,0.0108145177364349,0.00783469993621111,-0.00787260197103024
515,0.0165225602686405,-0.0157641787081957,-0.0134724853560328,0.00834427215158939,0.00630766665562987,-0.0134075693786144
516,0.0130320778116584,-0.0230338331311941,-0.0168014727532864,0.00661825109273195,0.00397050799801946,-0.0184226613491774
517,0.00971226673573256,-0.0291361641138792,-0.0190861094743013,0.00520034460350871,0.00215791189111769,-0.0226235166192055
518,0.00537716178223491,-0.0349206924438477,-0.0223377272486687,0.00162713858298957,-3.78483237000182E-05,-0.0281779617071152
519,0.000172258296515793,-0.0404873676598072,-0.0271116774529219,-0.00419681100174785,-0.00298863626085222,-0.0354099608957767
520,-0.00302199437282979,-0.0442244447767735,-0.0305760391056538,-0.00819636136293411,-0.0042069717310369,-0.040582150220871
521,-0.00292082689702511,-0.0455098710954189,-0.0308412089943886,-0.00753164477646351,-0.00210764398798347,-0.0411848537623882
522,-0.00165817991364747,-0.0458588376641274,-0.0295761823654175,-0.00428068451583385,0.00147260073572397,-0.0395620949566364
523,-0.00134459265973419,-0.0466148667037487,-0.0285607948899269,-0.00133985246066004,0.00430132169276476,-0.0387811362743378
524,-0.00219084229320288,-0.0480318069458008,-0.0275660362094641,0.000615470926277339,0.00602584518492222,-0.0393081568181515
525,-0.00350169884040952,-0.0501688346266747,-0.0260047111660242,0.00191083527170122,0.00732863787561655,-0.0407003611326218
526,-0.00370450550690293,-0.0519050396978855,-0.0234345588833094,0.00392355211079121,0.00946690328419209,-0.0420642234385014
527,-0.00165964581537992,-0.0516940355300903,-0.0197489373385906,0.0074636354111135,0.0131182866171002,-0.0426452122628689
528,0.00136220722924918,-0.0497427098453045,-0.0162022076547146,0.0105175664648414,0.0166503917425871,-0.042761392891407
529,0.00285374699160457,-0.0477037169039249,-0.0152791989967227,0.0102011803537607,0.0176150873303413,-0.043308187276125
530,0.0028603991959244,-0.0463776439428329,-0.0167234614491463,0.00731343496590853,0.0172658860683441,-0.0439708270132542
531,0.00310116005130112,-0.045188557356596,-0.0179209504276514,0.00499260518699884,0.0180705152451992,-0.0436703376471996
532,0.00357997580431402,-0.0439981408417225,-0.0184645708650351,0.00398354791104794,0.018900079652667,-0.0430257022380829
533,0.00306001002900302,-0.043771967291832,-0.0195736158639193,0.00308954669162631,0.0179959777742624,-0.0438101515173912
534,0.000870449468493462,-0.0452209264039993,-0.0215672962367535,0.00158907007426023,0.0161919221282005,-0.0463347062468529
535,-0.000917626777663827,-0.0470389388501644,-0.0230952277779579,0.000185030832653865,0.0158588513731956,-0.0488476753234863
536,-0.000235541301663034,-0.047828558832407,-0.0241703968495131,-0.00148991157766432,0.0166699942201376,-0.0512447990477085
537,0.00139547593425959,-0.0479198805987835,-0.0267144031822681,-0.00512269232422113,0.0156213892623782,-0.0551288910210133
538,0.00231058872304857,-0.0471076630055904,-0.0299741681665182,-0.00915337074548006,0.0126694366335869,-0.0592895187437534
539,0.00330588570795953,-0.0443164892494679,-0.0310359541326761,-0.00957794301211834,0.0108312210068107,-0.0604289881885052
540,0.00614100089296699,-0.0392429493367672,-0.0284832771867514,-0.00485138781368732,0.0122705288231373,-0.0572085492312908
541,0.0104344068095088,-0.0334004834294319,-0.0237868241965771,0.00200224737636745,0.0161008462309837,-0.0524703413248062
542,0.0130649022758007,-0.0293797645717859,-0.0203261747956276,0.00575772812590003,0.0188785474747419,-0.0510066300630569
543,0.0125926686450839,-0.027667261660099,-0.0194075033068657,0.00471614859998226,0.0192716903984547,-0.0540047660470009
544,0.0108036007732153,-0.0265102665871382,-0.0194637924432755,0.00169157015625387,0.0193795617669821,-0.0586391054093838
545,0.00898872222751379,-0.0252491943538189,-0.019523348659277,-0.000930040900129825,0.0202209837734699,-0.0626808479428291
546,0.00704877683892846,-0.0244113318622112,-0.0191845390945673,-0.00263162795454264,0.0214119553565979,-0.0657581090927124
547,0.00570846907794476,-0.0233928207308054,-0.0176006816327572,-0.00270328135229647,0.02299521304667,-0.067561149597168
548,0.00556913297623396,-0.0215941611677408,-0.015182338654995,-0.00137817091308534,0.0240453034639359,-0.0682649835944176
549,0.00620564725250006,-0.0197051782160997,-0.0125180594623089,0.000278297142358497,0.0245112702250481,-0.0682914853096008
550,0.00778469908982515,-0.0178314782679081,-0.00853054132312536,0.00330010917969048,0.0271590054035187,-0.0659510642290115
551,0.0100680934265256,-0.0153678599745035,-0.00244142487645149,0.00900271907448769,0.0331083908677101,-0.0596461482346058
552,0.0115185007452965,-0.0120394406840205,0.00481334514915943,0.0164920743554831,0.0392468944191933,-0.0510603003203869
553,0.0115489130839705,-0.00771434558555484,0.0108663784340024,0.0232751220464706,0.041505865752697,-0.0435805991292
554,0.0102545553818345,-0.00288756447844207,0.0116847772151232,0.0249171536415815,0.0371379144489765,-0.040859267115593
555,0.00752085959538817,0.00126240856479853,0.00537778250873089,0.0186139866709709,0.0269246529787779,-0.0442929081618786
556,0.00310923554934561,0.00343439029529691,-0.00528903072699904,0.00608748290687799,0.0147222997620702,-0.0520362369716167
557,-0.00316814403049648,0.0034299495164305,-0.0163861736655235,-0.00858983676880598,0.00273134070448577,-0.0612422525882721
558,-0.00894729141145945,0.00338644604198635,-0.023890158161521,-0.0196949280798435,-0.00736130913719535,-0.0673508644104004
559,-0.0107211582362652,0.00555253215134144,-0.0250336155295372,-0.0235358588397503,-0.0126559026539326,-0.0664875358343124
560,-0.00842291489243507,0.00979867856949568,-0.0211880262941122,-0.021711865440011,-0.0128356888890266,-0.0592069216072559
561,-0.00537490285933018,0.01427729614079,-0.0164838116616011,-0.0183442197740078,-0.0113377803936601,-0.0492198206484318
562,-0.00406979443505406,0.0179958958178759,-0.0135007640346885,-0.0157398376613855,-0.011477729305625,-0.0394623875617981
563,-0.00413983874022961,0.0212825741618872,-0.0118151288479567,-0.014087219722569,-0.0136463427916169,-0.0307449959218502
564,-0.00360063789412379,0.024634663015604,-0.00936476420611143,-0.013055874966085,-0.0155546022579074,-0.0230952054262161
565,-0.00114569591823965,0.0287433359771967,-0.00494053959846497,-0.0115832788869739,-0.0155247319489717,-0.015634598210454
566,0.00190757750533521,0.0332954674959183,-0.000361458689440042,-0.0101429587230086,-0.0153118371963501,-0.00855627749115229
567,0.00381570402532816,0.0375224426388741,0.00210556504316628,-0.0100265732035041,-0.0171611402183771,-0.00236199400387704
568,0.00428581144660711,0.0414219908416271,0.00189109507482499,-0.0113043049350381,-0.0214595068246126,0.00358622544445097
569,0.00388612155802548,0.044920489192009,7.25276331650093E-05,-0.0138163426890969,-0.0266868434846401,0.00884041655808687
570,0.00344283157028258,0.0477664768695831,-0.00172021554317325,-0.0167446900159121,-0.0307464376091957,0.0127791678532958
571,0.00395869323983788,0.0500061251223087,-0.00243369559757411,-0.0187648106366396,-0.0321182534098625,0.0159685183316469
572,0.00549364509060979,0.051681324839592,-0.00177746382541955,-0.019894702360034,-0.0305508002638817,0.0192388091236353
573,0.00550876138731837,0.0520858690142632,-0.00175948161631823,-0.0227505750954151,-0.0293603371828794,0.0219553224742413
574,0.00242503732442856,0.0510831288993359,-0.00415617413818836,-0.0289581529796124,-0.0322645120322704,0.0229540709406137
575,-0.00128411711193621,0.0504696480929852,-0.00736135337501764,-0.0358862690627575,-0.0383996479213238,0.0233424678444862
576,-0.00239711534231901,0.0524799488484859,-0.00863904785364866,-0.0399460308253765,-0.0438290610909462,0.0255192760378122
577,-0.00082568742800504,0.0575076565146446,-0.00722463708370924,-0.0403630398213863,-0.0465474314987659,0.0302726365625858
578,0.000538366788532585,0.0635065212845802,-0.0050155115313828,-0.0396010354161263,-0.0485045947134495,0.0358840823173523
579,-5.03201081301086E-05,0.0683714225888252,-0.00352160492911935,-0.0400020256638527,-0.0514485128223896,0.0405465587973595
580,-0.00135100400075316,0.071478545665741,-0.00210855389013886,-0.041326966136694,-0.0541998818516731,0.0441590622067451
581,-0.00186561001464725,0.0732831209897995,0.000307464506477118,-0.041820302605629,-0.0553314015269279,0.0477588623762131
582,-0.00191615731455386,0.074806921184063,0.00369338551536202,-0.040143609046936,-0.0552700534462929,0.0525818318128586
583,-0.00321008125320077,0.0761700570583344,0.0067496751435101,-0.0371881425380707,-0.0553513243794441,0.0582878440618515
584,-0.00627952208742499,0.0765776634216309,0.00840836297720671,-0.0353744104504585,-0.0562788918614388,0.0625140741467476
585,-0.00904746353626251,0.0755070522427559,0.00832690857350826,-0.036507748067379,-0.0580179020762444,0.0634534657001495
586,-0.00917427428066731,0.0736324042081833,0.00730768637731671,-0.0393401794135571,-0.0599021278321743,0.0632692277431488
587,-0.00768801337108016,0.0724066644906998,0.00662996247410774,-0.0408615097403526,-0.0621044524013996,0.0655092895030975
588,-0.00738166971132159,0.07272569835186,0.00668773334473372,-0.03998738899827,-0.0651939287781715,0.0707326009869576
589,-0.00852773245424032,0.0743894353508949,0.0076696970500052,-0.0375374816358089,-0.0675315037369728,0.0768166035413742
590,-0.00912453141063452,0.0763077437877655,0.00955848768353462,-0.0348183885216713,-0.0672509223222733,0.081171490252018
591,-0.00827929098159075,0.0776792839169502,0.0110981771722436,-0.0328355468809605,-0.0659497231245041,0.0834165960550308
592,-0.00810736697167158,0.0780528411269188,0.0101413624361157,-0.032795824110508,-0.067725844681263,0.0841019377112389
593,-0.0107780480757356,0.0772464275360107,0.00617611734196544,-0.0353493392467499,-0.074013851583004,0.0831897705793381
594,-0.0146212186664343,0.076572947204113,0.00229228404350579,-0.0377083420753479,-0.0807495340704918,0.0829234421253204
595,-0.0162580087780952,0.0775501057505608,0.00227423710748553,-0.0361549183726311,-0.0828235819935799,0.0863112285733223
596,-0.0155820157378912,0.0794057250022888,0.00612399214878678,-0.0312642678618431,-0.0797781199216843,0.0919863730669022
597,-0.0152939911931753,0.0799325257539749,0.0108994394540787,-0.0264720115810633,-0.0747534930706024,0.0952768176794052
598,-0.0159429032355547,0.078655332326889,0.0151567738503218,-0.0231097806245089,-0.0689422413706779,0.0941535830497742
599,-0.0161472093313932,0.0763925760984421,0.0184207390993834,-0.0214186925441027,-0.0621845126152039,0.0893504843115807
600,-0.0151226613670588,0.073553167283535,0.0199609734117985,-0.0216715317219496,-0.0557571575045586,0.0823139101266861
601,-0.0120403664186597,0.0712441802024841,0.0209851916879416,-0.0216570068150759,-0.0501390621066093,0.0762331783771515
602,-0.00803600624203682,0.069699265062809,0.0219779498875141,-0.0204556286334991,-0.0457944050431252,0.0719892680644989
603,-0.00544258067384362,0.0677600875496864,0.0218021273612976,-0.0198551882058382,-0.0432098694145679,0.0672800242900848
604,-0.00462209293618798,0.0650320425629616,0.0203972421586514,-0.0201368760317564,-0.0415463037788868,0.0613739117980003
605,-0.00502618681639433,0.0616564489901066,0.0186624955385923,-0.0205160621553659,-0.0401833318173885,0.055293083190918
606,-0.00682137347757816,0.0578107126057148,0.0169274359941483,-0.0214459896087646,-0.0395315513014793,0.0499693863093853
607,-0.00939154252409935,0.0543244183063507,0.0151536110788584,-0.0226897746324539,-0.0397180207073689,0.0465516224503517
608,-0.0108322957530618,0.0520817264914513,0.0141389453783631,-0.0224364586174488,-0.0398448929190636,0.0457691624760628
609,-0.0106378877535462,0.0511868558824062,0.0145081141963601,-0.019666962325573,-0.0393960177898407,0.0472880117595196
610,-0.00995554868131876,0.0511584356427193,0.0157612320035696,-0.015098949894309,-0.0383896045386791,0.0499703772366047
611,-0.00982044078409672,0.0508616752922535,0.016944482922554,-0.0105931116268039,-0.0365212224423885,0.0516428090631962
612,-0.00996455829590559,0.0496535785496235,0.0176456589251757,-0.00721584167331457,-0.0334239155054092,0.0514899641275406
613,-0.00980563648045063,0.0478942133486271,0.0174940805882216,-0.00518126646056771,-0.0300567001104355,0.0503414273262024
614,-0.00938481651246548,0.0459869839251041,0.0163278803229332,-0.00427921861410141,-0.0276694297790527,0.0487396456301212
615,-0.0089623648673296,0.0439108461141586,0.0143973724916577,-0.00363720441237092,-0.026230301707983,0.0468445457518101
616,-0.00846204347908497,0.0413859933614731,0.0120010329410434,-0.00272850133478642,-0.0251978132873774,0.0445756278932095
617,-0.00742001226171851,0.0385841317474842,0.00982360634952784,-0.00145093270111829,-0.0236914493143559,0.0421586968004704
618,-0.00735243689268827,0.0351089760661125,0.00696231797337532,-0.00122275156900287,-0.0221665874123573,0.0385183282196522
619,-0.00940425228327513,0.0304447859525681,0.00276500545442104,-0.00290403747931123,-0.021155359223485,0.0328225083649158
620,-0.0106526110321283,0.0262312311679125,0.000319768529152498,-0.00361014041118324,-0.0180908963084221,0.0282167308032513
621,-0.00905336625874043,0.0238275956362486,0.00126772443763912,-0.00191247137263417,-0.0122370142489672,0.0265200268477201
622,-0.00626245327293873,0.0222243461757898,0.00287479045800865,-0.000186553341336548,-0.00718070846050978,0.0252075511962175
623,-0.00349068758077919,0.0208761263638735,0.00353955989703536,0.000617848709225655,-0.00483766151592135,0.023301724344492
624,-6.76863282933482E-06,0.0206025913357735,0.00479108281433582,0.00225727260112762,-0.00313281430862844,0.0228460449725389
625,0.00348574132658541,0.0209047812968493,0.00672675669193268,0.00494751799851656,-0.000527581432834268,0.0238221473991871
626,0.00447049038484693,0.0199120864272118,0.00719645014032722,0.0062240045517683,0.00203532981686294,0.0231594927608967
627,0.00293842400424182,0.0167343765497208,0.00559349963441491,0.0049730334430933,0.00398337841033936,0.0191540420055389
628,0.00200732564553618,0.0120278773829341,0.00353828608058393,0.00278325472027063,0.00618562242016196,0.0129865873605013
629,0.00378167675808072,0.00777645595371723,0.00317513034678996,0.00179842044599354,0.0097271641716361,0.0079363165423274
630,0.00684932712465525,0.00578897166997194,0.00462647806853056,0.00260993465781212,0.0137275047600269,0.00679189991205931
631,0.00869627669453621,0.00555322552099824,0.00580341601744294,0.003797477344051,0.0157759636640549,0.00825874879956245
632,0.00802491512149572,0.00481234258040786,0.00493888230994344,0.00335590564645827,0.0144785260781646,0.00828227400779724
633,0.00505879195407033,0.00214310479350388,0.00214230129495263,0.000744172954000533,0.0109531404450536,0.00454893335700035
634,0.00241783400997519,-0.00147637736517936,-0.000237469066632912,-0.00191025889944285,0.0088754016906023,-0.000920836522709578
635,0.00244854181073606,-0.00451958132907748,-0.000501420465297997,-0.00253714807331562,0.0101848971098661,-0.00475595844909549
636,0.00462690414860845,-0.0068018464371562,0.000559488660655916,-0.000941215315833688,0.0132436621934175,-0.00577253894880414
637,0.00724081601947546,-0.00903990026563406,0.00148210220504552,0.0020412786398083,0.0159676391631365,-0.00472862366586924
638,0.00910924281924963,-0.011703354306519,0.00159711274318397,0.00498150009661913,0.0180052034556866,-0.00327767664566636
639,0.0101426169276237,-0.0143133215606213,0.0013262233696878,0.00735103990882635,0.020571006461978,-0.00210007186979055
640,0.010698651894927,-0.0166589077562094,0.00111561641097069,0.00963854603469372,0.0241222288459539,-0.000814094964880496
641,0.0108902426436543,-0.0192098263651133,0.000813394784927368,0.0119803305715322,0.0274766534566879,0.000495066109579057
642,0.00979724805802107,-0.0225539784878492,-0.00017162311996799,0.0131876450031996,0.0286882780492306,0.000504337134771049
643,0.00698010856285691,-0.0265249609947205,-0.00158797507174313,0.0125268185511231,0.0278820060193539,-0.00172829639632255
644,0.00361059559509158,-0.0303255338221788,-0.00283075636252761,0.0108972694724798,0.026903759688139,-0.00530454004183412
645,0.00158254674170166,-0.0335524380207062,-0.00338523089885712,0.00996888615190983,0.0267277117818594,-0.00803326070308685
646,0.00263385497964919,-0.0356098562479019,-0.00181838613934815,0.0116714853793383,0.0283306110650301,-0.00753540638834238
647,0.00573294889181852,-0.0364193134009838,0.00143263302743435,0.0157043244689703,0.0315049141645432,-0.00402648886665702
648,0.00838370528072119,-0.037073090672493,0.00379686406813562,0.019798630848527,0.0344511643052101,-0.000303177366731688
649,0.00927412509918213,-0.0386393703520298,0.00361684802919626,0.0224289335310459,0.0356462188065052,0.00151838059537113
650,0.00795764196664095,-0.0414777994155884,0.00121959729585797,0.0231267586350441,0.0349348038434982,0.00117827323265374
651,0.00468917889520526,-0.0455144755542278,-0.00232556601986289,0.0216374788433313,0.0333448126912117,-0.00130105740390718
652,0.00072974810609594,-0.0502589456737041,-0.00615123473107815,0.018687704578042,0.032099686563015,-0.00531103601679206
653,-0.00209517241455615,-0.0548585578799248,-0.00901487376540899,0.0164084862917662,0.0318773649632931,-0.00871553085744381
654,-0.00337637797929347,-0.0591761581599712,-0.0107255410403013,0.0155805172398686,0.0321015678346157,-0.0107086785137653
655,-0.00327041442506015,-0.0630563050508499,-0.0115677304565907,0.0165551044046879,0.0328140147030354,-0.0116491494700313
656,-0.00129297247622162,-0.0654434561729431,-0.0107922237366438,0.0203473567962646,0.0351813286542892,-0.0111473761498928
657,0.00124668155331165,-0.0665484666824341,-0.00912921130657196,0.0249151680618525,0.0386667586863041,-0.0101764006540179
658,0.00247155060060322,-0.0675618946552277,-0.00856377370655537,0.0273751374334097,0.0418785326182842,-0.00956888124346733
659,0.00295513705350459,-0.0683965459465981,-0.00911711156368256,0.0284133609384298,0.0450573861598969,-0.00806878134608269
660,0.00382489548064768,-0.0684157088398933,-0.00928885396569967,0.0298055354505777,0.0485499054193497,-0.00536158913746476
661,0.00438250601291656,-0.0680957287549973,-0.00892061553895473,0.0311457347124815,0.0507932603359222,-0.00285443686880171
662,0.0033839272800833,-0.0687465444207191,-0.00934425927698612,0.030908077955246,0.0502792783081532,-0.00194821157492697
663,0.00134050729684532,-0.0705054923892021,-0.0109453052282333,0.029047317802906,0.0479027554392815,-0.0027418730314821
664,-0.000588974566198885,-0.0727819576859474,-0.0129341669380665,0.0265984367579222,0.0452424474060535,-0.00455935345962644
665,-0.00191033747978508,-0.0755778551101685,-0.0139050455763936,0.0250951815396547,0.0433941148221493,-0.00648524845018983
666,-0.00173029932193458,-0.0780390501022339,-0.0122846122831106,0.026650033891201,0.0434876419603825,-0.0063403551466763
667,-0.000301282096188515,-0.0789799094200134,-0.00908481609076262,0.0308390110731125,0.044636033475399,-0.00334876822307706
668,0.000373061309801415,-0.0787936747074127,-0.00735617149621248,0.034400824457407,0.044413723051548,-0.000471131992526352
669,-0.000483716430608183,-0.0787249058485031,-0.00826844666153193,0.0351853519678116,0.0426905900239944,-0.000655681826174259
670,-0.00197428138926625,-0.0794011354446411,-0.0107688009738922,0.0335368663072586,0.0414063595235348,-0.00363621907308698
671,-0.00379038555547595,-0.0808077082037926,-0.0137714585289359,0.0305734369903803,0.0410908535122871,-0.00807175412774086
672,-0.00591320218518376,-0.0824547633528709,-0.0164613388478756,0.0272629391402006,0.0408700928092003,-0.0130610410124063
673,-0.00684406282380223,-0.083124540746212,-0.0176884643733501,0.025010010227561,0.0410284847021103,-0.0167782250791788
674,-0.00568132009357214,-0.0825284495949745,-0.0176018308848143,0.0242772158235312,0.0419670827686787,-0.0184273757040501
675,-0.00311709521338344,-0.0816700011491776,-0.0172226931899786,0.024385591968894,0.0434397049248219,-0.0192774273455143
676,0.000544198323041201,-0.0807255282998085,-0.0162467379122972,0.0254787839949131,0.0457397513091564,-0.0197905637323856
677,0.0053379675373435,-0.0789198204874992,-0.0140100521966815,0.0281797256320715,0.0491949841380119,-0.0190399680286646
678,0.00895301811397076,-0.0771665796637535,-0.0120060360059142,0.0306547824293375,0.0520970225334167,-0.0179619956761599
679,0.00796150136739016,-0.0776931345462799,-0.0122533934190869,0.0300000831484795,0.0520078428089619,-0.019074484705925
680,0.00355892209336162,-0.0800604224205017,-0.0135891120880842,0.0271900780498981,0.049857635051012,-0.0217833388596773
681,-0.000292738666757941,-0.0818642899394035,-0.0143586406484246,0.024831335991621,0.048271756619215,-0.0242074579000473
682,-0.00126111728604883,-0.0814089849591255,-0.0140194064006209,0.0247000083327293,0.0494707748293877,-0.0256290175020695
683,0.000966724299360067,-0.0788145884871483,-0.0119847794994712,0.0269499607384205,0.0539822317659855,-0.0257097352296114
684,0.00450736097991467,-0.0757189765572548,-0.0091816233471036,0.0290742889046669,0.0588705837726593,-0.0246893633157015
685,0.00634907931089401,-0.0733930096030235,-0.00825833529233933,0.0286059249192476,0.0602987706661224,-0.0234116595238447
686,0.00470643723383546,-0.0722294971346855,-0.0111021567136049,0.0247587934136391,0.0566696710884571,-0.0236083548516035
687,0.00148141721729189,-0.071560762822628,-0.0157865714281797,0.019551208242774,0.0498963072896004,-0.0254061464220285
688,-0.000399841839680448,-0.0705632269382477,-0.0191468261182308,0.0154415443539619,0.0432596690952778,-0.0276211593300104
689,-0.00120378076098859,-0.0695568546652794,-0.0214105006307364,0.0119336321949959,0.0379010029137135,-0.0307904444634914
690,-0.00206188182346523,-0.0689264684915543,-0.0241045765578747,0.00824937969446182,0.0331614017486572,-0.0353458449244499
691,-0.00214622262865305,-0.0683918297290802,-0.0266359467059374,0.00526920426636934,0.0295541640371084,-0.0399250388145447
692,9.78221869445406E-05,-0.0671910345554352,-0.0269534159451723,0.00444095395505428,0.0295001044869423,-0.0426222011446953
693,0.00490387715399265,-0.0644255355000496,-0.0242313835769892,0.00642927223816514,0.0338927321135998,-0.042699720710516
694,0.0109806684777141,-0.0606514737010002,-0.0199459735304117,0.00983736012130976,0.0404003262519836,-0.0414299182593822
695,0.0172199197113514,-0.0573076531291008,-0.0156395491212606,0.0130116371437907,0.0467832013964653,-0.0400204807519913
696,0.0224961843341589,-0.0546693541109562,-0.0120861493051052,0.0157367568463087,0.0519256368279457,-0.0383564382791519
697,0.024462977424264,-0.0529780350625515,-0.0108797000721097,0.0170244202017784,0.0538264848291874,-0.0373840443789959
698,0.0223565008491278,-0.0527363680303097,-0.0125377560034394,0.0160667803138494,0.0522349439561367,-0.0385246314108372
699,0.0185626316815615,-0.0532930828630924,-0.0151236969977617,0.0146478954702616,0.0500450246036053,-0.0407190062105656
700,0.014480222016573,-0.0546319745481014,-0.0181959643959999,0.0131932012736797,0.0480354204773903,-0.0431282036006451
701,0.01015246193856,-0.0571098625659943,-0.0222942531108856,0.0104171084240079,0.0450125373899937,-0.0464506112039089
702,0.00777339749038219,-0.0585785955190659,-0.0249373931437731,0.00840373523533344,0.042322900146246,-0.048674363642931
703,0.00874479673802853,-0.0572874322533607,-0.0245003793388605,0.00944811757653952,0.0414858870208263,-0.0478496700525284
704,0.0108509119600058,-0.0547427721321583,-0.0234498102217913,0.0115044163540006,0.0418653823435307,-0.0463813617825508
705,0.0123046766966581,-0.0527257174253464,-0.0235713068395853,0.0120823318138719,0.0433908328413963,-0.0467738769948483
706,0.013254564255476,-0.0514117330312729,-0.0243018623441458,0.0111868726089597,0.0457196831703186,-0.0489908680319786
707,0.013538733124733,-0.0504535399377346,-0.0253208056092262,0.0098952716216445,0.0462873876094818,-0.0521942563354969
708,0.0129998214542866,-0.0496487468481064,-0.0266362261027098,0.00965550262480974,0.0435935631394386,-0.0553886108100414
709,0.0122210728004575,-0.0489294193685055,-0.0277218967676163,0.0107106259092689,0.0392102040350437,-0.0581449493765831
710,0.0116640515625477,-0.0479230396449566,-0.0277989860624075,0.0115957427769899,0.0357585325837135,-0.060042817145586
711,0.0113212876021862,-0.0460845641791821,-0.0265798531472683,0.0119826849550009,0.0351966172456741,-0.0596264079213142
712,0.0104376394301653,-0.0441411808133125,-0.0253184046596289,0.0119606330990791,0.0369724556803703,-0.0575162246823311
713,0.00802087038755417,-0.0432295612990856,-0.0257223695516586,0.0105912908911705,0.0381517820060253,-0.0564940497279167
714,0.00433291168883443,-0.0429385714232922,-0.0277527086436749,0.00776706589385867,0.0369323045015335,-0.0574009828269482
715,0.000645126972813159,-0.0423921085894108,-0.0303850211203098,0.00437107728794217,0.0338525325059891,-0.059149082750082
716,-0.00143479451071471,-0.0415197685360909,-0.0322020128369331,0.00172622827813029,0.0313030108809471,-0.060424767434597
717,-0.000551426550373435,-0.0408676862716675,-0.0319303274154663,0.00092383986338973,0.0319233015179634,-0.0605996064841747
718,0.00277288421057165,-0.0410531014204025,-0.0298562049865723,0.0016634720377624,0.0356111563742161,-0.0603405646979809
719,0.0062312507070601,-0.0420882925391197,-0.0270757135003805,0.00288475840352476,0.0401063375174999,-0.0606852173805237
720,0.00797712337225676,-0.0433791801333427,-0.0244270339608192,0.00380251044407487,0.0434071868658066,-0.0619204305112362
721,0.0078831110149622,-0.0441690236330032,-0.0226439349353313,0.00408289628103375,0.0447005778551102,-0.0633282363414764
722,0.00729722483083606,-0.0438563227653503,-0.0218689516186714,0.00423309719190001,0.0444363914430141,-0.0638433769345284
723,0.00718365842476487,-0.0425924360752106,-0.0215433686971664,0.00473327841609716,0.0431758090853691,-0.0636826381087303
724,0.00690929172560573,-0.0415284000337124,-0.0213937889784575,0.0047427280806005,0.0409368649125099,-0.0642091259360313
725,0.00614398485049605,-0.0415754765272141,-0.0215032715350389,0.00360064976848662,0.0380914807319641,-0.065792128443718
726,0.00584047008305788,-0.0420242846012115,-0.0217555817216635,0.0025835728738457,0.0360128618776798,-0.0668462961912155
727,0.00665009720250964,-0.0415166392922401,-0.0214914083480835,0.00343160005286336,0.0359322801232338,-0.0657549202442169
728,0.00773765426129103,-0.0400225780904293,-0.0204199552536011,0.00572769483551383,0.0371449813246727,-0.0633109360933304
729,0.00746275950223207,-0.0389761887490749,-0.0201358254998922,0.00702946353703737,0.0372871458530426,-0.0619649030268192
730,0.00595483370125294,-0.0391226038336754,-0.0219141431152821,0.00620972039178014,0.0351473242044449,-0.0627288967370987
731,0.00566311413422227,-0.0389406681060791,-0.0239034686237574,0.00530114164575934,0.0325375907123089,-0.0635824427008629
732,0.00826731044799089,-0.0364061929285526,-0.0233497116714716,0.00706479698419571,0.0322685576975346,-0.061795637011528
733,0.0122908782213926,-0.0319842733442783,-0.0204553119838238,0.0112122520804405,0.0343577489256859,-0.0577308461070061
734,0.0151397101581097,-0.0279388427734375,-0.017520135268569,0.0148923760280013,0.0363615602254868,-0.0541311390697956
735,0.0165142323821783,-0.0251554101705551,-0.0152535559609532,0.0170323625206947,0.0375866293907166,-0.0521686263382435
736,0.0167708825320005,-0.0235421452671289,-0.0136953536421061,0.0183539986610413,0.0385176241397858,-0.0513242445886135
737,0.015420088544488,-0.0233406107872725,-0.0137164257466793,0.018758375197649,0.0383626855909824,-0.0514535903930664
738,0.0133890761062503,-0.0243415497243404,-0.0149650201201439,0.01815733499825,0.0374553315341473,-0.0525862872600555
739,0.0117525048553944,-0.025995010510087,-0.0165898054838181,0.0167506523430347,0.0371263772249222,-0.0545645989477634
740,0.010218970477581,-0.0275837369263172,-0.0186595506966114,0.0146322762593627,0.0370006002485752,-0.0569251477718353
741,0.00906899850815535,-0.0284389033913612,-0.0207870006561279,0.0129816848784685,0.0368191823363304,-0.0587896890938282
742,0.00808597356081009,-0.0294246058911085,-0.0229787454009056,0.0119671057909727,0.0365117378532887,-0.0610233023762703
743,0.00683312816545367,-0.0312700904905796,-0.025188148021698,0.0104432757943869,0.035359364002943,-0.0644329711794853
744,0.00670816656202078,-0.0323497653007507,-0.0258610192686319,0.00927405804395676,0.0341475531458855,-0.0662727877497673
745,0.00828416924923658,-0.0316278077661991,-0.0247269105166197,0.00977080315351486,0.0337436757981777,-0.0644218996167183
746,0.0102312443777919,-0.0298943128436804,-0.0230028480291367,0.0114625142887235,0.0332927517592907,-0.0601795837283134
747,0.0118172103539109,-0.0275499112904072,-0.0207893755286932,0.0136606451123953,0.0321600772440434,-0.0552346296608448
748,0.0124796153977513,-0.0253050420433283,-0.018652556464076,0.0151254246011376,0.0304064005613327,-0.0515167154371738
749,0.0109963892027736,-0.0248785708099604,-0.0185347516089678,0.0136253656819463,0.0277871768921614,-0.0513974651694298
750,0.0079662948846817,-0.026633745059371,-0.0201106630265713,0.00943165924400091,0.0250945873558521,-0.0542440973222256
751,0.00572783732786775,-0.0289640128612518,-0.020530229434371,0.00582019099965692,0.0247581750154495,-0.0564011223614216
752,0.00650712102651596,-0.0301254913210869,-0.0170112270861864,0.00653587002307177,0.0291735008358955,-0.0546224005520344
753,0.0100678047165275,-0.0302240196615458,-0.00955078192055225,0.0125636095181108,0.0373055189847946,-0.0490557439625263
754,0.0126923387870193,-0.0307418555021286,-0.0025705243460834,0.0202389620244503,0.0435768850147724,-0.0429944805800915
755,0.0122788054868579,-0.0316640771925449,-0.000682185811456293,0.0247244816273451,0.0431652516126633,-0.0391874946653843
756,0.010311882942915,-0.0321329459547997,-0.00473006349056959,0.0231587793678045,0.036182813346386,-0.0384858436882496
757,0.00801340024918318,-0.0326432622969151,-0.0129009392112494,0.0156021928414702,0.0255712680518627,-0.040229719132185
758,0.00548093672841787,-0.0341277234256268,-0.0225782636553049,0.00458488753065467,0.0144157856702805,-0.0434834770858288
759,0.00330905499868095,-0.03636734187603,-0.0307626947760582,-0.00621958216652274,0.005371468141675,-0.0467911064624786
760,0.00219365721568465,-0.038403581827879,-0.0351513773202896,-0.0134767442941666,-0.000202793045900762,-0.0475577898323536
761,0.00198678718879819,-0.0401592515408993,-0.0361235216259956,-0.0168791003525257,-0.00281099742278457,-0.0451685525476933
762,0.00217121886089444,-0.0416035167872906,-0.0355228073894978,-0.0182193424552679,-0.00409059831872582,-0.0407433658838272
763,0.00248112808912992,-0.0411559008061886,-0.0330295898020267,-0.0178492665290833,-0.00380077119916677,-0.034247063100338
764,0.00295320153236389,-0.0377045273780823,-0.0274670906364918,-0.0156123097985983,-0.000657924334518611,-0.0253442656248808
765,0.00333633739501238,-0.0329093337059021,-0.0206099841743708,-0.0130846155807376,0.00280622718855739,-0.0152196940034628
766,0.00227262265980244,-0.0296633373945951,-0.0162170063704252,-0.012620952911675,0.00173226709011942,-0.00623158318921924
767,-0.000814060273114592,-0.0286785960197449,-0.0162355378270149,-0.0148207154124975,-0.00550492014735937,0.000407367711886764
768,-0.00459884013980627,-0.0286412499845028,-0.019590001553297,-0.0187516808509827,-0.0171907879412174,0.00476885586977005
769,-0.00794594455510378,-0.0287369396537542,-0.0240943823009729,-0.0242200568318367,-0.0309710521250963,0.00727485446259379
770,-0.00968633964657784,-0.0282078515738249,-0.0272846501320601,-0.0302360150963068,-0.0430629290640354,0.0103281745687127
771,-0.00912830978631973,-0.0262647904455662,-0.0278752390295267,-0.0348935388028622,-0.0501764193177223,0.0162189416587353
772,-0.00687013054266572,-0.0230339616537094,-0.0264767594635487,-0.0373863838613033,-0.0513061918318272,0.0245907232165337
773,-0.00366364722140133,-0.0189512688666582,-0.023372920230031,-0.0371831171214581,-0.0470874644815922,0.0349655821919441
774,-0.001807831809856,-0.0147462785243988,-0.0193801391869783,-0.0349052250385284,-0.0426498614251614,0.0466624312102795
775,-0.00402061641216278,-0.0112459808588028,-0.0167402625083923,-0.033007588237524,-0.0443909764289856,0.0572321973741055
776,-0.00934368651360273,-0.00829180050641298,-0.0161194056272507,-0.0329516418278217,-0.0524084158241749,0.0647652223706245
777,-0.0146634038537741,-0.00533220078796148,-0.016344178467989,-0.0344315133988857,-0.0625576972961426,0.0695376992225647
778,-0.018303744494915,-0.00245647504925728,-0.0165835041552782,-0.0363512001931667,-0.0717864856123924,0.0732385069131851
779,-0.0204206276684999,-8.63674285938032E-05,-0.0165461413562298,-0.0376950986683369,-0.0787888765335083,0.0770750343799591
780,-0.0226016696542501,0.00106492615304887,-0.0164474416524172,-0.0391184911131859,-0.0833103433251381,0.0801750496029854
781,-0.025740722194314,0.000731713371351361,-0.0169758684933186,-0.0421144887804985,-0.0852952599525452,0.0810206532478333
782,-0.0282524693757296,-9.0077803179156E-05,-0.0185828749090433,-0.0471315756440163,-0.0850082114338875,0.0793319270014763
783,-0.0278028715401888,0.000410618667956442,-0.0194928739219904,-0.0517607815563679,-0.0827207863330841,0.0782441347837448
784,-0.0248292423784733,0.00353611190803349,-0.0169831290841103,-0.0522573925554752,-0.0789689794182777,0.0821478739380836
785,-0.0239012073725462,0.00860768370330334,-0.0123395845293999,-0.0482607781887054,-0.0769806578755379,0.0907599925994873
786,-0.027298167347908,0.0132791288197041,-0.00934575777500868,-0.0430812649428844,-0.0800381228327751,0.0998572185635567
787,-0.0309185031801462,0.0148282982409,-0.0097564309835434,-0.041179534047842,-0.0875990688800812,0.105036452412605
788,-0.0310812741518021,0.0124357119202614,-0.0118422713130713,-0.0434758551418781,-0.0964097529649735,0.105478644371033
789,-0.0287382714450359,0.0081157349050045,-0.0112262815237045,-0.0459173657000065,-0.102113991975784,0.104630276560783
790,-0.027208998799324,0.00352594396099448,-0.00643316144123673,-0.0456252172589302,-0.102788835763931,0.105279728770256
791,-0.0291336383670568,-0.0016348073258996,-0.000902371481060982,-0.0422207601368427,-0.10115896910429,0.108662717044353
792,-0.0342582426965237,-0.00781240174546838,0.00254748412407935,-0.0355129241943359,-0.100017316639423,0.115311086177826
793,-0.0397411659359932,-0.0146889733150601,0.00462386198341846,-0.027167197316885,-0.0980029329657555,0.122741140425205
794,-0.0427042916417122,-0.021772613748908,0.00714262435212731,-0.0202060490846634,-0.0920777693390846,0.126981720328331
795,-0.0431184247136116,-0.0288714915513992,0.0105538088828325,-0.0155386310070753,-0.0818710625171661,0.127222999930382
796,-0.0426114834845066,-0.0357075743377209,0.0144517160952091,-0.011760943569243,-0.069558747112751,0.126141920685768
797,-0.0404858626425266,-0.0412865504622459,0.0185121428221464,-0.00781577080488205,-0.0579646863043308,0.125998079776764
798,-0.0352124162018299,-0.0442056581377983,0.0219756159931421,-0.00386045314371586,-0.0494275502860546,0.126656785607338
799,-0.0287346355617046,-0.0443084798753262,0.0235779341310263,-0.000624747073743492,-0.044712956994772,0.126987352967262
800,-0.0241007711738348,-0.043053537607193,0.0226980876177549,0.00101578305475414,-0.0427640564739704,0.126128435134888
801,-0.0215849038213491,-0.0416856817901134,0.0201188083738089,0.000520506408065557,-0.041842695325613,0.123432494699955
802,-0.0202006790786982,-0.0404351688921452,0.0173849202692509,-0.00174836779478937,-0.0409720726311207,0.118802078068256
803,-0.019321808591485,-0.0390843041241169,0.0158753488212824,-0.00427867751568556,-0.0398258119821548,0.113268636167049
804,-0.019213842228055,-0.0376674346625805,0.0154255777597427,-0.00610992126166821,-0.0390143692493439,0.107362858951092
805,-0.0206468496471643,-0.0361577086150646,0.0147009287029505,-0.00763163855299354,-0.0394364446401596,0.100850559771061
806,-0.0226010456681252,-0.0336903594434261,0.0140073588117957,-0.00845849420875311,-0.0399854518473148,0.0950645357370377
807,-0.0234440322965384,-0.0300125852227211,0.0142867704853415,-0.00761608639732003,-0.0394536182284355,0.0911311507225037
808,-0.023129366338253,-0.0262145735323429,0.0153005439788103,-0.00544570432975888,-0.0383635982871056,0.0881322175264359
809,-0.0220766998827457,-0.0227287020534277,0.0169142559170723,-0.00342694250866771,-0.0368917025625706,0.0852628722786903
810,-0.0216477420181036,-0.0194967016577721,0.0175686199218035,-0.00383612629957497,-0.0356823354959488,0.0815920382738113
811,-0.0233542919158936,-0.0172608774155378,0.0150286508724093,-0.00769093399867415,-0.0356988832354546,0.0761250257492065
812,-0.0259190499782562,-0.0160323977470398,0.0107369925826788,-0.0123028121888638,-0.0358624830842018,0.070294015109539
813,-0.0270199533551931,-0.0144928339868784,0.00780822848901153,-0.014414943754673,-0.0352035015821457,0.0661656782031059
814,-0.0261510163545609,-0.0115869008004665,0.00717238243669271,-0.0135420057922602,-0.034390714019537,0.0637329593300819
815,-0.0236355904489756,-0.00728763686493039,0.00906802155077457,-0.0101895043626428,-0.0331686250865459,0.0628201588988304
816,-0.0197904296219349,-0.00276854378171265,0.0134681044146419,-0.00533159309998155,-0.0304132625460625,0.0632352754473686
817,-0.01642738096416,0.000284334499156103,0.01770637370646,-0.00175619579385966,-0.0274471156299114,0.0627615302801132
818,-0.0152048077434301,0.00177506357431412,0.0193116348236799,-0.00123840162996203,-0.0260884594172239,0.059761356562376
819,-0.0146335978060961,0.00360630406066775,0.0197481215000153,-0.0018137568840757,-0.0249619763344526,0.0557112880051136
820,-0.0134141575545073,0.00659218337386847,0.0206178780645132,-0.00139160256367177,-0.0228480007499456,0.0519134290516377
821,-0.0124849816784263,0.00945791322737932,0.0210778247565031,-0.000597142381593585,-0.0204809624701738,0.0479330383241177
822,-0.0117314532399178,0.0117277530953288,0.0211312845349312,-9.56212024902925E-05,-0.0180400460958481,0.0441913567483425
823,-0.0115075698122382,0.0134494472295046,0.0208636075258255,-0.000612946983892471,-0.0167979244142771,0.0404633916914463
824,-0.0124037452042103,0.0143711594864726,0.0200378112494946,-0.00223499117419124,-0.0171702113002539,0.0360980518162251
825,-0.0121630728244781,0.01521319989115,0.0204422660171986,-0.00234376569278538,-0.015500002540648,0.0326714739203453
826,-0.00972126796841621,0.0160938687622547,0.022322217002511,-0.000660835939925164,-0.0101605951786041,0.0301746372133493
827,-0.00666907429695129,0.0161792747676373,0.0230180267244577,-0.000445062178187072,-0.00435974495485425,0.0261927880346775
828,-0.00428311573341489,0.0158454310148954,0.0213421974331141,-0.00255669630132616,-0.00151277880650014,0.0205702465027571
829,-0.00311525608412921,0.0163358300924301,0.0192829947918653,-0.00433904025703669,-0.00148783507756889,0.0158560294657946
830,-0.00426325388252735,0.017683295533061,0.018705103546381,-0.00403847917914391,-0.0024341328535229,0.0134162120521069
831,-0.00857504643499851,0.0188426207751036,0.0188256837427616,-0.00278056552633643,-0.00440991716459394,0.0120329484343529
832,-0.0133470548316836,0.0197603590786457,0.0189634449779987,-0.00115698075387627,-0.0066518047824502,0.0114765325561166
833,-0.0150058353319764,0.0208582356572151,0.0197091326117516,0.00125910143833607,-0.00667898124083877,0.0122283762320876
834,-0.0133634842932224,0.0219349376857281,0.0212061125785112,0.00357738020829856,-0.00399196660146117,0.0127445198595524
835,-0.0101221976801753,0.0230900421738625,0.0227771066129208,0.00525718741118908,-0.000100795034086332,0.0119051747024059
836,-0.00704261148348451,0.0244594644755125,0.0233435146510601,0.00670001702383161,0.00386668043211102,0.00988879147917032
837,-0.00485730078071356,0.025882301852107,0.0231431107968092,0.00752124050632119,0.00737484777346253,0.00684737041592598
838,-0.00330157112330198,0.0272128507494926,0.0229295436292887,0.00683325435966253,0.00889624003320932,0.00351156434044242
839,-0.00232395646162331,0.0282404441386461,0.0218532793223858,0.00458186864852905,0.00748500972986221,0.000771183171309531
840,-0.00137476541567594,0.0293005388230085,0.0200074315071106,0.00244700280018151,0.00555975921452045,-0.000917111290618777
841,-0.000597712176386267,0.0302003361284733,0.0180412530899048,0.00127327826339751,0.00485742930322886,-0.00256625632755458
842,-0.00108080462086946,0.0303863827139139,0.0158407781273127,0.000226628893869929,0.00405204854905605,-0.0056838602758944
843,-0.00209581875242293,0.0310970135033131,0.0144630623981357,-0.000199696572963148,0.00265393010340631,-0.00932539999485016
844,-0.00256451591849327,0.0333852544426918,0.0146618923172355,0.000515872961841524,0.00129015010315925,-0.0120726935565472
845,-0.00195302162319422,0.0364017263054848,0.0165940839797258,0.00247740792110562,0.00116230070125312,-0.0134448418393731
846,2.67138261733635E-06,0.0385924279689789,0.0201832558959723,0.00601810775697231,0.00323558668605983,-0.013251849450171
847,0.00171141407918185,0.0387081503868103,0.0236196033656597,0.00967763084918261,0.00614812737330794,-0.0124665712937713
848,0.00196986668743193,0.0371011681854725,0.0254917293787003,0.0119759067893028,0.00858859997242689,-0.011869047768414
849,0.00241453014314175,0.0353500917553902,0.0268745888024569,0.0138380043208599,0.0116484500467777,-0.0110221235081553
850,0.00417925184592605,0.0334729738533497,0.0283602084964514,0.0157044995576143,0.0157645847648382,-0.0106884408742189
851,0.00593483215197921,0.0302303805947304,0.0287937391549349,0.0162852145731449,0.0194554291665554,-0.012427007779479
852,0.00600535701960325,0.0254465416073799,0.0271789003163576,0.0145832253620029,0.0216677971184254,-0.0163639150559902
853,0.00326755899004638,0.0192754827439785,0.0229848586022854,0.0101664299145341,0.0223660804331303,-0.0223662219941616
854,-0.00109993736259639,0.0124622024595737,0.017899027094245,0.00528411474078894,0.0235561560839415,-0.0285536367446184
855,-0.00403969455510378,0.00667669996619225,0.0151691259816289,0.00402135355398059,0.0271271876990795,-0.0313012003898621
856,-0.00450862525030971,0.00216021714732051,0.0153714567422867,0.00688780564814806,0.0308477617800236,-0.0301773939281702
857,-0.00280272192321718,-0.00169370439834893,0.0172536931931973,0.0115265594795346,0.0323388464748859,-0.0273404903709888
858,0.000121535864309408,-0.00493495166301727,0.0192032437771559,0.0154323261231184,0.0317674949765205,-0.0246949791908264
859,0.00182254996616393,-0.00765904644504189,0.019307853654027,0.0166203528642654,0.0293326824903488,-0.0232624597847462
860,0.000851548335049301,-0.00946556497365236,0.0174103770405054,0.0152761917561293,0.0255514811724424,-0.0224527604877949
861,-0.00165368604939431,-0.00973619613796473,0.0153493080288172,0.0140446797013283,0.0223520454019308,-0.021144887432456
862,-0.00315500167198479,-0.0088601978495717,0.0153090180829167,0.0159224849194288,0.0229089334607124,-0.0194525476545095
863,-0.00317044300027192,-0.00819725729525089,0.0176526568830013,0.0203425902873278,0.0284838210791349,-0.0195483658462763
864,-0.00375647051259875,-0.00900775473564863,0.0205758009105921,0.0234356205910444,0.0369041301310062,-0.0229784790426493
865,-0.00511887762695551,-0.0114204967394471,0.0217415653169155,0.0229122787714005,0.0449569299817085,-0.0280237253755331
866,-0.00434886338189244,-0.0145819298923016,0.0198494102805853,0.0194215420633554,0.0491990707814693,-0.0324193648993969
867,0.000532423437107354,-0.0168828628957272,0.0168540943413973,0.0155387064442039,0.0486695431172848,-0.0350158512592316
868,0.00748148607090116,-0.0167591888457537,0.0164244454354048,0.0142761394381523,0.0457435473799706,-0.0348933599889278
869,0.0125094475224614,-0.0147083774209023,0.0185523219406605,0.0157687924802303,0.0420348457992077,-0.0326943881809711
870,0.0137270232662559,-0.0129838669672608,0.0201234295964241,0.0171310566365719,0.0386304445564747,-0.0311346277594566
871,0.0136177949607372,-0.0125063238665462,0.0199612677097321,0.016771899536252,0.0373415239155293,-0.0319799706339836
872,0.017020707949996,-0.0123531948775053,0.0183207858353853,0.0151564525440335,0.0376548804342747,-0.0349394045770168
873,0.0244480911642313,-0.0115003064274788,0.0154140936210752,0.0132835423573852,0.0379542410373688,-0.0381544753909111
874,0.0299797467887402,-0.00911852438002825,0.0132375564426184,0.0130627527832985,0.0386373363435268,-0.0387090481817722
875,0.0279022920876741,-0.00545233953744173,0.0130845410749316,0.0145136741921306,0.0390680842101574,-0.0370429344475269
876,0.0181943234056234,-0.00226831831969321,0.0129262506961823,0.0146312471479177,0.0369911417365074,-0.0379515290260315
877,0.00582022871822119,-0.000161980991833843,0.0118388198316097,0.0131735941395164,0.0341026037931442,-0.0428681373596191
878,-0.00465531554073095,0.00166680826805532,0.0107911815866828,0.012615118175745,0.0343281179666519,-0.0482590980827808
879,-0.0113141657784581,0.00318767433054745,0.00954974815249443,0.0129485335201025,0.0366773903369904,-0.0522518903017044
880,-0.0121169062331319,0.00520101562142372,0.00925140455365181,0.0141869569197297,0.0389007404446602,-0.0542906783521175
881,-0.00753860455006361,0.00895373150706291,0.0109622916206717,0.0163504853844643,0.0411006174981594,-0.0547285787761211
882,-0.00178787799086422,0.0135861421003938,0.0127228973433375,0.0172077994793653,0.042659405618906,-0.0565729551017284
883,0.00222785654477775,0.0177684668451548,0.0133961327373981,0.0159314144402742,0.0451744757592678,-0.0610345974564552
884,0.00455090682953596,0.0211427230387926,0.0132612874731421,0.0131022492423654,0.0521504431962967,-0.0659519359469414
885,0.00628959247842431,0.0238263346254826,0.0115466322749853,0.00873205717653036,0.0599155351519585,-0.0695888176560402
886,0.00893524009734392,0.0268594585359097,0.00847083423286676,0.0044693099334836,0.060852162539959,-0.0705350115895271
887,0.0133522115647793,0.0315337665379047,0.00587852858006954,0.00291538541205227,0.0537342838943005,-0.0674639120697975
888,0.0173235815018415,0.0372667759656906,0.00424782652407885,0.00323695153929293,0.0418380051851273,-0.0626208707690239
889,0.0183278005570173,0.0429919883608818,0.00430388143286109,0.00331919128075242,0.0304808355867863,-0.0592138580977917
890,0.017406040802598,0.0487485788762569,0.00717847375199199,0.00343287270516157,0.0246270168572664,-0.0581676922738552
891,0.0168347377330065,0.0543796829879284,0.0107461335137486,0.00288747064769268,0.0229454375803471,-0.0609383396804333
892,0.0182107351720333,0.0611448474228382,0.0131437759846449,-0.000300700863590464,0.0227553769946098,-0.0670328214764595
893,0.0234101414680481,0.0698807686567307,0.015398096293211,-0.00496373744681478,0.028195234015584,-0.0708015933632851
894,0.0314619168639183,0.0764701217412949,0.0167538188397884,-0.00827337615191936,0.0424230247735977,-0.0699235796928406
895,0.0349493622779846,0.0763872861862183,0.0156950484961271,-0.00941033568233252,0.0572269968688488,-0.069272868335247
896,0.0289563946425915,0.0716269314289093,0.0135754840448499,-0.00838491693139076,0.0607178322970867,-0.0710754841566086
897,0.0203304719179869,0.0694271773099899,0.011517602019012,-0.00612495886161923,0.0508662238717079,-0.0746730640530586
898,0.0183543916791677,0.0707603022456169,0.00790689047425985,-0.00528197130188346,0.0353923290967941,-0.0820301175117493
899,0.0233842246234417,0.0677888691425323,0.000626498833298683,-0.00681756436824799,0.0225890520960093,-0.0920519903302193
900,0.0294293630868196,0.0573155246675015,-0.00888917967677116,-0.0096309706568718,0.017432464286685,-0.100635014474392
901,0.0312781520187855,0.0448924414813519,-0.0149786761030555,-0.0122098103165627,0.0214225314557552,-0.106409996747971
902,0.0284472461789846,0.0363797284662724,-0.0142126716673374,-0.0125486832112074,0.0294245444238186,-0.110175617039204
903,0.0239151250571013,0.032220508903265,-0.00938958767801523,-0.010254830121994,0.0323258377611637,-0.11420476436615
904,0.0202643591910601,0.0296555105596781,-0.00422022445127368,-0.00679176254197955,0.0289725661277771,-0.119299918413162
905,0.0172277018427849,0.0273405145853758,0.000868977978825569,-0.00316239753738046,0.026678966358304,-0.122177511453629
906,0.0123786861076951,0.0254371073096991,0.00553537206724286,-5.97506768826861E-05,0.027195306494832,-0.120582364499569
907,0.00499574886634946,0.0237737167626619,0.00786998961120844,0.00186631188262254,0.0253642145544291,-0.11613193154335
908,-0.0022533992305398,0.0218904558569193,0.00746537558734417,0.00339426333084702,0.0202265549451113,-0.109817817807198
909,-0.00567688839510083,0.0198953058570623,0.00621485337615013,0.00575278187170625,0.0160855017602444,-0.10187978297472
910,-0.00424067722633481,0.0178452301770449,0.00545926485210657,0.00827949587255716,0.0156181342899799,-0.0952887535095215
911,-0.000323384359944612,0.0150228980928659,0.00536276353523135,0.00997353065758944,0.0196738690137863,-0.0919010862708092
912,0.00366502720862627,0.0114511605352163,0.00649810070171952,0.0118020828813314,0.0289922151714563,-0.0895402431488037
913,0.00668493006378412,0.00802907533943653,0.00853271316736937,0.014428305439651,0.0396945774555206,-0.0865222215652466
914,0.00774354720488191,0.00492083933204412,0.00963182840496302,0.0164817869663239,0.0452034361660481,-0.0838482975959778
915,0.00697288382798433,0.00189038121607155,0.00870626699179411,0.0167883951216936,0.0446764826774597,-0.0825591385364532
916,0.00627609994262457,-0.000714722147677094,0.00668326299637556,0.0163688156753778,0.0426453128457069,-0.0813836753368378
917,0.00761773064732552,-0.00243589631281793,0.00614687521010637,0.0175893176347017,0.0428438037633896,-0.0782870426774025
918,0.0112810200080276,-0.00395609764382243,0.00825207307934761,0.0208566803485155,0.0449953004717827,-0.0742664858698845
919,0.0158126708120108,-0.0062089990824461,0.0111810769885778,0.024542672559619,0.0465628802776337,-0.071784995496273
920,0.0189712569117546,-0.00957101490348578,0.0121092926710844,0.0267679709941149,0.0452091991901398,-0.0717126280069351
921,0.0195409953594208,-0.0144809493795037,0.00983985420316458,0.0262529384344816,0.0411205030977726,-0.0739522501826286
922,0.0190149750560522,-0.0203028172254562,0.00687347305938601,0.0244804490357637,0.0387136861681938,-0.0774513557553291
923,0.0184528306126595,-0.0256520304828882,0.00600541476160288,0.0235697515308857,0.0409914441406727,-0.0823322534561157
924,0.0167231466621161,-0.0302391294389963,0.00658246269449592,0.0230851732194424,0.0453276820480824,-0.0905762612819672
925,0.0145690562203527,-0.0332572683691978,0.00795683450996876,0.0234663188457489,0.0490967817604542,-0.100850477814674
926,0.0148783819749951,-0.0327097661793232,0.0114820599555969,0.0270830783993006,0.0524132736027241,-0.108436822891235
927,0.0177607554942369,-0.0295688882470131,0.0160109139978886,0.0324289090931416,0.0540942922234535,-0.112623177468777
928,0.0206565149128437,-0.0273263398557901,0.0184292793273926,0.0351072400808334,0.0530940033495426,-0.116832420229912
929,0.021554933860898,-0.0275119803845882,0.0179514642804861,0.0338181555271149,0.0511211864650249,-0.122302912175655
930,0.0203049816191196,-0.0292220134288073,0.015815170481801,0.0308269038796425,0.0502522848546505,-0.127082467079163
931,0.0180604252964258,-0.030976789072156,0.0136889331042767,0.0289465524256229,0.0507086552679539,-0.129322245717049
932,0.0148574048653245,-0.0326299704611301,0.0123906461521983,0.0280193034559488,0.0507318936288357,-0.129698529839516
933,0.0102841667830944,-0.0348391719162464,0.0115151340141892,0.0261860247701406,0.0491322800517082,-0.129486799240112
934,0.00607925746589899,-0.036790631711483,0.011352825909853,0.0243815034627914,0.0475304163992405,-0.128092616796494
935,0.00480939447879791,-0.0366973951458931,0.0134989880025387,0.0249041598290205,0.0487500578165054,-0.124684572219849
936,0.00564175611361861,-0.0347220934927464,0.0164696387946606,0.0263730026781559,0.0519363321363926,-0.120582021772861
937,0.00559291522949934,-0.0324861332774162,0.0163828860968351,0.0259931012988091,0.053436491638422,-0.117661222815514
938,0.00413213158026338,-0.0305510796606541,0.0131469601765275,0.024236798286438,0.0524246096611023,-0.11615614593029
939,0.00274574337527156,-0.0288586057722569,0.0101084969937801,0.0234172325581312,0.0511281788349152,-0.115110486745834
940,0.00206375820562243,-0.0280121546238661,0.00942867528647184,0.0243676472455263,0.0516649782657623,-0.113762840628624
941,0.00130284007173032,-0.0284707918763161,0.0100868763402104,0.0259105432778597,0.0533583760261536,-0.112123154103756
942,0.000662364182062447,-0.028822049498558,0.0108763976022601,0.0278832130134106,0.054440438747406,-0.109428435564041
943,0.00128628127276897,-0.0276322830468416,0.0120141673833132,0.0307893063873053,0.0547737702727318,-0.105502866208553
944,0.00288875657133758,-0.0258557144552469,0.01285963319242,0.0330301113426685,0.0541315488517284,-0.102682821452618
945,0.00451243435963988,-0.0248012375086546,0.0122746443375945,0.0329924151301384,0.052371371537447,-0.102460637688637
946,0.0060072191990912,-0.0242409892380238,0.0104602305218577,0.031354695558548,0.0510734617710114,-0.103445261716843
947,0.00792491901665926,-0.0229639392346144,0.00906504318118095,0.0300911106169224,0.0519387125968933,-0.103454686701298
948,0.00994260422885418,-0.0205492880195379,0.00934718083590269,0.029925674200058,0.0544897951185703,-0.102149486541748
949,0.0102902930229902,-0.0184729136526585,0.0104817794635892,0.0296097993850708,0.0558372959494591,-0.101348862051964
950,0.00887108314782381,-0.0179131664335728,0.011518026702106,0.0289103407412767,0.0543294362723827,-0.101959027349949
951,0.00724126026034355,-0.0187107846140862,0.0121559398248792,0.0284027680754662,0.0509740151464939,-0.10368799418211
952,0.00581840146332979,-0.020632378757,0.0113468756899238,0.0273586958646774,0.0468629859387875,-0.106648653745651
953,0.00468976283445954,-0.0231128577142954,0.00863245688378811,0.025646023452282,0.0432585850358009,-0.109985612332821
954,0.00399061199277639,-0.0253005474805832,0.00486387126147747,0.0239907335489988,0.0413660705089569,-0.112550608813763
955,0.00379557907581329,-0.0263316407799721,0.001626668847166,0.0231973491609097,0.0416335016489029,-0.113690264523029
956,0.00420092465355992,-0.0257250592112541,0.000130275991978124,0.0237505119293928,0.04376170784235,-0.113270245492458
957,0.00468395883217454,-0.0238394048064947,0.000174765416886657,0.0251843016594648,0.0464061684906483,-0.112571448087692
958,0.0044872690923512,-0.0213396567851305,0.000448850507382303,0.0267778448760509,0.047389317303896,-0.113042056560516
959,0.00271732546389103,-0.0193182807415724,-0.00124372832942754,0.0265569519251585,0.0441869162023067,-0.115917034447193
960,0.000101444631582126,-0.0178057011216879,-0.00483717070892453,0.0237261187285185,0.038004782050848,-0.120028637349606
961,-0.00111466692760587,-0.0153739405795932,-0.00720118638128042,0.0210439004004002,0.033444706350565,-0.121203027665615
962,-0.000751707935705781,-0.0119316000491381,-0.00666655041277409,0.0206257421523333,0.0322071686387062,-0.117688082158566
963,1.74173947016243E-05,-0.00893751904368401,-0.00416829343885183,0.0219594649970531,0.0330371409654617,-0.111544370651245
964,0.00114360428415239,-0.00730257295072079,-0.00162556755822152,0.0236131884157658,0.0344523079693317,-0.105594903230667
965,0.00348833575844765,-0.00641056941822171,8.8127919298131E-05,0.0254689306020737,0.0362196452915668,-0.100946098566055
966,0.00707830721512437,-0.00552181620150805,0.00149830884765834,0.0283067412674427,0.0387580133974552,-0.0971933975815773
967,0.00979325827211142,-0.00528808357194066,0.00193260377272964,0.0306650418788195,0.0402422621846199,-0.0951063185930252
968,0.010415755212307,-0.00593082141131163,0.00107052188832313,0.0310866422951221,0.0390253104269505,-0.0950541272759438
969,0.0107806455343962,-0.00620320718735456,0.000377192278392613,0.0307322070002556,0.0363248363137245,-0.0953631326556206
970,0.0120898969471455,-0.00579191185534,-0.000209182719117962,0.0297942906618118,0.0331801138818264,-0.0956594049930573
971,0.0133761959150434,-0.00545818684622645,-0.0018133259145543,0.0272337161004543,0.0301861204206944,-0.0966409668326378
972,0.0135134859010577,-0.00561677059158683,-0.00432995473966002,0.0232548378407955,0.028258066624403,-0.0981097519397736
973,0.0124142458662391,-0.00635429425165057,-0.00670614838600159,0.0189993027597666,0.0273203551769257,-0.0996167585253716
974,0.0110722444951534,-0.00761863030493259,-0.00779733946546912,0.0159816350787878,0.0272099375724792,-0.10061240196228
975,0.0109724393114448,-0.00894849374890327,-0.0070577971637249,0.015245602466166,0.0286941099911928,-0.100306525826454
976,0.0129903787747025,-0.00941987428814173,-0.00467775156721473,0.0167409181594849,0.0321430005133152,-0.0981130227446556
