,AF3,AF4,Fp1,Fp2,AF7,AF8
0,-0.0110747572034597,-0.035286121070385,-0.108426712453365,-0.0780816078186035,-0.113914772868156,-0.120319485664368
1,-0.00848279893398285,-0.0340023748576641,-0.104803428053856,-0.0741565898060799,-0.108485780656338,-0.116671830415726
2,-0.00784641224890947,-0.0327840410172939,-0.101782947778702,-0.0704898983240128,-0.103194482624531,-0.113350175321102
3,-0.00740472180768847,-0.031779732555151,-0.0982459038496017,-0.066054604947567,-0.0960496291518211,-0.110103949904442
4,-0.00686222547665238,-0.0317608378827572,-0.094914436340332,-0.0622959956526756,-0.0871556401252747,-0.107919842004776
5,-0.0060453787446022,-0.0321013778448105,-0.0915784984827042,-0.059269305318594,-0.0765845477581024,-0.106359794735909
6,-0.00499619962647557,-0.0315810441970825,-0.0874261483550072,-0.0556605532765388,-0.0649649277329445,-0.104356847703457
7,-0.00457210559397936,-0.0304267108440399,-0.0827053710818291,-0.0512101426720619,-0.0545040220022202,-0.101754382252693
8,-0.0040424088947475,-0.0288374088704586,-0.076678566634655,-0.0451472662389278,-0.0447555892169476,-0.0977243855595589
9,-0.00256539531983435,-0.0269833672791719,-0.0687825754284859,-0.0377210900187492,-0.0341736376285553,-0.0925912633538246
10,-0.0014436700148508,-0.0260887034237385,-0.061140775680542,-0.0314129553735256,-0.0240157544612885,-0.0887893587350845
11,-0.00188708317000419,-0.0265661552548409,-0.0563955083489418,-0.027965122833848,-0.0166579056531191,-0.0874546691775322
12,-0.00308708730153739,-0.0270957928150892,-0.0541810803115368,-0.0264473557472229,-0.0124494479969144,-0.0871854200959206
13,-0.00306736771017313,-0.0258832443505526,-0.0514449179172516,-0.0240001622587442,-0.00859481003135443,-0.0852681696414948
14,-0.00184710905887187,-0.0230489950627089,-0.0474456325173378,-0.0202788300812244,-0.0027317872736603,-0.0817106068134308
15,0.000149789455463178,-0.0204516388475895,-0.0428765565156937,-0.0166568476706743,0.0054727173410356,-0.0792663842439651
16,0.00410540727898479,-0.0190362818539143,-0.0369313806295395,-0.0124418018385768,0.0147796534001827,-0.0784453600645065
17,0.00937834475189447,-0.018538873642683,-0.030307287350297,-0.00743994163349271,0.0223272684961557,-0.0779221504926682
18,0.0136559447273612,-0.0179144833236933,-0.0250230450183153,-0.00276140565983951,0.0261249262839556,-0.0768022537231445
19,0.0158440191298723,-0.0162629503756762,-0.0213070120662451,0.00154868827667087,0.0268101748079062,-0.0746232718229294
20,0.0152819873765111,-0.0142563432455063,-0.0178811084479094,0.00565373338758945,0.0269834883511066,-0.0717998072504997
21,0.0125571163371205,-0.0127904387190938,-0.0129932155832648,0.00967910792678595,0.0301086381077766,-0.0686706900596619
22,0.0102155720815063,-0.0120747024193406,-0.0067143808118999,0.0135395480319858,0.0375176891684532,-0.0653627514839172
23,0.00916666258126497,-0.0121279461309314,-0.00144739379175007,0.016448687762022,0.0465171672403812,-0.0623552650213242
24,0.00916547328233719,-0.0126731991767883,0.00241147098131478,0.0191705152392387,0.0551583021879196,-0.0593255832791328
25,0.0105474991723895,-0.0136816445738077,0.00621861731633544,0.0230193771421909,0.0642977654933929,-0.056020949035883
26,0.0130557157099247,-0.0152745964005589,0.00972759444266558,0.0274012759327888,0.0728507488965988,-0.0530641973018646
27,0.0175203401595354,-0.0172182265669107,0.0129445074126124,0.0318075604736805,0.0780547186732292,-0.0503884516656399
28,0.0245330296456814,-0.0192581657320261,0.0163812655955553,0.0370466858148575,0.0792007818818092,-0.047574520111084
29,0.0289448499679565,-0.021283121779561,0.0186022408306599,0.0426545888185501,0.0773010104894638,-0.0453997924923897
30,0.025768157094717,-0.0230182055383921,0.0185126941651106,0.0467934273183346,0.0740215256810188,-0.044422809034586
31,0.0180809069424868,-0.0240928381681442,0.0173375755548477,0.0487536713480949,0.0713142082095146,-0.0437071174383163
32,0.0120336301624775,-0.0238377917557955,0.0185654778033495,0.049914825707674,0.0720459669828415,-0.0411153398454189
33,0.00964903924614191,-0.0220085643231869,0.0233391020447016,0.051102988421917,0.0771087482571602,-0.0363944992423058
34,0.00825122371315956,-0.0192835200577974,0.0281200539320707,0.0529843978583813,0.0835897997021675,-0.0321902930736542
35,0.00457320036366582,-0.0162489600479603,0.0308104306459427,0.0575087107717991,0.0887404754757881,-0.0298234410583973
36,-0.00180801260285079,-0.0135353757068515,0.032342791557312,0.0634155496954918,0.0919566005468369,-0.0286410450935364
37,-0.00764892576262355,-0.0116387782618403,0.0343721769750118,0.0673840492963791,0.0951413959264755,-0.0276754647493362
38,-0.00962434150278568,-0.0105724288150668,0.0374541468918324,0.0687797740101814,0.0994715765118599,-0.0266022607684135
39,-0.00731886643916368,-0.009682422503829,0.0414320416748524,0.069774441421032,0.103375285863876,-0.0249489992856979
40,-0.00268573500216007,-0.00838837586343288,0.0459766574203968,0.0720237120985985,0.105528421700001,-0.0219374131411314
41,0.00118094275239855,-0.00721920421347022,0.0494066700339317,0.0747135430574417,0.105763509869576,-0.0179355889558792
42,0.00200833100825548,-0.00663094082847238,0.0502041392028332,0.0767234936356544,0.104454636573792,-0.0139528261497617
43,-0.00014424227993004,-0.00616037892177701,0.0495336167514324,0.0786733329296112,0.103704817593098,-0.0103714466094971
44,-0.00283273565582931,-0.00576122663915157,0.0499589331448078,0.0811248496174812,0.105987928807735,-0.00715775787830353
45,-0.00292142969556153,-0.00556403445079923,0.0526029989123344,0.0830293670296669,0.110552839934826,-0.00333322514779866
46,0.000462753523606807,-0.00447336304932833,0.0567471086978912,0.0841089114546776,0.115142591297627,0.00292847445234656
47,0.00492276437580585,-0.00251216068863869,0.0604827105998993,0.0848797932267189,0.118648409843445,0.0102032432332635
48,0.00847561005502939,-0.00139028509147465,0.06276685744524,0.085538737475872,0.120646923780441,0.0146695571020246
49,0.0114617142826319,-0.00150957831647247,0.0642993226647377,0.0864083841443062,0.121461793780327,0.0151473116129637
50,0.0139967277646065,-0.00200630957260728,0.0655477792024612,0.0873785763978958,0.122271925210953,0.0133504699915648
51,0.0152075365185738,-0.00233482988551259,0.065891295671463,0.0876816958189011,0.123719871044159,0.0116285970434546
52,0.014381137676537,-0.00270606228150427,0.0650897696614265,0.0867541059851646,0.125409573316574,0.0112202893942595
53,0.0119796441867948,-0.00306169781833887,0.0648543238639832,0.0858915969729424,0.127846986055374,0.0127394162118435
54,0.00988856051117182,-0.00248436001129448,0.0671845152974129,0.0873261690139771,0.131976366043091,0.0166124664247036
55,0.00879151001572609,-0.00118602660950273,0.0708321034908295,0.0901711359620094,0.136386185884476,0.0207939818501472
56,0.00720096053555608,-0.000389390363125131,0.0728931427001953,0.0918347463011742,0.138672426342964,0.0224165823310614
57,0.00468530459329486,5.27584998053499E-05,0.0735940039157867,0.0927271097898483,0.139079332351685,0.0223032124340534
58,0.00257190852425992,0.000892351963557303,0.0750293582677841,0.0945207178592682,0.139998152852058,0.0234259180724621
59,0.00198180950246751,0.00179408153053373,0.0771839022636414,0.0969401970505714,0.14278581738472,0.0268486831337214
60,0.00260016811080277,0.00188504334073514,0.0784098207950592,0.098658487200737,0.145672410726547,0.0311070736497641
61,0.00307019404135644,0.000642502680420876,0.0779033303260803,0.0990862771868706,0.145386978983879,0.0341709777712822
62,0.00296797347255051,-0.0013390367385,0.0766658186912537,0.099261112511158,0.141809657216072,0.0360099859535694
63,0.00272582517936826,-0.00280341552570462,0.0760757848620415,0.100430242717266,0.13734233379364,0.0381898730993271
64,0.00327715440653265,-0.00272167311049998,0.0770199373364449,0.103162668645382,0.134230047464371,0.0420617386698723
65,0.00455049704760313,-0.00120608322322369,0.0784848779439926,0.106341786682606,0.13277080655098,0.0465211980044842
66,0.00427066860720515,0.000162253476446494,0.077626459300518,0.10728558152914,0.130446508526802,0.047924030572176
67,0.00226602819748223,0.00100166513584554,0.0750579535961151,0.106399677693844,0.127121403813362,0.0456414893269539
68,0.000588873634114861,0.00251005473546684,0.0743740797042847,0.105756141245365,0.125812336802483,0.0428691133856773
69,-0.000693444919306785,0.00504212640225887,0.0759900882840157,0.104917861521244,0.126914292573929,0.0420250855386257
70,-0.0021585626527667,0.00799852516502142,0.0777449458837509,0.10358677059412,0.128809779882431,0.0436094924807549
71,-0.00306756352074444,0.0107588339596987,0.0788634866476059,0.102566763758659,0.131516471505165,0.0463145561516285
72,-0.0025107990950346,0.0132991736754775,0.0799578204751015,0.102054074406624,0.134941697120667,0.0484172403812408
73,-0.0005341722862795,0.0156794805079699,0.0807662084698677,0.101414889097214,0.136796399950981,0.0492030195891857
74,0.00155212078243494,0.017300745472312,0.0801220685243607,0.0998109951615334,0.135835230350494,0.0484131947159767
75,0.00341498688794672,0.0182246528565884,0.0792336761951447,0.0980237796902657,0.135280027985573,0.0475762188434601
76,0.00540963048115373,0.0189896170049906,0.0800955519080162,0.0967987924814224,0.137330144643784,0.0481750667095184
77,0.00641004648059607,0.0197816789150238,0.0819682478904724,0.0951511338353157,0.139313355088234,0.0488735698163509
78,0.00635684048756957,0.021255187690258,0.0839534848928452,0.0930733606219292,0.13987697660923,0.048528864979744
79,0.007128547411412,0.0237973425537348,0.0861932560801506,0.09193155169487,0.140399977564812,0.0479154959321022
80,0.00950493197888136,0.0266702696681023,0.0882656052708626,0.0923620536923409,0.14095838367939,0.0480914823710918
81,0.0121937189251184,0.0287032965570688,0.0894556790590286,0.0935784205794334,0.140197113156319,0.0491917878389359
82,0.0141714503988624,0.0296707972884178,0.0899338647723198,0.0948023423552513,0.138099893927574,0.0509665422141552
83,0.0154676390811801,0.0303558055311441,0.0902773439884186,0.0959821343421936,0.136116340756416,0.0534843429923058
84,0.0157819967716932,0.0310070496052504,0.0901208519935608,0.0965124145150185,0.134805098176003,0.0562019012868404
85,0.0150597607716918,0.030976640060544,0.0886955410242081,0.0950732231140137,0.133922532200813,0.0575631819665432
86,0.0147882485762239,0.0308172088116407,0.0870852023363113,0.09250208735466,0.134261682629585,0.0582117028534412
87,0.0164550840854645,0.0326509326696396,0.0873604342341423,0.0918109193444252,0.136559844017029,0.0611421465873718
88,0.0191602353006601,0.0361810177564621,0.0888229757547379,0.0930025577545166,0.13907416164875,0.0651203691959381
89,0.0213174093514681,0.0385875590145588,0.0893601477146149,0.093408539891243,0.139951467514038,0.0653259605169296
90,0.0229255482554436,0.0386437401175499,0.0883881375193596,0.0920773595571518,0.139779925346375,0.0604834258556366
91,0.0245669428259134,0.0372167266905308,0.0860236883163452,0.0897503420710564,0.139364123344421,0.0531408526003361
92,0.0263281501829624,0.0356134027242661,0.0831073001027107,0.0870044231414795,0.138272076845169,0.0460670404136181
93,0.0271905604749918,0.0349697954952717,0.0812586769461632,0.0837801843881607,0.136206984519959,0.0410692468285561
94,0.02629329636693,0.0361802093684673,0.0813260972499847,0.0806612595915794,0.133586704730988,0.0394062101840973
95,0.0237952098250389,0.0388435944914818,0.082023523747921,0.0781692415475845,0.130670845508575,0.0403445400297642
96,0.0197315737605095,0.0415052883327007,0.0809915512800217,0.0754198655486107,0.1271653175354,0.0408724956214428
97,0.0153213851153851,0.0437541007995605,0.0782414972782135,0.0725303739309311,0.123225778341293,0.0396997258067131
98,0.0125634605064988,0.0459828302264214,0.0762285515666008,0.0710194930434227,0.120171599090099,0.0383587665855885
99,0.0124999759718776,0.0485631041228771,0.0769739896059036,0.0714888945221901,0.119435258209705,0.0386945530772209
100,0.0145357633009553,0.0511134751141071,0.0794058740139008,0.0724002495408058,0.120256453752518,0.0404530353844166
101,0.0164084006100893,0.0524296499788761,0.0803347080945969,0.071420356631279,0.120268523693085,0.041411966085434
102,0.0169987641274929,0.0527328513562679,0.0787479430437088,0.0686827674508095,0.118490353226662,0.0408472530543804
103,0.017180897295475,0.0535582602024078,0.0761787965893745,0.0668198466300964,0.115487530827522,0.0405036844313145
104,0.0174027103930712,0.0550796613097191,0.0738527849316597,0.0672623440623283,0.112073108553886,0.0410666838288307
105,0.017434298992157,0.0560630075633526,0.0720172673463821,0.0684425160288811,0.1089703515172,0.0406746603548527
106,0.0173159800469875,0.0559622459113598,0.0706553235650063,0.0682473108172417,0.106426581740379,0.0383576825261116
107,0.016912529245019,0.0552822202444077,0.0697981268167496,0.0662977322936058,0.104463674128056,0.0358540713787079
108,0.0157991759479046,0.0544014312326908,0.0694711431860924,0.0631530806422234,0.103331476449966,0.0349033065140247
109,0.0136723825708032,0.0533721186220646,0.0691391602158546,0.0593338832259178,0.102489188313484,0.0349801667034626
110,0.0108613921329379,0.0526253506541252,0.0679619610309601,0.0555078089237213,0.100841201841831,0.0345145054161549
111,0.00837334152311087,0.0526995621621609,0.0658996179699898,0.0525032207369804,0.0985527560114861,0.0324979797005653
112,0.00778502784669399,0.0538713298738003,0.0647496059536934,0.0511424541473389,0.0978551879525185,0.0292942021042109
113,0.0100089311599731,0.0567124336957932,0.065903477370739,0.0514462850987911,0.0997510626912117,0.0274209789931774
114,0.0131078930571675,0.0611368641257286,0.0671326667070389,0.0517302937805653,0.100566916167736,0.0285441763699055
115,0.0144301569089293,0.0658767074346542,0.0662840455770493,0.0503248684108257,0.0974235013127327,0.0309714712202549
116,0.0139112295582891,0.0702692419290543,0.0648335516452789,0.0477722585201263,0.0928449928760529,0.0329086929559708
117,0.0130293183028698,0.0744461193680763,0.0640539452433586,0.0447469614446163,0.089477151632309,0.0337816253304482
118,0.0138398921117187,0.0791829526424408,0.0638898462057114,0.0415174700319767,0.0878326073288918,0.0337873250246048
119,0.0165036208927631,0.0846188738942146,0.0639336258172989,0.0381728000938892,0.0867641791701317,0.0324034690856934
120,0.0189372729510069,0.0891887918114662,0.0637015625834465,0.0348593033850193,0.084670677781105,0.0286357942968607
121,0.0215059220790863,0.0911946892738342,0.0647433400154114,0.0343582928180695,0.083928644657135,0.0253150835633278
122,0.0245287977159023,0.0886298194527626,0.06734748929739,0.0379091911017895,0.0870573967695236,0.0252430122345686
123,0.025201765820384,0.0799793899059296,0.0687059387564659,0.041943721473217,0.0921778753399849,0.0265502762049437
124,0.021847914904356,0.066679835319519,0.0672445371747017,0.0432647094130516,0.0960236042737961,0.0270490031689405
125,0.0168002657592297,0.0529555156826973,0.0643879845738411,0.042544387280941,0.0965325906872749,0.0279476642608643
126,0.0137182995676994,0.0425349548459053,0.0623006410896778,0.0420246832072735,0.093545563519001,0.0319930948317051
127,0.0120876682922244,0.0354184173047543,0.0606052577495575,0.0417600497603416,0.0882744491100311,0.0385726802051067
128,0.00833897478878498,0.0287216361612082,0.0565750077366829,0.0395489670336246,0.0819220468401909,0.0430464893579483
129,0.0037997520994395,0.0211248695850372,0.0497670099139214,0.0355333909392357,0.075825110077858,0.042694840580225
130,0.00439487444236875,0.0141925904899836,0.043583694845438,0.0326957181096077,0.0711607113480568,0.0384745262563229
131,0.0136666614562273,0.00988238863646984,0.0415085107088089,0.0321402959525585,0.0679349526762962,0.0324642732739449
132,0.027344012632966,0.00885810516774654,0.0434653423726559,0.0324199683964252,0.0660983324050903,0.0275688897818327
133,0.0340668670833111,0.00921761523932219,0.0455790646374226,0.0315229594707489,0.0653277933597565,0.0253018066287041
134,0.0290451850742102,0.00883523747324944,0.0456039123237133,0.0297457408159971,0.0651334971189499,0.0252450667321682
135,0.0185837000608444,0.00784080475568771,0.0452558249235153,0.0296328701078892,0.0655932053923607,0.0270330272614956
136,0.00846417061984539,0.00614066421985626,0.0457699783146381,0.0313329584896564,0.0660737380385399,0.02932452224195
137,0.000708162144292146,0.00323575153015554,0.0472407229244709,0.0333058275282383,0.0661124587059021,0.0309237185865641
138,-0.00299022649414837,0.000517405977007002,0.0504142865538597,0.03595831990242,0.0668404921889305,0.0327758342027664
139,-0.00200183619745076,-0.000253943289862946,0.0551798120141029,0.0398840606212616,0.0691803097724915,0.0358506850898266
140,0.000812301062978804,-0.000253264181083068,0.0586012825369835,0.0425206869840622,0.0711314156651497,0.0380102060735226
141,0.00146039703395218,-0.00213954201899469,0.0575163140892982,0.0405460558831692,0.0698341354727745,0.0356407798826694
142,0.00115075253415853,-0.00560565991327167,0.0537223033607006,0.0359544679522514,0.0670276433229446,0.0300639346241951
143,0.00319699244573712,-0.00866919942200184,0.0509884022176266,0.033098753541708,0.066652923822403,0.0252507291734219
144,0.00675045512616634,-0.0111086973920465,0.0497514419257641,0.0322686210274696,0.0688562244176865,0.0214958190917969
145,0.00920727476477623,-0.0138820055872202,0.0484993979334831,0.0310559421777725,0.0700912773609161,0.0174609124660492
146,0.0090054590255022,-0.0172043927013874,0.0460835173726082,0.0277878176420927,0.0671191662549973,0.0129904896020889
147,0.00751460529863834,-0.0191675331443548,0.0439696162939072,0.024599889293313,0.0621452033519745,0.0103059839457273
148,0.00689005479216576,-0.0183694660663605,0.0434943437576294,0.024041410535574,0.0588368289172649,0.0109619935974479
149,0.0072111957706511,-0.0158997401595116,0.0437016412615776,0.0252152420580387,0.0567244403064251,0.0129837030544877
150,0.00876180175691843,-0.0130491433665156,0.0445771105587482,0.0274557638913393,0.0549228377640247,0.0142775177955627
151,0.0110489185899496,-0.0110000055283308,0.0464211627840996,0.0302901547402143,0.0530780404806137,0.0135287484154105
152,0.0121642798185349,-0.0108195077627897,0.0486528538167477,0.032034732401371,0.0507679134607315,0.0105101997032762
153,0.0106274550780654,-0.0126365832984447,0.0491762086749077,0.0309984870254993,0.0482884459197521,0.006364855915308
154,0.00683007901534438,-0.0154861574992538,0.0467785410583019,0.0274108666926622,0.04713961109519,0.00252747535705566
155,0.00340413791127503,-0.0174446608871222,0.0441132858395576,0.0241532996296883,0.0492162853479385,0.000713797053322196
156,0.00235916138626635,-0.0174569115042686,0.0431228503584862,0.0229505691677332,0.0533326528966427,0.000997351249679923
157,0.00409254478290677,-0.016269501298666,0.0428744070231915,0.0231065060943365,0.0567840337753296,0.00204883329570293
158,0.00884427782148123,-0.0147047583013773,0.0429697819054127,0.0244907066226006,0.0590281300246716,0.0040576159954071
159,0.0149521417915821,-0.0128735899925232,0.0433060750365257,0.02703414298594,0.0596612133085728,0.00738833099603653
160,0.0182417649775743,-0.0114417346194386,0.0424039177596569,0.0285099223256111,0.0574093498289585,0.00998108647763729
161,0.0166320409625769,-0.0114534217864275,0.0395225621759892,0.0272045377641916,0.052420724183321,0.0101144043728709
162,0.0122983921319246,-0.0123109426349401,0.0354832448065281,0.0243856627494097,0.0461777970194817,0.00937913917005062
163,0.00761252595111728,-0.012825739569962,0.0302720535546541,0.0208513624966145,0.0394360683858395,0.00875170715153217
164,0.00397420022636652,-0.0128717785701156,0.0243985652923584,0.0162233058363199,0.0324606262147427,0.00677361292764544
165,0.00384111446328461,-0.011557255871594,0.0213200878351927,0.0127538135275245,0.0275079123675823,0.00475610140711069
166,0.00738325249403715,-0.00802276935428381,0.023537227883935,0.0132092218846083,0.0262268241494894,0.0054073273204267
167,0.0109884887933731,-0.00382229825481772,0.0288676042109728,0.0162105262279511,0.0268024373799562,0.00753725040704012
168,0.0116296308115125,-0.00142479909118265,0.0332391411066055,0.017849512398243,0.027355570346117,0.00808621197938919
169,0.00984494481235743,-0.0014733171556145,0.0357793904840946,0.0169580411165953,0.0284928400069475,0.00648338627070189
170,0.00785273127257824,-0.00266911438666284,0.0382760874927044,0.0153195885941386,0.0315588153898716,0.00413544988259673
171,0.00605690246447921,-0.0031002361793071,0.0404323786497116,0.0141668682917953,0.0353548862040043,0.00216838414780796
172,0.00420605437830091,-0.000439038558397442,0.0399990417063236,0.0140042817220092,0.0360122695565224,0.00214987643994391
173,0.00311915972270072,0.00585195980966091,0.0355455949902534,0.0129248267039657,0.0307703539729118,0.00362710282206535
174,0.00306503381580114,0.0130829848349094,0.0277059562504292,0.00754810497164726,0.0215608309954405,0.0041320831514895
175,0.00331907928921282,0.0187964979559183,0.0194955430924892,-0.000701831304468215,0.0134315760806203,0.00482701789587736
176,0.00356725393794477,0.0228793937712908,0.0147288031876087,-0.00681959372013807,0.00905528292059898,0.00842309277504683
177,0.00414062663912773,0.026009950786829,0.0152357034385204,-0.00838636141270399,0.00715988781303167,0.0144561035558581
178,0.00529633928090334,0.0284963343292475,0.0194385722279549,-0.0067075714468956,0.00604022713378072,0.0205283686518669
179,0.00658915098756552,0.0304651688784361,0.0240399092435837,-0.00462379492819309,0.00546163320541382,0.02463155426085
180,0.00655435677617788,0.0319604761898518,0.0262690708041191,-0.00490447133779526,0.00451420387253165,0.0259906388819218
181,0.00470187189057469,0.0336984544992447,0.0255594868212938,-0.0076439599506557,0.0020617637783289,0.026132695376873
182,0.00296374876052141,0.0368360877037048,0.0240366943180561,-0.00963715184479952,-0.000346899323631078,0.0279053952544928
183,0.00289571913890541,0.0409148037433624,0.0234135948121548,-0.0091746412217617,-0.000978098134510219,0.0318839773535728
184,0.00399195589125156,0.0445232689380646,0.0231936145573854,-0.00780200818553567,-0.000762691488489509,0.0361517705023289
185,0.00529380794614553,0.0473312512040138,0.0224909000098705,-0.00717724720016122,-0.00116250046994537,0.0389599539339542
186,0.00623550545424223,0.04956429079175,0.0214057564735413,-0.00755932927131653,-0.00234526628628373,0.0398753136396408
187,0.00665836641564965,0.051443837583065,0.0209985114634037,-0.00846622139215469,-0.00340168713591993,0.0395828038454056
188,0.0067838141694665,0.0534299537539482,0.0217696782201529,-0.00943737756460905,-0.00384827610105276,0.0391306094825268
189,0.00692733144387603,0.0557893924415112,0.0236253291368485,-0.00968312751501799,-0.00342058064416051,0.0391458421945572
190,0.0066559249535203,0.0584076941013336,0.026727506890893,-0.0088605610653758,-0.00191288534551859,0.0393709056079388
191,0.00547358486801386,0.0609319359064102,0.0294117741286755,-0.00853973254561424,-0.00134343246463686,0.0387046076357365
192,0.00471545429900289,0.0633907988667488,0.0294789094477892,-0.00958078447729349,-0.00290785473771393,0.0371854454278946
193,0.00522055150941014,0.0657984018325806,0.0268454272300005,-0.011286367662251,-0.00506193609908223,0.0359003469347954
194,0.006834268104285,0.0677467733621597,0.0231706723570824,-0.0129238832741976,-0.0062546213157475,0.0354883000254631
195,0.00999602675437927,0.0691609084606171,0.020422387868166,-0.0135639533400536,-0.00622901786118746,0.0360689572989941
196,0.0135241057723761,0.0698566064238548,0.0186887085437775,-0.0138498200103641,-0.00622906163334847,0.0361704267561436
197,0.0150166545063257,0.0697802156209946,0.0170771256089211,-0.0157594420015812,-0.00676137255504727,0.0346603132784367
198,0.0133485738188028,0.0695405155420303,0.0151172848418355,-0.0197398532181978,-0.00738162081688643,0.0328915379941463
199,0.00917276833206415,0.069577544927597,0.0128380078822374,-0.0241560954600573,-0.00845909863710403,0.0323721989989281
200,0.00502863805741072,0.0702141895890236,0.0111489407718182,-0.0264662317931652,-0.0100617837160826,0.0337338112294674
201,0.00370985432527959,0.071701392531395,0.0108578149229288,-0.0258574802428484,-0.0110038435086608,0.0364422239363194
202,0.00371815520338714,0.0729788541793823,0.0104038724675775,-0.0252038259059191,-0.0116007057949901,0.037684541195631
203,0.00249586044810712,0.0733873620629311,0.00843408238142729,-0.0262662470340729,-0.0120740691199899,0.0369146838784218
204,0.00287173106335104,0.0741613879799843,0.00640884507447481,-0.0271108634769917,-0.0104470327496529,0.0371978916227818
205,0.00916638504713774,0.0751011595129967,0.00444650975987315,-0.027363482862711,-0.00787828769534826,0.038319069892168
206,0.0186665095388889,0.0742775127291679,0.00141796621028334,-0.0285325106233358,-0.00756954308599234,0.0367185696959496
207,0.0228450354188681,0.0718528479337692,-0.00108744751196355,-0.0299150906503201,-0.00902248732745647,0.0323222130537033
208,0.0200816914439201,0.0701060965657234,-0.000503508024848998,-0.0292052160948515,-0.0100877033546567,0.0289766620844603
209,0.0155665213242173,0.0700865387916565,0.00288203591480851,-0.0264934170991182,-0.0115699674934149,0.0283054281026125
210,0.011550503782928,0.0712242946028709,0.00657688220962882,-0.0243291947990656,-0.0150079783052206,0.0287930406630039
211,0.0079088481143117,0.0731776803731918,0.00881496164947748,-0.0237155091017485,-0.019151022657752,0.030005119740963
212,0.00467064045369625,0.0757248774170876,0.00939369667321444,-0.0234361123293638,-0.0220836568623781,0.0328114330768585
213,0.00164257967844605,0.0778157785534859,0.00891416892409325,-0.0228122621774673,-0.0226804185658693,0.035979900509119
214,-0.00086281553376466,0.0786152556538582,0.00833541434258223,-0.0216125324368477,-0.0203249566257,0.036793190985918
215,-0.00175019644666463,0.0787283554673195,0.008682562969625,-0.0195285845547915,-0.0160692166537046,0.0347965769469738
216,-0.00083930091932416,0.0790154039859772,0.00978595670312643,-0.0177688933908939,-0.0125960679724813,0.0318727754056454
217,0.000865378184244037,0.079229824244976,0.00991121307015419,-0.0180512294173241,-0.0118692917749286,0.0298592355102301
218,0.00308808707632124,0.0788172110915184,0.00810282304883003,-0.0204389467835426,-0.0136475935578346,0.0288696922361851
219,0.00607675407081842,0.0780853405594826,0.00542934844270349,-0.0224619954824448,-0.0165323875844479,0.0276479255408049
220,0.00923080742359161,0.0776184797286987,0.00353971100412309,-0.0210912618786097,-0.0188355911523104,0.0252927970141172
221,0.0117119839414954,0.0775145143270493,0.00338912871666253,-0.0174307581037283,-0.0187164377421141,0.0221545081585646
222,0.0129846166819334,0.0771991536021233,0.00483553996309638,-0.0157616473734379,-0.0157012492418289,0.0192273296415806
223,0.0125315692275763,0.0762795060873032,0.00736569566652179,-0.0174953117966652,-0.0112803159281611,0.017144687473774
224,0.0103117013350129,0.0749558806419373,0.0103362845256925,-0.0208021160215139,-0.00765464920550585,0.0151343485340476
225,0.00722192460671067,0.0731620043516159,0.0121447620913386,-0.0243973396718502,-0.00625184876844287,0.0115000633522868
226,0.00487744668498635,0.0714418962597847,0.0116554806008935,-0.0275998301804066,-0.00671673426404595,0.00628212885931134
227,0.00460467580705881,0.0709875673055649,0.00943355914205313,-0.0295232087373734,-0.00795404519885778,0.00124380295164883
228,0.00538997910916805,0.0716025084257126,0.00579396868124604,-0.0304704792797565,-0.0102135529741645,-0.00297119887545705
229,0.00519590405747294,0.0722277462482452,0.0014451895840466,-0.0311093926429749,-0.0139735927805305,-0.00643406948074698
230,0.00481444038450718,0.073024608194828,-0.000809079152531922,-0.0306028909981251,-0.0167374424636364,-0.00806500110775232
231,0.00657559977844357,0.0747898668050766,0.000794410239905119,-0.0280442759394646,-0.0155479414388537,-0.00676470808684826
232,0.010586210526526,0.0775198638439178,0.0049372399225831,-0.0238411631435156,-0.0111983884125948,-0.00286043994128704
233,0.0147697562351823,0.0802062004804611,0.00931764394044876,-0.0191719383001328,-0.00635575456544757,0.00169963203370571
234,0.0170987863093615,0.0810160115361214,0.0117377722635865,-0.0159715730696917,-0.00361131667159498,0.0039500598795712
235,0.0172561202198267,0.0786873251199722,0.0108094690367579,-0.0156842730939388,-0.00486013432964683,0.00181927566882223
236,0.0163795556873083,0.0738746896386147,0.007784737739712,-0.0170235577970743,-0.00921613816171885,-0.00379683263599873
237,0.0148596363142133,0.0677455067634583,0.0050693703815341,-0.0187210161238909,-0.0142053943127394,-0.0105592906475067
238,0.0124410632997751,0.060765165835619,0.00345888012088835,-0.0217520501464605,-0.0181602574884892,-0.0167820323258638
239,0.00994241703301668,0.0536997653543949,0.00290699186734855,-0.025511747226119,-0.0197724048048258,-0.0205831732600927
240,0.00819365028291941,0.0474696084856987,0.00329825421795249,-0.027454599738121,-0.0189234837889671,-0.0213325768709183
241,0.0072820745408535,0.0422130972146988,0.00401633139699697,-0.0262997262179852,-0.0175842382013798,-0.020154532045126
242,0.00713661080226302,0.037530604749918,0.00437139393761754,-0.0230688918381929,-0.0170811433345079,-0.0178054962307215
243,0.00779775436967611,0.0332865156233311,0.00426906859502196,-0.0196408033370972,-0.0161635261029005,-0.014677899889648
244,0.00902198906987906,0.0292231570929289,0.00363576249219477,-0.0172093193978071,-0.0140556404367089,-0.0115808807313442
245,0.00961961317807436,0.024383308365941,0.0023649325594306,-0.0161565355956554,-0.012279013171792,-0.00935293547809124
246,0.008827387355268,0.0185741297900677,0.00128458498511463,-0.0156367048621178,-0.0118290996178985,-0.00740239722654223
247,0.00689324736595154,0.0122357970103621,0.000658313161693513,-0.0149076571688056,-0.012116277590394,-0.00479857716709375
248,0.00402033608406782,0.00494755106046796,-0.000515839084982872,-0.0146073019132018,-0.0126267923042178,-0.00237104413099587
249,0.00139680772554129,-0.00294703780673444,-0.00191343936603516,-0.0142601681873202,-0.0128564769402146,-0.000156031339429319
250,0.00081046752166003,-0.00981099344789982,-0.00189042941201478,-0.0118500431999564,-0.0109340697526932,0.00379902170971036
251,0.00181494175922126,-0.0153345093131065,-0.000628732552286237,-0.00751965586096048,-0.00608966313302517,0.00935049541294575
252,0.00285900058224797,-0.0203572958707809,0.000256621919106692,-0.003278280608356,-0.000908007204998285,0.0143886581063271
253,0.00403681024909019,-0.0249666422605515,0.000864494766574353,0.000235714964219369,0.00190995691809803,0.0183981973677874
254,0.00586457271128893,-0.0289153046905994,0.00281003443524241,0.00341730075888336,0.00239782151766121,0.0215985588729382
255,0.00723735149949789,-0.0325434245169163,0.00592039152979851,0.00598901603370905,0.00229254714213312,0.0236156620085239
256,0.00698816729709506,-0.0361814983189106,0.00831281300634146,0.00788930244743824,0.00294589367695153,0.0252076834440231
257,0.00539492163807154,-0.0400018841028214,0.00906903203576803,0.00963803101330996,0.00399547116830945,0.027537515386939
258,0.00330511247739196,-0.0444036461412907,0.00836416520178318,0.0111977327615023,0.00394895859062672,0.0299789793789387
259,0.00103662326000631,-0.0495862551033497,0.00629174569621682,0.0118445185944438,0.00236545316874981,0.0308467335999012
260,-0.000610046845395118,-0.0545114204287529,0.00408322690054774,0.0121996151283383,0.00115356757305563,0.0301615875214338
261,-0.000488695921376348,-0.0578548386693001,0.003677012398839,0.0136220185086131,0.00142487976700068,0.0297648292034864
262,0.000378510536393151,-0.0601487457752228,0.00443084537982941,0.0150730358436704,0.000948984117712826,0.0309596043080091
263,0.000984973507001996,-0.06185557320714,0.00560051249340177,0.0165805593132973,-0.000637803692370653,0.0352839566767216
264,0.00118001457303762,-0.062980905175209,0.00749030103906989,0.0193936247378588,-0.00100192986428738,0.0424448139965534
265,-0.000331126298988238,-0.0646777600049973,0.00852556619793177,0.0217358507215977,0.000128717234474607,0.048416294157505
266,-0.00384737085551023,-0.0679020211100578,0.00702270353212953,0.0217790510505438,0.00119445309974253,0.0502306818962097
267,-0.00743339629843831,-0.0722805038094521,0.00355556327849627,0.020726578310132,0.000357551878551021,0.049046203494072
268,-0.00884981080889702,-0.0762557312846184,0.000418529147282243,0.0205877367407084,-0.00194545101840049,0.0476717762649059
269,-0.00794503558427095,-0.078836977481842,-0.000517502659931779,0.0214442256838083,-0.00225076545029879,0.0471134595572948
270,-0.00666399952024221,-0.0804647728800774,0.00083595875184983,0.0224080216139555,0.00153962278272957,0.0469058193266392
271,-0.00673071481287479,-0.0822004377841949,0.00262732012197375,0.0222673546522856,0.00715641863644123,0.0457778312265873
272,-0.0085715763270855,-0.0849737077951431,0.00183835404459387,0.0194999407976866,0.00986065529286861,0.0423054322600365
273,-0.0115032754838467,-0.0886546447873116,-0.00253455503843725,0.0150330532342196,0.00702182436361909,0.0375980027019978
274,-0.0150026129558682,-0.0925870388746262,-0.00912585761398077,0.0109019624069333,-0.000669019005727023,0.0336322151124477
275,-0.0193863790482283,-0.0968555361032486,-0.0168582405894995,0.00686920015141368,-0.0110286874696612,0.0299293417483568
276,-0.0231624040752649,-0.100921809673309,-0.0235640667378902,0.0035160081461072,-0.0196458920836449,0.0266292225569487
277,-0.0234361793845892,-0.103020526468754,-0.0263036396354437,0.00308904517441988,-0.0224225949496031,0.0260762646794319
278,-0.0204646922647953,-0.10265638679266,-0.0254347901791334,0.00528620835393667,-0.0205809567123652,0.0286221206188202
279,-0.0165704786777496,-0.10048945993185,-0.0230858847498894,0.00848566554486752,-0.0174768082797527,0.0327333249151707
280,-0.0133386654779315,-0.0973737686872482,-0.0208031814545393,0.0117393732070923,-0.0146307311952114,0.0366209596395493
281,-0.0114471279084682,-0.0942849069833755,-0.0192648563534021,0.0144953140988946,-0.0121931461617351,0.0385797768831253
282,-0.0104655474424362,-0.0915133655071259,-0.0174978394061327,0.0166029278188944,-0.00987396016716957,0.0389985740184784
283,-0.0101026762276888,-0.0893489643931389,-0.0153191462159157,0.0171638261526823,-0.00827146787196398,0.0392008386552334
284,-0.010653312318027,-0.0886233821511269,-0.0141981448978186,0.0151882963255048,-0.00804608222097158,0.0389866791665554
285,-0.0119001483544707,-0.0892272889614105,-0.014493596740067,0.0112997312098742,-0.00855671521276236,0.0377708896994591
286,-0.0128483837470412,-0.0895802900195122,-0.0150519115850329,0.00780753465369344,-0.008714959025383,0.0365140065550804
287,-0.0132156955078244,-0.088762991130352,-0.0152383912354708,0.00632689939811826,-0.00848753098398447,0.0365385562181473
288,-0.0144871566444635,-0.0875929147005081,-0.0158123206347227,0.00591533305123448,-0.00912884250283241,0.0373765826225281
289,-0.017461821436882,-0.0870287269353867,-0.0171356219798326,0.00532875675708056,-0.0112907076254487,0.0378005988895893
290,-0.0206198561936617,-0.0870443284511566,-0.0184848606586456,0.00475605903193355,-0.0139431711286306,0.0377462357282639
291,-0.0221642088145018,-0.0869863927364349,-0.0193113796412945,0.00457180291414261,-0.0157571118324995,0.0379352420568466
292,-0.0220926776528358,-0.0867132842540741,-0.0200207084417343,0.00417226273566484,-0.0167626272886992,0.038172572851181
293,-0.0210748668760061,-0.0863647013902664,-0.0208401884883642,0.00336407218128443,-0.0173634570091963,0.0379927642643452
294,-0.0191841963678598,-0.0855909138917923,-0.020848335698247,0.00321385404095054,-0.0174791198223829,0.038102101534605
295,-0.0175208635628223,-0.0849105194211006,-0.0206742063164711,0.00308995298109949,-0.0181747786700726,0.0382352992892265
296,-0.0177206546068192,-0.0851278826594353,-0.0222411379218102,0.00121955422218889,-0.020289707928896,0.0369558222591877
297,-0.0195099152624607,-0.0855670347809792,-0.0249794460833073,-0.00122859398834407,-0.0224395580589771,0.0344705283641815
298,-0.021116903051734,-0.0850835070014,-0.0263414606451988,-0.00167389260604978,-0.0230815839022398,0.0329110473394394
299,-0.0214281622320414,-0.0832524597644806,-0.0251494944095612,0.000527266063727438,-0.0224191583693028,0.0347671024501324
300,-0.0205443538725376,-0.081090621650219,-0.022643631324172,0.00400767521932721,-0.0217030346393585,0.0398376658558846
301,-0.0198960248380899,-0.0810659974813461,-0.0211077537387609,0.00571530777961016,-0.0222845450043678,0.0436701849102974
302,-0.0204221364110708,-0.0837604254484177,-0.0211758818477392,0.00430404208600521,-0.0241050142794847,0.0436327531933784
303,-0.0208947565406561,-0.086697019636631,-0.0215424261987209,0.00204806588590145,-0.0258880350738764,0.0422817096114159
304,-0.0210486836731434,-0.0882749110460281,-0.0217688027769327,0.000712602224666625,-0.0278682392090559,0.0416607484221458
305,-0.0213221460580826,-0.0885012298822403,-0.0214626509696245,0.000919934245757759,-0.0299229212105274,0.0420904718339443
306,-0.0215068142861128,-0.0875632464885712,-0.0201140716671944,0.00283789914101362,-0.0306719299405813,0.043848168104887
307,-0.0225670542567968,-0.0864447876811028,-0.0188242476433516,0.00461782515048981,-0.0305551458150148,0.0456079095602036
308,-0.0249855052679777,-0.0859147608280182,-0.0180154778063297,0.00489260442554951,-0.0297010187059641,0.0459800958633423
309,-0.0274121630936861,-0.085412509739399,-0.0172014329582453,0.00455386657267809,-0.026701994240284,0.0455920770764351
310,-0.0285445638000965,-0.0845861285924912,-0.0171679258346558,0.0040652141906321,-0.0223948545753956,0.0450459308922291
311,-0.0278827119618654,-0.0838541015982628,-0.0186391063034534,0.00318473158404231,-0.0191510897129774,0.0441266782581806
312,-0.0261499453336,-0.0839499682188034,-0.0214409735053778,0.00159957550931722,-0.0184521917253733,0.0426438339054585
313,-0.0250695832073689,-0.0852808430790901,-0.0252536423504353,-0.00113376812078059,-0.0208806674927473,0.0406414978206158
314,-0.0246229991316795,-0.0866250470280647,-0.0285406149923801,-0.00368624133989215,-0.0241988841444254,0.0392262935638428
315,-0.0238095223903656,-0.0870061814785004,-0.0298664532601833,-0.0048284768126905,-0.0254717785865068,0.0387037396430969
316,-0.0231450293213129,-0.0872064605355263,-0.0296186823397875,-0.00540873454883695,-0.0250400062650442,0.0378687046468258
317,-0.0229591336101294,-0.0877734422683716,-0.0281201750040054,-0.00562050752341747,-0.0239167902618647,0.03662234172225
318,-0.0220758281648159,-0.0879734307527542,-0.0253027081489563,-0.00412467308342457,-0.0219758450984955,0.0361486785113811
319,-0.0197108015418053,-0.0872105732560158,-0.0218940004706383,-0.000785487587563694,-0.0197757575660944,0.0369620360434055
320,-0.0173612087965012,-0.0865341126918793,-0.0193370059132576,0.00150318047963083,-0.0189480260014534,0.0377528965473175
321,-0.0161760654300451,-0.0863944664597511,-0.0177226401865482,0.00125398603267968,-0.0196279305964708,0.0382457040250301
322,-0.0149468006566167,-0.0854215398430824,-0.015397279523313,0.000898093683645129,-0.0200131740421057,0.0400646813213825
323,-0.0139002650976181,-0.083760529756546,-0.0132451541721821,0.00115336093585938,-0.020594134926796,0.0423007309436798
324,-0.0147800836712122,-0.083252340555191,-0.0141652701422572,1.85904773388756E-05,-0.0232767146080732,0.0419605933129787
325,-0.0162774994969368,-0.0837423205375671,-0.0171684436500072,-0.00191737525165081,-0.0262256041169167,0.0391586311161518
326,-0.015499603934586,-0.0832307934761047,-0.0185676608234644,-0.00201442511752248,-0.0256856083869934,0.036763209849596
327,-0.0129833165556192,-0.0816089436411858,-0.0179283879697323,-0.000324011343764141,-0.0220116544514894,0.0355757996439934
328,-0.0112660713493824,-0.0805797278881073,-0.0175135340541601,0.00103183265309781,-0.0194785911589861,0.0343432538211346
329,-0.0106324022635818,-0.0805567130446434,-0.0181628204882145,0.00117441429756582,-0.0203141793608665,0.0327418521046638
330,-0.0101961940526962,-0.0808710306882858,-0.0195908900350332,0.000355544150806963,-0.0233518835157156,0.0310165639966726
331,-0.00937893055379391,-0.080745205283165,-0.0213471781462431,-0.000612331030424684,-0.0266136042773724,0.0295402333140373
332,-0.00739312916994095,-0.0789230540394783,-0.0222023352980614,-0.000349934038240463,-0.0287209693342447,0.0293669030070305
333,-0.00529011758044362,-0.0757920444011688,-0.0226415917277336,-1.09154980236781E-05,-0.0306195337325335,0.0293362829834223
334,-0.00509990844875574,-0.0730421245098114,-0.0245912410318851,-0.00235577928833663,-0.0329009555280209,0.02675586566329
335,-0.00651322724297643,-0.0704142451286316,-0.0273228883743286,-0.00642715906724334,-0.0335419327020645,0.022565521299839
336,-0.00746282236650586,-0.066560298204422,-0.0280906390398741,-0.00864831171929836,-0.0312833152711391,0.020176874473691
337,-0.00651127472519875,-0.0613952092826366,-0.025645699352026,-0.00749679235741496,-0.0270319860428572,0.020894942805171
338,-0.00444772560149431,-0.0564423650503159,-0.0216260738670826,-0.00477400561794639,-0.0227668173611164,0.023101219907403
339,-0.00332161830738187,-0.0530470386147499,-0.0188130047172308,-0.00330284447409213,-0.0202030595391989,0.0243764463812113
340,-0.00428223935887218,-0.0508917681872845,-0.0183878410607576,-0.00420364132151008,-0.0198344737291336,0.0234112460166216
341,-0.00637879408895969,-0.0489212274551392,-0.0188515055924654,-0.00559516716748476,-0.0202472135424614,0.0210903119295835
342,-0.00746546080335975,-0.0466336831450462,-0.0182561241090298,-0.00521815754473209,-0.0197255033999681,0.0187961459159851
343,-0.00734728621318936,-0.0444736629724503,-0.0174691136926413,-0.00503916200250387,-0.0195826478302479,0.0158603936433792
344,-0.00850678794085979,-0.0431775227189064,-0.0193079132586718,-0.00873282551765442,-0.0224099420011044,0.0116157317534089
345,-0.0111551806330681,-0.0422635860741138,-0.0230251830071211,-0.0147604597732425,-0.0264266170561314,0.00784847233444452
346,-0.0125871188938618,-0.0402784198522568,-0.0246446691453457,-0.0182182807475328,-0.0277480445802212,0.00661114882677794
347,-0.0122724119573832,-0.0367465056478977,-0.0234431754797697,-0.0177611652761698,-0.0266780890524387,0.00779393501579762
348,-0.0107711600139737,-0.0322981663048267,-0.0206753183156252,-0.0150018027052283,-0.0247394312173128,0.010317332111299
349,-0.00836083944886923,-0.0279865115880966,-0.0170030407607555,-0.0119390618056059,-0.0224193688482046,0.0127153471112251
350,-0.00620466005057096,-0.0245657116174698,-0.0139325996860862,-0.0105835115537047,-0.0213105250149965,0.0131001928821206
351,-0.00508855236694217,-0.0214738696813583,-0.0126818800345063,-0.0114302560687065,-0.0223066639155149,0.0111629813909531
352,-0.00471267756074667,-0.0176984257996082,-0.0126107791438699,-0.0131753822788596,-0.0239382740110159,0.00832146219909191
353,-0.00441604992374778,-0.0132300825789571,-0.01241843868047,-0.0143360672518611,-0.0246512591838837,0.00582485506311059
354,-0.00440992461517453,-0.00856222491711378,-0.0121285477653146,-0.0147148007526994,-0.0246862098574638,0.00406315783038735
355,-0.00516369612887502,-0.00384038663469255,-0.0119631495326757,-0.0147907184436917,-0.0243269987404346,0.00294165802188218
356,-0.00629396690055728,0.000771082064602524,-0.0111979451030493,-0.0146624222397804,-0.0229100007563829,0.00258258427493274
357,-0.00674566486850381,0.00456011248752475,-0.00975007098168135,-0.0144211743026972,-0.0205006673932076,0.00306911347433925
358,-0.00494279759004712,0.00681280205026269,-0.00859445240348578,-0.0141672510653734,-0.0181263443082571,0.00398740032687783
359,-0.000444322271505371,0.00774966832250357,-0.00807007774710655,-0.0132604250684381,-0.0163442920893431,0.00538114458322525
360,0.00390069629065692,0.00748238014057279,-0.00847005285322666,-0.0119124157354236,-0.0162176135927439,0.00663819443434477
361,0.00523187452927232,0.00614049425348639,-0.0105280140414834,-0.0113821737468243,-0.0184746477752924,0.00651405286043882
362,0.00532373739406466,0.00563437957316637,-0.0127209695056081,-0.0109746111556888,-0.0200888551771641,0.00609077047556639
363,0.00667416676878929,0.00738060753792524,-0.0131331942975521,-0.0102107180282474,-0.0183356273919344,0.00682977586984634
364,0.00795126985758543,0.00996531173586845,-0.0133697083219886,-0.0114068500697613,-0.0158508885651827,0.00735989771783352
365,0.00721840932965279,0.0116694113239646,-0.0155655760318041,-0.0159687772393227,-0.0163433235138655,0.00570064457133412
366,0.00541597511619329,0.0127894580364227,-0.0186302196234465,-0.021874975413084,-0.0195156186819077,0.00248751323670149
367,0.00433856621384621,0.0140423011034727,-0.0208451524376869,-0.0269080214202404,-0.0232815593481064,-0.00086825923062861
368,0.00404208432883024,0.0152052147313952,-0.0223658364266157,-0.0312333554029465,-0.0267532095313072,-0.00478988187387586
369,0.00367123377509415,0.0164245069026947,-0.0238550249487162,-0.035470262169838,-0.0295870155096054,-0.00921226572245359
370,0.0028874957934022,0.0185886304825544,-0.0254255533218384,-0.0392292588949203,-0.0318307466804981,-0.0126163884997368
371,0.00167323800269514,0.0217227023094893,-0.0271289702504873,-0.0421269163489342,-0.0342066287994385,-0.0149499718099833
372,-0.000318472710205242,0.025179635733366,-0.0290982834994793,-0.0442852787673473,-0.0369498170912266,-0.0174125954508781
373,-0.00288778566755354,0.0288396999239922,-0.0305999759584665,-0.0455610007047653,-0.0391997247934341,-0.0198723673820496
374,-0.00443162024021149,0.0328483767807484,-0.0302627123892307,-0.0453193672001362,-0.0403361096978188,-0.0208128467202187
375,-0.00375800463370979,0.0375705026090145,-0.027650885283947,-0.0432673580944538,-0.0403172932565212,-0.0189326722174883
376,-0.00130122026894242,0.0431249216198921,-0.0235941670835018,-0.0398761108517647,-0.0388964340090752,-0.0144834751263261
377,0.00154046167153865,0.0483897775411606,-0.0196905881166458,-0.0367227606475353,-0.0366384424269199,-0.00967161636799574
378,0.00278689945116639,0.0519007332623005,-0.0179631132632494,-0.0359197594225407,-0.0355472825467587,-0.00704877404496074
379,0.00127757177688181,0.0533111728727818,-0.0196235589683056,-0.0378361083567142,-0.0372633188962936,-0.00725764501839876
380,-0.00246891658753157,0.0532619394361973,-0.0242421254515648,-0.0411771014332771,-0.0415745750069618,-0.0097933653742075
381,-0.00678160693496466,0.0528413839638233,-0.0298097562044859,-0.0441017337143421,-0.0465242899954319,-0.0138635607436299
382,-0.00923106539994478,0.0532223433256149,-0.0328577123582363,-0.0444167293608189,-0.0488651692867279,-0.0171267744153738
383,-0.00909613072872162,0.0548189021646976,-0.0319525897502899,-0.0420201532542706,-0.0472679436206818,-0.0172311719506979
384,-0.00856845639646053,0.0569508597254753,-0.0297306571155787,-0.0394500643014908,-0.0441761836409569,-0.0145791163668036
385,-0.00894008297473192,0.0588759817183018,-0.0281798783689737,-0.0382926687598228,-0.0411476567387581,-0.0110979042947292
386,-0.00959087535738945,0.0603181309998035,-0.0269909352064133,-0.0380616635084152,-0.038185141980648,-0.00825190450996161
387,-0.01000492926687,0.0612770430743694,-0.025580732151866,-0.0377459190785885,-0.0361862629652023,-0.0068956483155489
388,-0.00995798874646425,0.0617691613733768,-0.0236261207610369,-0.037092637270689,-0.0355040989816189,-0.00734100257977843
389,-0.00956566073000431,0.0614460930228233,-0.0215883851051331,-0.0369300656020641,-0.0356405191123486,-0.00948523916304111
390,-0.00908257905393839,0.0599326454102993,-0.0201374627649784,-0.0379795916378498,-0.0359802059829235,-0.012924499809742
391,-0.00864035915583372,0.0574904158711433,-0.0191046465188265,-0.0394463911652565,-0.0358162522315979,-0.0164682287722826
392,-0.0087407361716032,0.0548970997333527,-0.0181838888674974,-0.0401651561260223,-0.0356587283313274,-0.0190831478685141
393,-0.00982293765991926,0.053249329328537,-0.0175839867442846,-0.0398144498467445,-0.0375415794551373,-0.0204924903810024
394,-0.0108606936410069,0.0536821819841862,-0.0170788150280714,-0.0380240194499493,-0.0413990840315819,-0.0198452770709991
395,-0.0103190205991268,0.0561370849609375,-0.0161876585334539,-0.035319946706295,-0.044403187930584,-0.016920069232583
396,-0.00886251032352448,0.0589643642306328,-0.0156879723072052,-0.0337424203753471,-0.0455368123948574,-0.0137553615495563
397,-0.00858507864177227,0.060589499771595,-0.0165116153657436,-0.0344355069100857,-0.0457119271159172,-0.0125400200486183
398,-0.0093084778636694,0.0612593181431293,-0.016871428117156,-0.0355487130582333,-0.0439512096345425,-0.0123256649821997
399,-0.00931400246918201,0.0621573738753796,-0.0148714203387499,-0.034545537084341,-0.0398247763514519,-0.011115999892354
400,-0.00894508138298988,0.0636502504348755,-0.012263092212379,-0.0319526270031929,-0.0367888584733009,-0.00971764326095581
401,-0.00915528275072575,0.0654301196336746,-0.0108651453629136,-0.0300352685153484,-0.0367303267121315,-0.00936361402273178
402,-0.00952502153813839,0.0668959692120552,-0.0101263076066971,-0.0297774691134691,-0.0370443947613239,-0.00917948130518198
403,-0.00987267214804888,0.0669890865683556,-0.00958235282450914,-0.0309840310364962,-0.036213330924511,-0.0081693846732378
404,-0.0099700428545475,0.0651738196611404,-0.00905816443264484,-0.0327633060514927,-0.0348019748926163,-0.00689876638352871
405,-0.00908851437270641,0.0620795004069805,-0.00811984296888113,-0.0336233228445053,-0.0321778543293476,-0.00654236972332001
406,-0.00774414325132966,0.05861746519804,-0.00707034347578883,-0.0330661237239838,-0.0280892830342054,-0.00730964820832014
407,-0.00759680708870292,0.0553595386445522,-0.00659974431619048,-0.0321259461343288,-0.0243863202631474,-0.00843085069209337
408,-0.00972574856132269,0.0523757636547089,-0.00698021613061428,-0.0322015434503555,-0.0223609711974859,-0.00954241678118706
409,-0.0131437843665481,0.0498177818953991,-0.00780029920861125,-0.0334734730422497,-0.0213105157017708,-0.0105690034106374
410,-0.014649742282927,0.0486419871449471,-0.0073039005510509,-0.0335336439311504,-0.019489012658596,-0.0100453179329634
411,-0.012155793607235,0.0493674017488956,-0.00427811266854405,-0.0301328208297491,-0.0159612856805325,-0.00632093288004398
412,-0.00673252157866955,0.050744216889143,-0.000192054401850328,-0.0243697594851255,-0.0119719970971346,-0.000250504934228957
413,-0.000864454254042357,0.051361870020628,0.00270426739007235,-0.0186807792633772,-0.00926052965223789,0.0057023256085813
414,0.00263275904580951,0.050984863191843,0.00325441523455083,-0.0145562440156937,-0.00953352358192205,0.00985618960112333
415,0.00292129721492529,0.0498179905116558,0.00218523433431983,-0.0118660070002079,-0.0133409621194005,0.0125757148489356
416,0.00128209951799363,0.0477213636040688,0.000485109689179808,-0.0107134664431214,-0.018738953396678,0.0143447387963533
417,-0.00154195760842413,0.0444614887237549,-0.00201199087314308,-0.0124035803601146,-0.0227109659463167,0.0142638515681028
418,-0.00330905988812447,0.0415792390704155,-0.00319712283089757,-0.0148238381370902,-0.0215292181819677,0.0138171063736081
419,-0.00205162167549133,0.0403373688459396,-0.00105251453351229,-0.0150119550526142,-0.0152089977636933,0.0147815747186542
420,0.000298690953059122,0.0395535491406918,0.00256996555253863,-0.0134750790894032,-0.00881690625101328,0.0157250836491585
421,0.00182069162838161,0.0382157899439335,0.00594675028696656,-0.010847651399672,-0.00489157903939486,0.0157863367348909
422,0.00231181504204869,0.0359003208577633,0.00868489779531956,-0.00832801684737206,-0.00218998617492616,0.0155457854270935
423,0.00243699993006885,0.0329330936074257,0.010386367328465,-0.00736221531406045,0.000493886938784271,0.0163066647946835
424,0.00319626112468541,0.0301671512424946,0.0105251623317599,-0.00771078700199723,0.00306887505576015,0.0187635812908411
425,0.00421838648617268,0.0272100679576397,0.00873010884970427,-0.00883741863071918,0.00441449042409658,0.0215062964707613
426,0.00481301872059703,0.023049496114254,0.00588641176000237,-0.00998046901077032,0.00429466227069497,0.0227866005152464
427,0.00436863536015153,0.0172953549772501,0.0027564421761781,-0.0110333012416959,0.00290729524567723,0.0214074458926916
428,0.00260759005323052,0.0111433221027255,-0.000621811836026609,-0.0122625390067697,-0.000190605511306785,0.0184816159307957
429,0.000363566738087684,0.00623250473290682,-0.00388718349859118,-0.0131926946341991,-0.0050703096203506,0.0166863277554512
430,-0.00215680012479424,0.00244619022123516,-0.00708574429154396,-0.0141731817275286,-0.0114120552316308,0.016192477196455
431,-0.00505580520257354,-0.00074557273183018,-0.0102806026116014,-0.0150924231857061,-0.0177027396857738,0.01651980727911
432,-0.00756184104830027,-0.00277675339020789,-0.0128326611593366,-0.0144138531759381,-0.0218031015247107,0.0186643376946449
433,-0.0093001015484333,-0.00357580999843776,-0.0147545607760549,-0.0124803455546498,-0.0237149130553007,0.0220042765140533
434,-0.0115594705566764,-0.00465048896148801,-0.0175384525209665,-0.0120637603104115,-0.0257145911455154,0.0234148148447275
435,-0.0143986847251654,-0.00641373870894313,-0.0207428615540266,-0.013326901011169,-0.0280852690339088,0.0226562209427357
436,-0.0155763458460569,-0.0074187177233398,-0.0212819967418909,-0.0131868347525597,-0.0279855523258448,0.0236066114157438
437,-0.0145964529365301,-0.00791728589683771,-0.0194162651896477,-0.0115126138553023,-0.0251899398863316,0.0269036553800106
438,-0.0120500447228551,-0.00946347787976265,-0.0182415749877691,-0.0108073307201266,-0.0224245209246874,0.0294238142669201
439,-0.0073030199855566,-0.0117153255268931,-0.0174782257527113,-0.0107102729380131,-0.0199855752289295,0.0305858217179775
440,-0.00136362470220774,-0.0137113630771637,-0.0155603485181928,-0.00984964612871408,-0.0169178210198879,0.0315025299787521
441,0.00256015756167471,-0.0157060138881207,-0.0136010432615876,-0.00889609847217798,-0.0140929212793708,0.0319714806973934
442,0.00374274724163115,-0.0173579957336187,-0.0120721748098731,-0.00753950700163841,-0.0116572976112366,0.0327602922916412
443,0.00417019100859761,-0.0177754871547222,-0.0101714348420501,-0.0048882351256907,-0.00947067141532898,0.0350545383989811
444,0.00422498071566224,-0.0181219354271889,-0.00922153797000647,-0.00291180796921253,-0.00957165751606226,0.0370789133012295
445,0.00275784055702388,-0.0206061508506536,-0.0109316380694509,-0.00384505558758974,-0.0126901715993881,0.0364921912550926
446,0.000219743291381747,-0.0251581445336342,-0.0143347289413214,-0.00622277148067951,-0.0165923107415438,0.0342769734561443
447,-0.00200379849411547,-0.0297223199158907,-0.0173722337931395,-0.00692074419930577,-0.0200530625879765,0.0327457040548325
448,-0.00374065618962049,-0.0330655984580517,-0.0188325420022011,-0.00526076694950461,-0.0234114062041044,0.0323921144008636
449,-0.00423925509676337,-0.0347068756818771,-0.0176413785666227,-0.00222718715667725,-0.0251748058944941,0.0337813310325146
450,-0.00188708130735904,-0.033941026777029,-0.0132975094020367,0.00214018137194216,-0.0231483913958073,0.0384514257311821
451,0.00214154087007046,-0.0314974822103977,-0.0079323947429657,0.00703479908406734,-0.0186024140566587,0.045161709189415
452,0.00422225845977664,-0.0297172460705042,-0.00526652717962861,0.00960694625973701,-0.0153065454214811,0.0498600974678993
453,0.00263987551443279,-0.0300011951476336,-0.00666268635541201,0.00823131948709488,-0.0150776635855436,0.0502860434353352
454,-0.000833462458103895,-0.0312083885073662,-0.0095770601183176,0.00511793605983257,-0.0161236450076103,0.0484843775629997
455,-0.00396698107942939,-0.0313962735235691,-0.0113537339493632,0.00335886469110847,-0.0161987375468016,0.0477860979735851
456,-0.00692054023966193,-0.0309323910623789,-0.0127234850078821,0.00251356279477477,-0.0160057097673416,0.0479280687868595
457,-0.00973749533295631,-0.0313570499420166,-0.0145999388769269,0.00107283506076783,-0.0166501011699438,0.0469818897545338
458,-0.010947160422802,-0.0327056981623173,-0.0158677697181702,-0.000292907527182251,-0.0172438882291317,0.0450389720499516
459,-0.0106344828382134,-0.0342273786664009,-0.0161197725683451,-0.000908183807041496,-0.0175661481916904,0.0429682806134224
460,-0.0100336698815227,-0.0354317873716354,-0.0159962605684996,-0.000784174830187112,-0.0182310771197081,0.0415273308753967
461,-0.00921554118394852,-0.0359307527542114,-0.015372253023088,0.000661323021631688,-0.017830653116107,0.0414820201694965
462,-0.0078624552115798,-0.0355325490236282,-0.0133536998182535,0.00385553645901382,-0.0144684687256813,0.0428842641413212
463,-0.00680565647780895,-0.035162940621376,-0.0102390591055155,0.00735411932691932,-0.00987708102911711,0.0445185340940952
464,-0.00663347030058503,-0.0361451432108879,-0.00758081069216132,0.00938499718904495,-0.00767897581681609,0.0451880693435669
465,-0.00567767070606351,-0.037847600877285,-0.00531379831954837,0.0106967417523265,-0.00816050171852112,0.0456568598747253
466,-0.00310726859606802,-0.0387709550559521,-0.00258112838491797,0.0127431033179164,-0.00968483835458755,0.0473395176231861
467,-0.00124338979367167,-0.0387142710387707,8.04401570349E-05,0.0152693828567863,-0.0119140530005097,0.0499197728931904
468,-0.00189078191760927,-0.03830910846591,0.00226694624871016,0.0172011982649565,-0.0139468275010586,0.0516870953142643
469,-0.00451571028679609,-0.0382630154490471,0.00362212327308953,0.0175992045551538,-0.0144150219857693,0.0513794347643852
470,-0.00738050043582916,-0.0385118834674358,0.00374099030159414,0.016702938824892,-0.0126394256949425,0.0497348681092262
471,-0.00879866816103458,-0.0385158844292164,0.00320008001290262,0.0156946834176779,-0.0090926056727767,0.0483642928302288
472,-0.00852637458592653,-0.0383985303342342,0.00219376338645816,0.0148320756852627,-0.0060917898081243,0.0475337319076061
473,-0.00722523359581828,-0.0383096970617771,0.000827773765195161,0.0142571954056621,-0.00488091865554452,0.0469053275883198
474,-0.00596301769837737,-0.0382821075618267,-0.00017247129289899,0.0146912392228842,-0.00460550468415022,0.0462975241243839
475,-0.00613782880827785,-0.0392389409244061,-0.00111558847129345,0.0151484161615372,-0.00535994581878185,0.0445549301803112
476,-0.00748911499977112,-0.0416348539292812,-0.00269782147370279,0.0138226011767983,-0.00803638901561499,0.040956724435091
477,-0.00785247143357992,-0.0437287949025631,-0.00408322969451547,0.0117001393809915,-0.0112624680623412,0.037151612341404
478,-0.0065954108722508,-0.0440633483231068,-0.00412762770429254,0.0108176926150918,-0.0120535828173161,0.0346528179943562
479,-0.00558601273223758,-0.043812558054924,-0.00333041767589748,0.0110584711655974,-0.00969298649579287,0.0331831723451614
480,-0.00567097822204232,-0.0444017313420773,-0.00287598557770252,0.0112388981506228,-0.00569741241633892,0.0321367904543877
481,-0.00534806214272976,-0.045336939394474,-0.002779854927212,0.0108387200161815,-0.000965726561844349,0.0314957909286022
482,-0.00444252090528607,-0.0457854270935059,-0.00297715817578137,0.0099308080971241,0.00255805323831737,0.0312655493617058
483,-0.0048682289198041,-0.0455955043435097,-0.00397360790520906,0.00913474150002003,0.00184646563138813,0.0311787519603968
484,-0.00764079811051488,-0.0449251048266888,-0.0054027047008276,0.00878829881548882,-0.00325393932871521,0.0307499766349792
485,-0.0112579204142094,-0.0442097596824169,-0.00596491293981671,0.00839332677423954,-0.0102055389434099,0.0293252188712358
486,-0.0130642494186759,-0.0437145382165909,-0.00514083309099078,0.00773354526609182,-0.0164760425686836,0.0269035920500755
487,-0.0125574115663767,-0.0429745763540268,-0.00348053127527237,0.00704421894624829,-0.0206640083342791,0.02435003221035
488,-0.0114030549302697,-0.041188407689333,-0.00160761317238212,0.00675825355574489,-0.0224988050758839,0.0228700302541256
489,-0.0117721762508154,-0.0387943685054779,-0.000967275816947222,0.00641558086499572,-0.023006534203887,0.0222983919084072
490,-0.0136302905157208,-0.0365841314196587,-0.00179929949808866,0.00597505876794457,-0.0225073099136353,0.0218372251838446
491,-0.01469895709306,-0.0344000868499279,-0.0022734897211194,0.00682880030944943,-0.0202303975820541,0.021610863506794
492,-0.0144402356818318,-0.0325730033218861,-0.00194520479999483,0.00830412190407515,-0.0170454084873199,0.0206828527152538
493,-0.0141084995120764,-0.031850840896368,-0.00216866284608841,0.00758459977805614,-0.0149390185251832,0.01702581346035
494,-0.0134636024013162,-0.0312872007489204,-0.00332555710338056,0.00497028417885304,-0.0140242567285895,0.0112953502684832
495,-0.0118787260726094,-0.0298509523272514,-0.00483856769278646,0.00313673913478851,-0.0140294078737497,0.00545685272663832
496,-0.0108409896492958,-0.0285121761262417,-0.00651254272088408,0.00197503203526139,-0.0159483402967453,-0.000376550015062094
497,-0.01095384452492,-0.0275037176907063,-0.00730660418048501,0.000623901141807437,-0.0185781084001064,-0.00481512164697051
498,-0.0108550572767854,-0.0260566100478172,-0.00628490652889013,-0.000283613422652707,-0.0193449500948191,-0.00602252967655659
499,-0.0100650191307068,-0.024809006601572,-0.00456237886101007,-0.000833059486467391,-0.0180526915937662,-0.00557193299755454
500,-0.0091368118301034,-0.0247580744326115,-0.00401638820767403,-0.00177266681566834,-0.0161205679178238,-0.00579343503341079
501,-0.00748975807800889,-0.0248525347560644,-0.00417719781398773,-0.0020474037155509,-0.0134632894769311,-0.00564824556931853
502,-0.00472871214151382,-0.0235388446599245,-0.00318641890771687,-0.000463384611066431,-0.00940699689090252,-0.0033257226459682
503,-0.00202635675668716,-0.0207196809351444,-0.000997221912257373,0.00200749631039798,-0.00499469786882401,0.000305253633996472
504,-0.000243062240770087,-0.0169201623648405,0.00094985036412254,0.00365623389370739,-0.00164856587070972,0.00322712119668722
505,-0.000297445891192183,-0.0132305277511477,0.000673488306347281,0.00264466786757112,-0.00116391410119832,0.00351869687438011
506,-0.0027429754845798,-0.0105064958333969,-0.00247693108394742,-0.00151829782407731,-0.0050609796307981,0.000533533515408635
507,-0.00630924478173256,-0.00839442759752274,-0.00711276615038514,-0.00689014280214906,-0.0121677182614803,-0.00410100957378745
508,-0.00937367510050535,-0.00615118257701397,-0.011546490713954,-0.0110834464430809,-0.0187653601169586,-0.00807449501007795
509,-0.0104614654555917,-0.00292454962618649,-0.0134329395368695,-0.0119629325345159,-0.0206287875771523,-0.00926772225648165
510,-0.00878549832850695,0.00168077612761408,-0.0114036882296205,-0.00896911602467299,-0.0169146694242954,-0.00679316418245435
511,-0.00551199587062001,0.00674294680356979,-0.00739171216264367,-0.00435412302613258,-0.0114287603646517,-0.00229566870257258
512,-0.00196563242934644,0.0113074276596308,-0.00378616573289037,-0.0002786185068544,-0.00779973994940519,0.00207632221281528
513,0.000606460846029222,0.014705391600728,-0.00175941898487508,0.0019488699035719,-0.00670013856142759,0.00456401146948338
514,0.000583750836085528,0.0162551067769527,-0.00169499521143734,0.00155802571680397,-0.00758145097643137,0.0040076388977468
515,-0.00127872684970498,0.0165367294102907,-0.00276895193383098,-9.22127874218859E-05,-0.00913208909332752,0.000887904956471175
516,-0.00274479063227773,0.0165660213679075,-0.00409063836559653,-0.00177843146957457,-0.0103422738611698,-0.00413929019123316
517,-0.00309538445435464,0.0167620591819286,-0.0055054291151464,-0.00436162389814854,-0.0120734237134457,-0.00975702982395887
518,-0.00244626984931529,0.017808960750699,-0.00687360903248191,-0.00799140706658363,-0.0147750731557608,-0.0134805692359805
519,-0.000347248220350593,0.020282281562686,-0.00720765255391598,-0.0107113625854254,-0.0163997635245323,-0.0143733574077487
520,0.00311450636945665,0.0238476656377316,-0.0056331935338676,-0.0107446871697903,-0.0154500883072615,-0.0130976783111691
521,0.00600029528141022,0.0274421479552984,-0.00317032169550657,-0.00847912020981312,-0.0135869756340981,-0.0108211748301983
522,0.00610162504017353,0.0296964608132839,-0.00187166489195079,-0.00616817781701684,-0.013036111369729,-0.00994949601590633
523,0.00372911081649363,0.0306991878896952,-0.0018063053721562,-0.00507025141268969,-0.0128552466630936,-0.0115663418546319
524,0.000878701859619468,0.0317134708166122,-0.00162277568597347,-0.00509257428348064,-0.0105377798900008,-0.0141949765384197
525,-0.000863760185893625,0.0331523045897484,-0.001167181879282,-0.00611400930210948,-0.00633308570832014,-0.0161128845065832
526,-0.000331594550516456,0.0352890454232693,-6.49835856165737E-05,-0.00633132504299283,-0.00246513704769313,-0.0155808730050921
527,0.00153571658302099,0.0378215685486794,0.00167702836915851,-0.00475108809769154,-0.00113339640665799,-0.0128620872274041
528,0.00282431789673865,0.0394583828747272,0.00254318304359913,-0.00352041888982058,-0.00318945129401982,-0.0107250837609172
529,0.00393582414835691,0.0399854704737663,0.00215169275179505,-0.00389998988248408,-0.00665516452863812,-0.0106355184689164
530,0.00539901340380311,0.0402075350284576,0.0012480131117627,-0.00499021587893367,-0.00961141474545002,-0.0117454407736659
531,0.00595820136368275,0.040435578674078,-0.000137125825858675,-0.00617951434105635,-0.0124339675530791,-0.0129396403208375
532,0.00561590446159244,0.040984358638525,-0.00131982890889049,-0.00662339618429542,-0.0144165745005012,-0.0131635721772909
533,0.00543997902423143,0.0421537421643734,-0.00110019778367132,-0.00553981121629477,-0.0143692698329687,-0.0119516151025891
534,0.00421638321131468,0.0429920554161072,-0.000726411701180041,-0.0048294928856194,-0.0144755775108933,-0.0114063238725066
535,0.000923543237149715,0.042523130774498,-0.00185005948878825,-0.00649618217721581,-0.0168112963438034,-0.0135022029280663
536,-0.00259871408343315,0.041260801255703,-0.00380586693063378,-0.00955396145582199,-0.0203688740730286,-0.0169353298842907
537,-0.00498087331652641,0.0398211814463139,-0.00579562736675143,-0.0125691890716553,-0.0241048336029053,-0.0200509577989578
538,-0.00594822131097317,0.0386390015482903,-0.00661014067009091,-0.0140310218557715,-0.0262438040226698,-0.021707946434617
539,-0.0051506576128304,0.0384079553186893,-0.00469612050801516,-0.0124589968472719,-0.0243097674101591,-0.0209720488637686
540,-0.00385154108516872,0.0385030619800091,-0.00118501984979957,-0.00919917691498995,-0.0195201449096203,-0.0197401195764542
541,-0.00235693156719208,0.0382519774138927,0.00299418019130826,-0.00572174601256847,-0.0140889603644609,-0.019309189170599
542,0.000407229992561042,0.0384072624146938,0.00799954310059547,-0.0022834874689579,-0.00860104523599148,-0.0178318098187447
543,0.00236329133622348,0.0385917536914349,0.0112370774149895,-0.00091465306468308,-0.00505284825339913,-0.0158812552690506
544,0.00108696497045457,0.03741455078125,0.0110965352505445,-0.00263113132677972,-0.00378157687373459,-0.0162614472210407
545,-0.00288500497117639,0.0345125570893288,0.00941832363605499,-0.00592485209926963,-0.00215187203139067,-0.0193306319415569
546,-0.00697090709581971,0.0306647475808859,0.00767176412045956,-0.00931589864194393,0.000133810812258162,-0.0231356099247932
547,-0.0081366803497076,0.0270156487822533,0.00555627746507525,-0.0121528282761574,0.000651529408060014,-0.0261148046702147
548,-0.00597208086401224,0.0240468699485064,0.00283158966340125,-0.0143107008188963,-0.00187432463280857,-0.0282035730779171
549,-0.00155250390525907,0.0224436800926924,0.00161465536803007,-0.0141740087419748,-0.00549924094229937,-0.0282328426837921
550,0.00366857694461942,0.0228464119136333,0.0032977859955281,-0.0108159082010388,-0.00794734340161085,-0.0250844545662403
551,0.00705341482535005,0.0240003075450659,0.00570225389674306,-0.00680629257112741,-0.00911489874124527,-0.0209593512117863
552,0.00703958980739117,0.0237898863852024,0.0064671728760004,-0.00495155761018395,-0.00919988844543695,-0.018867926672101
553,0.00494574196636677,0.0218900069594383,0.00589880021288991,-0.00494201947003603,-0.00806629378348589,-0.0186464507132769
554,0.00297240749932826,0.0194662883877754,0.00535352854058146,-0.00519679533317685,-0.00681141577661037,-0.0184997636824846
555,0.00156391446944326,0.017045034095645,0.00508440798148513,-0.00573597569018602,-0.00701771164312959,-0.0184827521443367
556,0.000335744116455317,0.0146101862192154,0.00504565704613924,-0.00675419205799699,-0.00850171316415071,-0.0191175639629364
557,-0.000606934714596719,0.0122826304286718,0.00484614819288254,-0.00820671580731869,-0.0105250300839543,-0.0202799718827009
558,-0.00114664249122143,0.0102019477635622,0.00349023775197566,-0.0104459086433053,-0.0129045639187098,-0.0218214355409145
559,-0.00188800704199821,0.00826535746455193,0.000224672912736423,-0.0136521384119987,-0.0153247341513634,-0.0240348037332296
560,-0.00332871428690851,0.00662145297974348,-0.00409008888527751,-0.0166781358420849,-0.0174159426242113,-0.0267946422100067
561,-0.00475336378440261,0.0060275811702013,-0.00693745538592339,-0.0172696318477392,-0.0185000784695148,-0.0281212516129017
562,-0.00540287047624588,0.00654839305207133,-0.00717150140553713,-0.0154340760782361,-0.0179327819496393,-0.0269443038851023
563,-0.00525171775370836,0.00729968259111047,-0.00579537078738213,-0.0133592672646046,-0.015915734693408,-0.0250772293657064
564,-0.00426724459975958,0.00787303503602743,-0.00378990382887423,-0.0117593957111239,-0.0127967726439238,-0.0242265667766333
565,-0.00250085815787315,0.00827405136078596,-0.00146365375258029,-0.00999759044498205,-0.00842992030084133,-0.0247007999569178
566,-0.000674932030960917,0.00785058364272118,0.000579502666369081,-0.00877740699797869,-0.00357492174953222,-0.0267266537994146
567,-4.92831568408292E-05,0.00589362485334277,0.00116175995208323,-0.00959896203130484,-0.000344661879353225,-0.0296536572277546
568,-0.00117893679998815,0.003144167130813,0.000116192481073085,-0.0117284599691629,0.000318241305649281,-0.0316043123602867
569,-0.00168943009339273,0.00190391892101616,0.000215276566450484,-0.0114009138196707,0.000912982679437846,-0.0302841924130917
570,0.000498704146593809,0.0029125006403774,0.00318612600676715,-0.00702484231442213,0.00294631742872298,-0.0255799274891615
571,0.00284905754961073,0.00383206247352064,0.00608121836557984,-0.00235916418023407,0.00330947968177497,-0.0210922639816999
572,0.00310137681663036,0.00351987429894507,0.00683077145367861,6.46457992843352E-05,0.000535710365511477,-0.018710920587182
573,0.00276385643519461,0.00338415848091245,0.00676195928826928,0.00177491491194814,-0.00307239242829382,-0.0165859516710043
574,0.00318945711478591,0.00397162046283484,0.00670129805803299,0.00357202626764774,-0.00627854466438293,-0.0141078205779195
575,0.00323949428275228,0.00401730602607131,0.00605357205495238,0.00411867164075375,-0.00952213443815708,-0.0133652575314045
576,0.00198310916312039,0.00269604008644819,0.00487036118283868,0.00296517554670572,-0.0122381756082177,-0.0153011223301291
577,0.00020372610015329,0.000852718017995358,0.00400777533650398,0.00150516093708575,-0.0129497367888689,-0.0182936452329159
578,-0.00164804514497519,-0.000890862720552832,0.00359404692426324,0.000529844081029296,-0.0118091637268662,-0.0213345214724541
579,-0.00336157064884901,-0.00249518034979701,0.00326482858508825,-0.000201588743948378,-0.01066854596138,-0.0245540533214808
580,-0.00352168455719948,-0.00318161095492542,0.00365422200411558,-0.000192881285329349,-0.0100477999076247,-0.026932243257761
581,-0.00204448215663433,-0.00317299622111022,0.00483810668811202,0.000278855382930487,-0.00960664916783571,-0.0281495358794928
582,-0.00114359613507986,-0.00384141551330686,0.00531436456367373,-0.000300457060802728,-0.00994567293673754,-0.0297191813588142
583,-0.00113021745346487,-0.00505380425602198,0.00557993864640594,-0.000858550134580582,-0.00971595756709576,-0.0317203998565674
584,-0.000469974387669936,-0.00607983907684684,0.00703965406864882,0.000722889788448811,-0.00680605042725801,-0.0334974303841591
585,0.00105069787241519,-0.00710410997271538,0.00904516689479351,0.00336012057960033,-0.00208314484916627,-0.0353907011449337
586,0.00148205319419503,-0.00854585133492947,0.0100263506174088,0.00377827673219144,0.00139620725531131,-0.0374616906046867
587,-0.000645398802589625,-0.0100430063903332,0.00905261002480984,0.000933077128138393,0.00138841266743839,-0.0383506007492542
588,-0.00350230769254267,-0.0104932365939021,0.00728933699429035,-0.0024107729550451,-0.00105208880268037,-0.0366459414362907
589,-0.0046033188700676,-0.00960330106317997,0.00664748111739755,-0.00364454323425889,-0.00289145833812654,-0.0331070087850094
590,-0.00385283911600709,-0.00830812472850084,0.0069475844502449,-0.00356925069354475,-0.00280761229805648,-0.0301494430750608
591,-0.00265383441001177,-0.00782822910696268,0.00664980756118894,-0.00424583256244659,-0.00254910974763334,-0.0300062019377947
592,-0.00164994248189032,-0.0086246095597744,0.00577454688027501,-0.00547627126798034,-0.00371079379692674,-0.0325856357812881
593,-0.000278472958598286,-0.0098522212356329,0.00572748249396682,-0.00588943855836988,-0.00512362131848931,-0.0357630997896194
594,0.00160948548000306,-0.0102506363764405,0.00683427741751075,-0.00522889057174325,-0.0053799282759428,-0.0376693457365036
595,0.00264233909547329,-0.00976606551557779,0.00789601262658834,-0.00424120528623462,-0.00527883600443602,-0.0379091165959835
596,0.00151543982792646,-0.00951019488275051,0.00775417080149055,-0.00374177447520196,-0.00621186010539532,-0.0373343452811241
597,-0.000825186201836914,-0.00978199020028114,0.0068985098041594,-0.00348033383488655,-0.00791817996650934,-0.0363298654556274
598,-0.00251183053478599,-0.00950598996132612,0.00672327866777778,-0.00273275934159756,-0.00912337657064199,-0.0347869098186493
599,-0.00342416414059699,-0.00845306180417538,0.00699342507869005,-0.00194222468417138,-0.00989073142409325,-0.0338055565953255
600,-0.00451765721663833,-0.00815990939736366,0.00616000546142459,-0.00204045325517654,-0.0110317841172218,-0.0346925482153893
601,-0.00522511312738061,-0.00917761493474245,0.00473289657384157,-0.00217627920210361,-0.010993218049407,-0.0362987667322159
602,-0.00450575444847345,-0.0105642070993781,0.00427320366725326,-0.00092064356431365,-0.0082330945879221,-0.0369519218802452
603,-0.00232024164870381,-0.0115781584754586,0.00508412439376116,0.00213733501732349,-0.00416527967900038,-0.0368602871894836
604,0.00118505000136793,-0.0119867660105228,0.00729067903012037,0.00611027469858527,-0.000410012318752706,-0.0367196649312973
605,0.00454728724434972,-0.0125225782394409,0.00968120619654655,0.00811656843870878,0.00215360824950039,-0.0368365682661533
606,0.00581713812425733,-0.0138285662978888,0.0103871328756213,0.00649646995589137,0.00304217799566686,-0.0370625928044319
607,0.00449552526697516,-0.015751376748085,0.00903503596782684,0.00214927713386714,0.00207292544655502,-0.0380884073674679
608,0.00133325858041644,-0.0178047847002745,0.00638465862721205,-0.00312540028244257,-0.000596430618315935,-0.0402215905487537
609,-0.00143014080822468,-0.0187705848366022,0.00454092631116509,-0.00637156749144197,-0.00282531837001443,-0.0407987721264362
610,-0.00137934694066644,-0.0175728909671307,0.00563902966678143,-0.00532215414568782,-0.00189562037121505,-0.0377844721078873
611,0.00117823365144432,-0.0152143258601427,0.00927930045872927,-0.00119732844177634,0.00163237401284277,-0.0334022976458073
612,0.00384070631116629,-0.0136420503258705,0.013204189017415,0.00321549666114151,0.00515083968639374,-0.0306674912571907
613,0.00563236465677619,-0.013013007119298,0.0162995774298906,0.00691751344129443,0.00855359435081482,-0.0296106096357107
614,0.00722077675163746,-0.0123104164376855,0.0189279820770025,0.0100459735840559,0.0133461840450764,-0.0287704840302467
615,0.00807721633464098,-0.0114724300801754,0.0202344283461571,0.0114574050530791,0.0178918614983559,-0.0283370669931173
616,0.00676916539669037,-0.0112507324665785,0.0184883717447519,0.00982710905373096,0.0183863677084446,-0.0298035573214293
617,0.00394729850813746,-0.0118210129439831,0.0145995076745749,0.00662648025900126,0.0145524777472019,-0.0326437503099442
618,0.00139414833392948,-0.0129404328763485,0.010844168253243,0.00374675216153264,0.00923113338649273,-0.0352853685617447
619,-0.000494809239171445,-0.0143827991560102,0.00771972211077809,0.000987961771897972,0.00463724369183183,-0.0376815125346184
620,-0.0024435305967927,-0.0158138368278742,0.00477973977103829,-0.00198548357002437,0.00146657193545252,-0.0404747575521469
621,-0.00477797957137227,-0.016921004280448,0.00237044133245945,-0.00414373306557536,-0.000786469376180321,-0.0436709523200989
622,-0.00609424663707614,-0.0169899314641953,0.00199114228598773,-0.00369423883967102,-0.0019753014203161,-0.0456164628267288
623,-0.00507363490760326,-0.0155552979558706,0.00378362042829394,-0.000941844307817519,-0.00190061458852142,-0.0445021204650402
624,-0.00264549418352544,-0.0136084752157331,0.00543294521048665,0.00166480441112071,-0.0020924259442836,-0.0407544337213039
625,-2.53378493653145E-05,-0.0122465901076794,0.00579196261242032,0.00305901584215462,-0.00298390025272965,-0.0358289107680321
626,0.00266194785945117,-0.0113902185112238,0.00608796998858452,0.00401866342872381,-0.00267308740876615,-0.0308491513133049
627,0.00566724454984069,-0.0104931928217411,0.00796212814748287,0.00575564755126834,0.000369261833839118,-0.0264506377279758
628,0.00789107754826546,-0.00984098669141531,0.0107502173632383,0.00791203230619431,0.00454716989770532,-0.0235559735447168
629,0.00758533598855138,-0.0100738853216171,0.0118276681751013,0.00845246482640505,0.00692625483497977,-0.0236247573047876
630,0.00603926321491599,-0.0105258235707879,0.0107645057141781,0.00734425522387028,0.00766299245879054,-0.0257611181586981
631,0.00586696108803153,-0.0103812366724014,0.00872452184557915,0.00642525777220726,0.00764867337420583,-0.0274342596530914
632,0.00762507924810052,-0.00983014237135649,0.00653040502220392,0.00675207329913974,0.00613557919859886,-0.0277318358421326
633,0.00944217294454575,-0.00932669453322887,0.00455536600202322,0.0076330378651619,0.00289055681787431,-0.0272735115140677
634,0.00899540353566408,-0.00906125083565712,0.00257237022742629,0.00742311123758554,-0.00103592406958342,-0.0274041295051575
635,0.00614608405157924,-0.00900246389210224,0.000610091490671039,0.00561555568128824,-0.00487650511786342,-0.029408598318696
636,0.00203092396259308,-0.00927606411278248,-0.00117828161455691,0.00278123188763857,-0.0093685258179903,-0.0333102084696293
637,-0.00203280965797603,-0.00988706853240728,-0.00288241077214479,-0.000189950995263644,-0.0142394322901964,-0.0378315784037113
638,-0.0044358461163938,-0.0102518694475293,-0.0039374059997499,-0.00180171837564558,-0.016629446297884,-0.0413988865911961
639,-0.00451192492619157,-0.00983989983797073,-0.00328475725837052,-0.00170418247580528,-0.0144558390602469,-0.043369572609663
640,-0.00310380128212273,-0.00880620535463095,-0.0011351068969816,-0.00142901542130858,-0.00904064532369375,-0.043558306992054
641,-0.00119892926886678,-0.007580507081002,0.00159712915774435,-0.00137936510145664,-0.00264958734624088,-0.0413877703249455
642,0.000556497310753912,-0.00641246326267719,0.00438864855095744,-0.000741758325602859,0.00327641097828746,-0.0374813675880432
643,0.00227549555711448,-0.00487142242491245,0.00700602075085044,0.00125762436073273,0.00754677876830101,-0.0327139385044575
644,0.00369833060540259,-0.00274457759223878,0.00905292853713036,0.00442097755149007,0.0095700453966856,-0.0277536921203136
645,0.00253981910645962,-0.00148564833216369,0.00892293266952038,0.00596148893237114,0.0085406145080924,-0.0252788439393044
646,-0.000937397649977356,-0.00187327642925084,0.00690335780382156,0.00459581380710006,0.00498995697125793,-0.0262885186821222
647,-0.00303478864952922,-0.00232150056399405,0.00577765982598066,0.00291091087274253,0.00191834033466876,-0.0277805384248495
648,-0.00328760524280369,-0.00198040273971856,0.0051339422352612,0.00175953807774931,-0.000195461252587847,-0.028633639216423
649,-0.00369830406270921,-0.00164273206610233,0.00289729074575007,-0.000238240085309371,-0.00315824104472995,-0.0304721649736166
650,-0.00400786846876144,-0.00156714371405542,-3.95834213122725E-05,-0.00264263083226979,-0.00617351941764355,-0.0333864316344261
651,-0.00354111171327531,-0.00155755702871829,-0.00209509301930666,-0.00448281085118651,-0.00741858221590519,-0.0363431759178638
652,-0.00267952401190996,-0.00152756669558585,-0.00292461668141186,-0.00540299527347088,-0.00692992145195603,-0.0380385145545006
653,-0.00107666326221079,-0.00123916426673532,-0.00231348257511854,-0.00445082876831293,-0.00565668707713485,-0.0370067618787289
654,0.00213025184348226,-0.00020376913016662,-0.000146182501339354,-0.000969062908552587,-0.0035629712510854,-0.0332702361047268
655,0.00577975064516068,0.00148894230369478,0.00199929741211236,0.00339192897081375,-0.00124420085921884,-0.0295211002230644
656,0.00747339800000191,0.0027271406725049,0.00226212106645107,0.0056040408089757,-0.000357077922672033,-0.0289753824472427
657,0.00680086389183998,0.0028184347320348,0.00108042953070253,0.00452948594465852,-0.000631077506113797,-0.0314451865851879
658,0.00369667238555849,0.00179741648025811,-0.00171466590836644,0.000421783392084762,-0.00210285815410316,-0.0348386503756046
659,-0.00148267240729183,0.000406587263569236,-0.00630267523229122,-0.00524798315018415,-0.00549000361934304,-0.0376742221415043
660,-0.0058577386662364,-0.000559879757929593,-0.00980060175061226,-0.00943584274500608,-0.00888999179005623,-0.038936972618103
661,-0.00732291676104069,-0.00136183202266693,-0.0100744273513556,-0.0107177086174488,-0.0103769861161709,-0.0387578047811985
662,-0.00571645237505436,-0.00179375999141485,-0.00716049177572131,-0.00893644895404577,-0.00950008817017078,-0.0367698445916176
663,-0.00200601993128657,-0.00113086518831551,-0.00238745659589767,-0.00458711199462414,-0.00697484705597162,-0.0322378948330879
664,0.00130639201961458,0.000171734413015656,0.00132870126981288,-0.00040001020533964,-0.00519376434385777,-0.0269515626132488
665,0.00243009766563773,0.000885795510839671,0.00220624054782093,0.000981009216047823,-0.00536202965304255,-0.0240173414349556
666,0.0033501903526485,0.00135899404995143,0.00211370061151683,0.00112121610436589,-0.00484841363504529,-0.0234562959522009
667,0.00612501800060272,0.00221174862235785,0.00261359475553036,0.00188832508865744,-0.00192264199722558,-0.0239336583763361
668,0.00815476197749376,0.0020070830360055,0.00167982245329767,0.00110597850289196,0.000364787789294496,-0.0266791954636574
669,0.00789038371294737,0.001157435355708,-0.000550626777112484,-0.000644198502413929,0.000804039475042373,-0.0303358770906925
670,0.00725353229790926,0.00197131955064833,-0.00102565926499665,8.37428233353421E-05,0.00166501931380481,-0.0308833029121161
671,0.00639736885204911,0.00387992057949305,0.000228014963795431,0.00241962913423777,0.00279291509650648,-0.0288398656994104
672,0.00422128662467003,0.0046820966526866,0.000789106823503971,0.0035612506326288,0.00265974830836058,-0.0275538228452206
673,0.00153176463209093,0.00381682254374027,7.63751741033047E-05,0.00303835235536098,0.00206981576047838,-0.0281585454940796
674,-0.000831541372463107,0.00182557827793062,-0.00133259675931185,0.000858391227666289,0.00170598516706377,-0.0304861646145582
675,-0.00247985008172691,-7.83204741310328E-05,-0.00285568670369685,-0.00175243394915015,0.00151824881322682,-0.0334031209349632
676,-0.00305405748076737,-0.00136456754989922,-0.00430773058906198,-0.00351636600680649,0.00106412766035646,-0.0362096428871155
677,-0.00352799007669091,-0.00312693766318262,-0.00646785413846374,-0.00646662432700396,-0.00115559692494571,-0.0400209240615368
678,-0.00447777239605784,-0.00539510045200586,-0.00965454336255789,-0.0116078890860081,-0.00480848457664251,-0.0440259426832199
679,-0.00576506229117513,-0.00719670532271266,-0.0136166661977768,-0.0169543474912643,-0.00834348332136869,-0.0463287197053432
680,-0.00711202155798674,-0.00772082339972258,-0.0171118322759867,-0.0202133655548096,-0.0109202014282346,-0.0464076697826386
681,-0.00778599269688129,-0.00628815172240138,-0.0182330012321472,-0.0200690198689699,-0.0125242043286562,-0.0441524460911751
682,-0.00746480002999306,-0.00341843767091632,-0.0165579542517662,-0.0170104913413525,-0.0134854903444648,-0.0404201000928879
683,-0.00665264716371894,-0.000833265658002347,-0.0133687471970916,-0.0130725838243961,-0.0134514952078462,-0.0376134850084782
684,-0.00613049603998661,0.000292002398055047,-0.0103611089289188,-0.0100624328479171,-0.0122878141701221,-0.037412166595459
685,-0.00639546196907759,0.000277053826721385,-0.00856940634548664,-0.00857882481068373,-0.0109029021114111,-0.038916751742363
686,-0.00802428927272558,-0.000646749918814749,-0.00860278028994799,-0.00927896145731211,-0.0110425977036357,-0.0408989526331425
687,-0.00978645123541355,-0.00200444622896612,-0.00916549097746611,-0.0112110767513514,-0.0123701198026538,-0.0423324219882488
688,-0.00872053299099207,-0.00250223558396101,-0.00752505287528038,-0.0113486498594284,-0.0117558939382434,-0.041637234389782
689,-0.00562468031421304,-0.00248360866680741,-0.00479051982983947,-0.0101259676739573,-0.00937776640057564,-0.0396391712129116
690,-0.0039700660854578,-0.00284909224137664,-0.00387338711880147,-0.0101668536663055,-0.00797263067215681,-0.0387584567070007
691,-0.00403021089732647,-0.00301809748634696,-0.00392125081270933,-0.0103300483897328,-0.00668801553547382,-0.0388214364647865
692,-0.00431409198790789,-0.00290256319567561,-0.00351640512235463,-0.00896160956472158,-0.00396253587678075,-0.0390570946037769
693,-0.00467236945405602,-0.00316739734262228,-0.00367489596828818,-0.00767827453091741,-0.000978575902990997,-0.0405970588326454
694,-0.0047394996508956,-0.00329635501839221,-0.00443685427308083,-0.0076110577210784,0.00134014815557748,-0.0427791960537434
695,-0.00482466304674745,-0.00318611809052527,-0.00571148656308651,-0.0090717077255249,0.00195537274703383,-0.044099822640419
696,-0.00584915932267904,-0.00373580190353096,-0.00819041579961777,-0.0121935456991196,4.97172777613741E-06,-0.0449155308306217
697,-0.00603712908923626,-0.00447171879932284,-0.00992769468575716,-0.0145752858370543,-0.00217293435707688,-0.0444142855703831
698,-0.00447509158402681,-0.00490089599043131,-0.00954430550336838,-0.0148645471781492,-0.00304758921265602,-0.0421544015407562
699,-0.00406112521886826,-0.00598205393180251,-0.00910994131118059,-0.0152712920680642,-0.00475567718967795,-0.0407065004110336
700,-0.00668558618053794,-0.00812215823680162,-0.0102101415395737,-0.0171824507415295,-0.00887077022343874,-0.0416679047048092
701,-0.0100798429921269,-0.0099100498482585,-0.0116335982456803,-0.0186891816556454,-0.0135730504989624,-0.043015293776989
702,-0.0116236414760351,-0.010028881020844,-0.0115520572289824,-0.0177469979971647,-0.0159729309380054,-0.0427457913756371
703,-0.0117158144712448,-0.00910636223852634,-0.00971551053225994,-0.0148040456697345,-0.0151310721412301,-0.0414759181439877
704,-0.0111976535990834,-0.00811103172600269,-0.00702346535399556,-0.011323575861752,-0.012146845459938,-0.0402243509888649
705,-0.0101682562381029,-0.00730445189401507,-0.00464691268280149,-0.00857390835881233,-0.00872956030070782,-0.0392619222402573
706,-0.00904571078717709,-0.0067443223670125,-0.00322638894431293,-0.00707571348175406,-0.00591754168272018,-0.0382923856377602
707,-0.00792580004781485,-0.00607116380706429,-0.00260553113184869,-0.00609177257865667,-0.00408622389659286,-0.0362996980547905
708,-0.0062834182754159,-0.00439184065908194,-0.00205585244111717,-0.004106723703444,-0.00306765013374388,-0.0325356349349022
709,-0.00361251994036138,-0.00103674817364663,-0.000585120811592788,-0.000250517827225849,-0.00211674650199711,-0.0272748675197363
710,-0.000917932251468301,0.00290786824189126,0.00126758171245456,0.00413643289357424,-0.00126037606969476,-0.0225318912416697
711,0.0005331935826689,0.00533212441951036,0.00248113367706537,0.00722212670370936,-0.000668885593768209,-0.0208899099379778
712,0.000770857324823737,0.00533215282484889,0.00293801096267998,0.00782785378396511,-0.000213875988265499,-0.0229113660752773
713,-9.04150729184039E-05,0.00387854129076004,0.00222262437455356,0.00561114447191358,-0.00041593995410949,-0.026443462818861
714,-0.00184121599886566,0.00264206947758794,0.000527687312569469,0.00226442632265389,-0.00127630645874888,-0.0286605283617973
715,-0.00468787085264921,0.00193413638044149,-0.00192062219139189,-0.000975362956523895,-0.00327861937694252,-0.0298228431493044
716,-0.00815877038985491,0.00119018985424191,-0.00464967498555779,-0.00384052121080458,-0.00691920286044478,-0.0314089171588421
717,-0.00999954994767904,0.000798604276496917,-0.00564654218032956,-0.00503002712503076,-0.0104460492730141,-0.0319793932139874
718,-0.00991568993777037,0.00100203487090766,-0.0046626990661025,-0.00502863153815269,-0.012746162712574,-0.0307254362851381
719,-0.010183360427618,0.000855443358886987,-0.00411153119057417,-0.00650924956426024,-0.0148706901818514,-0.0298152286559343
720,-0.0110105462372303,0.000203260235139169,-0.00479456596076488,-0.00924844574183226,-0.0168197192251682,-0.0295552350580692
721,-0.0106920702382922,2.19305020436877E-05,-0.00542550580576062,-0.0107099516317248,-0.0175594948232174,-0.0281536318361759
722,-0.0083442060276866,0.000939835386816412,-0.00458109332248569,-0.0098635945469141,-0.0163687635213137,-0.0250703264027834
723,-0.00436838157474995,0.00251641985960305,-0.00197873031720519,-0.00747194094583392,-0.0128023000434041,-0.02132972702384
724,-0.00116563122719526,0.00308805913664401,0.000211212405702099,-0.00555027090013027,-0.00795873254537582,-0.0188470166176558
725,-0.00153441168367863,0.00151648663450032,-0.000238395645283163,-0.00583782372996211,-0.00391734624281526,-0.0188657119870186
726,-0.00560933165252209,-0.00135274324566126,-0.00322206551209092,-0.00788317620754242,-0.00223779864609241,-0.021080682054162
727,-0.0102245146408677,-0.00360742607153952,-0.00640495587140322,-0.0092802420258522,-0.00293637881986797,-0.023875318467617
728,-0.012625752016902,-0.00423207506537437,-0.00750830722972751,-0.00931206438690424,-0.00480095762759447,-0.0257749017328024
729,-0.0132415816187859,-0.00375163415446877,-0.00667760940268636,-0.00955893751233816,-0.00644705491140485,-0.0260830149054527
730,-0.0127558019012213,-0.00271909218281507,-0.00478510744869709,-0.0101459426805377,-0.00652682036161423,-0.0242069233208895
731,-0.0110855456441641,-0.00152879487723112,-0.00227395165711641,-0.0103882951661944,-0.00510031543672085,-0.0212003849446774
732,-0.00832576490938663,-0.000582666601985693,0.000663518614601344,-0.0098372558131814,-0.00303090829402208,-0.0183961279690266
733,-0.00464941887184978,0.000314372126013041,0.00379912555217743,-0.00801179651170969,-0.000717777526006103,-0.0150791611522436
734,-0.00119409780018032,0.00110985105857253,0.00611775508150458,-0.00605392456054688,0.000856717058923095,-0.011322682723403
735,0.000761986593715847,0.00157366157509387,0.00698114791885018,-0.00535853626206517,0.00033727171830833,-0.00829561147838831
736,0.000733193883206695,0.00177096028346568,0.00633810274302959,-0.00583305116742849,-0.00269903102889657,-0.00643541757017374
737,-0.000561386754270643,0.00168123422190547,0.00470922188833356,-0.00649500079452991,-0.00657188193872571,-0.00603967159986496
738,-0.000863431603647769,0.00172170833684504,0.00398587249219418,-0.00611149659380317,-0.00852407142519951,-0.00662531331181526
739,0.00111767160706222,0.00241436692886055,0.00522882351651788,-0.00439073145389557,-0.00751118874177337,-0.00701164826750755
740,0.0043652537278831,0.00374548137187958,0.00775757292285562,-0.00176884233951569,-0.00396963441744447,-0.00672368565574288
741,0.00762633280828595,0.00520854257047176,0.0107016349211335,0.00154947687406093,0.001362728420645,-0.00600237818434834
742,0.0108522335067391,0.00596484076231718,0.0131033714860678,0.00512736663222313,0.0074598123319447,-0.00530974520370364
743,0.0140846539288759,0.00595867028459907,0.0146017940714955,0.0075431652367115,0.0134562440216541,-0.00478110043331981
744,0.0158829372376204,0.00578288035467267,0.0152419712394476,0.00728211738169193,0.0177816972136498,-0.00397218344733119
745,0.0146809071302414,0.00558903208002448,0.0146341780200601,0.00522257527336478,0.0185744594782591,-0.00254663126543164
746,0.011276863515377,0.00532811786979437,0.0131392991170287,0.00392017466947436,0.0164775792509317,-0.000779453606810421
747,0.00715744076296687,0.00469252094626427,0.0109217520803213,0.00340532721020281,0.0131590878590941,0.000232958132983185
748,0.00271252053789794,0.00322690024040639,0.00726218428462744,0.00155239703599364,0.00888302735984325,-0.000709505751729012
749,-0.00123026664368808,0.00109117256943136,0.00275313388556242,-0.00189425447024405,0.00433492381125689,-0.00339959631673992
750,-0.00393504183739424,-0.00152296817395836,-0.00123901304323226,-0.00594691932201386,0.000613015668932348,-0.00722913537174463
751,-0.00503880484029651,-0.00398216024041176,-0.00376187032088637,-0.00934905093163252,-0.00197980785742402,-0.0111063439399004
752,-0.00463143829256296,-0.00495944963768125,-0.00468242447823286,-0.0106651028618217,-0.00380425387993455,-0.0128741376101971
753,-0.00381435942836106,-0.00392451789230108,-0.00484016677364707,-0.00976824015378952,-0.0052405372262001,-0.0114210415631533
754,-0.00343980849720538,-0.00173774978611618,-0.00483333040028811,-0.00796479173004627,-0.00575677817687392,-0.00819170754402876
755,-0.00425573391839862,-2.99412004096666E-05,-0.00489059137180448,-0.00712861213833094,-0.00481667090207338,-0.00633351132273674
756,-0.0065111038275063,0.000554388505406678,-0.00498386519029737,-0.00766602205112576,-0.00300067150965333,-0.00710243079811335
757,-0.00849156174808741,0.00087988271843642,-0.0040505426004529,-0.00805234163999558,-0.000711723638232797,-0.00845467112958431
758,-0.00864990241825581,0.00146631128154695,-0.00167751393746585,-0.00726080453023314,0.00256081786938012,-0.00853105075657368
759,-0.00794315151870251,0.00191970088053495,-0.000127806168165989,-0.00574590405449271,0.00592727633193135,-0.00765538401901722
760,-0.00779834296554327,0.00191511458251625,-0.00148923601955175,-0.00480339303612709,0.00703181698918343,-0.00710310693830252
761,-0.00855818763375282,0.000857960665598512,-0.00529930461198092,-0.00627644592896104,0.0051122042350471,-0.00832724384963512
762,-0.00886970385909081,-0.00111544295214117,-0.00897971075028181,-0.00946423131972551,0.00280038430355489,-0.0103043839335442
763,-0.00723031302914023,-0.00272312317974865,-0.0103242062032223,-0.0115726627409458,0.00262726610526443,-0.010472902096808
764,-0.00510203372687101,-0.00385335902683437,-0.010297317057848,-0.0127044208347797,0.00319900992326438,-0.00964077468961477
765,-0.00365277077071369,-0.00473389448598027,-0.00992628000676632,-0.0135641181841493,0.00319096376188099,-0.00907666236162186
766,-0.00181618088390678,-0.00483893463388085,-0.00834726635366678,-0.0130258034914732,0.00326453545130789,-0.00764800049364567
767,-0.000263187976088375,-0.00436582462862134,-0.00611692061647773,-0.0113069796934724,0.00253683049231768,-0.0051223929040134
768,-0.000675400602631271,-0.0037824884057045,-0.00474935490638018,-0.0100061371922493,3.15763918479206E-06,-0.0025612108875066
769,-0.0023761261254549,-0.00285090086981654,-0.00422323727980256,-0.0097688240930438,-0.00306855910457671,-0.000183973839739338
770,-0.00404904317110777,-0.00157356658019125,-0.00420965999364853,-0.0103568499907851,-0.00538576720282435,0.00179918459616601
771,-0.00505883852019906,-0.000350400048773736,-0.00461487518623471,-0.0111672356724739,-0.00630019186064601,0.00265817227773368
772,-0.00466904835775495,0.000878638355061412,-0.00475444737821817,-0.0112825501710176,-0.00550027936697006,0.00274460366927087
773,-0.0038407975807786,0.00197101151570678,-0.00469687813892961,-0.0109321372583508,-0.00446218950673938,0.00246196473017335
774,-0.00369128165766597,0.00305856694467366,-0.00416971929371357,-0.0100430753082037,-0.00357035081833601,0.00249024271033704
775,-0.00316995219327509,0.00500075751915574,-0.00162163749337196,-0.00703788315877318,-0.000608003931120038,0.00451382482424378
776,-0.00223302049562335,0.00697521725669503,0.00195327308028936,-0.00297629414126277,0.00383774656802416,0.00721569359302521
777,-0.001898622373119,0.00730956718325615,0.0042020813561976,-0.0010697771795094,0.00655112788081169,0.0072952238842845
778,-0.00189345015678555,0.00643410440534353,0.00510663678869605,-0.0020692078396678,0.00670534605160356,0.00533293979242444
779,-0.00277197547256947,0.00506871147081256,0.00460378732532263,-0.00544282328337431,0.0042384541593492,0.00321462680585682
780,-0.00536015490069985,0.00282248272560537,0.0023027672432363,-0.0107573829591274,-0.000980885699391365,0.00049072498222813
781,-0.00773503445088863,0.00066061649704352,-9.40632817219011E-05,-0.0154866026714444,-0.00584711506962776,-0.00177129835356027
782,-0.00781252700835466,0.000578189850784838,-0.000574950478039682,-0.0164869595319033,-0.00658019911497831,-0.000709691841620952
783,-0.00636141235008836,0.00231322413310409,0.000302154192468151,-0.0139586152508855,-0.00386695703491569,0.00330344378016889
784,-0.00488012610003352,0.00397967966273427,0.000867026450578123,-0.0105959260836244,-0.00104673195164651,0.00720042316243052
785,-0.00368190323933959,0.00509021058678627,0.000646762666292489,-0.00830505508929491,2.79348823823966E-05,0.00972892995923758
786,-0.00317196338437498,0.00582869444042444,-0.00073038280243054,-0.00813546776771545,-0.0015886997571215,0.0109894592314959
787,-0.00302060949616134,0.00626963470131159,-0.0025574155151844,-0.00950741674751043,-0.00485995365306735,0.0110904164612293
788,-0.00181972747668624,0.00685215881094337,-0.00253997463732958,-0.0102391885593534,-0.00631413795053959,0.0106193125247955
789,0.000153858636622317,0.00752368289977312,-0.000640779559034854,-0.00977554172277451,-0.0049970829859376,0.00996851455420256
790,0.00142456241883338,0.00806090421974659,0.000813922204542905,-0.00912835914641619,-0.00327574298717082,0.00933244824409485
791,0.00216188374906778,0.00881775096058846,0.00120420847088099,-0.00862433388829231,-0.00233270088210702,0.00926445983350277
792,0.00354883098043501,0.00997500121593475,0.00152668717782944,-0.00818222481757402,-0.0011708753881976,0.0100827002897859
793,0.00559419533237815,0.0111411148682237,0.00200763158500195,-0.00788108631968498,0.000944352301303297,0.0113165974617004
794,0.00731972465291619,0.0120007321238518,0.00236164196394384,-0.0074003990739584,0.00322388228960335,0.0126641727983952
795,0.00823774840682745,0.0124611025676131,0.00256127421744168,-0.00611480046063662,0.00469002733007073,0.014465824700892
796,0.00798158813267946,0.0119180427864194,0.00189912179484963,-0.00430224603042006,0.00501996139064431,0.0157421212643385
797,0.00595072098076344,0.00963081046938896,-0.000548566342331469,-0.00361272599548101,0.00342166167683899,0.0138798290863633
798,0.00311392382718623,0.00642963498830795,-0.00357560138218105,-0.00506154261529446,-0.000143031240440905,0.00891408883035183
799,0.00119849527254701,0.00420527486130595,-0.00546915829181671,-0.00803731568157673,-0.00428511016070843,0.00440291408449411
800,0.000825428054668009,0.003836092306301,-0.00606203684583306,-0.0110624032095075,-0.00748189864680171,0.00315707642585039
801,0.00173502520192415,0.00472905533388257,-0.00616730423644185,-0.0130617301911116,-0.00910719577223063,0.00502626458182931
802,0.00361441937275231,0.00578121468424797,-0.00670543080195785,-0.0142088700085878,-0.00984067004173994,0.00783452298492193
803,0.00653664255514741,0.0065532149747014,-0.00701552303507924,-0.0145628741011024,-0.00983967166393995,0.00977742578834295
804,0.00893289502710104,0.00684235291555524,-0.00634056562557817,-0.01459576562047,-0.00869587156921625,0.00972067844122648
805,0.00843038409948349,0.00658367248252034,-0.00574124744161963,-0.0154329007491469,-0.00696034263819456,0.00743131758645177
806,0.00635917065665126,0.00715735275298357,-0.00525586865842342,-0.0157671775668859,-0.00481024850159884,0.00578932324424386
807,0.00523691019043326,0.00955944042652845,-0.00384187232702971,-0.0134571772068739,-0.00195143872406334,0.00728332763537765
808,0.00502760242670774,0.0125741437077522,-0.00163024442736059,-0.00860387273132801,0.00160906743258238,0.0106204096227884
809,0.00498255342245102,0.0141528556123376,0.000595955410972238,-0.00328145851381123,0.00513100111857057,0.0131885735318065
810,0.00513925915583968,0.0136351156979799,0.00270565785467625,0.000430154032073915,0.00719937635585666,0.014240269549191
811,0.00544393761083484,0.0121982675045729,0.00457177171483636,0.00252810306847095,0.00694647245109081,0.0154920350760221
812,0.00518756359815598,0.0106476219370961,0.00495996698737144,0.00362712237983942,0.00428566709160805,0.0172753371298313
813,0.00411601318046451,0.00846978276968002,0.00300740404054523,0.00351667846553028,2.97892329399474E-05,0.0174524765461683
814,0.00325119774788618,0.00561263738200068,0.000226721269427799,0.0028136121109128,-0.00402365205809474,0.0156510528177023
815,0.00412782235071063,0.00334180239588022,-0.000400448509026319,0.00321566802449524,-0.00606287363916636,0.0141662694513798
816,0.00624640472233295,0.0019845871720463,0.00135783141013235,0.00435110880061984,-0.00637049414217472,0.0138995693996549
817,0.00791128072887659,0.000960301782470196,0.00368870771490037,0.00483872042968869,-0.0058785593137145,0.0142933633178473
818,0.00829036720097065,0.000467113626655191,0.00576200941577554,0.00465512368828058,-0.0047072577290237,0.0150569044053555
819,0.00734725454822183,0.000633373623713851,0.00681027257815003,0.00389307062141597,-0.00342061906121671,0.0154160372912884
820,0.00549888890236616,0.000608124537393451,0.00583382835611701,0.00217090640217066,-0.00232262420468032,0.0143401892855763
821,0.0034858409781009,-0.000358174904249609,0.00317365699447691,-0.0003483988402877,-0.000647380773443729,0.0117297600954771
822,0.00260808877646923,-0.0017118490068242,0.000526502379216254,-0.00203486764803529,0.00170643592718989,0.00901861768215895
823,0.00363282463513315,-0.0023123521823436,-0.000625656626652926,-0.00112030538730323,0.00375508214347065,0.00803628098219633
824,0.00574811501428485,-0.00205536303110421,0.000454755616374314,0.0016562711680308,0.0053314408287406,0.00937944557517767
825,0.00670407013967633,-0.00213814550079405,0.00267436890862882,0.00315403938293457,0.00607026927173138,0.011952499859035
826,0.00552305998280644,-0.00269408989697695,0.00467906147241592,0.00267736869864166,0.00658884597942233,0.0151722561568022
827,0.00340002938173711,-0.00270693493075669,0.0062260334379971,0.0022978731431067,0.00837080553174019,0.0190809089690447
828,0.00157974124886096,-0.00204687146469951,0.00635764095932245,0.00309701659716666,0.010007232427597,0.0228326469659805
829,0.000226485688472167,-0.00160237436648458,0.00412876065820456,0.0043836603872478,0.00890796165913343,0.0251972898840904
830,-0.000517438165843487,-0.00140563538298011,0.00108382035978138,0.00554750533774495,0.0057554766535759,0.0265228096395731
831,0.00050275499233976,-3.49859292327892E-05,0.000211636201129295,0.00733374152332544,0.0038663272280246,0.0291670504957438
832,0.00311623769812286,0.00252155982889235,0.0015543547924608,0.00920270290225744,0.00371409859508276,0.0333839841187
833,0.00578142004087567,0.00458562979474664,0.00285534397698939,0.00964422896504402,0.00314130424521863,0.0370292998850346
834,0.00765695562586188,0.00559339579194784,0.00371317635290325,0.00913402251899242,0.00266229314729571,0.0394585803151131
835,0.00847052317112684,0.00644220132380724,0.00550866965204477,0.00925508979707956,0.0051384367980063,0.0415171831846237
836,0.00853373948484659,0.00732117239385843,0.00861173123121262,0.0103874066844583,0.0108487159013748,0.0429145023226738
837,0.00770173314958811,0.0070191421546042,0.0107700750231743,0.0107084130868316,0.0161345526576042,0.0420833565294743
838,0.00492699583992362,0.00499216327443719,0.00974449049681425,0.00840653572231531,0.0175282005220652,0.038881815969944
839,0.00151751900557429,0.00308679416775703,0.00701922224834561,0.00525454105809331,0.015592216514051,0.0359376072883606
840,0.000345738109899685,0.00371455564163625,0.00583604862913489,0.00484931794926524,0.0137216662988067,0.0359906926751137
841,0.00143351079896092,0.00662659341469407,0.00705932546406984,0.00770973926410079,0.014058506116271,0.0384024083614349
842,0.00253153825178742,0.00926651805639267,0.00880297459661961,0.0102477483451366,0.0153187485411763,0.0397591181099415
843,0.00262462417595088,0.0100263729691505,0.00927068572491407,0.00936079863458872,0.0154268853366375,0.0388588830828667
844,0.00250029796734452,0.00942395720630884,0.00886422768235207,0.00629251869395375,0.014717542566359,0.0381432324647903
845,0.00231286883354187,0.00832928530871868,0.0082642799243331,0.00354231428354979,0.0138593660667539,0.0389590188860893
846,0.0013824924826622,0.00698476424440742,0.00682926084846258,0.00139210314955562,0.0121643412858248,0.0397852212190628
847,0.0005847392603755,0.00569797959178686,0.004249582067132,-0.000846891547553241,0.00925213564187288,0.0391346961259842
848,0.0020738102030009,0.00554671185091138,0.00165649596601725,-0.00247548962943256,0.00557934306561947,0.0381233990192413
849,0.00579427508637309,0.00755167892202735,0.00103031098842621,-0.00182408466935158,0.00276553654111922,0.0393117740750313
850,0.00818890891969204,0.0105266571044922,0.00232390104793012,0.000343628285918385,0.00195432873442769,0.0424571633338928
851,0.00643977522850037,0.0119508532807231,0.00266830320470035,0.00106623093597591,0.0016872058622539,0.0445228107273579
852,0.00228877644985914,0.0113347759470344,0.000736159214284271,-0.00023339489416685,0.000400642573367804,0.0444893166422844
853,-0.000702049874234945,0.0100639816373587,-0.0017924098065123,-0.00164274545386434,-0.00122635718435049,0.0440135411918163
854,-0.00118491996545345,0.00935125350952148,-0.00282268226146698,-0.00158552965149283,-0.00157692737411708,0.0443780161440372
855,0.000170297484146431,0.00950524676591158,-0.00155331450514495,0.000547170580830425,0.000285977963358164,0.0453965254127979
856,0.00182081677485257,0.00955310463905334,0.000802752037998289,0.00336584309116006,0.00362848164513707,0.0454604811966419
857,0.00270232022739947,0.00902759376913309,0.00252214027568698,0.00497031910344958,0.00642932252958417,0.0444390326738358
858,0.00329364044591784,0.00898987613618374,0.0029571452178061,0.00527471583336592,0.00706302979961038,0.0446069538593292
859,0.0041559524834156,0.0097337830811739,0.00225597620010376,0.00461610686033964,0.00552920298650861,0.0464766137301922
860,0.00537016615271568,0.0107312500476837,0.00162039045244455,0.00375317083671689,0.00403658160939813,0.0489144921302795
861,0.00599604565650225,0.0112825501710176,0.00158492056652904,0.00309975747950375,0.00418435409665108,0.0504562668502331
862,0.00501366658136249,0.0110681569203734,0.00169511663261801,0.00245520612224936,0.0058578522875905,0.0504953376948833
863,0.00365310162305832,0.011298737488687,0.00227105314843357,0.00280775642022491,0.00857562199234962,0.0507397204637527
864,0.00256927683949471,0.0124757774174213,0.00242431508377194,0.00393155496567488,0.0102742509916425,0.0512219369411469
865,0.00104569655377418,0.013500964269042,0.00109446689020842,0.00365464575588703,0.00933073274791241,0.0496120527386665
866,9.65212020673789E-05,0.0139326108619571,-7.52168780309148E-05,0.00160150381270796,0.0071308109909296,0.0461732186377048
867,0.00113898189738393,0.0141975078731775,4.06404542445671E-05,-0.000588985567446798,0.00563580170273781,0.043636467307806
868,0.00417259521782398,0.0148464255034924,0.000441658310592175,-0.00152731547132134,0.00550256669521332,0.0434493757784367
869,0.00824878551065922,0.0164132174104452,0.000375803123461083,-0.000461544434074312,0.00648901565000415,0.0452961958944798
870,0.0112200416624546,0.0187380481511354,-0.0007149493903853,0.00174911029171199,0.00699205463752151,0.0478537157177925
871,0.0109690930694342,0.0206334199756384,-0.00324435834772885,0.00279970676638186,0.00540931383147836,0.0493404529988766
872,0.00792036857455969,0.0212005954235792,-0.00628961157053709,0.00197133561596274,0.00224161706864834,0.0491945184767246
873,0.0038549997843802,0.0204968061298132,-0.0087890699505806,0.000207569391932338,-0.00176641927100718,0.0478305853903294
874,0.000247202580794692,0.0189136546105146,-0.0103174662217498,-0.00140844332054257,-0.00572991790249944,0.0457374639809132
875,-0.00109604373574257,0.0175130926072598,-0.0101917842403054,-0.00116360373795033,-0.00764223467558622,0.0444253385066986
876,0.000374054594431072,0.0172254387289286,-0.0081651471555233,0.00160444225184619,-0.00741404946893454,0.044963464140892
877,0.0027662746142596,0.0173248164355755,-0.00558377802371979,0.00465573510155082,-0.00759957684203982,0.0458124466240406
878,0.00410795770585537,0.0166632439941168,-0.00407711276784539,0.00570406904444098,-0.00961092114448547,0.0449470728635788
879,0.00451561529189348,0.0156137393787503,-0.00320577691309154,0.0055682105012238,-0.0117316311225295,0.0430604927241802
880,0.00557756843045354,0.0152923325076699,-0.00147974456194788,0.00655090995132923,-0.011423253454268,0.0424903705716133
881,0.00750165898352861,0.015548131428659,0.000385257822927088,0.00836330465972424,-0.00902113318443298,0.0436767190694809
882,0.00787067040801048,0.0151872001588345,-0.000778087938670069,0.00768322357907891,-0.00826943572610617,0.044644720852375
883,0.0055936137214303,0.0138498181477189,-0.00565748801454902,0.00382094876840711,-0.010796532034874,0.0438717119395733
884,0.00261373049579561,0.0118043785914779,-0.0109629919752479,0.000116207047540229,-0.0139012513682246,0.0413274876773357
885,0.00169059471227229,0.0099703511223197,-0.0126103274524212,-0.000364080129656941,-0.0140838688239455,0.0389221198856831
886,0.00365356053225696,0.00947607308626175,-0.00956142786890268,0.00213609030470252,-0.0110530471429229,0.0389444828033447
887,0.00609341263771057,0.00974300596863031,-0.00533829536288977,0.00454183062538505,-0.00818847399204969,0.0408525317907333
888,0.00699170073494315,0.00942482892423868,-0.00284577719867229,0.00521848164498806,-0.00666995067149401,0.042718842625618
889,0.00616089114919305,0.00773188564926386,-0.00255116866901517,0.00426121847704053,-0.00539530068635941,0.0430400706827641
890,0.00365364621393383,0.00473038339987397,-0.00435953447595239,0.00178337073884904,-0.00474675465375185,0.0410816818475723
891,-0.000230577614274807,0.00111867568921298,-0.00755873927846551,-0.00172265630681068,-0.00505998311564326,0.036995816975832
892,-0.0041349409148097,-0.00190563744399697,-0.0109849832952023,-0.00510165421292186,-0.0062188277952373,0.0321518965065479
893,-0.0059701637364924,-0.00279095163568854,-0.0133191635832191,-0.00664029689505696,-0.0083749471232295,0.0290744993835688
894,-0.00551599590107799,-0.00147752859629691,-0.0143861118704081,-0.00620787171646953,-0.0115346293896437,0.0287074986845255
895,-0.00413336372002959,0.00106263521593064,-0.0143540138378739,-0.00431410456076264,-0.0146257411688566,0.0303537752479315
896,-0.00235898979008198,0.00453833816573024,-0.0126171372830868,-0.00015640797209926,-0.0153727754950523,0.0338922329246998
897,-0.000923816522117704,0.00787555146962404,-0.0102229611948133,0.00451894570142031,-0.0133784655481577,0.0377363115549088
898,-0.000369272398529574,0.00980525184422731,-0.00882199965417385,0.00623243348672986,-0.00995311420410872,0.0390605181455612
899,-0.00103658041916788,0.0102585246786475,-0.00926337949931622,0.00419691577553749,-0.00682102190330625,0.0365842692553997
900,-0.00302109844051301,0.00972066912800074,-0.0110829342156649,0.000624142878223211,-0.00559848174452782,0.031802486628294
901,-0.00421402044594288,0.00905064586549997,-0.011791612021625,-0.00168926722835749,-0.00580689217895269,0.0282647088170052
902,-0.00272813881747425,0.00867332704365253,-0.0106329200789332,-0.00230874051339924,-0.00650714337825775,0.0276228934526443
903,0.0015542812179774,0.00876750610768795,-0.00831532943993807,-0.00127598899416626,-0.00653660297393799,0.0293197724968195
904,0.00671747559681535,0.00895679648965597,-0.00576488859951496,0.000755553191993386,-0.00499476119875908,0.0313704162836075
905,0.00943670235574245,0.00787586439400911,-0.0050535467453301,0.000835859158542007,-0.00323258829303086,0.0308380462229252
906,0.00921197980642319,0.00571609102189541,-0.00654648058116436,-0.0019925266969949,-0.001936896587722,0.0279930271208286
907,0.00833585299551487,0.00423117494210601,-0.00868200790137053,-0.00582156144082546,-0.000310196133796126,0.0256458800286055
908,0.00822374504059553,0.00408037332817912,-0.0105521278455853,-0.00886721257120371,0.00123864272609353,0.0248655043542385
909,0.0082536032423377,0.00460164994001389,-0.0119242016226053,-0.0100738992914557,0.00200861948542297,0.0243003088980913
910,0.00713242078199983,0.00466660736128688,-0.0127471955493093,-0.0101056778803468,0.00187374174129218,0.0217244010418653
911,0.00485950289294124,0.00388574181124568,-0.0136272804811597,-0.0109886424615979,0.000146498932735994,0.0172731671482325
912,0.00268936972133815,0.00348618533462286,-0.0151915047317743,-0.0127863744273782,-0.00319838849827647,0.0142603786662221
913,0.00127220607828349,0.00455636391416192,-0.0170559994876385,-0.0135495597496629,-0.00736067490652204,0.0147724905982614
914,0.000738618546165526,0.00694817770272493,-0.0175022874027491,-0.0120384329929948,-0.0109426975250244,0.0178973600268364
915,0.00193367223255336,0.0103250723332167,-0.0145400781184435,-0.00787568651139736,-0.0113320732489228,0.0223016813397408
916,0.00457268115133047,0.0135533707216382,-0.00909894984215498,-0.00257437350228429,-0.00805309228599072,0.0256302189081907
917,0.00642354041337967,0.0149596836417913,-0.00493341498076916,0.000161976713570766,-0.00471211178228259,0.0248734969645739
918,0.00671064574271441,0.0151862241327763,-0.00374832516536117,-0.000251104007475078,-0.00453926995396614,0.021489629521966
919,0.00660052383318543,0.0159092042595148,-0.00432725204154849,-0.000917216355446726,-0.0074614929035306,0.0194603390991688
920,0.00674744648858905,0.0167398247867823,-0.00575704732909799,-0.000889942573849112,-0.0120646227151155,0.019028065726161
921,0.00722981104627252,0.0167521517723799,-0.00755403144285083,-0.000702287477906793,-0.0167097225785255,0.0186203438788652
922,0.00795096065849066,0.0161167271435261,-0.00846307631582022,-0.000111460954940412,-0.0192750077694654,0.0180238578468561
923,0.00858138967305422,0.015173964202404,-0.00721981981769204,0.00142347312066704,-0.0186456721276045,0.0173063930124044
924,0.00837830174714327,0.013629486784339,-0.00467198481783271,0.00342388264834881,-0.0169064942747355,0.0157069489359856
925,0.00696514965966344,0.0109399957582355,-0.00207076850347221,0.00397833064198494,-0.016781410202384,0.0116016743704677
926,0.00507908593863249,0.00726351933553815,0.00102993124164641,0.00169502152130008,-0.0178094729781151,0.00436479179188609
927,0.00357979931868613,0.00390241714194417,0.00309589970856905,-0.003324955701828,-0.0186007302254438,-0.00360964611172676
928,0.00301067694090307,0.00231744186021388,0.00120646180585027,-0.0100084049627185,-0.0198071207851171,-0.00945261120796204
929,0.00394444772973657,0.00342338741756976,-0.00364924874156713,-0.0160198640078306,-0.0218479223549366,-0.0118449795991182
930,0.00566861545667052,0.00695019541308284,-0.00840939674526453,-0.0196623187512159,-0.0248413681983948,-0.0111860586330295
931,0.00654043210670352,0.0110311005264521,-0.0114727355539799,-0.0214057769626379,-0.0293633379042149,-0.0101730050519109
932,0.00659688143059611,0.0143433660268784,-0.0124940853565931,-0.0220507960766554,-0.0338062904775143,-0.0108713051304221
933,0.00585568603128195,0.0167151745408773,-0.0135017400607467,-0.0227788295596838,-0.0378103628754616,-0.0136086754500866
934,0.00381612288765609,0.0182388611137867,-0.0159478131681681,-0.0241634454578161,-0.0433059148490429,-0.0175805129110813
935,0.00206448673270643,0.0199699699878693,-0.0179325751960278,-0.0247377008199692,-0.0494929105043411,-0.0204110238701105
936,0.00229512597434223,0.0227162763476372,-0.0189694799482822,-0.0248155202716589,-0.0540232732892036,-0.0223209206014872
937,0.00333151477389038,0.0250203665345907,-0.0213507302105427,-0.0277017951011658,-0.0571895204484463,-0.0273435283452272
938,0.00360175454989076,0.0254051089286804,-0.0254832170903683,-0.0343977697193623,-0.0611926913261414,-0.0362774506211281
939,0.00348858209326863,0.0246975421905518,-0.0298781134188175,-0.042419396340847,-0.0668994933366776,-0.0456126406788826
940,0.0030871401540935,0.0241985432803631,-0.0350933000445366,-0.0497098229825497,-0.0742764100432396,-0.0536732338368893
941,0.00268477038480341,0.024532089009881,-0.0417059175670147,-0.0552231185138226,-0.0826782509684563,-0.0607429631054401
942,0.00310554984025657,0.0258299820125103,-0.0489464290440083,-0.0595756210386753,-0.0910017043352127,-0.0664358511567116
943,0.00402708677574992,0.0275144204497337,-0.0569549314677715,-0.0652848109602928,-0.099836602807045,-0.0713402703404427
944,0.00536951888352633,0.0290983524173498,-0.0654539242386818,-0.0733662620186806,-0.11060755699873,-0.0774483755230904
945,0.00680727371945977,0.0302267149090767,-0.0742698982357979,-0.0836038589477539,-0.124055236577988,-0.0867671221494675
946,0.00742120435461402,0.0305194370448589,-0.0839981660246849,-0.095703050494194,-0.139522850513458,-0.0997433066368103
947,0.00703704403713346,0.0304110571742058,-0.0941968262195587,-0.107980407774448,-0.155299142003059,-0.114229097962379
948,0.00572601798921824,0.0306474417448044,-0.104419440031052,-0.118734247982502,-0.170614525675774,-0.127539619803429
949,0.00424514804035425,0.0318426787853241,-0.114711098372936,-0.127312257885933,-0.185000896453857,-0.137249425053597
950,0.00366469589062035,0.0343196950852871,-0.124803207814693,-0.13398389518261,-0.197441801428795,-0.142467752099037
951,0.00436871964484453,0.0375919118523598,-0.134219884872437,-0.139484733343124,-0.206817403435707,-0.145364910364151
952,0.00632163649424911,0.0409325063228607,-0.142314255237579,-0.143714770674706,-0.212517485022545,-0.148024633526802
953,0.00909522268921137,0.0438050702214241,-0.148190230131149,-0.146104022860527,-0.215008094906807,-0.150590866804123
954,0.0116377528756857,0.0453171543776989,-0.151895567774773,-0.147292867302895,-0.215794891119003,-0.153551280498505
955,0.0129612721502781,0.0447351336479187,-0.154793635010719,-0.149137184023857,-0.216637507081032,-0.157826140522957
956,0.0137272803112864,0.0430997461080551,-0.157377898693085,-0.15225176513195,-0.21780563890934,-0.162405267357826
957,0.0141321644186974,0.0414472445845604,-0.1604905128479,-0.157098084688187,-0.220106080174446,-0.167102992534637
958,0.0132339587435126,0.0394714251160622,-0.165353208780289,-0.163918972015381,-0.224432930350304,-0.173028111457825
959,0.0115122618153691,0.0372806116938591,-0.171061739325523,-0.170272469520569,-0.228413477540016,-0.179509550333023
960,0.0104720676317811,0.0354904197156429,-0.175261005759239,-0.173511043190956,-0.228696420788765,-0.185359612107277
961,0.0107229901477695,0.0345373377203941,-0.175916880369186,-0.17349936068058,-0.22444461286068,-0.18922857940197
962,0.0116489818319678,0.0349158085882664,-0.173064112663269,-0.171188324689865,-0.217368468642235,-0.189074724912643
963,0.0124847805127501,0.03652298822999,-0.168997913599014,-0.167482689023018,-0.210160627961159,-0.184684291481972
964,0.0119683360680938,0.0376134738326073,-0.166824102401733,-0.16480652987957,-0.205707252025604,-0.179264456033707
965,0.00982709415256977,0.0370990559458733,-0.166840434074402,-0.164315238595009,-0.204490259289742,-0.175123855471611
966,0.00818958226591349,0.0359283983707428,-0.165618479251862,-0.163641303777695,-0.203501969575882,-0.17099741101265
967,0.00882359780371189,0.0353028476238251,-0.160520359873772,-0.160401940345764,-0.19958521425724,-0.164874225854874
968,0.0107923746109009,0.035425927489996,-0.152769237756729,-0.154843762516975,-0.192510396242142,-0.157120183110237
969,0.0114650279283524,0.0349551998078823,-0.14637716114521,-0.149996086955071,-0.1851716786623,-0.151326254010201
970,0.0100821489468217,0.0328723937273026,-0.143095433712006,-0.147565573453903,-0.179587215185165,-0.149329051375389
971,0.00848345085978508,0.0303044226020575,-0.140078261494637,-0.145251616835594,-0.174075573682785,-0.14780892431736
972,0.00806286465376616,0.0286703705787659,-0.134854823350906,-0.141374081373215,-0.166370928287506,-0.142992630600929
