,AF3,AF4,Fp1,Fp2,AF7,AF8
0,0.0141990808770061,-0.00518431328237057,-0.100510910153389,-0.115054301917553,-0.12435157597065,-0.165978997945786
1,0.0159102622419596,-0.0046830172650516,-0.102694623172283,-0.115817360579968,-0.12694950401783,-0.170884653925896
2,0.0157124884426594,-0.0039157192222774,-0.105971954762936,-0.118143990635872,-0.130441948771477,-0.176658645272255
3,0.0145634403452277,-0.00366519554518163,-0.109551876783371,-0.121643371880054,-0.133634865283966,-0.182934001088142
4,0.0140990344807506,-0.00375420809723437,-0.113152272999287,-0.125263601541519,-0.135822772979736,-0.188219651579857
5,0.0146281002089381,-0.00402583926916122,-0.117675758898258,-0.129850670695305,-0.137681856751442,-0.193302914500237
6,0.0159983262419701,-0.00383452628739178,-0.123109504580498,-0.135710671544075,-0.139917388558388,-0.198915645480156
7,0.0177244320511818,-0.00274784746579826,-0.128355070948601,-0.141245052218437,-0.142875626683235,-0.203925088047981
8,0.018503300845623,-0.00165883789304644,-0.132478162646294,-0.145353525876999,-0.145899131894112,-0.207759648561478
9,0.0176597367972136,-0.00141008989885449,-0.134453982114792,-0.147942423820496,-0.147383466362953,-0.21048042178154
10,0.0163199305534363,-0.00146085966844112,-0.133003175258636,-0.148389846086502,-0.146353244781494,-0.211081981658936
11,0.0148318251594901,-0.00173855712637305,-0.129414185881615,-0.147307142615318,-0.144301161170006,-0.209545269608498
12,0.0126776760444045,-0.0029825868550688,-0.127074047923088,-0.146935775876045,-0.143107384443283,-0.207011923193932
13,0.0117960851639509,-0.00452610431239009,-0.126552388072014,-0.147413238883018,-0.142471164464951,-0.202412739396095
14,0.0145263094455004,-0.00532925082370639,-0.126251175999641,-0.147228717803955,-0.14217534661293,-0.194570481777191
15,0.0205808039754629,-0.00534238526597619,-0.125227451324463,-0.146015673875809,-0.141411438584328,-0.18601867556572
16,0.0274622831493616,-0.004631491843611,-0.122737340629101,-0.14371520280838,-0.1382015645504,-0.179952546954155
17,0.0312921926379204,-0.00366288772784173,-0.119063884019852,-0.140187084674835,-0.133261099457741,-0.176470592617989
18,0.0299734510481358,-0.00286663696169853,-0.115186214447021,-0.135634303092957,-0.128411948680878,-0.173161044716835
19,0.0262122750282288,-0.00154306495096534,-0.110305920243263,-0.129446476697922,-0.122791945934296,-0.167192742228508
20,0.0242452118545771,0.0005282296333462,-0.103674337267876,-0.121352009475231,-0.115825086832047,-0.158724904060364
21,0.0252846237272024,0.00252929190173745,-0.0963397100567818,-0.112821027636528,-0.108646892011166,-0.15031835436821
22,0.0272545646876097,0.00394047051668167,-0.0898520201444626,-0.105783775448799,-0.102216027677059,-0.142692983150482
23,0.027646865695715,0.00488024391233921,-0.0847967490553856,-0.100437588989735,-0.0968155935406685,-0.134243950247765
24,0.0264568980783224,0.00568047538399696,-0.0792684480547905,-0.0946608558297157,-0.0909755155444145,-0.123327225446701
25,0.0246117599308491,0.00607643323019147,-0.0722203329205513,-0.087658479809761,-0.0840248614549637,-0.11058509349823
26,0.0223807841539383,0.00593051919713616,-0.0656107217073441,-0.0810514241456985,-0.0776622891426086,-0.0980348140001297
27,0.020424522459507,0.00577080948278308,-0.0605912953615189,-0.0759029388427734,-0.072524331510067,-0.0866621658205986
28,0.0188478622585535,0.00532988877967,-0.0565988346934319,-0.0720482543110847,-0.06813745200634,-0.0769050642848015
29,0.0174153260886669,0.00436335662379861,-0.0526484027504921,-0.0676870867609978,-0.0641948729753494,-0.0679386481642723
30,0.0159629695117474,0.00354911177419126,-0.0489688329398632,-0.0616231933236122,-0.0608083643019199,-0.0582920834422112
31,0.0136229526251554,0.00274637551046908,-0.0471339449286461,-0.0559997633099556,-0.058541763573885,-0.0491707511246204
32,0.0106107005849481,0.00112322100903839,-0.0466547906398773,-0.0525300614535809,-0.0568186827003956,-0.0425186567008495
33,0.00871930085122585,-0.000858735758811235,-0.0446684770286083,-0.0494510941207409,-0.0537547916173935,-0.0370011813938618
34,0.00863901525735855,-0.00203065876848996,-0.0400036051869392,-0.0447787754237652,-0.048482671380043,-0.0301633663475513
35,0.00911471992731094,-0.00271589192561805,-0.0345795452594757,-0.0395574793219566,-0.0424982979893684,-0.0219165906310081
36,0.00875935517251492,-0.00371508416719735,-0.0303670987486839,-0.0346240140497684,-0.0378805175423622,-0.0133115248754621
37,0.00726665090769529,-0.00493594817817211,-0.0277368575334549,-0.0280615370720625,-0.0353405438363552,-0.00493285851553082
38,0.00529428897425532,-0.00637825531885028,-0.0260501001030207,-0.0196132939308882,-0.0339962393045425,0.00330869411118329
39,0.00360029260627925,-0.00838958099484444,-0.0241667460650206,-0.0124029889702797,-0.0318180099129677,0.0116041619330645
40,0.00267572980374098,-0.0111531829461455,-0.0211370177567005,-0.00839427765458822,-0.027300214394927,0.0194722153246403
41,0.00248106662184,-0.0146745834499598,-0.0168491806834936,-0.00637934217229486,-0.0211357697844505,0.0263103246688843
42,0.00269578071311116,-0.0186771508306265,-0.0113764749839902,-0.00382062629796565,-0.014375526458025,0.0326583161950111
43,0.00327950110659003,-0.0226543601602316,-0.0048542395234108,0.000565332127735019,-0.00711925374343991,0.0394897684454918
44,0.00368577567860484,-0.0264186691492796,0.00140368239954114,0.00558128720149398,0.00013812082761433,0.0463622137904167
45,0.00300974887795746,-0.0299459993839264,0.00605745334178209,0.00992949213832617,0.00670710857957602,0.0526029244065285
46,0.00105142127722502,-0.0329026989638805,0.00913113355636597,0.0137177165597677,0.0120099103078246,0.0585449375212193
47,-0.00160226132720709,-0.0350824035704136,0.0108226295560598,0.017034076154232,0.0157281383872032,0.0638620182871819
48,-0.00431119417771697,-0.0368751622736454,0.0110693518072367,0.0196109395474195,0.018641347065568,0.0670747831463814
49,-0.00610424811020494,-0.0382925793528557,0.0117610124871135,0.0222939234226942,0.0226152930408716,0.0685274228453636
50,-0.00547753134742379,-0.0385706014931202,0.0158656015992165,0.0267937183380127,0.0287837795913219,0.0714423060417175
51,-0.00285460078157485,-0.0377869009971619,0.0228905249387026,0.0330035388469696,0.0355813950300217,0.0775445625185966
52,-0.000505937205161899,-0.0368967093527317,0.0305004771798849,0.0394864641129971,0.0417715199291706,0.0851857215166092
53,0.00018164559151046,-0.0364733077585697,0.0375578477978706,0.0453510209918022,0.0483440607786179,0.0924494117498398
54,-0.00141374312806875,-0.0368199944496155,0.0423507057130337,0.0495194159448147,0.0549763962626457,0.0986002013087273
55,-0.00525308260694146,-0.0385554358363152,0.0433911643922329,0.0513852424919605,0.0595740266144276,0.103062361478806
56,-0.00979347061365843,-0.0422846712172031,0.0406817533075809,0.0514756962656975,0.0595921874046326,0.104920111596584
57,-0.0135041028261185,-0.0472781732678413,0.0355101451277733,0.050853505730629,0.0535675883293152,0.104688197374344
58,-0.0163424648344517,-0.0522903427481651,0.0303301978856325,0.0501766465604305,0.0435095280408859,0.103808753192425
59,-0.0173923168331385,-0.0566255785524845,0.0273569077253342,0.0497919954359531,0.0341521129012108,0.103000745177269
60,-0.0152835715562105,-0.0597296617925167,0.0268997400999069,0.0505551137030125,0.0293761715292931,0.103451043367386
61,-0.0115851564332843,-0.0616201348602772,0.0278380811214447,0.0530494600534439,0.030185516923666,0.105995215475559
62,-0.00851708557456732,-0.0620756223797798,0.0303818006068468,0.0577358528971672,0.0356885902583599,0.110455073416233
63,-0.00692747486755252,-0.0608971677720547,0.0351647436618805,0.0640475377440453,0.0434991791844368,0.116264656186104
64,-0.00759087270125747,-0.0596075095236301,0.0405506230890751,0.0692582875490189,0.0507019907236099,0.121708892285824
65,-0.0104980114847422,-0.059619527310133,0.0446425825357437,0.0715253576636314,0.056459192186594,0.125218585133553
66,-0.0137535100802779,-0.0600952692329884,0.0477952770888805,0.0724661350250244,0.062106192111969,0.127637937664986
67,-0.0161340925842524,-0.0602300390601158,0.0504086948931217,0.0738456249237061,0.0673403069376946,0.130383640527725
68,-0.0185948051512241,-0.0607676170766354,0.0515612922608852,0.0748864263296127,0.0694886222481728,0.133331596851349
69,-0.0214940123260021,-0.0622102357447147,0.0512118004262447,0.0750490054488182,0.0682986080646515,0.136119857430458
70,-0.0242840778082609,-0.0645860284566879,0.0503274388611317,0.0748159512877464,0.0668547824025154,0.138408020138741
71,-0.0258810240775347,-0.0671675056219101,0.0502802953124046,0.0752277597784996,0.0682304501533508,0.14054773747921
72,-0.0259143617004156,-0.069101557135582,0.0510923787951469,0.0764307230710983,0.0717950984835625,0.14271605014801
73,-0.0256085302680731,-0.070510134100914,0.0512631684541702,0.0771634578704834,0.0746480822563171,0.143983766436577
74,-0.024850744754076,-0.0709440112113953,0.051445372402668,0.0784581154584885,0.0767287760972977,0.1450454890728
75,-0.0227848365902901,-0.0698933824896812,0.0537989549338818,0.0823719650506973,0.0793507024645805,0.147234991192818
76,-0.0206481888890266,-0.0683121904730797,0.0578951574862003,0.0874189510941505,0.0821481719613075,0.149972677230835
77,-0.0203409679234028,-0.0676014646887779,0.0612654313445091,0.0900843515992165,0.0843286663293839,0.1518684476614
78,-0.0208498537540436,-0.0674953162670136,0.0640884116292,0.0907047465443611,0.0867869853973389,0.153396755456924
79,-0.0202685203403234,-0.066985696554184,0.0674432218074799,0.0919515937566757,0.0900229513645172,0.154879704117775
80,-0.0194134432822466,-0.0666482001543045,0.0700196549296379,0.0932551175355911,0.092216432094574,0.154300153255463
81,-0.0193880349397659,-0.0669917687773705,0.0712930485606194,0.093036912381649,0.092509426176548,0.15177558362484
82,-0.0199655219912529,-0.0668075904250145,0.0718357414007187,0.0917823389172554,0.0919912084937096,0.150476068258286
83,-0.0208415705710649,-0.0651200339198112,0.0718660801649094,0.0907678008079529,0.0915298014879227,0.151822879910469
84,-0.0212013814598322,-0.0622949600219727,0.0726931989192963,0.0908588469028473,0.0917642638087273,0.154662400484085
85,-0.0206762310117483,-0.0589809566736221,0.0751924142241478,0.0913101211190224,0.092640109360218,0.157377853989601
86,-0.0206727646291256,-0.055919598788023,0.0773372501134872,0.089594841003418,0.0922295078635216,0.157602816820145
87,-0.0208499394357204,-0.0528966039419174,0.0784200131893158,0.0856953114271164,0.090980164706707,0.154481887817383
88,-0.0188528504222631,-0.0483092963695526,0.0811001285910606,0.0832668989896774,0.092894971370697,0.151038020849228
89,-0.0161002017557621,-0.0424235947430134,0.0848160684108734,0.0832951441407204,0.0973682925105095,0.149133384227753
90,-0.0166113991290331,-0.0378816835582256,0.0852388739585876,0.082855336368084,0.0989844724535942,0.146782204508781
91,-0.0201225690543652,-0.035732340067625,0.0815831199288368,0.0811684280633926,0.0964460298418999,0.142992004752159
92,-0.0225654896348715,-0.0344408415257931,0.0778364539146423,0.0805016458034515,0.0930219367146492,0.13962621986866
93,-0.0220702607184649,-0.0327733308076859,0.0770812630653381,0.0817263573408127,0.0904442444443703,0.138060107827187
94,-0.0200458485633135,-0.0307546500116587,0.0781151950359344,0.0832171440124512,0.0875388607382774,0.137379735708237
95,-0.0183765701949596,-0.02874437533319,0.0775941461324692,0.0827329382300377,0.0829806923866272,0.135800406336784
96,-0.0179348215460777,-0.0272392053157091,0.0744617432355881,0.0793993175029755,0.0777133032679558,0.132555246353149
97,-0.0180691555142403,-0.0260804276913404,0.0711372792720795,0.0747852027416229,0.0744806304574013,0.128491565585136
98,-0.01805280148983,-0.024524400010705,0.0695583298802376,0.0708449929952621,0.0743493065237999,0.124748103320599
99,-0.0183213669806719,-0.0223393924534321,0.0692905485630035,0.0682541579008102,0.075668066740036,0.12167976051569
100,-0.0188359692692757,-0.0194215383380651,0.0696289911866188,0.0675259083509445,0.0766568630933762,0.119784399867058
101,-0.0187961366027594,-0.0157560352236032,0.0702505707740784,0.0687882453203201,0.0767425894737244,0.119540438055992
102,-0.018197963014245,-0.0121686225757003,0.0708268508315086,0.0705519542098045,0.0762907192111015,0.119687259197235
103,-0.0181743763387203,-0.00997966434806585,0.0705722123384476,0.070570319890976,0.0753791779279709,0.117960229516029
104,-0.0193071514368057,-0.00952248834073544,0.0689269825816154,0.0684685558080673,0.0732056349515915,0.114082597196102
105,-0.020531851798296,-0.00968909543007612,0.066890612244606,0.066191554069519,0.0696717128157616,0.110044568777084
106,-0.0213409010320902,-0.00953760370612144,0.0650760009884834,0.0649082735180855,0.0655979737639427,0.107178017497063
107,-0.0220583714544773,-0.00886455085128546,0.0632456541061401,0.0643636956810951,0.0625542253255844,0.105113334953785
108,-0.0221091136336327,-0.00740053690969944,0.0623573213815689,0.0642038434743881,0.0626360923051834,0.103443123400211
109,-0.0218971241265535,-0.00539810629561543,0.062365997582674,0.0629429891705513,0.0654230862855911,0.102189972996712
110,-0.0224945656955242,-0.0035712297540158,0.0617610402405262,0.0596235506236553,0.0681042820215225,0.101178050041199
111,-0.0222072154283524,-0.00131101289298385,0.0617179572582245,0.0568554475903511,0.0701998323202133,0.101025477051735
112,-0.0193353779613972,0.00209755287505686,0.0639874264597893,0.0574357062578201,0.0727128908038139,0.102599292993546
113,-0.0160176064819098,0.0051658651791513,0.0667975023388863,0.0601044707000256,0.0739230662584305,0.104386948049068
114,-0.0149701908230782,0.0062624947167933,0.0679400563240051,0.0618086569011211,0.0719217360019684,0.104306951165199
115,-0.01687977835536,0.00535945314913988,0.0669046714901924,0.0606181398034096,0.0673815608024597,0.101808406412601
116,-0.0208261795341969,0.0032710749655962,0.0644917339086533,0.0569508075714111,0.0627482533454895,0.097355954349041
117,-0.0245111808180809,0.000818295287899673,0.0623483881354332,0.0532148852944374,0.0606558620929718,0.0923060849308968
118,-0.0264545138925314,-0.00183940818533301,0.0611524693667889,0.0507573112845421,0.0616060309112072,0.0879579111933708
119,-0.0272015761584044,-0.00441169505938888,0.0605764165520668,0.0495900698006153,0.0639485716819763,0.0853031948208809
120,-0.0266262348741293,-0.00630909204483032,0.0599269084632397,0.0497759208083153,0.0654243677854538,0.0845960676670074
121,-0.0232174172997475,-0.00728982361033559,0.0589259788393974,0.0511554032564163,0.0650484561920166,0.0852144956588745
122,-0.0173501688987017,-0.00707100378349423,0.0582677647471428,0.0531652718782425,0.0638610199093819,0.0866304412484169
123,-0.0118665136396885,-0.00574000272899866,0.0580990947782993,0.0547692812979221,0.0629410147666931,0.0877458155155182
124,-0.00939918495714664,-0.00458844844251871,0.0573937371373177,0.0549136027693748,0.0620355270802975,0.0868697166442871
125,-0.0100558018311858,-0.00451411306858063,0.0559513866901398,0.0540179759263992,0.0610770992934704,0.0841494724154472
126,-0.0124301174655557,-0.00493399333208799,0.054232083261013,0.0531320758163929,0.0600788332521915,0.08122868090868
127,-0.0155424056574702,-0.00502453977242112,0.0518041327595711,0.0523339621722698,0.0581805892288685,0.0788525268435478
128,-0.0180020146071911,-0.00428480887785554,0.0487298704683781,0.0516188703477383,0.0556547231972218,0.0770557299256325
129,-0.0184569489210844,-0.00283276988193393,0.0465159974992275,0.0513962134718895,0.0540797039866447,0.0759491994976997
130,-0.0166812650859356,-0.00110697629861534,0.0467730313539505,0.0526829361915588,0.0547604486346245,0.0760452747344971
131,-0.0133732855319977,0.000472441548481584,0.049254585057497,0.0560782849788666,0.0579660274088383,0.0773411467671394
132,-0.0102026546373963,0.00109514384530485,0.0519497320055962,0.0595156699419022,0.0621333494782448,0.0782264322042465
133,-0.00931132677942514,0.000409125030273572,0.0526214726269245,0.0596972033381462,0.0642891824245453,0.0772885233163834
134,-0.0112794321030378,-0.000741691736038774,0.0504123531281948,0.0563367195427418,0.0628934502601624,0.0749250799417496
135,-0.0135071966797113,-0.00117969431448728,0.0471494756639004,0.0526203103363514,0.0597229041159153,0.0725600197911263
136,-0.0130820395424962,-0.000699759519193321,0.0451953411102295,0.051087561994791,0.0572984144091606,0.0714567229151726
137,-0.0103605026379228,8.38853447930887E-05,0.0450108014047146,0.0514755994081497,0.0563138462603092,0.071668729186058
138,-0.00753823900595307,0.00104301364626735,0.0460594445466995,0.0526929907500744,0.0564031191170216,0.0726660490036011
139,-0.00571115082129836,0.00221299356780946,0.047721903771162,0.0541095808148384,0.0575015619397163,0.074168898165226
140,-0.00498154386878014,0.00286348932422698,0.0488581173121929,0.0544655621051788,0.0590429045259953,0.0749332457780838
141,-0.00544557627290487,0.00233952421694994,0.0484499596059322,0.05267034471035,0.0594130679965019,0.0734002515673637
142,-0.00640789465978742,0.00107061339076608,0.0466333068907261,0.0499357394874096,0.0583638623356819,0.0701555758714676
143,-0.00690749473869801,-8.22314395918511E-05,0.0441358461976051,0.0479571968317032,0.057277750223875,0.0668545141816139
144,-0.00728261284530163,-0.000620931212324649,0.0417121313512325,0.0467490181326866,0.0563120804727077,0.0638906434178352
145,-0.00764982122927904,0.000126604121760465,0.0405235141515732,0.0465637147426605,0.0550256334245205,0.0618286617100239
146,-0.00792544800788164,0.00231018313206732,0.0404202006757259,0.0467856824398041,0.0534330196678638,0.0611279979348183
147,-0.00953298527747393,0.00429837359115481,0.039141271263361,0.0445733033120632,0.0511797517538071,0.0602233074605465
148,-0.0125125329941511,0.00492161698639393,0.0363122262060642,0.0397285558283329,0.048865519464016,0.0581853203475475
149,-0.0143170179799199,0.00495518418028951,0.0342953465878963,0.0353829897940159,0.0473884604871273,0.0560078211128712
150,-0.0131842261180282,0.00557537656277418,0.034568302333355,0.0338200032711029,0.0465966984629631,0.0547312796115875
151,-0.0105270929634571,0.00708517618477345,0.0360755138099194,0.0345998778939247,0.0459584034979343,0.0542557425796986
152,-0.00830049812793732,0.00910147465765476,0.0375456213951111,0.0359173566102982,0.0453330539166927,0.0536636039614677
153,-0.00657107075676322,0.011069874279201,0.0385911650955677,0.0362567864358425,0.0447548180818558,0.0517049320042133
154,-0.00580095592886209,0.0123514803126454,0.0381745211780071,0.0343662276864052,0.0436643101274967,0.0472577065229416
155,-0.00584323611110449,0.0135792270302773,0.0359541289508343,0.0311670005321503,0.042104072868824,0.0415493026375771
156,-0.00482150027528405,0.0159127674996853,0.033331535756588,0.0289939474314451,0.0407746955752373,0.0367911756038666
157,-0.0011384345125407,0.0194697007536888,0.0328550226986408,0.0290530491620302,0.0411541983485222,0.0346914939582348
158,0.00431592017412186,0.0237320866435766,0.0351213663816452,0.0307516381144524,0.0436118617653847,0.0364176966249943
159,0.00831232219934464,0.0274579077959061,0.0370607264339924,0.0316018648445606,0.0447733141481876,0.0395253859460354
160,0.0101530319079757,0.030194628983736,0.0372443981468678,0.0307652056217194,0.042349100112915,0.0405218303203583
161,0.0107773235067725,0.0326225869357586,0.036223191767931,0.0288170147687197,0.0366429686546326,0.0385734252631664
162,0.00956459995359182,0.0350190699100494,0.033702876418829,0.025215420871973,0.0283626858144999,0.0341515354812145
163,0.00725120212882757,0.0381779596209526,0.0311272144317627,0.0210179127752781,0.0205700360238552,0.029260678216815
164,0.00556510034948587,0.0432668514549732,0.0304982271045446,0.0182727389037609,0.0158552080392838,0.0258764326572418
165,0.0051175975240767,0.0502395890653133,0.031515046954155,0.0174673143774271,0.0133818350732327,0.0239569526165724
166,0.0058610588312149,0.0579568482935429,0.0328063741326332,0.0181600879877806,0.0116404658183455,0.0231545232236385
167,0.00691606104373932,0.064766988158226,0.0332380011677742,0.0191601477563381,0.00998302735388279,0.0233498960733414
168,0.00706259580329061,0.0690945908427238,0.032603781670332,0.0193088483065367,0.00897325202822685,0.0236748326569796
169,0.00581968389451504,0.0703407898545265,0.0318691767752171,0.0187392644584179,0.0105595244094729,0.022950541228056
170,0.00348914414644241,0.0688289478421211,0.0322032943367958,0.0184834916144609,0.0157309733331203,0.0211150757968426
171,0.00177234597504139,0.0654226616024971,0.0338515937328339,0.0197870060801506,0.0223475154489279,0.0201142095029354
172,0.0022496918682009,0.0609728507697582,0.0351533629000187,0.0221914071589708,0.0262645091861486,0.0214036740362644
173,0.00369065604172647,0.0556568875908852,0.0338745564222336,0.0235882662236691,0.0247523821890354,0.0234321616590023
174,0.00412817718461156,0.0496524460613728,0.0299980212002993,0.0229094941169024,0.01920410618186,0.0237767528742552
175,0.00372232450172305,0.0439844094216824,0.0254120826721191,0.0206777509301901,0.0136673655360937,0.0216299947351217
176,0.00478160241618752,0.0406004972755909,0.0231116805225611,0.0194696951657534,0.0123854828998446,0.0192977339029312
177,0.00825843587517738,0.0406372956931591,0.0248494781553745,0.0213278979063034,0.0167697053402662,0.0192610491067171
178,0.0110916551202536,0.0423905774950981,0.028168186545372,0.0240591261535883,0.0229576993733644,0.0194819141179323
179,0.010483936406672,0.0433709435164928,0.0300121698528528,0.0247773490846157,0.0266519412398338,0.0173554439097643
180,0.00797032471746206,0.0433679521083832,0.0306195896118879,0.0244401898235083,0.0282122697681189,0.014181362465024
181,0.00595473172143102,0.0428865887224674,0.0310137718915939,0.024658240377903,0.0293076317757368,0.0112012764438987
182,0.00404603639617562,0.0415346808731556,0.0310585871338844,0.0242278818041086,0.02957509085536,0.00775232259184122
183,0.00126818032003939,0.0396902114152908,0.0305720772594213,0.0221609082072973,0.0286348406225443,0.00464294571429491
184,-0.00148034270387143,0.0383803360164166,0.0300257690250874,0.0195149164646864,0.0266464799642563,0.00326228095218539
185,-0.00288329366594553,0.0377461463212967,0.0300437118858099,0.0175140928477049,0.0236176550388336,0.00308106630109251
186,-0.00286329980008304,0.0374981909990311,0.0305376574397087,0.0167268682271242,0.0202878937125206,0.0032786603551358
187,-0.00176620134152472,0.0375594645738602,0.0310137718915939,0.0171135775744915,0.0177212581038475,0.00412972271442413
188,-0.00081761582987383,0.0371112562716007,0.0302819982171059,0.017127713188529,0.0155780995264649,0.00495408708229661
189,-0.00131486786995083,0.0352619700133801,0.027790604159236,0.0155337490141392,0.0130709810182452,0.00436202809214592
190,-0.0024193343706429,0.0326358526945114,0.0253998078405857,0.0138728432357311,0.0109841441735625,0.0029992894269526
191,-0.00291568133980036,0.0301437545567751,0.0243929997086525,0.0137665681540966,0.0100283594802022,0.00216782535426319
192,-0.00310315750539303,0.0276655834168196,0.0238493662327528,0.0144979236647487,0.00941054150462151,0.00130534823983908
193,-0.00439956551417708,0.0246054492890835,0.0222337115556002,0.013948424719274,0.00821127090603113,-0.00171130336821079
194,-0.00648852484300733,0.021499041467905,0.0199704132974148,0.011678327806294,0.00737876398488879,-0.0071731056086719
195,-0.00636191898956895,0.0202632155269384,0.0203009191900492,0.0110006835311651,0.00934686325490475,-0.0112392883747816
196,-0.00334407575428486,0.021427258849144,0.0242313407361507,0.0140082975849509,0.0140674998983741,-0.0109583353623748
197,-0.00028551509603858,0.023256765678525,0.0285327881574631,0.0179212000221014,0.0185585115104914,-0.00842271000146866
198,0.00048693161807023,0.0240718945860863,0.0301871374249458,0.01937385648489,0.0203847121447325,-0.00731093157082796
199,-0.00159179384354502,0.0228613503277302,0.0286546684801579,0.0174710378050804,0.0192405395209789,-0.00963176973164082
200,-0.00544622540473938,0.0193344634026289,0.025043124333024,0.0131705310195684,0.0169374365359545,-0.0152294505387545
201,-0.0087145147845149,0.0148900030180812,0.0210152678191662,0.00817963201552629,0.016011755913496,-0.0221853200346231
202,-0.00937603414058685,0.0117001924663782,0.0183550361543894,0.00435887975618243,0.017565593123436,-0.0278437193483114
203,-0.00748479878529906,0.0104571133852005,0.0179377272725105,0.00303415115922689,0.0199389606714249,-0.0308339912444353
204,-0.00512062758207321,0.00997416861355305,0.0185773950070143,0.00372112402692437,0.0205765329301357,-0.0328349731862545
205,-0.00427633663639426,0.0088998144492507,0.0184130668640137,0.00396945653483272,0.0187972690910101,-0.0363506861031055
206,-0.00504645565524697,0.0075561641715467,0.0173959080129862,0.00185985525604337,0.0157558508217335,-0.0407498702406883
207,-0.00624451087787747,0.00711783906444907,0.016270961612463,-0.00177504576276988,0.0124094542115927,-0.0431931130588055
208,-0.00701212696731091,0.00764313526451588,0.0147250993177295,-0.00477499980479479,0.00872544758021832,-0.0428540967404842
209,-0.00710110925137997,0.00837426632642746,0.0125741241499782,-0.00620509032160044,0.00488658575341105,-0.0414810664951801
210,-0.0068820440210402,0.00847520120441914,0.0100298440083861,-0.00712102837860584,0.00112596177496016,-0.041318841278553
211,-0.00629685865715146,0.00777925923466682,0.00753644434735179,-0.008451490662992,-0.00191995175555348,-0.0427971445024014
212,-0.00490699429064989,0.00686441268771887,0.0057008434087038,-0.00987998954951763,-0.00324028031900525,-0.0442711673676968
213,-0.0032460477668792,0.00673626782372594,0.00498234760016203,-0.0103901671245694,-0.00282758288085461,-0.0436480678617954
214,-0.0018144294153899,0.00850806385278702,0.00602115178480744,-0.00859238114207983,-0.000831138924695551,-0.0397396646440029
215,-0.000831033452413976,0.0116073852404952,0.00847064610570669,-0.00481646275147796,0.00273642083629966,-0.0344327464699745
216,-0.00110909284558147,0.0138911949470639,0.0105270864441991,-0.00138828612398356,0.00645322818309069,-0.0314751453697681
217,-0.00292761856690049,0.0139675904065371,0.0110023515298963,0.000536681793164462,0.0085737993940711,-0.0321288704872131
218,-0.0060080336406827,0.0116727175191045,0.00991714932024479,0.0013839224120602,0.00873710494488478,-0.0349764451384544
219,-0.00900477916002274,0.00791477411985397,0.0085530849173665,0.0016907163662836,0.00831046979874372,-0.0374025367200375
220,-0.00948997959494591,0.00388657324947417,0.0082665802910924,0.00140294677112252,0.00869497936218977,-0.0373591855168343
221,-0.00800909474492073,-0.000131866472656839,0.00793542619794607,-0.00052717502694577,0.00894353073090315,-0.0358712933957577
222,-0.00761184142902493,-0.00406954810023308,0.00594692304730415,-0.00436173658818007,0.00823448691517115,-0.0353498533368111
223,-0.0085329320281744,-0.0075068804435432,0.00305879232473671,-0.00781315006315708,0.00869894959032536,-0.0357614941895008
224,-0.0084832301363349,-0.0101339956745505,0.000690671906340867,-0.0082602621987462,0.0115741677582264,-0.0352925471961498
225,-0.00683516031131148,-0.0120018627494574,-0.00106906751170754,-0.00590597651898861,0.0140868658199906,-0.0336275026202202
226,-0.00552411517128348,-0.0136773250997067,-0.00318644568324089,-0.00344861415214837,0.0129866898059845,-0.0324260666966438
227,-0.00608672713860869,-0.0154123557731509,-0.00605098670348525,-0.00275078159756958,0.00838366616517305,-0.0325221195816994
228,-0.00756367389112711,-0.0165640786290169,-0.00863374583423138,-0.0028071696870029,0.00321615301072598,-0.0327874273061752
229,-0.0081285098567605,-0.016822773963213,-0.00964895728975534,-0.00120361894369125,-0.00020520442922134,-0.0322429947555065
230,-0.0064398655667901,-0.0165985822677612,-0.00777555117383599,0.00297863432206213,-0.00108058436308056,-0.0303851906210184
231,-0.00326624023728073,-0.0166518613696098,-0.00359672401100397,0.00689501781016588,0.000263535242993385,-0.0276828277856112
232,-0.000445464451331645,-0.0170636959373951,0.000887176604010165,0.00839309487491846,0.00302930967882276,-0.0248250905424356
233,0.00190635281614959,-0.0169822983443737,0.00534076243638992,0.00961866229772568,0.00673749204725027,-0.021253390237689
234,0.00285934563726187,-0.01670260168612,0.00823107454925776,0.0110509833320975,0.00917009171098471,-0.0182527657598257
235,0.000805092393420637,-0.0174970664083958,0.00659024342894554,0.00990558881312609,0.00760842300951481,-0.0185636132955551
236,-0.0027563760522753,-0.0191917829215527,0.00145741098094732,0.00622362224385142,0.00274717924185097,-0.021369744092226
237,-0.00524051068350673,-0.0205227080732584,-0.00271328771486878,0.00300665176473558,-0.00248874723911285,-0.0234620291739702
238,-0.00592090468853712,-0.0210344158113003,-0.00358756328932941,0.00180201802868396,-0.00560771394520998,-0.0235387571156025
239,-0.00539047922939062,-0.0215039849281311,-0.00296156830154359,0.00169919535983354,-0.00622938061133027,-0.0226138271391392
240,-0.0046431110240519,-0.0227008424699306,-0.00341990077868104,0.00129737542010844,-0.00606403965502977,-0.0217415075749159
241,-0.00419014832004905,-0.0242368169128895,-0.00520918285474181,0.000557288702111691,-0.00608032383024693,-0.0211885403841734
242,-0.00346797448582947,-0.0251114387065172,-0.00709871714934707,0.00049365550512448,-0.0054937731474638,-0.0213604066520929
243,-0.00177766173146665,-0.0250379350036383,-0.00815855525434017,0.00173388072289526,-0.00369095173664391,-0.0224210396409035
244,0.000496454245876521,-0.0243621058762074,-0.00807330571115017,0.00394139857962728,-0.00101534463465214,-0.0235266201198101
245,0.00231199897825718,-0.0235235299915075,-0.00707356398925185,0.00605052895843983,0.00217189081013203,-0.0239531062543392
246,0.00218449044041336,-0.0238200183957815,-0.00691834231838584,0.00610856525599957,0.00478990143164992,-0.0248827748000622
247,-0.000179992217454128,-0.0258205980062485,-0.00876882672309875,0.00374112045392394,0.00539324386045337,-0.0266971029341221
248,-0.00178831082303077,-0.027781218290329,-0.0101884035393596,0.00219821487553418,0.0048440545797348,-0.0268571395426989
249,-2.90735879389104E-05,-0.0286715440452099,-0.00872762314975262,0.00381146860308945,0.00503190699964762,-0.0243195835500956
250,0.00352881476283073,-0.0297422800213099,-0.00607367884367704,0.00667650671675801,0.0057799038477242,-0.0216372590512037
251,0.00641114544123411,-0.0313430689275265,-0.00441684015095234,0.00881634838879108,0.00656097009778023,-0.0204100087285042
252,0.00710841687396169,-0.0326844677329063,-0.00397125678136945,0.00982813537120819,0.00671737222000957,-0.0199985634535551
253,0.0054951929487288,-0.0336697734892368,-0.00452452804893255,0.00963716488331556,0.00487224897369742,-0.0196884796023369
254,0.00376552902162075,-0.0344850644469261,-0.0054803341627121,0.00886290054768324,0.00137013848870993,-0.0191826149821281
255,0.00284881587140262,-0.0356291830539703,-0.00709449499845505,0.00740719074383378,-0.00266834581270814,-0.019279170781374
256,0.00189371849410236,-0.0371022373437881,-0.0100880600512028,0.00546111958101392,-0.00689540803432465,-0.020608002319932
257,0.00138342916034162,-0.0379645191133022,-0.0131626129150391,0.00524484878405929,-0.0100641045719385,-0.0221643317490816
258,0.00207627913914621,-0.0380436033010483,-0.0145279681310058,0.00738146575167775,-0.0111434822902083,-0.0227528866380453
259,0.00313582411035895,-0.0380314886569977,-0.014639999717474,0.00943119265139103,-0.0118250632658601,-0.0219675302505493
260,0.00417738920077682,-0.0378414653241634,-0.0137915462255478,0.0107012959197164,-0.0128510342910886,-0.0192187447100878
261,0.00606893235817552,-0.0368097946047783,-0.0107112331315875,0.0126817496493459,-0.0121762119233608,-0.0142313204705715
262,0.00938221998512745,-0.0348913744091988,-0.00587843917310238,0.0155260087922215,-0.00841894000768662,-0.00780287338420749
263,0.0138845695182681,-0.0327985808253288,-0.00167580111883581,0.0182811003178358,-0.00213116849772632,-0.00131099903956056
264,0.0186380743980408,-0.0312367510050535,0.000852319644764066,0.0203990824520588,0.00526414345949888,0.00334977218881249
265,0.0216757412999868,-0.0308371018618345,0.00161889288574457,0.0209379997104406,0.0117564518004656,0.00416323635727167
266,0.020787350833416,-0.0322413817048073,-0.000116810537292622,0.0186119694262743,0.0145165827125311,0.000412839057389647
267,0.0174489058554173,-0.0343837924301624,-0.00325209880247712,0.0149312615394592,0.0133260432630777,-0.00533013883978128
268,0.0153937060385942,-0.0353770703077316,-0.00586090236902237,0.0121784182265401,0.0104969181120396,-0.009787960909307
269,0.015570092946291,-0.0349625088274479,-0.00826326664537191,0.0100867506116629,0.00687390798702836,-0.01254659332335
270,0.0167409554123878,-0.0336072109639645,-0.0106594320386648,0.00833791494369507,0.00327102933079004,-0.0137530965730548
271,0.0170669872313738,-0.0316235050559044,-0.0120803788304329,0.00731444731354713,0.001214909250848,-0.0134671377018094
272,0.0160595811903477,-0.0290527306497097,-0.0111774178221822,0.00781072722747922,0.00131058203987777,-0.0124706048518419
273,0.0144292283803225,-0.0262378565967083,-0.00842070858925581,0.0094875106588006,0.00170064845588058,-0.0115474816411734
274,0.0122404340654612,-0.0242821462452412,-0.00667432136833668,0.00978484936058521,-0.00038256763946265,-0.0114224152639508
275,0.0110335452482104,-0.0230747684836388,-0.00588023662567139,0.00872699730098248,-0.00310891424305737,-0.0111444937065244
276,0.0118347527459264,-0.0218716729432344,-0.00454475870355964,0.00820608995854855,-0.0034102990757674,-0.0100916130468249
277,0.0127559043467045,-0.0211410354822874,-0.00425477186217904,0.00748942419886589,-0.00275535136461258,-0.0104141049087048
278,0.0127115985378623,-0.0210974235087633,-0.00584638398140669,0.00540034379810095,-0.00266978866420686,-0.013130621984601
279,0.0119173834100366,-0.0215419698506594,-0.00781186390668154,0.00216525490395725,-0.00234889285638928,-0.0168906487524509
280,0.0109077300876379,-0.0228171944618225,-0.00907940603792667,-0.0010321723530069,-0.00173114368226379,-0.0203935280442238
281,0.0110813165083528,-0.0248520951718092,-0.00933113042265177,-0.00255412259139121,-0.00113519106525928,-0.0228519178926945
282,0.0130739463493228,-0.0266344714909792,-0.00860565807670355,-0.00159414764493704,-0.000136425253003836,-0.0234836377203465
283,0.0152529366314411,-0.0276175085455179,-0.00789062585681677,0.000921432743780315,0.00110121979378164,-0.021975789219141
284,0.015901081264019,-0.027870936319232,-0.00780023448169231,0.00425390480086207,0.00271883304230869,-0.0188814513385296
285,0.0146440835669637,-0.0275065414607525,-0.00777936447411776,0.00853597652167082,0.00550144584849477,-0.0160748679190874
286,0.0114309694617987,-0.0276527684181929,-0.00783504452556372,0.0114692030474544,0.00818032119423151,-0.0164710637181997
287,0.00847433786839247,-0.0289604514837265,-0.00792957749217749,0.0108971912413836,0.00924356561154127,-0.0195267274975777
288,0.00764094199985266,-0.0313118323683739,-0.00867810193449259,0.00740367127582431,0.00858409702777863,-0.0224145781248808
289,0.00696145510300994,-0.0345297493040562,-0.0113648837432265,0.00250774365849793,0.00582942459732294,-0.0246695000678301
290,0.00562916044145823,-0.0368461534380913,-0.0145720038563013,-0.000609243754297495,0.00130293471738696,-0.025334345176816
291,0.00566030712798238,-0.0368970558047295,-0.0153643833473325,0.000638807949144393,-0.0025885789655149,-0.0227961018681526
292,0.00728315627202392,-0.0358460284769535,-0.013476843945682,0.0044707739725709,-0.00408558640629053,-0.0188312586396933
293,0.00783019233494997,-0.0355424955487251,-0.0114210080355406,0.00675584236159921,-0.00478809094056487,-0.0175460036844015
294,0.00586081994697452,-0.0360493920743465,-0.0105843469500542,0.00663014221936464,-0.00644246581941843,-0.0194678865373135
295,0.00299935066141188,-0.0357478223741055,-0.0105548314750195,0.00678712455555797,-0.00902070291340351,-0.0207228045910597
296,0.000491733429953456,-0.034425787627697,-0.0119426744058728,0.00770100671797991,-0.0124120246618986,-0.0201210454106331
297,-0.00195154536049813,-0.0336289741098881,-0.0152198886498809,0.00706716952845454,-0.0156424101442099,-0.0206887777894735
298,-0.00272939377464354,-0.0332845188677311,-0.0175591558218002,0.00553739024326205,-0.0157643314450979,-0.0226421765983105
299,0.000172091851709411,-0.0322723910212517,-0.0161659941077232,0.00574715854600072,-0.011521284468472,-0.0231182221323252
300,0.00532000884413719,-0.031135082244873,-0.0127080464735627,0.00709343189373612,-0.00587165355682373,-0.0220139473676682
301,0.0101208565756679,-0.030360447242856,-0.00996945053339005,0.00818060617893934,-0.00138668797444552,-0.0206261891871691
302,0.0128644229844213,-0.0291460212320089,-0.00838962011039257,0.00957861728966236,0.0020970010664314,-0.018731975927949
303,0.013358211144805,-0.0270234066992998,-0.00643116515129805,0.0129526304081082,0.00576655799522996,-0.0150925144553185
304,0.0135459676384926,-0.0243677161633968,-0.0021739152725786,0.0197819471359253,0.0106902346014977,-0.00893029943108559
305,0.0139080621302128,-0.0225654933601618,0.00318485824391246,0.0275940485298634,0.0153843779116869,-0.00328240147791803
306,0.0128165083006024,-0.0231265909969807,0.00614869967103004,0.0309027638286352,0.0170112308114767,-0.00338478502817452
307,0.0109959356486797,-0.0254757665097713,0.0057902354747057,0.0278303548693657,0.0157362055033445,-0.00996603723615408
308,0.0102186780422926,-0.0276077371090651,0.00302894529886544,0.0206322465091944,0.0132825123146176,-0.0194650925695896
309,0.0102984448894858,-0.0283645186573267,-0.00141535105649382,0.0122970575466752,0.0106248091906309,-0.0284211188554764
310,0.0111033972352743,-0.0276851877570152,-0.00602477416396141,0.0059191701002419,0.00868241395801306,-0.0341859348118305
311,0.0126547003164887,-0.0260896030813456,-0.00979837216436863,0.00286333705298603,0.00742542371153831,-0.036410853266716
312,0.0140889417380095,-0.0241979938000441,-0.0127612147480249,0.00184540951158851,0.00678757717832923,-0.0373691022396088
313,0.0152539480477571,-0.0222438145428896,-0.0144020039588213,0.00156027311459184,0.00795974303036928,-0.0387988574802876
314,0.0170560218393803,-0.0202228967100382,-0.0142891453579068,0.00202398304827511,0.010993130505085,-0.0408746935427189
315,0.0198528412729502,-0.0178411919623613,-0.0123086869716644,0.00373919168487191,0.0142484456300735,-0.0424030497670174
316,0.0227285884320736,-0.0147306881844997,-0.00845971796661615,0.00675157131627202,0.016760066151619,-0.0407337471842766
317,0.0237039290368557,-0.0117498710751534,-0.00462763383984566,0.00978682469576597,0.0178582333028317,-0.0355320759117603
318,0.0216686148196459,-0.0106355519965291,-0.00332737946882844,0.010978383012116,0.0165916420519352,-0.0308815017342567
319,0.01880325935781,-0.0118859531357884,-0.00432137958705425,0.0102204792201519,0.0141259413212538,-0.0298132561147213
320,0.0174793992191553,-0.014843724668026,-0.00629588263109326,0.00832338444888592,0.0125410351902246,-0.0317840874195099
321,0.0173710901290178,-0.0179585795849562,-0.00826190412044525,0.0062814075499773,0.0128605021163821,-0.0345565415918827
322,0.0165146347135305,-0.0198633931577206,-0.00977968703955412,0.00447982270270586,0.0146687487140298,-0.0370220057666302
323,0.0130538353696465,-0.0206382721662521,-0.0117246750742197,0.00220349919982255,0.0152744380757213,-0.0396476089954376
324,0.00849784910678864,-0.0198602452874184,-0.0134118879213929,0.000992354936897755,0.013348656706512,-0.040686346590519
325,0.00592706678435206,-0.0173126179724932,-0.0130784241482615,0.0024522200692445,0.0106222620233893,-0.038715336471796
326,0.00581044936552644,-0.014697240665555,-0.0112244179472327,0.00464387983083725,0.00884910114109516,-0.0358521677553654
327,0.0076581290923059,-0.0132603198289871,-0.00905116833746433,0.00571376224979758,0.0090614715591073,-0.0332817770540714
328,0.0109774880111218,-0.0120380753651261,-0.00680080242455006,0.00642528105527163,0.0110941613093019,-0.0292884279042482
329,0.013041514903307,-0.0104472152888775,-0.00620481045916677,0.00659984443336725,0.0123552596196532,-0.0247861482203007
330,0.0121694402769208,-0.00930074881762266,-0.00887063890695572,0.00532484566792846,0.0116998394951224,-0.023181801661849
331,0.0112912375479937,-0.00904826261103153,-0.0134699009358883,0.00329512380994856,0.0109739350154996,-0.0253568813204765
332,0.0137009676545858,-0.00933589041233063,-0.0177563186734915,0.00127192446961999,0.0114587964490056,-0.0301671028137207
333,0.0184643976390362,-0.0094158761203289,-0.0196320787072182,-0.000262565445154905,0.0132651207968593,-0.0356369949877262
334,0.0219709165394306,-0.00905071385204792,-0.0185871012508869,-0.00123237690422684,0.0154084088280797,-0.0399419106543064
335,0.0234427973628044,-0.00771033763885498,-0.0152617152780294,-0.000842904555611312,0.0181835200637579,-0.0415144637227058
336,0.0237835720181465,-0.00547974603250623,-0.0110710309818387,0.000930990441702306,0.0217600278556347,-0.0406504794955254
337,0.0224333927035332,-0.00408293399959803,-0.00850160047411919,0.00200493703596294,0.023595854640007,-0.0399061776697636
338,0.0200627222657204,-0.00403382163494825,-0.00787787511944771,0.0019601252861321,0.0232471916824579,-0.040208987891674
339,0.0181191228330135,-0.00418759509921074,-0.00744248274713755,0.00217644986696541,0.0231487862765789,-0.0409356206655502
340,0.0173718705773354,-0.00333708268590271,-0.00583450356498361,0.00383503083139658,0.0251088924705982,-0.0407693088054657
341,0.0180888492614031,-0.00152702885679901,-0.00364028522744775,0.00626452127471566,0.0285414010286331,-0.0389511324465275
342,0.0192946698516607,-0.00048150893417187,-0.00312374625355005,0.00708468863740563,0.0310390014201403,-0.0377701111137867
343,0.0197247918695211,-0.00155288027599454,-0.0056568430736661,0.00549151469022036,0.0303482748568058,-0.0398838073015213
344,0.0201236829161644,-0.00393492868170142,-0.00925613939762115,0.00298234564252198,0.027037538588047,-0.0441357754170895
345,0.0223886612802744,-0.0051987087354064,-0.010377986356616,0.00157340464647859,0.0246530771255493,-0.0461358055472374
346,0.0241983998566866,-0.00485845981165767,-0.0105472393333912,0.000614939897786826,0.0225793514400721,-0.0445213653147221
347,0.0210319291800261,-0.00527338590472937,-0.0141133368015289,-0.0026903199031949,0.0170668978244066,-0.0430569350719452
348,0.0145453754812479,-0.0066348291002214,-0.01934446208179,-0.00736677041277289,0.0113018723204732,-0.0436015948653221
349,0.0105227213352919,-0.00656620599329472,-0.0212869886308908,-0.0097831953316927,0.0112348720431328,-0.0442847907543182
350,0.0115203699097037,-0.00316595076583326,-0.0189165212213993,-0.00903104059398174,0.0169175900518894,-0.043698500841856
351,0.0151686388999224,0.00413106847554445,-0.0138401929289103,-0.00628745602443814,0.0248241145163774,-0.0417501479387283
352,0.0169152934104204,0.0121206194162369,-0.00804448127746582,-0.00297987647354603,0.0312897339463234,-0.0393896922469139
353,0.0149680115282536,0.0157335679978132,-0.00401446083560586,-0.000319514947477728,0.0346360951662064,-0.0374831259250641
354,0.0116551583632827,0.0139421690255404,-0.00332279549911618,0.00150871847290546,0.0347501188516617,-0.0357532203197479
355,0.00998285412788391,0.00969948060810566,-0.00551179796457291,0.00328474282287061,0.0301279965788126,-0.0338369980454445
356,0.0133389132097363,0.00584431039169431,-0.00909241288900375,0.00559656322002411,0.0203102584928274,-0.0315080508589745
357,0.0232065971940756,0.00279733748175204,-0.0132001144811511,0.00782862119376659,0.00804203748703003,-0.0286966022104025
358,0.0337865836918354,-0.000421335425926372,-0.017507541924715,0.00893878471106291,-0.00278481096029282,-0.0263570863753557
359,0.0377603359520435,-0.00370112480595708,-0.0209976863116026,0.00937039963901043,-0.00862649921327829,-0.0261529516428709
360,0.0340930446982384,-0.00603771070018411,-0.0227434262633324,0.00954627990722656,-0.00862294621765614,-0.0295730717480183
361,0.0267566945403814,-0.00688661681488156,-0.022470036521554,0.00827363971620798,-0.00432488927617669,-0.0361266806721687
362,0.0204098224639893,-0.00616748118773103,-0.0204625856131315,0.00511890603229404,0.002417819108814,-0.0428318008780479
363,0.0153597630560398,-0.00473124301061034,-0.0185101162642241,0.000544669688679278,0.00788883399218321,-0.0478378981351852
364,0.00937748700380325,-0.00311473780311644,-0.0179211236536503,-0.00450657913461328,0.00868411920964718,-0.0510022863745689
365,0.00394636718556285,-0.000238588370848447,-0.0175455342978239,-0.00735685741528869,0.00679676840081811,-0.0506719276309013
366,0.00207085255533457,0.00402111653238535,-0.015624200925231,-0.00566764688119292,0.00713584246113896,-0.0453842245042324
367,0.00300859869457781,0.00713451858609915,-0.0128863165155053,-0.00163315143436193,0.0104506425559521,-0.0385310426354408
368,0.00407566269859672,0.00703100999817252,-0.012501485645771,-0.000147018057759851,0.0129588767886162,-0.0354547388851643
369,0.0053806509822607,0.00526455417275429,-0.0151262599974871,-0.00205798307433724,0.0128797488287091,-0.0364576913416386
370,0.00795038696378469,0.00443397602066398,-0.0179046187549829,-0.00458553479984403,0.0120196929201484,-0.0381799452006817
371,0.0102603584527969,0.00501797441393137,-0.018627867102623,-0.00584105448797345,0.0127182193100452,-0.0384370870888233
372,0.0115774786099792,0.00695278309285641,-0.0163301713764668,-0.0044643166474998,0.017062334343791,-0.0362748317420483
373,0.0125542310997844,0.00978055689483881,-0.0121556194499135,-0.0013144122203812,0.0238655675202608,-0.0329065434634686
374,0.0120687540620565,0.0116891134530306,-0.00966204050928354,-9.86444065347314E-05,0.0273489337414503,-0.0312908329069614
375,0.0099556902423501,0.0121609838679433,-0.00991014204919338,-0.00140576378908008,0.023709949105978,-0.0313742682337761
376,0.0080372728407383,0.0123308785259724,-0.0113730281591415,-0.00283952965401113,0.0145327765494585,-0.0312826707959175
377,0.00650873919948936,0.0125882970169187,-0.0139010045677423,-0.00373739912174642,0.00342528568580747,-0.0316269062459469
378,0.00452340627089143,0.0125140631571412,-0.017963083460927,-0.00529681518673897,-0.00642592227086425,-0.0340239703655243
379,0.00240105902776122,0.0122172357514501,-0.0223076455295086,-0.00806261971592903,-0.0128080081194639,-0.0373409017920494
380,0.000661325757391751,0.0130925597622991,-0.0243711452931166,-0.00975980889052153,-0.0140522159636021,-0.0377949699759483
381,-0.000498615496326238,0.0156600028276443,-0.0238831993192434,-0.00915751792490482,-0.0106416530907154,-0.0353947915136814
382,-0.000496984925121069,0.0178267583250999,-0.023793525993824,-0.00958477798849344,-0.00643602665513754,-0.035725113004446
383,0.0016313778469339,0.0184746142476797,-0.0239744279533625,-0.011911072768271,-0.00275399326346815,-0.0400439351797104
384,0.00520579563453794,0.0186563786119223,-0.0219069719314575,-0.0131675126031041,0.0020147820468992,-0.0435033850371838
385,0.00748209422454238,0.018806928768754,-0.0193204954266548,-0.0134106194600463,0.00615725247189403,-0.0441377572715282
386,0.0078590577468276,0.0189828276634216,-0.0185427572578192,-0.013906410895288,0.00719751790165901,-0.0433895029127598
387,0.00850087311118841,0.0197377502918243,-0.0181055311113596,-0.0133672598749399,0.00653357617557049,-0.0418237261474133
388,0.0102661419659853,0.0211008973419666,-0.0165318883955479,-0.0111677832901478,0.00683690281584859,-0.0399987660348415
389,0.0116379410028458,0.0223276503384113,-0.0147200729697943,-0.00926626287400723,0.00812264252454042,-0.0395312011241913
390,0.0109137576073408,0.0231244210153818,-0.0138145936653018,-0.00934399478137493,0.0089258374646306,-0.0410553328692913
391,0.00724691292271018,0.0230265744030476,-0.0155048109591007,-0.0124673508107662,0.00831472594290972,-0.0448642410337925
392,0.00264465576037765,0.0218476932495832,-0.0201847888529301,-0.0178796257823706,0.0072886636480689,-0.0504523515701294
393,0.00155518134124577,0.0215403493493795,-0.0243881493806839,-0.0215122308582067,0.00841271877288818,-0.0544718950986862
394,0.00434754462912679,0.0233522206544876,-0.0258640572428703,-0.0212714970111847,0.011227810755372,-0.0551563426852226
395,0.00682972557842731,0.0257187485694885,-0.0258135106414557,-0.0192796122282743,0.0123928068205714,-0.0551683343946934
396,0.00768650788813829,0.0271623227745295,-0.0245670322328806,-0.0174196194857359,0.0114203970879316,-0.0570301972329617
397,0.00953724514693022,0.0280081052333117,-0.0215775072574615,-0.0161372385919094,0.010431032627821,-0.0592503286898136
398,0.0129759591072798,0.0291842557489872,-0.018513286486268,-0.0161098092794418,0.00957559701055288,-0.0592014528810978
399,0.0153569104149938,0.031069552525878,-0.0176001228392124,-0.0175667554140091,0.00810239650309086,-0.0574621967971325
400,0.0147770429030061,0.0336806364357471,-0.0184711273759604,-0.0193214323371649,0.00739341927692294,-0.0557330027222633
401,0.0125144636258483,0.0370314382016659,-0.0180287193506956,-0.0194125715643168,0.0092420494183898,-0.0537928380072117
402,0.0110980710014701,0.0404732450842857,-0.0149886282160878,-0.0175757203251123,0.0120316026732326,-0.0512069910764694
403,0.0117696756497025,0.0432082153856754,-0.0122981090098619,-0.0156689900904894,0.0129671916365623,-0.0489141568541527
404,0.014536127448082,0.0452070534229279,-0.0115388790145516,-0.0146530466154218,0.0138737745583057,-0.0479706525802612
405,0.0170478615909815,0.0458467453718185,-0.0125955259427428,-0.0152606284245849,0.0171428378671408,-0.0498907081782818
406,0.0163821633905172,0.0443307608366013,-0.0159794185310602,-0.0185285992920399,0.0189203936606646,-0.0560191608965397
407,0.0137562155723572,0.0421230867505074,-0.0193132031708956,-0.0222454834729433,0.0163284428417683,-0.063198409974575
408,0.0116618238389492,0.0409026853740215,-0.0200657695531845,-0.0236800629645586,0.0123585592955351,-0.0673605725169182
409,0.0105696497485042,0.0402734205126762,-0.0197126250714064,-0.023447772487998,0.00773489288985729,-0.0692255571484566
410,0.0108227115124464,0.0395226664841175,-0.0201268997043371,-0.0223872307687998,-0.00014851227751933,-0.0708166137337685
411,0.0121964011341333,0.0382906869053841,-0.0212115347385406,-0.0212945528328419,-0.0111913122236729,-0.0733175426721573
412,0.0133610237389803,0.0365797132253647,-0.0224788803607225,-0.0229315590113401,-0.0218344796448946,-0.0773152932524681
413,0.0137898847460747,0.035664688795805,-0.0229030624032021,-0.027449369430542,-0.0281822383403778,-0.0807580277323723
414,0.0136379702016711,0.036630816757679,-0.0216074641793966,-0.0313476882874966,-0.0300841052085161,-0.0812779664993286
415,0.0131757287308574,0.0388151966035366,-0.0193529240787029,-0.0326519124209881,-0.0299219992011786,-0.0790823996067047
416,0.0135359195992351,0.0409721210598946,-0.0160002894699574,-0.0316703841090202,-0.0279915891587734,-0.0764554068446159
417,0.0154905999079347,0.0425294265151024,-0.0110620968043804,-0.0295954328030348,-0.0244430471211672,-0.0753350481390953
418,0.0176585242152214,0.0432797782123089,-0.00773941399529576,-0.0281402859836817,-0.0222514029592276,-0.0752252116799355
419,0.0175994429737329,0.0420372076332569,-0.0102907493710518,-0.0301926881074905,-0.0246828738600016,-0.0781282484531403
420,0.0156220952048898,0.0383261255919933,-0.0181199815124273,-0.0369440875947475,-0.0318026132881641,-0.0867498591542244
421,0.0142393782734871,0.0340444520115852,-0.0272159520536661,-0.04539680108428,-0.0411159954965115,-0.0980467945337296
422,0.013256037607789,0.0309716127812862,-0.0355625711381435,-0.0523911938071251,-0.050925001502037,-0.107075646519661
423,0.0103628495708108,0.0293149687349796,-0.0443474464118481,-0.0582482628524303,-0.0616267621517181,-0.112225964665413
424,0.00598176242783666,0.0287402216345072,-0.0540314167737961,-0.0650196820497513,-0.0722831934690475,-0.115698151290417
425,0.0034761680290103,0.0291789155453444,-0.0620824880897999,-0.0724708139896393,-0.0799331218004227,-0.119640380144119
426,0.00430425768718123,0.0298417340964079,-0.0669446513056755,-0.0796255171298981,-0.0850700214505196,-0.125474467873573
427,0.00688198115676641,0.0292590688914061,-0.0695011392235756,-0.0868777707219124,-0.0907673984766006,-0.135271444916725
428,0.0103358253836632,0.0272205583751202,-0.0713849067687988,-0.0938873216509819,-0.0969554334878922,-0.148447543382645
429,0.0164784453809261,0.0243122968822718,-0.0755591690540314,-0.10105612128973,-0.102773800492287,-0.162537455558777
430,0.0250288974493742,0.02101163379848,-0.0842439979314804,-0.110169015824795,-0.109946794807911,-0.176776915788651
431,0.029762813821435,0.0183448400348425,-0.0967836901545525,-0.121469341218472,-0.120755717158318,-0.191481828689575
432,0.0273231081664562,0.0181637275964022,-0.111489102244377,-0.133712261915207,-0.136542677879334,-0.206265211105347
433,0.0209252666682005,0.0210538990795612,-0.126185461878777,-0.145589500665665,-0.156641662120819,-0.21931816637516
434,0.0134480111300945,0.0238324627280235,-0.138391897082329,-0.156604215502739,-0.1779555529356,-0.228529214859009
435,0.00702938344329596,0.02364556863904,-0.146947383880615,-0.1663568764925,-0.196355447173119,-0.233150213956833
436,0.00333421467803419,0.0221891310065985,-0.152920499444008,-0.174068242311478,-0.209791466593742,-0.23412349820137
437,0.00116322480607778,0.0216437689960003,-0.15897910296917,-0.180250525474548,-0.219991773366928,-0.23401939868927
438,-0.00133830797858536,0.0217808466404676,-0.166728779673576,-0.186114475131035,-0.230065107345581,-0.235483527183533
439,-0.00376184564083815,0.0227954220026731,-0.173952579498291,-0.191149771213531,-0.240618824958801,-0.238427743315697
440,-0.00509127601981163,0.0251969508826733,-0.177430212497711,-0.194138586521149,-0.2499038875103,-0.241303771734238
441,-0.00533964717760682,0.0277261938899755,-0.178291007876396,-0.195607468485832,-0.256670862436295,-0.243708744645119
442,-0.00446758326143026,0.029004268348217,-0.180203214287758,-0.197799280285835,-0.260228514671326,-0.246038496494293
443,-0.00226079509593546,0.029410183429718,-0.184800133109093,-0.202705889940262,-0.261083990335464,-0.24845352768898
444,0.000576992984861135,0.0298359617590904,-0.19196280837059,-0.210557892918587,-0.261573761701584,-0.250961184501648
445,0.00310295587405562,0.0303011648356915,-0.200095295906067,-0.219350278377533,-0.263357996940613,-0.253700584173203
446,0.0045910207554698,0.0306224822998047,-0.20513941347599,-0.22528912127018,-0.264333546161652,-0.255938172340393
447,0.00426793145015836,0.031364344060421,-0.203332498669624,-0.225461602210999,-0.259402483701706,-0.254820376634598
448,0.00195694901049137,0.0333288051187992,-0.195510432124138,-0.220762386918068,-0.247933566570282,-0.248013585805893
449,-0.00177314365282655,0.035671278834343,-0.186740756034851,-0.215372785925865,-0.235151723027229,-0.238383784890175
450,-0.00519318785518408,0.0365716628730297,-0.181597426533699,-0.212617501616478,-0.226128354668617,-0.230988368391991
451,-0.00600878288969398,0.0358385667204857,-0.180652424693108,-0.21163310110569,-0.224694937467575,-0.226989775896072
452,-0.00287284003570676,0.034767959266901,-0.181446507573128,-0.209588244557381,-0.230379775166512,-0.225145548582077
453,0.00282688182778656,0.0339615345001221,-0.182362824678421,-0.2064478546381,-0.237607851624489,-0.225706920027733
454,0.00798689946532249,0.0331215858459473,-0.182909071445465,-0.203521996736526,-0.242233067750931,-0.228305488824844
455,0.0117512224242091,0.0324208997189999,-0.181184276938438,-0.199774011969566,-0.241952866315842,-0.229683414101601
456,0.013997795060277,0.0310761071741581,-0.176686942577362,-0.195073381066322,-0.23613865673542,-0.228129848837852
457,0.0138489743694663,0.0281990747898817,-0.171882420778275,-0.191164717078209,-0.228005394339561,-0.225107669830322
458,0.0129535896703601,0.0257697701454163,-0.167131945490837,-0.186721205711365,-0.219163581728935,-0.22026015818119
459,0.0135435285046697,0.0254378635436296,-0.161212310194969,-0.17911534011364,-0.208578810095787,-0.211997970938683
460,0.0150633407756686,0.0259232055395842,-0.154709219932556,-0.169158801436424,-0.196920976042748,-0.201500058174133
461,0.0157675500959158,0.0253405533730984,-0.148149132728577,-0.160385876893997,-0.184973105788231,-0.190988659858704
462,0.014187254011631,0.0234914049506187,-0.141830131411552,-0.155205294489861,-0.172967314720154,-0.180993169546127
463,0.0108351623639464,0.0221114978194237,-0.135523021221161,-0.150830611586571,-0.161374256014824,-0.17090816795826
464,0.00845499243587255,0.0223089717328548,-0.127366811037064,-0.142421960830688,-0.14988224208355,-0.160540923476219
465,0.00866164918988943,0.0231613796204329,-0.117052249610424,-0.130492851138115,-0.138038650155067,-0.149647459387779
466,0.0104554537683725,0.0228633023798466,-0.107184387743473,-0.120116844773293,-0.126848772168159,-0.138677269220352
467,0.0121521474793553,0.0201905760914087,-0.099507100880146,-0.114375151693821,-0.11734227091074,-0.129397928714752
468,0.0133283482864499,0.0159960314631462,-0.0928158164024353,-0.111663788557053,-0.108160108327866,-0.121962949633598
469,0.0134102841839194,0.0120486421510577,-0.0852956175804138,-0.109763272106647,-0.098145917057991,-0.115891247987747
470,0.0108364159241319,0.0103519158437848,-0.076129175722599,-0.10811460018158,-0.0876638665795326,-0.111408412456512
471,0.00657076202332973,0.0118047455325723,-0.06782216578722,-0.105762079358101,-0.0772042348980904,-0.107353530824184
472,0.00540332775563002,0.0131029961630702,-0.0651240423321724,-0.101868130266666,-0.0689488276839256,-0.102417707443237
473,0.0101569872349501,0.0109844142571092,-0.0675053149461746,-0.0962419509887695,-0.0647877752780914,-0.0964981764554977
474,0.0174204614013433,0.00645571481436491,-0.0695087015628815,-0.0887855663895607,-0.0627948418259621,-0.0896179676055908
475,0.0212560463696718,0.00144689087755978,-0.0688356906175613,-0.0806423351168633,-0.0600606203079224,-0.0817333683371544
476,0.0209898669272661,-0.00301198894158006,-0.0664471760392189,-0.0729102492332459,-0.0552465505897999,-0.0721970945596695
477,0.0223104935139418,-0.00555723253637552,-0.0620364248752594,-0.0647763609886169,-0.0476567484438419,-0.0600720345973969
478,0.0257294252514839,-0.00503403833135962,-0.0552788302302361,-0.0552798137068748,-0.0372360274195671,-0.0457888469099998
479,0.0235000941902399,-0.00196681497618556,-0.0473862998187542,-0.0451408177614212,-0.0250763446092606,-0.0313640348613262
480,0.0117438035085797,0.00149618298746645,-0.0401683934032917,-0.0363941118121147,-0.0132566215470433,-0.0198506265878677
481,-0.00437681004405022,0.00368732470087707,-0.0339371375739574,-0.0288075674325228,-0.0030323329847306,-0.0124879190698266
482,-0.0181989371776581,0.003911885432899,-0.0280030202120543,-0.0211533941328526,0.00585107365623116,-0.008330880664289
483,-0.0277538299560547,0.00210530147887766,-0.023027865216136,-0.0151138985529542,0.0133124515414238,-0.00572749366983771
484,-0.0334399044513702,-0.000224329982302152,-0.0192428808659315,-0.010740184225142,0.0197371002286673,-0.00188648561015725
485,-0.0342542454600334,-0.00140579254366457,-0.0147421061992645,-0.00448868004605174,0.0281177647411823,0.00457403948530555
486,-0.0292734894901514,-0.000834005710203201,-0.00768426619470119,0.00390503322705626,0.0394867919385433,0.0121198035776615
487,-0.0211920738220215,0.000773984647821635,0.00139459467027336,0.0103872213512659,0.048772044479847,0.0191357545554638
488,-0.0141134615987539,0.00143656996078789,0.0089401863515377,0.0136238466948271,0.0499011464416981,0.0265458300709724
489,-0.0100579615682364,0.000156932976096869,0.010220936499536,0.0151360370218754,0.0408810563385487,0.0346789285540581
490,-0.00892705284059048,-0.00202755257487297,0.00641798507422209,0.0165936853736639,0.0268642231822014,0.0419292226433754
491,-0.0103925727307796,-0.00421761302277446,0.00330692273564637,0.0190924257040024,0.0169631317257881,0.0475641116499901
492,-0.0150789581239223,-0.00657961331307888,0.00262746238149703,0.0218677930533886,0.0156496502459049,0.0519627220928669
493,-0.0213698744773865,-0.00831993017345667,0.00454375706613064,0.0261551812291145,0.0219506360590458,0.0579806342720985
494,-0.0257418788969517,-0.00806568376719952,0.0115993684157729,0.0352364107966423,0.0325904190540314,0.0687389448285103
495,-0.026140384376049,-0.00644641648977995,0.0237072333693504,0.0479785613715649,0.0447010397911072,0.0823110416531563
496,-0.0219086166471243,-0.00532236089929938,0.0351793356239796,0.0592507086694241,0.0566028915345669,0.093997985124588
497,-0.0148159069940448,-0.00481290742754936,0.0425500571727753,0.0675154328346252,0.0674015954136848,0.101910792291164
498,-0.00812066625803709,-0.00362715777009726,0.0495483949780464,0.0768360644578934,0.0789144560694695,0.107096873223782
499,-0.00265646050684154,-0.00154518056660891,0.0588935688138008,0.0885567516088486,0.0929162502288818,0.110682934522629
500,0.00198033708147705,0.000314667704515159,0.0666103437542915,0.097642719745636,0.105408698320389,0.112969525158405
501,0.00472486903890967,0.000981128192506731,0.0677126348018646,0.100478149950504,0.109639123082161,0.114433102309704
502,0.00643362663686275,-4.71991988888476E-05,0.0624897554516792,0.0979798957705498,0.104408904910088,0.115334674715996
503,0.0127640953287482,-0.003197185928002,0.0554260574281216,0.0924375727772713,0.0953919738531113,0.11556089669466
504,0.023560419678688,-0.00761068938300014,0.0505855195224285,0.0873377844691277,0.0888085439801216,0.115941524505615
505,0.0282726064324379,-0.0105073535814881,0.0508024282753468,0.086573913693428,0.0879855826497078,0.117845684289932
506,0.0212029945105314,-0.0102392015978694,0.0565219894051552,0.0905816927552223,0.0932400971651077,0.12150777131319
507,0.00680104363709688,-0.00832771323621273,0.0641356632113457,0.0957845076918602,0.101492464542389,0.125894069671631
508,-0.00780769297853112,-0.00673374161124229,0.070850096642971,0.0995006114244461,0.110061682760715,0.130957439541817
509,-0.0185817833989859,-0.00589396338909864,0.0762221440672874,0.101830743253231,0.117477849125862,0.13692244887352
510,-0.0262729078531265,-0.00547393225133419,0.0792586356401443,0.104847840964794,0.121481031179428,0.14213739335537
511,-0.0315939635038376,-0.00498353969305754,0.0806391760706902,0.111348241567612,0.123153083026409,0.14602629840374
512,-0.0335131958127022,-0.0047586327418685,0.0819440931081772,0.119118578732014,0.124737337231636,0.149275928735733
513,-0.0320932008326054,-0.00606969650834799,0.0831248909235001,0.122471354901791,0.12505416572094,0.15124623477459
514,-0.0289774220436811,-0.00972212571650743,0.0845339670777321,0.120538614690304,0.12488666921854,0.151234120130539
515,-0.024401031434536,-0.0150468973442912,0.0870370715856552,0.116621218621731,0.127540737390518,0.149846464395523
516,-0.0165429748594761,-0.0198038406670094,0.091162197291851,0.113338567316532,0.132874950766563,0.148216426372528
517,-0.00682616652920842,-0.0216049421578646,0.0976141095161438,0.112595088779926,0.138519376516342,0.148050993680954
518,0.00203755544498563,-0.0201708730310202,0.105827733874321,0.116397239267826,0.144551664590836,0.152051255106926
519,0.00940604135394096,-0.0178022906184196,0.113420888781548,0.124654024839401,0.151969030499458,0.160089552402496
520,0.0122537249699235,-0.016943296417594,0.118079744279385,0.134273424744606,0.158008769154549,0.167859718203545
521,0.00747918849810958,-0.0183840729296207,0.118455566465855,0.141079813241959,0.157713785767555,0.171906754374504
522,-0.00239621405489743,-0.0206886511296034,0.1161774918437,0.143970340490341,0.151274234056473,0.173615157604218
523,-0.0125721264630556,-0.021105146035552,0.114108063280582,0.144751593470573,0.144202098250389,0.17538970708847
524,-0.0206844285130501,-0.0177633538842201,0.112900130450726,0.143987119197845,0.141070947051048,0.176027059555054
525,-0.0265538562089205,-0.0121209882199764,0.112941071391106,0.141806557774544,0.142471253871918,0.174545750021935
526,-0.0307859983295202,-0.00858322717249393,0.114504493772984,0.139701679348946,0.145980045199394,0.173351213335991
527,-0.0337825268507004,-0.0089201545342803,0.116698399186134,0.139312773942947,0.149259254336357,0.175324454903603
528,-0.0357147753238678,-0.0110782803967595,0.119505368173122,0.140768304467201,0.152685970067978,0.181333243846893
529,-0.0361995473504066,-0.0137739172205329,0.123996905982494,0.142211481928825,0.159339293837547,0.188515424728394
530,-0.0331050306558609,-0.0171370375901461,0.130819723010063,0.142200037837029,0.170757934451103,0.192317545413971
531,-0.0251843929290771,-0.0204304829239845,0.138154461979866,0.141449794173241,0.182249009609222,0.191828697919846
532,-0.0155999325215817,-0.0225972533226013,0.141832739114761,0.142021894454956,0.18662978708744,0.188679352402687
533,-0.00906109623610973,-0.0233297627419233,0.140305921435356,0.145952388644218,0.18224723637104,0.184380978345871
534,-0.00799620524048805,-0.023606613278389,0.134571969509125,0.150597587227821,0.172261223196983,0.179363429546356
535,-0.0111504746600986,-0.0246500857174397,0.126111552119255,0.150740876793861,0.16057363152504,0.173503637313843
536,-0.0140774436295033,-0.0260700527578592,0.118095509707928,0.146683558821678,0.150715008378029,0.168373510241508
537,-0.0127728311344981,-0.0273289643228054,0.112703360617161,0.141928464174271,0.143964067101479,0.165433704853058
538,-0.00731789320707321,-0.0284725166857243,0.110455796122551,0.138803824782372,0.141006350517273,0.164868086576462
539,-0.00220784917473793,-0.029693303629756,0.112271852791309,0.138221248984337,0.142454147338867,0.166290774941444
540,-0.00203282688744366,-0.0318600721657276,0.116692245006561,0.138171225786209,0.145388215780258,0.167001128196716
541,-0.00646278308704495,-0.0349944904446602,0.119925834238529,0.13665683567524,0.147609174251556,0.1643405854702
542,-0.0120080867782235,-0.037687286734581,0.120366901159287,0.134789228439331,0.150448486208916,0.159790143370628
543,-0.0171158984303474,-0.0386715605854988,0.118728131055832,0.133882656693459,0.153608933091164,0.156488552689552
544,-0.0214752852916718,-0.0375106148421764,0.115273170173168,0.133808732032776,0.154406055808067,0.154979959130287
545,-0.0245901718735695,-0.0350616313517094,0.110196523368359,0.133513912558556,0.15104629099369,0.153161004185677
546,-0.0265488363802433,-0.0328265391290188,0.104937076568604,0.13162362575531,0.14411424100399,0.14986763894558
547,-0.0272812098264694,-0.0316202454268932,0.100787863135338,0.127774462103844,0.136027157306671,0.1462112814188
548,-0.0257881823927164,-0.0310646258294582,0.0986743792891502,0.123490303754807,0.130563050508499,0.144045144319534
549,-0.0216030161827803,-0.0302972421050072,0.0992274805903435,0.120732955634594,0.130815103650093,0.144443869590759
550,-0.017414515838027,-0.0294706877321005,0.101159416139126,0.119271121919155,0.135022476315498,0.145803585648537
551,-0.0165706612169743,-0.028873648494482,0.102852292358875,0.1183006092906,0.138363882899284,0.145927309989929
552,-0.0191373154520988,-0.027902863919735,0.103905655443668,0.118434444069862,0.138629034161568,0.144707053899765
553,-0.0225616134703159,-0.0261777490377426,0.104153223335743,0.119924642145634,0.137144789099693,0.1429303586483
554,-0.0242389142513275,-0.023971313610673,0.103610128164291,0.122117750346661,0.13553012907505,0.141602218151093
555,-0.0233104154467583,-0.0220222286880016,0.102554298937321,0.124369643628597,0.13383886218071,0.141532391309738
556,-0.0207542572170496,-0.0215723402798176,0.101263910531998,0.125835314393044,0.132282972335815,0.142141953110695
557,-0.0184176489710808,-0.0233928840607405,0.0998988524079323,0.125619322061539,0.131917685270309,0.142171293497086
558,-0.0166781339794397,-0.0262777768075466,0.0993335917592049,0.124421037733555,0.133752048015594,0.142211064696312
559,-0.0160318445414305,-0.02873245626688,0.0993456840515137,0.122560195624828,0.136481761932373,0.142174407839775
560,-0.0184260364621878,-0.0307358801364899,0.0980572402477264,0.12018971145153,0.137408033013344,0.139785021543503
561,-0.0227236356586218,-0.0317902192473412,0.0958855971693993,0.119992211461067,0.13698548078537,0.13588210940361
562,-0.0257397219538689,-0.0312127880752087,0.0944618657231331,0.12186387181282,0.136538237333298,0.133313789963722
563,-0.0267670881003141,-0.0305554550141096,0.0936407446861267,0.121983282268047,0.134786978363991,0.131725892424583
564,-0.025545870885253,-0.0310375355184078,0.0935413613915443,0.120868824422359,0.130967602133751,0.130630493164063
565,-0.0212378818541765,-0.031357791274786,0.0952841490507126,0.121939331293106,0.126625299453735,0.131254985928535
566,-0.0161919072270393,-0.0314919911324978,0.0977310314774513,0.123237028717995,0.122926607728004,0.132019251585007
567,-0.0135519877076149,-0.0328042656183243,0.0983498319983482,0.121084950864315,0.120132707059383,0.130656599998474
568,-0.0127117186784744,-0.0343317277729511,0.0972749888896942,0.11719799041748,0.118915781378746,0.128378108143806
569,-0.0123189315199852,-0.0343322530388832,0.0958567038178444,0.114756405353546,0.119251139461994,0.126860409975052
570,-0.0127775622531772,-0.0329959243535995,0.0939408466219902,0.113515384495258,0.120276235044003,0.126024812459946
571,-0.0147738745436072,-0.0319162011146545,0.0904949232935905,0.111274972558022,0.120539598166943,0.124578967690468
572,-0.0180468261241913,-0.0325789041817188,0.0850129947066307,0.106814287602901,0.118267633020878,0.121027283370495
573,-0.0208070874214172,-0.0346463993191719,0.0790175050497055,0.101723022758961,0.114020898938179,0.116162680089474
574,-0.0214434508234262,-0.036655567586422,0.0746368244290352,0.0984307155013084,0.109828397631645,0.112057752907276
575,-0.0204330179840326,-0.0381849333643913,0.0720804482698441,0.0967577919363976,0.106133617460728,0.109130956232548
576,-0.0187655854970217,-0.0388569943606853,0.0711576491594315,0.0955069586634636,0.103207893669605,0.107663728296757
577,-0.0166125856339931,-0.0376070663332939,0.0721585154533386,0.0948190242052078,0.102204903960228,0.107967734336853
578,-0.01421232894063,-0.034493762999773,0.0744861289858818,0.0948383435606956,0.103296764194965,0.108294926583767
579,-0.0122746676206589,-0.0307763665914536,0.0765259712934494,0.0947620123624802,0.104872427880764,0.10692747682333
580,-0.0115307057276368,-0.0277418084442616,0.0764838308095932,0.093761257827282,0.104565784335136,0.104004919528961
581,-0.0117913465946913,-0.0260633286088705,0.0740061700344086,0.0919639393687248,0.101659446954727,0.100079141557217
582,-0.0124241076409817,-0.025839239358902,0.0702679231762886,0.0895046442747116,0.0971306711435318,0.0948657169938087
583,-0.0132556241005659,-0.0269919764250517,0.0665794685482979,0.0852668583393097,0.0921916961669922,0.0883446782827377
584,-0.0145962862297893,-0.0290780607610941,0.0630382597446442,0.0782891660928726,0.0878549069166183,0.0821152552962303
585,-0.0167489685118198,-0.0311558898538351,0.0596689879894257,0.0705662295222282,0.084647424519062,0.077561542391777
586,-0.0188065674155951,-0.0320735611021519,0.0582811087369919,0.066190704703331,0.0827362835407257,0.0747575089335442
587,-0.0192120596766472,-0.0313405878841877,0.0598005354404449,0.0668996647000313,0.081513836979866,0.0728804990649223
588,-0.017697311937809,-0.0299112126231194,0.0623401254415512,0.0703696757555008,0.0793820843100548,0.0697406679391861
589,-0.014873762615025,-0.028373759239912,0.0637175068259239,0.0729067847132683,0.0750704780220985,0.065325565636158
590,-0.010846396908164,-0.0260177478194237,0.0631862133741379,0.0723480507731438,0.0689002498984337,0.062416285276413
591,-0.00662854360416532,-0.0238397233188152,0.0606716498732567,0.0680828616023064,0.0618186593055725,0.0592928379774094
592,-0.00375433033332229,-0.0237304493784904,0.0571369454264641,0.0613213181495667,0.0556315928697586,0.0521824471652508
593,-0.00291496864520013,-0.0248603262007236,0.0537024028599262,0.0547313690185547,0.0512371920049191,0.042940940707922
594,-0.00473797554150224,-0.0256816688925028,0.0497714839875698,0.0492663681507111,0.0462825745344162,0.0342816561460495
595,-0.00856307800859213,-0.0262212231755257,0.0435203164815903,0.0429906696081162,0.0391657128930092,0.0252674706280231
596,-0.0123965162783861,-0.0261905007064343,0.0339698009192944,0.0347853675484657,0.030438382178545,0.0158962961286306
597,-0.0143300099298358,-0.0248238611966372,0.0238350760191679,0.0266504902392626,0.0209093671292067,0.00781572517007589
598,-0.0140579156577587,-0.0232106242328882,0.01617032289505,0.0190842412412167,0.0103540848940611,-0.000435722409747541
599,-0.013218941166997,-0.0236096400767565,0.0105283036828041,0.00972856301814318,-0.00116700341459364,-0.0121593903750181
600,-0.0121109709143639,-0.0261371079832315,0.00648153061047196,-0.00207337224856019,-0.0110491504892707,-0.0278051234781742
601,-0.0111681986600161,-0.0286861080676317,0.00272491760551929,-0.0152863087132573,-0.0197292193770409,-0.0452401302754879
602,-0.0116915702819824,-0.0296881962567568,-0.00370744476094842,-0.02961715310812,-0.029692605137825,-0.0625174939632416
603,-0.0130443945527077,-0.0295277144759893,-0.0138048017397523,-0.0457866713404655,-0.0398554652929306,-0.0794541761279106
604,-0.0150700146332383,-0.0284251645207405,-0.0274077765643597,-0.063118502497673,-0.051435224711895,-0.0945119857788086
605,-0.0169797968119383,-0.0248865522444248,-0.0427093170583248,-0.0773865953087807,-0.0666372999548912,-0.104086205363274
606,-0.016056414693594,-0.018485851585865,-0.056585505604744,-0.0858441367745399,-0.083108127117157,-0.108749747276306
607,-0.0123585136607289,-0.0112965889275074,-0.0685794353485107,-0.0919928923249245,-0.0991772264242172,-0.113870069384575
608,-0.00825183372944593,-0.00567702343687415,-0.0794348493218422,-0.099995344877243,-0.115682892501354,-0.123050525784492
609,-0.00544454343616962,-0.00228251074440777,-0.0893929824233055,-0.110253401100636,-0.133912906050682,-0.135773211717606
610,-0.00473593501374125,-0.000331722141709179,-0.0994459763169289,-0.122204646468163,-0.154021993279457,-0.150414288043976
611,-0.00572563102468848,0.000944933155551553,-0.111171521246433,-0.136187091469765,-0.174141749739647,-0.16589991748333
612,-0.0076560890302062,0.0015914908144623,-0.12582865357399,-0.152557730674744,-0.193729341030121,-0.181746006011963
613,-0.0096433786675334,0.0015147402882576,-0.142110824584961,-0.170476302504539,-0.212455093860626,-0.198392152786255
614,-0.00974925886839628,0.00148523168172687,-0.1562569886446,-0.188252165913582,-0.227175995707512,-0.215455323457718
615,-0.00620631594210863,0.00267999013885856,-0.165556952357292,-0.203448668122292,-0.235661819577217,-0.230059295892715
616,-0.000562768429517746,0.00490818871185184,-0.171366989612579,-0.214550212025642,-0.239920765161514,-0.240188017487526
617,0.00375094031915069,0.00688955560326576,-0.177045911550522,-0.222440764307976,-0.243088200688362,-0.246427714824677
618,0.00636272178962827,0.00791093893349171,-0.1832135617733,-0.2277692258358,-0.246206358075142,-0.249512165784836
619,0.00948382914066315,0.00830602087080479,-0.187838107347488,-0.230038955807686,-0.248515903949738,-0.249727159738541
620,0.0132243996486068,0.00896340515464544,-0.19020976126194,-0.230025187134743,-0.249990671873093,-0.248259380459785
621,0.0150220943614841,0.00979535467922688,-0.192082673311234,-0.230143755674362,-0.252508640289307,-0.247985810041428
622,0.0135906971991062,0.00957150757312775,-0.194595411419868,-0.232181400060654,-0.256717801094055,-0.250605672597885
623,0.0108851045370102,0.00832189340144396,-0.197624802589417,-0.235900104045868,-0.261128932237625,-0.253787100315094
624,0.00995127484202385,0.00761489570140839,-0.20052944123745,-0.239452555775642,-0.26423180103302,-0.254433274269104
625,0.0116284666582942,0.00809355359524488,-0.202148824930191,-0.241464838385582,-0.265347898006439,-0.252518475055695
626,0.0140225440263748,0.00902548339217901,-0.202526271343231,-0.242552608251572,-0.265305757522583,-0.250294804573059
627,0.0154651887714863,0.00967222452163696,-0.201981157064438,-0.24326029419899,-0.265344321727753,-0.249363273382187
628,0.0162988882511854,0.00990040134638548,-0.198608636856079,-0.242603123188019,-0.264908373355865,-0.249059766530991
629,0.0167946144938469,0.00982530694454908,-0.192405626177788,-0.240489527583122,-0.263261586427689,-0.248210817575455
630,0.0164246205240488,0.00965098012238741,-0.187216579914093,-0.237960010766983,-0.26093378663063,-0.246383547782898
631,0.0150553872808814,0.00957200303673744,-0.184920504689217,-0.235662326216698,-0.258671402931213,-0.243484273552895
632,0.0136962523683906,0.00993094313889742,-0.183926418423653,-0.233755677938461,-0.255618959665298,-0.239263609051704
633,0.0135949896648526,0.0114442985504866,-0.182626113295555,-0.231164619326591,-0.250253826379776,-0.232490226626396
634,0.0137276388704777,0.0136010013520718,-0.180886521935463,-0.22599558532238,-0.243564367294312,-0.223162725567818
635,0.0124929212033749,0.0147356605157256,-0.178297996520996,-0.218228280544281,-0.236642673611641,-0.214447498321533
636,0.0109763201326132,0.0146773234009743,-0.172463923692703,-0.210045203566551,-0.227798342704773,-0.208882510662079
637,0.0110576041042805,0.014453262090683,-0.16159263253212,-0.202362686395645,-0.215326815843582,-0.205196470022202
638,0.0115637071430683,0.0136256376281381,-0.148198693990707,-0.195265248417854,-0.201610282063484,-0.201445907354355
639,0.0111030526459217,0.0113981058821082,-0.136099249124527,-0.188851162791252,-0.190194472670555,-0.19684910774231
640,0.0111237782984972,0.0096981106325984,-0.126928597688675,-0.182138800621033,-0.180652856826782,-0.190810948610306
641,0.0124991564080119,0.0117934104055166,-0.120258465409279,-0.175137162208557,-0.170447558164597,-0.18344721198082
642,0.0138984229415655,0.0167060904204845,-0.114917799830437,-0.169598579406738,-0.159557402133942,-0.175365507602692
643,0.0127930669113994,0.0184144135564566,-0.111801534891129,-0.167425826191902,-0.151501581072807,-0.167850345373154
644,0.00912592466920614,0.0145472073927522,-0.110754527151585,-0.166660100221634,-0.147462517023087,-0.160766005516052
645,0.00522918673232198,0.00868740305304527,-0.109919063746929,-0.163245931267738,-0.145814076066017,-0.152218759059906
646,0.0020346527453512,0.0040158131159842,-0.108460046350956,-0.156672343611717,-0.14462374150753,-0.141628950834274
647,0.000729506777133793,0.0015044630272314,-0.104466252028942,-0.147678315639496,-0.138518765568733,-0.128854691982269
648,0.00266063399612904,0.000456357491202652,-0.0970581322908401,-0.136984810233116,-0.124837964773178,-0.115123502910137
649,0.00756029039621353,3.94096859963611E-05,-0.0879240036010742,-0.125536069273949,-0.109128214418888,-0.102683112025261
650,0.0132530964910984,0.000206339100259356,-0.0792383179068565,-0.113809160888195,-0.0974208042025566,-0.0916999205946922
651,0.0160192549228668,0.000255171558819711,-0.0731848254799843,-0.103769727051258,-0.09075066447258,-0.0820126831531525
652,0.0147983320057392,0.000173761189216748,-0.0695011168718338,-0.0968609899282455,-0.0862410515546799,-0.0735458210110664
653,0.0115676140412688,0.000631849281489849,-0.0661647096276283,-0.0913355648517609,-0.081353597342968,-0.0664983168244362
654,0.00743016367778182,0.000808472046628594,-0.0625876784324646,-0.084525540471077,-0.0757421180605888,-0.0615637376904488
655,0.00231624604202807,0.000100759578344878,-0.0587574951350689,-0.0761959403753281,-0.0686793774366379,-0.0569182224571705
656,-0.00281212432309985,-0.00113348860759288,-0.0549616739153862,-0.0689438208937645,-0.0599076896905899,-0.0508761182427406
657,-0.00408563297241926,-0.00240063550882041,-0.0511641427874565,-0.0637747123837471,-0.050330251455307,-0.0440210811793804
658,0.000648096844088286,-0.00291662663221359,-0.046137947589159,-0.0585608519613743,-0.0406648330390453,-0.0357664376497269
659,0.00798000488430262,-0.00177481793798506,-0.0382184311747551,-0.0504896938800812,-0.0301311388611794,-0.024385116994381
660,0.0137920984998345,0.00137127935886383,-0.0274157095700502,-0.0387622676789761,-0.0178781151771545,-0.0107374433428049
661,0.0168493408709764,0.00534322019666433,-0.0170112960040569,-0.0262697208672762,-0.00637994846329093,0.00150142074562609
662,0.0184525232762098,0.00905071385204792,-0.00916759762912989,-0.0147382328286767,0.0023231862578541,0.0112881110981107
663,0.0194236785173416,0.0119264088571072,-0.00262821838259697,-0.00343984412029386,0.00914176367223263,0.0199475754052401
664,0.0189172681421041,0.0128006190061569,0.0042629661038518,0.00661831116303802,0.0144901908934116,0.0273497980087996
665,0.0169991757720709,0.0119411665946245,0.0114890970289707,0.0145051907747984,0.0185933131724596,0.0341775268316269
666,0.0145877217873931,0.0114222709089518,0.0170894153416157,0.0211757495999336,0.0229211635887623,0.0419606752693653
667,0.0124564785510302,0.0124926585704088,0.0197199750691652,0.0275993254035711,0.0283786077052355,0.0510692298412323
668,0.0109112719073892,0.0141128143295646,0.0196112375706434,0.0331186801195145,0.0340517945587635,0.0601530633866787
669,0.0102082602679729,0.0142590794712305,0.0175459813326597,0.0361856445670128,0.0385345220565796,0.0661667808890343
670,0.012519596144557,0.0123128974810243,0.0156081272289157,0.037520918995142,0.0416699461638927,0.0689352229237556
671,0.0179422497749329,0.00964590813964605,0.0165005587041378,0.0405904948711395,0.045567624270916,0.0730388537049294
672,0.0198623668402433,0.00796851143240929,0.0207223072648048,0.0468548089265823,0.0515520088374615,0.0812297686934471
673,0.0130730243399739,0.00769501272588968,0.0262561738491058,0.0541146732866764,0.0569046847522259,0.0913092195987701
674,0.00122649851255119,0.00843029003590345,0.0319092571735382,0.0625292956829071,0.0596768110990524,0.100784160196781
675,-0.00902497861534357,0.00893251597881317,0.0376274771988392,0.0735737308859825,0.0614549480378628,0.108483403921127
676,-0.0142790302634239,0.00809617340564728,0.0434419400990009,0.0843494683504105,0.0645359233021736,0.114071890711784
677,-0.0143523262813687,0.0071647921577096,0.0500223077833653,0.0918764695525169,0.0705047026276588,0.119216836988926
678,-0.0116910403594375,0.00760972453281283,0.0563830472528934,0.0965691730380058,0.078262522816658,0.125377044081688
679,-0.00862398277968168,0.00928780809044838,0.0612789914011955,0.0996838137507439,0.0859483182430267,0.132244542241097
680,-0.00523059815168381,0.0116763506084681,0.0655959770083427,0.102248705923557,0.0936429053544998,0.139473438262939
681,-0.00174570025410503,0.0136751569807529,0.0692096352577209,0.104883313179016,0.100943811237812,0.146454840898514
682,0.000994603848084807,0.0141163002699614,0.0716030299663544,0.107861071825027,0.106932237744331,0.151914805173874
683,0.00206027599051595,0.0128119103610516,0.0731905028223991,0.110796689987183,0.110434889793396,0.154741048812866
684,6.4147852754104E-06,0.00997530296444893,0.0728374868631363,0.112049788236618,0.109225869178772,0.154237762093544
685,-0.00520065892487764,0.00646922085434198,0.069954551756382,0.111156888306141,0.103696897625923,0.151330396533012
686,-0.0113504212349653,0.00351893086917698,0.0672164186835289,0.109999977052212,0.0983592644333839,0.148673474788666
687,-0.0165321696549654,0.0019592207390815,0.0670568943023682,0.109931476414204,0.0966975539922714,0.148654013872147
688,-0.0199725478887558,0.00233748368918896,0.0693125203251839,0.111138835549355,0.0990529507398605,0.15186807513237
689,-0.0212709177285433,0.00377103313803673,0.0728361159563065,0.113672479987144,0.104384459555149,0.156499400734901
690,-0.0215321145951748,0.00405961833894253,0.0760698541998863,0.116264536976814,0.10936427116394,0.159080386161804
691,-0.0219404492527246,0.0024154984857887,0.0782053470611572,0.117463953793049,0.111222259700298,0.157676741480827
692,-0.0216867066919804,0.000308072398183867,0.0805511772632599,0.118248112499714,0.112562894821167,0.154466718435287
693,-0.0200319122523069,-0.000304332526866347,0.0844627171754837,0.120418854057789,0.11714468896389,0.153017148375511
694,-0.0170930810272694,0.00156349525786936,0.0899257436394691,0.124541968107224,0.124453850090504,0.154828488826752
695,-0.0132674984633923,0.00541516719385982,0.0960472002625465,0.129676729440689,0.131389051675797,0.159585937857628
696,-0.0101128611713648,0.00971539597958326,0.100620619952679,0.133535370230675,0.134830921888351,0.165522381663322
697,-0.00923867616802454,0.0128519833087921,0.101246155798435,0.135583937168121,0.133470237255096,0.169662371277809
698,-0.0101515352725983,0.013828138820827,0.0981699004769325,0.13753978908062,0.129406467080116,0.169896274805069
699,-0.0107996044680476,0.0128934672102332,0.0944153517484665,0.139142870903015,0.12639407813549,0.16729049384594
700,-0.0104310065507889,0.0106572862714529,0.0923970192670822,0.138926565647125,0.126224055886269,0.164653480052948
701,-0.0101544624194503,0.00736440485343337,0.0927512422204018,0.13751508295536,0.129104867577553,0.163518160581589
702,-0.0103565324097872,0.00369574502110481,0.0953034460544586,0.136213198304176,0.134138807654381,0.163731023669243
703,-0.0108811184763908,0.000328592781443149,0.0981156304478645,0.1349967867136,0.137597009539604,0.163934215903282
704,-0.0117170717567205,-0.0021876422688365,0.0993109047412872,0.134345725178719,0.137082651257515,0.163356781005859
705,-0.0116234505549073,-0.00326812523417175,0.0999469831585884,0.135297700762749,0.134877815842628,0.162564173340797
706,-0.00806410890072584,-0.00262853340245783,0.102286048233509,0.137549996376038,0.134646043181419,0.163125559687614
707,-0.00105589907616377,-0.000729766907170415,0.105934903025627,0.139641493558884,0.137465879321098,0.166218876838684
708,0.0052395761013031,0.00137173931580037,0.108344152569771,0.140433371067047,0.14187927544117,0.170522928237915
709,0.00788514409214258,0.00322562712244689,0.108697608113289,0.140542879700661,0.146400734782219,0.174190789461136
710,0.00659558735787869,0.00414948770776391,0.107836082577705,0.140299618244171,0.149407461285591,0.175930589437485
711,0.00238169892691076,0.00343383941799402,0.107855267822742,0.139361828565598,0.150187268853188,0.175337344408035
712,-0.00202454463578761,0.00217999843880534,0.11045429110527,0.138913661241531,0.150579243898392,0.174312904477119
713,-0.00462953699752688,0.00177673459984362,0.113228552043438,0.139893874526024,0.151915282011032,0.174267739057541
714,-0.00499506155028939,0.00230681709945202,0.113376773893833,0.141575261950493,0.153219729661942,0.174347400665283
715,-0.00354465353302658,0.0028702886775136,0.111289203166962,0.142573624849319,0.153036668896675,0.173214584589005
716,-0.00235115922987461,0.00193635618779808,0.10777809470892,0.141437038779259,0.150535047054291,0.169269174337387
717,-0.00258407508954406,-0.000995031790807843,0.103800743818283,0.138308763504028,0.146926283836365,0.162406742572784
718,-0.00289193005301058,-0.00432003103196621,0.100711598992348,0.134946167469025,0.144145578145981,0.155355080962181
719,-0.00251405825838447,-0.00644457712769508,0.0982079356908798,0.131628707051277,0.141938671469688,0.149779856204987
720,-0.00138009816873819,-0.00698341801762581,0.0961255431175232,0.128153055906296,0.140417814254761,0.145615831017494
721,-3.22337145917118E-05,-0.00675177294760942,0.0949827432632446,0.125091105699539,0.13984414935112,0.14233660697937
722,0.000113243826490361,-0.00742674758657813,0.0942459031939507,0.122442461550236,0.138653725385666,0.138342678546906
723,-0.000177240755874664,-0.00872028525918722,0.0943147987127304,0.121307678520679,0.137482836842537,0.133923560380936
724,0.000302419444778934,-0.00908429268747568,0.0954978764057159,0.122135177254677,0.138035953044891,0.130865350365639
725,0.00115395605098456,-0.00769189093261957,0.0966981425881386,0.122959077358246,0.139142781496048,0.129747971892357
726,0.00230109179392457,-0.00329777132719755,0.0973299071192741,0.12274968624115,0.139394760131836,0.130668669939041
727,0.00432845344766974,0.00327583495527506,0.0978631600737572,0.122651092708111,0.140044927597046,0.133423924446106
728,0.0073536173440516,0.00788794085383415,0.0989394932985306,0.123589530587196,0.142348229885101,0.136750996112823
729,0.0105989370495081,0.00807579793035984,0.100358843803406,0.124762862920761,0.144807159900665,0.138716548681259
730,0.0129133947193623,0.00514424638822675,0.101008594036102,0.124673202633858,0.144892022013664,0.138283208012581
731,0.0127297947183251,0.00154642853885889,0.0990999713540077,0.121891759335995,0.140632584691048,0.13527524471283
732,0.00956023018807173,-0.00108519801869988,0.0943236947059631,0.117631264030933,0.132685959339142,0.129902735352516
733,0.0058366796001792,-0.00197908538393676,0.0896007716655731,0.116285391151905,0.125464931130409,0.123864516615868
734,0.00463225366547704,-0.00113954930566251,0.0883221030235291,0.118800841271877,0.122875519096851,0.119580559432507
735,0.0060490588657558,-4.49427316198125E-05,0.0904199108481407,0.12049662321806,0.124412044882774,0.11684638261795
736,0.00797457527369261,-0.000425234495196491,0.0928505510091782,0.117963276803494,0.12675479054451,0.113787710666656
737,0.00978236272931099,-0.00214362679980695,0.0940840989351273,0.112883046269417,0.12790235877037,0.110799260437489
738,0.0116269905120134,-0.00419940799474716,0.0943718627095222,0.107879981398582,0.127618342638016,0.108775220811367
739,0.0133807025849819,-0.00574810430407524,0.0939919129014015,0.104431286454201,0.126249060034752,0.107748962938786
740,0.0159202925860882,-0.00590970739722252,0.093202032148838,0.104008212685585,0.124298192560673,0.108446396887302
741,0.0184261929243803,-0.00534840719774365,0.0909899175167084,0.105562873184681,0.120873600244522,0.109499558806419
742,0.0183875802904367,-0.00559786800295115,0.0871179550886154,0.105891332030296,0.115489922463894,0.107938788831234
743,0.0155749600380659,-0.0065260729752481,0.0835277736186981,0.104074038565159,0.110035240650177,0.104440048336983
744,0.012182729318738,-0.00668106507509947,0.0822431668639183,0.102212525904179,0.107154734432697,0.102167636156082
745,0.0100974598899484,-0.00538943475112319,0.0832987204194069,0.101744510233402,0.107228137552738,0.10164287686348
746,0.0096892723813653,-0.00340944365598261,0.0844967514276505,0.101668454706669,0.107875011861324,0.100993156433105
747,0.0100664775818586,-0.00173297128640115,0.0842519327998161,0.100559309124947,0.107993103563786,0.0991227552294731
748,0.00982700753957033,-0.000816303829196841,0.0826239660382271,0.098103329539299,0.108814172446728,0.0963614657521248
749,0.0087195448577404,-0.000973612011875957,0.0801267474889755,0.0950432568788528,0.110631756484509,0.0935024693608284
750,0.00800252892076969,-0.00209936499595642,0.0777889415621758,0.0922418460249901,0.112009890377522,0.0914663150906563
751,0.00837219599634409,-0.00338761694729328,0.0765977129340172,0.0896662250161171,0.111847586929798,0.0905541479587555
752,0.00845669209957123,-0.00456402217969298,0.0756810978055,0.0863908529281616,0.109798744320869,0.0890594944357872
753,0.00752818072214723,-0.00554184848442674,0.0735934302210808,0.0822318643331528,0.106051027774811,0.0855267494916916
754,0.00761446310207248,-0.00557388179004192,0.0710500255227089,0.0785359740257263,0.101843297481537,0.0813622325658798
755,0.00989760085940361,-0.00476555339992046,0.069060318171978,0.07591313123703,0.0977894142270088,0.0784502848982811
756,0.0118590649217367,-0.00472820177674294,0.0665234997868538,0.0726341903209686,0.0929119065403938,0.0760333761572838
757,0.010613321326673,-0.00639410084113479,0.062882088124752,0.0679195746779442,0.0875210464000702,0.0723294541239738
758,0.00709515856578946,-0.00875956378877163,0.0596688948571682,0.0637035667896271,0.0834471434354782,0.0675931498408318
759,0.00508657796308398,-0.0104687521234155,0.0578147545456886,0.0610845312476158,0.0807405933737755,0.0636129155755043
760,0.00641544349491596,-0.0109108993783593,0.056374829262495,0.0595093108713627,0.0778653025627136,0.0620847120881081
761,0.00854477193206549,-0.0100949537009001,0.0540246479213238,0.0584668815135956,0.0740327686071396,0.0628900304436684
762,0.00810846034437418,-0.00857457797974348,0.0505757406353951,0.0571756698191166,0.069530688226223,0.063323050737381
763,0.00482439529150724,-0.00701803434640169,0.0470083244144917,0.0546239800751209,0.0649554580450058,0.06155851110816
764,0.000515213701874018,-0.00557524850592017,0.0442258156836033,0.0513528659939766,0.0608941838145256,0.0585120283067226
765,-0.00287174596451223,-0.00414458569139242,0.0427286475896835,0.0503224283456802,0.0582834146916866,0.0556712225079536
766,-0.00369677296839654,-0.00255218939855695,0.0435304865241051,0.0530307665467262,0.0583997257053852,0.0544415451586246
767,-0.00170304486528039,-0.000575460377149284,0.0471187122166157,0.0563123673200607,0.061515636742115,0.0549271106719971
768,0.00129414442926645,0.00112446595449001,0.0511939823627472,0.0564804337918758,0.0650767758488655,0.0549510419368744
769,0.00349725224077702,0.00200781249441206,0.0530193597078323,0.0538748875260353,0.0663470253348351,0.0530750304460526
770,0.00464239390566945,0.00246532936580479,0.0529090836644173,0.0510236658155918,0.0663397759199142,0.0499514192342758
771,0.00526676746085286,0.00260199932381511,0.0524988509714603,0.0490570291876793,0.067329466342926,0.0465018786489964
772,0.00576734263449907,0.00230198074132204,0.0521379597485065,0.047334648668766,0.0688536390662193,0.0432218909263611
773,0.00602950155735016,0.00165205530356616,0.0508388765156269,0.0449632480740547,0.068448968231678,0.040501669049263
774,0.00670803710818291,0.00117496855091304,0.048049870878458,0.042442798614502,0.0654896795749664,0.0392847619950771
775,0.00803110376000404,0.0010297050466761,0.0439143441617489,0.0405211187899113,0.0610696487128735,0.0395993404090405
776,0.00875383149832487,0.000813415972515941,0.0393150635063648,0.0398248881101608,0.0562148690223694,0.0398480705916882
777,0.00930426828563213,0.00120071519631892,0.0371820814907551,0.0420754514634609,0.0533039830625057,0.0398102290928364
778,0.0113211479038,0.00319957640022039,0.0393361672759056,0.046930555254221,0.0541703701019287,0.0410137362778187
779,0.0141528863459826,0.00571552105247974,0.0431264080107212,0.050021555274725,0.0574813857674599,0.0425857044756413
780,0.015993332490325,0.00666714925318956,0.045059148222208,0.0478400141000748,0.0611215233802795,0.0415389053523541
781,0.0167848020792007,0.00635569682344794,0.0449632294476032,0.0422415509819984,0.0634931698441505,0.0382868722081184
782,0.0180252604186535,0.00689882831647992,0.0452723652124405,0.0380189083516598,0.0640915557742119,0.0364473573863506
783,0.0196261517703533,0.00868747942149639,0.04671910405159,0.0368304736912251,0.0631004795432091,0.0371174588799477
784,0.0193965043872595,0.010139849036932,0.046954307705164,0.0364095866680145,0.0598004534840584,0.0378071330487728
785,0.0169233065098524,0.0106648337095976,0.0448000989854336,0.0353273339569569,0.0550854280591011,0.036806371062994
786,0.0135919246822596,0.0110547933727503,0.0413279645144939,0.0338170304894447,0.0513384006917477,0.0340553447604179
787,0.0103902406990528,0.0114615336060524,0.0377150289714336,0.0321979448199272,0.0487188138067722,0.0299106575548649
788,0.00762577541172504,0.0111027173697948,0.0341806560754776,0.0303920973092318,0.0453050807118416,0.0250838976353407
789,0.00485346093773842,0.00974371377378702,0.0302430242300034,0.0278081987053156,0.040017232298851,0.0200935713946819
790,0.0023745927028358,0.00840961746871471,0.0267085824161768,0.025277815759182,0.0343687236309052,0.0162669904530048
791,0.00126943411305547,0.00784360710531473,0.0247844662517309,0.0241416711360216,0.0305127501487732,0.0146781681105495
792,0.00178575573954731,0.00795953813940287,0.0243375170975924,0.0242161843925714,0.0292537566274405,0.014590485021472
793,0.0031056459993124,0.00866791792213917,0.024802079424262,0.0249061584472656,0.0301843844354153,0.014823641628027
794,0.00396414007991552,0.00932759139686823,0.0252451114356518,0.0253578387200832,0.0316405184566975,0.0139387017115951
795,0.00463174190372229,0.00979597214609385,0.0252353027462959,0.0258978474885225,0.0331222377717495,0.0119351772591472
796,0.00538664544001222,0.0102178202942014,0.0247912649065256,0.027071563526988,0.0351052694022655,0.00950524769723415
797,0.00504726218059659,0.00969468895345926,0.0235979799181223,0.0265920571982861,0.036072663962841,0.00601914944127202
798,0.00401883013546467,0.0087925735861063,0.0221180431544781,0.0230817515403032,0.0346734449267387,0.00322036212310195
799,0.00413082353770733,0.00960646104067564,0.0216903649270535,0.0202673953026533,0.0326679460704327,0.00434402609243989
800,0.0057741473428905,0.0120843499898911,0.0232219528406858,0.0222440008074045,0.0327307879924774,0.00856411643326283
801,0.00776242045685649,0.0141374189406633,0.0257253870368004,0.0267160218209028,0.0345581918954849,0.012154852040112
802,0.0091087631881237,0.0147759728133678,0.0272403601557016,0.0284680873155594,0.0357225574553013,0.0131287965923548
803,0.00959240831434727,0.0142992390319705,0.0267895497381687,0.0261875744909048,0.0342898815870285,0.0115967970341444
804,0.00936591718345881,0.0130228847265244,0.0246282760053873,0.0218495279550552,0.0294531118124723,0.00820365082472563
805,0.00868623424321413,0.0114085134118795,0.0216170214116573,0.0172559134662151,0.0225693136453629,0.0039473962970078
806,0.00688538886606693,0.00963681098073721,0.0175610780715942,0.0123519636690617,0.0155701087787747,-0.000846569892019033
807,0.00423648534342647,0.00802868884056807,0.0131623698398471,0.00756848882883787,0.0101429391652346,-0.00532180955633521
808,0.00321058300323784,0.00714034400880337,0.0109800063073635,0.0047118472866714,0.00837663281708956,-0.00741581805050373
809,0.0038741915486753,0.00640266621485353,0.0108731118962169,0.00329546025022864,0.00972518604248762,-0.00778624229133129
810,0.00537786167114973,0.00599107332527637,0.0119810095056891,0.00291078072041273,0.0129630481824279,-0.00783055555075407
811,0.00836490094661713,0.00708904070779681,0.0144702289253473,0.00438242265954614,0.0174668654799461,-0.00677851494401693
812,0.0105892522260547,0.00893444567918777,0.0158858615905046,0.005829191301018,0.0198147855699062,-0.00538123911246657
813,0.0098097575828433,0.010123522952199,0.0144760617986321,0.0057502631098032,0.0177898276597261,-0.0051739658229053
814,0.00875604618340731,0.0111244525760412,0.01285978872329,0.00641531636938453,0.0141992438584566,-0.00469848979264498
815,0.0103683788329363,0.0125587536022067,0.0135043626651168,0.00918295420706272,0.0121889831498265,-0.00243809912353754
816,0.0129420785233378,0.0131912007927895,0.0150648457929492,0.0107825417071581,0.0111452070996165,-0.000482222065329552
817,0.0135714467614889,0.0120779257267714,0.0150170149281621,0.00821884162724018,0.00911449920386076,-0.000825543887913227
818,0.011692295782268,0.0101123508065939,0.0124536333605647,0.00295949354767799,0.00555018847808242,-0.00255427020601928
819,0.00765607366338372,0.00810356996953487,0.00791735388338566,-0.00235928664915264,0.000702130375429988,-0.00475978618487716
820,0.00239447900094092,0.00632418133318424,0.00308883842080832,-0.00653716083616018,-0.00434328988194466,-0.00760452449321747
821,-0.0013887322274968,0.00555646140128374,0.000751718180254102,-0.00857892259955406,-0.00704974727705121,-0.0102667873725295
822,-0.00163700501434505,0.0061847260221839,0.00212584203109145,-0.00827695894986391,-0.00596617860719562,-0.0115704061463475
823,0.00091631687246263,0.00744499545544386,0.00524072395637631,-0.00712173897773027,-0.00271432148292661,-0.0120510021224618
824,0.0044523635879159,0.00885946396738291,0.00801954232156277,-0.00613284343853593,0.000580811582040042,-0.0125108174979687
825,0.00722895003855228,0.0105753652751446,0.0094428788870573,-0.00524737173691392,0.00294664595276117,-0.0128207206726074
826,0.00784362014383078,0.0122366202995181,0.00835845991969109,-0.00434431154280901,0.00352087593637407,-0.0130856707692146
827,0.00546879647299647,0.0125872287899256,0.00418366957455873,-0.00385929411277175,0.000905623950529844,-0.0145581578835845
828,0.000886762165464461,0.0110085355117917,-0.00190629053395242,-0.00426757568493485,-0.00500515382736921,-0.0181723888963461
829,-0.00294211134314537,0.0091288797557354,-0.00684427376836538,-0.0046463324688375,-0.0108526237308979,-0.0224057137966156
830,-0.00399779016152024,0.00832312181591988,-0.00829256698489189,-0.00485005043447018,-0.012897920794785,-0.0253439582884312
831,-0.00314836110919714,0.00816852692514658,-0.00727583793923259,-0.006486885715276,-0.0112397326156497,-0.0262847244739532
832,-0.0019971732981503,0.00878011807799339,-0.00566963572055101,-0.00923434272408485,-0.00836835708469152,-0.0244749803096056
833,-0.00153381330892444,0.00996220391243696,-0.00406926404684782,-0.0117455739527941,-0.00639810459688306,-0.0213870499283075
834,-0.00131935079116374,0.0104176942259073,-0.00280002458021045,-0.0137694394215941,-0.00631038472056389,-0.0202067382633686
835,-0.000918886624276638,0.00944334920495749,-0.00323420413769782,-0.0160025060176849,-0.00871227774769068,-0.0222038738429546
836,-0.00132171437144279,0.00715524656698108,-0.00666598090901971,-0.0196901150047779,-0.0137742338702083,-0.0270427223294973
837,-0.00133810634724796,0.0052625322714448,-0.0106871044263244,-0.0230663493275642,-0.0186841525137424,-0.0319919660687447
838,0.00104502297472209,0.00562459230422974,-0.012048470787704,-0.0231081061065197,-0.0202426761388779,-0.0339373908936977
839,0.00365382782183588,0.00718414597213268,-0.0117830820381641,-0.0212486516684294,-0.0198221262544394,-0.0341521129012108
840,0.00356402830220759,0.00801659934222698,-0.0120316967368126,-0.020361864939332,-0.0200767517089844,-0.0351342260837555
841,0.002055260585621,0.00794422440230846,-0.0122790401801467,-0.0203189644962549,-0.020800344645977,-0.0363546311855316
842,0.00153451168444008,0.00724845891818404,-0.0121722975745797,-0.0207782704383135,-0.0212581027299166,-0.0372027233242989
843,0.00187392195221037,0.00588031020015478,-0.0129232387989759,-0.0225163288414478,-0.0217611212283373,-0.0386898592114449
844,0.00218398752622306,0.00408412516117096,-0.0145271308720112,-0.024901133030653,-0.0225906874984503,-0.0408413484692574
845,0.0028210177551955,0.00274278922006488,-0.0153331374749541,-0.0259669329971075,-0.0232134312391281,-0.0417751185595989
846,0.00421521067619324,0.00266817421652377,-0.0145229231566191,-0.0255501829087734,-0.0225391983985901,-0.0401945188641548
847,0.00493969768285751,0.00352796586230397,-0.013916484080255,-0.0259865373373032,-0.0216610450297594,-0.0382418818771839
848,0.00339419674128294,0.0044929520227015,-0.0154564687982202,-0.0269845109432936,-0.0230657178908587,-0.0388773269951344
849,0.00100805901456624,0.0056087588891387,-0.0177094619721174,-0.0250806901603937,-0.0260000377893448,-0.0408083312213421
850,-0.000475849665235728,0.0070526865310967,-0.0186628419905901,-0.0213542897254229,-0.0284412819892168,-0.0413077101111412
851,-0.00095984322251752,0.00838945340365171,-0.0175613611936569,-0.0196523573249578,-0.0294633582234383,-0.0395016670227051
852,-0.000313537893816829,0.00963058043271303,-0.0139088686555624,-0.0196015387773514,-0.0273405853658915,-0.0348574556410313
853,0.000164068842423148,0.0102577665820718,-0.00968767795711756,-0.0202807001769543,-0.0223190672695637,-0.0298549253493547
854,-0.000775985885411501,0.00885623786598444,-0.00817698892205954,-0.0230236276984215,-0.0186443943530321,-0.0292935185134411
855,-0.00105449219699949,0.0060272510163486,-0.00916014332324266,-0.026818186044693,-0.0186506807804108,-0.0325585380196571
856,0.00128192629199475,0.00426957011222839,-0.00975637137889862,-0.0284741874784231,-0.0202109701931477,-0.0344692580401897
857,0.00415500858798623,0.00416049361228943,-0.00972584821283817,-0.0282881148159504,-0.0227541644126177,-0.0337470434606075
858,0.00539674796164036,0.00428816583007574,-0.0103610586374998,-0.0285760518163443,-0.0272948164492846,-0.0329107493162155
859,0.00609208829700947,0.00427030259743333,-0.0107525689527392,-0.029009697958827,-0.0314145386219025,-0.0329783409833908
860,0.00707558915019035,0.00438354909420013,-0.0105622559785843,-0.0288269184529781,-0.0327136181294918,-0.0337508246302605
861,0.00733836786821485,0.00435161916539073,-0.0111898127943277,-0.0287436321377754,-0.0329107977449894,-0.0348333306610584
862,0.00584766222164035,0.00402410933747888,-0.0134289423003793,-0.0292912535369396,-0.0341664552688599,-0.0349831655621529
863,0.00240268791094422,0.00340020121075213,-0.0172010287642479,-0.0305705182254314,-0.0364028103649616,-0.0340586304664612
864,-0.00188159360550344,0.00233663083054125,-0.02110830321908,-0.0325321294367313,-0.0382397137582302,-0.0341676957905293
865,-0.00461158202961087,0.00136819377075881,-0.0225048884749413,-0.0339509025216103,-0.0375227108597755,-0.0362205095589161
866,-0.00519874598830938,0.00086633040336892,-0.0214563570916653,-0.0341965816915035,-0.0347517244517803,-0.0391060039401054
867,-0.0052974377758801,0.000520971836522222,-0.0209925435483456,-0.0339807644486427,-0.0336306616663933,-0.0415704920887947
868,-0.00488544395193458,0.00102538138162345,-0.0214462112635374,-0.0322718694806099,-0.0351165421307087,-0.041867058724165
869,-0.00305214640684426,0.00280177383683622,-0.0211609285324812,-0.0286518838256598,-0.0372423864901066,-0.0393541567027569
870,-2.24999857891817E-05,0.0049394522793591,-0.0203865170478821,-0.0253285765647888,-0.0387720800936222,-0.0349724218249321
871,0.00354820257052779,0.00658042170107365,-0.0196988563984632,-0.0237266719341278,-0.0381849482655525,-0.0302293170243502
872,0.00725203473120928,0.00762071600183845,-0.0179098378866911,-0.0228984449058771,-0.0330020152032375,-0.0262961126863956
873,0.0100880684331059,0.00811753794550896,-0.0148021159693599,-0.0223138500005007,-0.0248722974210978,-0.0231058187782764
874,0.0105916149914265,0.00787835940718651,-0.0127720134332776,-0.0233660116791725,-0.0198780279606581,-0.0207606330513954
875,0.00888565462082624,0.0075900568626821,-0.0131745552644134,-0.0263465028256178,-0.0201329421252012,-0.0196286719292402
876,0.00588277215138078,0.00796225946396589,-0.0156230116263032,-0.0300023462623358,-0.0234684217721224,-0.0198528952896595
877,0.0026202944573015,0.00852282159030437,-0.0188281871378422,-0.0327911972999573,-0.0281698256731033,-0.0212571583688259
878,0.00130764092318714,0.00936539098620415,-0.0193621627986431,-0.0328218378126621,-0.0314164608716965,-0.0224859304726124
879,0.00284989480860531,0.0107899345457554,-0.0150718782097101,-0.0302639473229647,-0.0310913678258657,-0.0225822534412146
880,0.00556122837588191,0.0121061336249113,-0.00890170037746429,-0.0278770662844181,-0.0290798004716635,-0.022224985063076
881,0.00808627158403397,0.012888696976006,-0.00596107076853514,-0.0276206620037556,-0.0286640580743551,-0.0224064961075783
882,0.00980886723846197,0.0130386212840676,-0.00851243454962969,-0.0294101443141699,-0.0315892733633518,-0.02399542927742
883,0.0101992646232247,0.0124499332159758,-0.0145728262141347,-0.0317796245217323,-0.0367382392287254,-0.0268345605581999
884,0.00833772402256727,0.010815342888236,-0.0212727505713701,-0.0344749428331852,-0.0421063154935837,-0.0307076312601566
885,0.00318044098094106,0.00785631220787764,-0.0276645086705685,-0.0391516461968422,-0.0474900342524052,-0.0362662337720394
886,-0.00326353404670954,0.00500441109761596,-0.0325435027480125,-0.0445192717015743,-0.0521905906498432,-0.0413661897182465
887,-0.00729800201952457,0.00427418062463403,-0.0338695682585239,-0.0467442758381367,-0.0539952218532562,-0.0420583188533783
888,-0.0089382566511631,0.00501847313717008,-0.0325570628046989,-0.0456757210195065,-0.053108137100935,-0.0387251116335392
889,-0.0100365178659558,0.00548820337280631,-0.0305621046572924,-0.0431729443371296,-0.0508580319583416,-0.0342592000961304
890,-0.0105064557865262,0.00561640597879887,-0.0277158450335264,-0.0396500416100025,-0.046773012727499,-0.0295949801802635
891,-0.0100643364712596,0.0055516860447824,-0.0244346745312214,-0.0364199839532375,-0.0416041165590286,-0.0257668606936932
892,-0.00929552037268877,0.00478356657549739,-0.0224817655980587,-0.0356999672949314,-0.0381145365536213,-0.0241737645119429
893,-0.00873574428260326,0.00385738490149379,-0.0230881441384554,-0.0377118773758411,-0.0384257882833481,-0.0245687402784824
894,-0.00852322299033403,0.00383358099497855,-0.0260777976363897,-0.0393485575914383,-0.0422964617609978,-0.0264184698462486
895,-0.00816474203020334,0.00438786670565605,-0.0295365396887064,-0.0376810654997826,-0.0462776236236095,-0.02919976785779
896,-0.00680761411786079,0.00523680448532104,-0.0303161200135946,-0.0339156948029995,-0.0456755273044109,-0.03067871555686
897,-0.00458694808185101,0.00644581438973546,-0.027318699285388,-0.0314121097326279,-0.0401607528328896,-0.0295719616115093
898,-0.00310499197803438,0.00659646233543754,-0.0235739555209875,-0.0325115323066711,-0.0354429259896278,-0.0285478532314301
899,-0.00371614098548889,0.00444180658087134,-0.0224038083106279,-0.0371607504785061,-0.0361884236335754,-0.0304245986044407
900,-0.00533590139821172,0.0015699069481343,-0.0235395804047585,-0.0418157242238522,-0.0404866598546505,-0.0337227582931519
901,-0.00663011614233255,-0.000178035130375065,-0.025953596457839,-0.0437504798173904,-0.0451601706445217,-0.036312997341156
902,-0.00743256462737918,-0.000878590042702854,-0.0291157327592373,-0.0443589948117733,-0.0494646541774273,-0.0385071486234665
903,-0.00715216202661395,-0.000619391677901149,-0.0311241671442986,-0.0446159169077873,-0.0527385100722313,-0.0392928086221218
904,-0.00664646597579122,0.000257168809184805,-0.0317305959761143,-0.0441318899393082,-0.0553535260260105,-0.0373927988111973
905,-0.00738390255719423,0.00077951728599146,-0.0326310247182846,-0.0432027205824852,-0.0579184181988239,-0.0344119742512703
906,-0.00824422668665648,0.000900056678801775,-0.0338581316173077,-0.041722048074007,-0.0590119548141956,-0.031768437474966
907,-0.00756375910714269,0.00138698669616133,-0.0341419391334057,-0.039330393075943,-0.0570705682039261,-0.0289794858545065
908,-0.00637675402686,0.00191237812396139,-0.0338470451533794,-0.0376916006207466,-0.0530332624912262,-0.0268398243933916
909,-0.00637961598113179,0.00151586532592773,-0.0343780182301998,-0.0389173589646816,-0.0492170080542564,-0.0271294396370649
910,-0.00717074424028397,0.000459228904219344,-0.0356238260865211,-0.0424189493060112,-0.0463252738118172,-0.0297180712223053
911,-0.00787862576544285,-0.00053808226948604,-0.0368936397135258,-0.0461548343300819,-0.0439582169055939,-0.0330319777131081
912,-0.00790705811232328,-0.00108397821895778,-0.0375446379184723,-0.048111941665411,-0.0421781465411186,-0.0352285243570805
913,-0.00704726669937372,-0.00124464044347405,-0.0370417758822441,-0.0477773100137711,-0.0414209738373756,-0.0361821055412292
914,-0.00602840445935726,-0.0014056881191209,-0.0356454029679298,-0.0465709939599037,-0.0419847331941128,-0.0370379984378815
915,-0.0057490929029882,-0.00175147224217653,-0.0342438444495201,-0.045879527926445,-0.0444087535142899,-0.0382414050400257
916,-0.00540953176096082,-0.00150372949428856,-0.0323992557823658,-0.0448568984866142,-0.0478366240859032,-0.03863275796175
917,-0.00389885529875755,-2.39317432715325E-06,-0.0292497426271439,-0.0422304086387157,-0.0502071231603622,-0.0367736034095287
918,-0.0029635748360306,0.00129515351727605,-0.0267374198883772,-0.0395735166966915,-0.0520923584699631,-0.0340736471116543
919,-0.00295367161743343,0.00185149512253702,-0.0253516547381878,-0.0368967540562153,-0.0530019290745258,-0.0313656479120255
920,-0.00210375036112964,0.00242221471853554,-0.0235374514013529,-0.0333852060139179,-0.0508965998888016,-0.0287816058844328
921,-0.00162604090292007,0.00204705027863383,-0.0226696785539389,-0.0323258377611637,-0.0481514781713486,-0.0287692248821259
922,-0.00347591633908451,0.000230028963414952,-0.0245555695146322,-0.0357319936156273,-0.0481500513851643,-0.0315396524965763
923,-0.00693291425704956,-0.00172349368222058,-0.0280963741242886,-0.0408972650766373,-0.0502162985503674,-0.0340537540614605
924,-0.0102032050490379,-0.00303147942759097,-0.0308536887168884,-0.0447707958519459,-0.0520611293613911,-0.0346302501857281
925,-0.0116905532777309,-0.00414386857300997,-0.0310226753354073,-0.0464380048215389,-0.0525627620518208,-0.0339733511209488
926,-0.0106117343530059,-0.00536430859938264,-0.0282253418117762,-0.0459431707859039,-0.0511075183749199,-0.0332359857857227
927,-0.00853210780769587,-0.0065863230265677,-0.0241874866187572,-0.0439580343663692,-0.0482654422521591,-0.0336496867239475
928,-0.00751752592623234,-0.00781603343784809,-0.0213314983993769,-0.0420435927808285,-0.045713659375906,-0.0358023382723331
929,-0.0077518867328763,-0.00925921835005283,-0.02112134732306,-0.0418366305530071,-0.0445112325251102,-0.0387729555368423
930,-0.00889995042234659,-0.0110650323331356,-0.0242264661937952,-0.0439649261534214,-0.0458859167993069,-0.0414183847606182
931,-0.0103445025160909,-0.0125707602128387,-0.0293539576232433,-0.0472425445914268,-0.0500044785439968,-0.0430805310606956
932,-0.0107215568423271,-0.0126457465812564,-0.0329224579036236,-0.0491990111768246,-0.0533455014228821,-0.0432292334735394
933,-0.00932951364666224,-0.0113831730559468,-0.0321328081190586,-0.0482423566281796,-0.0517017804086208,-0.0418506115674973
934,-0.00713861640542746,-0.0105497539043427,-0.0276843551546335,-0.0462249852716923,-0.0456985607743263,-0.0400633439421654
935,-0.00603284873068333,-0.0108448937535286,-0.0227016657590866,-0.0451427027583122,-0.0403206869959831,-0.0386177226901054
936,-0.0064705666154623,-0.0110269440338016,-0.0196851566433907,-0.0424448437988758,-0.0381454601883888,-0.0371006168425083
937,-0.00754804350435734,-0.0110483933240175,-0.020153759047389,-0.0381535068154335,-0.0372947752475739,-0.0361437313258648
938,-0.00831615831702948,-0.0118630258366466,-0.0246993359178305,-0.0382083617150784,-0.036324854940176,-0.0371108427643776
939,-0.00730632292106748,-0.012919862754643,-0.0306607969105244,-0.0437444224953651,-0.0354548282921314,-0.0389927066862583
940,-0.00407523848116398,-0.0128026697784662,-0.0339261889457703,-0.0491576306521893,-0.0349704436957836,-0.0390479229390621
941,-0.000130435524624772,-0.011158705689013,-0.0335386320948601,-0.0508329756557941,-0.0353430733084679,-0.036347609013319
942,0.00243545300327241,-0.00938767474144697,-0.0321387350559235,-0.0504539348185062,-0.0377224870026112,-0.0330756343901157
943,0.00307280290871859,-0.00825198087841272,-0.0314848013222218,-0.0503771379590034,-0.0417874604463577,-0.0312008000910282
944,0.00296096270903945,-0.00672704540193081,-0.0305463429540396,-0.0499437190592289,-0.0449303798377514,-0.0298253074288368
945,0.00232788710854948,-0.00463129812851548,-0.0285917762666941,-0.0480725169181824,-0.0452710315585136,-0.027638329192996
946,0.00126719428226352,-0.00254903105087578,-0.0254823435097933,-0.0443328320980072,-0.042676817625761,-0.0241960845887661
947,0.000242638925556093,-0.000749311060644686,-0.0219807140529156,-0.0392476618289948,-0.0393570996820927,-0.0201192907989025
948,-0.000975284085143358,0.000671369838528335,-0.0196883957833052,-0.0346508957445621,-0.0375152043998241,-0.0170323550701141
949,-0.00208159652538598,0.00205266894772649,-0.0185855701565742,-0.0312531441450119,-0.0366323031485081,-0.0158226881176233
950,-0.00286324042826891,0.00317479576915503,-0.0179114267230034,-0.0292530544102192,-0.0360438078641891,-0.0166632607579231
951,-0.00398590881377459,0.00325262453407049,-0.0177912581712008,-0.0295229703187943,-0.0358618162572384,-0.0189370661973953
952,-0.00557380309328437,0.00240875943563879,-0.0184617228806019,-0.0319440588355064,-0.0357069410383701,-0.0208971425890923
953,-0.00684073939919472,0.00142030685674399,-0.019740391522646,-0.0352492220699787,-0.0350796803832054,-0.0216273218393326
954,-0.00725693209096789,0.000697986513841897,-0.0213736519217491,-0.0379405878484249,-0.0342729911208153,-0.0216769818216562
955,-0.00678410101681948,0.000592942873481661,-0.022408489137888,-0.0384782217442989,-0.0337820909917355,-0.0211826469749212
956,-0.00593261932954192,0.00103155639953911,-0.0224091242998838,-0.0371502302587032,-0.0343829169869423,-0.0200815387070179
957,-0.00581183889880776,0.00117780163418502,-0.0227097626775503,-0.0359883457422256,-0.0369836837053299,-0.0185323674231768
958,-0.00711327092722058,0.000704687321558595,-0.0240115020424128,-0.0356709323823452,-0.0407444983720779,-0.0162803940474987
959,-0.00941805820912123,-2.68623407464474E-05,-0.0255129970610142,-0.0353087894618511,-0.0436813309788704,-0.0138574177399278
960,-0.0120152086019516,-0.000902972766198218,-0.026700621470809,-0.034421693533659,-0.0452304482460022,-0.0128511795774102
961,-0.0148527566343546,-0.00186879734974355,-0.0279080010950565,-0.0334136299788952,-0.0464899688959122,-0.0140958037227392
962,-0.0171271357685328,-0.00230546877719462,-0.0287272557616234,-0.032108798623085,-0.0473906844854355,-0.0162563901394606
963,-0.0181465037167072,-0.00221921526826918,-0.0291516538709402,-0.030321815982461,-0.0477032661437988,-0.0177707746624947
964,-0.0184229165315628,-0.00212033092975616,-0.0297898780554533,-0.027959730476141,-0.047661580145359,-0.0187945961952209
965,-0.0177219584584236,-0.00172884552739561,-0.029259329661727,-0.0245761051774025,-0.0455479398369789,-0.0198931433260441
966,-0.0155345909297466,-0.000708031351678073,-0.026635155081749,-0.0214843954890966,-0.0408944189548492,-0.020606467500329
967,-0.0114313708618283,0.000901592255104333,-0.0234357416629791,-0.0205014087259769,-0.0358295142650604,-0.0198294594883919
968,-0.00629308167845011,0.00222891592420638,-0.0219628103077412,-0.0220784209668636,-0.0325755216181278,-0.0185014307498932
969,-0.00274893920868635,0.00242311600595713,-0.0230512097477913,-0.0250290390104055,-0.0319489687681198,-0.018441665917635
970,-0.00127429934218526,0.00242585851810873,-0.0246806386858225,-0.026812432333827,-0.0322721190750599,-0.0187312122434378
971,-0.00100339786149561,0.00311892735771835,-0.024831248447299,-0.0267660599201918,-0.0319097489118576,-0.0182097312062979
972,-0.00192823738325387,0.00396434776484966,-0.0238445922732353,-0.0262543521821499,-0.0314518362283707,-0.0172685161232948
973,-0.00405384367331862,0.00408220058307052,-0.0234151072800159,-0.0265526734292507,-0.0324322506785393,-0.016864625737071
974,-0.00627268012613058,0.00335708586499095,-0.0238656774163246,-0.0274944193661213,-0.0341501571238041,-0.0175326112657785
975,-0.00624927366152406,0.00257911346852779,-0.0237049423158169,-0.0275879912078381,-0.0338113307952881,-0.0184127818793058
976,-0.00406589545309544,0.00154885218944401,-0.0233536642044783,-0.0272946450859308,-0.0320514291524887,-0.0197436567395926
977,-0.00196373159997165,-0.00036798304063268,-0.0243716146796942,-0.0278483685106039,-0.0320887640118599,-0.0222516730427742
978,-0.000720596173778176,-0.00234675407409668,-0.0261942036449909,-0.0287059564143419,-0.0346183069050312,-0.0245587844401598
979,0.00069677917053923,-0.00288151600398123,-0.0265005696564913,-0.0282671116292477,-0.0369468815624714,-0.0244814343750477
980,0.00171385647263378,-0.00232408777810633,-0.0253838989883661,-0.0273035205900669,-0.0374926328659058,-0.0230883341282606
981,0.000169855600688607,-0.00248502334579825,-0.0253742281347513,-0.028535483404994,-0.0372328013181686,-0.0237972475588322
982,-0.00266840751282871,-0.00310797127895057,-0.0257723070681095,-0.0307359341531992,-0.0358975306153297,-0.0263232029974461
983,-0.00440717162564397,-0.00309959752485156,-0.0248533152043819,-0.0319837294518948,-0.0341261215507984,-0.0289570894092321
984,-0.00521103385835886,-0.0026756227016449,-0.0237977970391512,-0.0334513485431671,-0.034032192081213,-0.0313370116055012
985,-0.0055250390432775,-0.00226474879309535,-0.0237988233566284,-0.035586453974247,-0.0355811193585396,-0.0323807671666145
986,-0.00479965377599001,-0.00201568542979658,-0.0233603753149509,-0.0370136387646198,-0.0363840162754059,-0.0313443280756474
987,-0.00352575001306832,-0.00251678074710071,-0.0216366034001112,-0.0374238938093185,-0.035420935600996,-0.0300790276378393
988,-0.00278640142641962,-0.0041823904030025,-0.0201750919222832,-0.0374566912651062,-0.0340237393975258,-0.0307233668863773
989,-0.00241266703233123,-0.00601283693686128,-0.0195886678993702,-0.0364498756825924,-0.0329139977693558,-0.0320825986564159
990,-0.00195706100203097,-0.00643721222877502,-0.0191755630075932,-0.0336209237575531,-0.0316780805587769,-0.0317623727023602
991,-0.00178195466287434,-0.00506938202306628,-0.0187669452279806,-0.0299636647105217,-0.0300555154681206,-0.0296305045485497
