,AF3,AF4,Fp1,Fp2,AF7,AF8
0,0.0026484620757401,0.00387836620211601,-0.00130422820802778,0.000170456973137334,0.00239272112958133,-0.00715097459033132
1,-0.000662457081489265,0.00189530628267676,-0.00124146230518818,-0.00083897914737463,3.84377017326187E-05,-0.00638181110844016
2,-0.00262112100608647,0.000629658286925405,0.000982724479399621,5.24243478139397E-06,0.000690269225742668,-0.0047073788009584
3,-0.00354157225228846,0.000335496355546638,0.00371736031956971,0.00143954809755087,0.00347052444703877,-0.00250327540561557
4,-0.00558627722784877,0.000229423822020181,0.00315666804090142,0.000530884426552802,0.00349636888131499,-0.00230704108253121
5,-0.00733868731185794,0.000597064848989248,-0.000675662478897721,-0.0023745393846184,-0.000115204340545461,-0.00392509624361992
6,-0.00643754843622446,0.00168751529417932,-0.0049810060299933,-0.00499724922701716,-0.00492237089201808,-0.00515985721722245
7,-0.00351312104612589,0.00281445495784283,-0.00818007811903954,-0.00652025919407606,-0.00867748074233532,-0.0055863750167191
8,-0.000575831392779946,0.00327959842979908,-0.00970873329788446,-0.00715892715379596,-0.0104837473481894,-0.00610939087346196
9,0.00165730097796768,0.00335073284804821,-0.00854879431426525,-0.00604948354884982,-0.0106869023293257,-0.00653806049376726
10,0.00335503509268165,0.0032970521133393,-0.00521607091650367,-0.0027242605574429,-0.00989009812474251,-0.00647983467206359
11,0.00395775074139237,0.00224629044532776,-0.00295779807493091,-6.55645926599391E-05,-0.00937897525727749,-0.00696654990315437
12,0.00302534620277584,0.000119913762318902,-0.00431922264397144,-0.00110794545616955,-0.010113762691617,-0.00809436291456223
13,0.00183718628250062,-0.00120586575940251,-0.00776207121089101,-0.00447792513296008,-0.0106137311086059,-0.00828000158071518
14,0.00186359661165625,-0.000323343992931768,-0.00991727970540524,-0.00691771926358342,-0.00879634078592062,-0.00721810944378376
15,0.00323364045470953,0.00246425741352141,-0.00924312695860863,-0.00674041919410229,-0.00472726067528129,-0.00543084368109703
16,0.0051951827481389,0.00593717955052853,-0.00649314327165484,-0.00425841379910707,-0.000450087594799697,-0.0030532528180629
17,0.00687633035704494,0.00883190985769033,-0.00382483354769647,-0.00139206042513251,0.00196977565065026,-0.000590914045460522
18,0.00769009534269571,0.0101965330541134,-0.00331812188960612,-0.00021987639775034,0.0016783531755209,0.000647198932711035
19,0.0076481755822897,0.00972345937043428,-0.00486619584262371,-0.000780117814429104,-0.000147650862345472,-0.00010633299825713
20,0.00749121978878975,0.00843952037394047,-0.00600802898406982,-0.00119681563228369,-0.000406206381740049,-0.00126707763411105
21,0.00681648775935173,0.00683108484372497,-0.00614372733980417,-0.00180428568273783,0.00185053329914808,-0.00205022958107293
22,0.00454381108283997,0.00445754593238235,-0.00674919784069061,-0.00412443140521646,0.00467701442539692,-0.0032114046625793
23,0.00198412267491221,0.00256954878568649,-0.00677885813638568,-0.00582290859892964,0.00758986128494143,-0.00293185864575207
24,0.00171501655131578,0.00236611743457615,-0.00453303195536137,-0.00418964400887489,0.0112797599285841,9.80805052677169E-05
25,0.00426902808248997,0.00285121169872582,-0.00106257130391896,-0.000655699230264872,0.0146385338157415,0.0033386591821909
26,0.0073196142911911,0.00313639105297625,0.00178745447192341,0.00258473888970912,0.0159414000809193,0.00484305759891868
27,0.00842231698334217,0.00377724994905293,0.00356373516842723,0.00576440105214715,0.015488707460463,0.00534339575096965
28,0.00747359916567802,0.00512464623898268,0.00465620215982199,0.00887802988290787,0.0142539665102959,0.00552343763411045
29,0.00531893270090222,0.00657440209761262,0.00504365796223283,0.0103145651519299,0.0120922410860658,0.00553876301273704
30,0.00276675191707909,0.00780814979225397,0.00465566897764802,0.00993744749575853,0.00919230002909899,0.00612284243106842
31,0.000937094504479319,0.00899334810674191,0.00406154943630099,0.00935858488082886,0.00622467836365104,0.00755865219980478
32,-0.000308017479255795,0.00968094076961279,0.00315239443443716,0.00858505256474018,0.0021331999450922,0.00846550613641739
33,-0.00182320270687342,0.00927728414535522,0.00144826341420412,0.00658480543643236,-0.00430712755769491,0.00765888672322035
34,-0.00303762289695442,0.00807404145598412,-0.000520738190971315,0.00404014391824603,-0.011286043561995,0.00613693241029978
35,-0.00343583105131984,0.00665799900889397,-0.00205922476015985,0.00233540148474276,-0.0159379374235868,0.00529133575037122
36,-0.00366272125393152,0.00534825120121241,-0.00256816856563091,0.00243184482678771,-0.0170434080064297,0.00550403958186507
37,-0.00382020813412964,0.00459198653697968,-0.00114561116788536,0.00492284540086985,-0.0144623331725597,0.00718129659071565
38,-0.00315994094125926,0.00493710348382592,0.00237965886481106,0.00955818966031075,-0.00892586074769497,0.0107359187677503
39,-0.00235619326122105,0.00602581165730953,0.00596376741304994,0.0144351990893483,-0.0033366889692843,0.0148765165358782
40,-0.00317982072010636,0.00649306550621986,0.0070105753839016,0.0168109014630318,-0.00120170856826007,0.0171361826360226
41,-0.00536363525316119,0.00566354021430016,0.00531075987964869,0.0159426387399435,-0.00303116906434298,0.0169591717422009
42,-0.00654076179489493,0.00429480848833919,0.00311178946867585,0.0134812220931053,-0.00577875319868326,0.0158294830471277
43,-0.00520726386457682,0.0033142645843327,0.00251144869253039,0.0110600842162967,-0.00537086743861437,0.0146403424441814
44,-0.00180943449959159,0.00299442233517766,0.003610635176301,0.00948481913655996,-0.000713603280019015,0.0135865192860365
45,0.00247210939414799,0.0032934604678303,0.0057845083065331,0.00908516440540552,0.00515843275934458,0.0130791021510959
46,0.00539703899994493,0.00392464734613895,0.00771639682352543,0.00886551849544048,0.00815713964402676,0.0128872534260154
47,0.00408097403123975,0.00379157857969403,0.00698568252846599,0.00674016634002328,0.00616763439029455,0.0119891939684749
48,-0.00113443890586495,0.00211294391192496,0.00322817522101104,0.00246441294439137,0.000681639008689672,0.00987222045660019
49,-0.00577521696686745,0.000261214619968086,-0.000506646581925452,-0.000848541909363121,-0.00440230965614319,0.00786280911415815
50,-0.0068553164601326,-0.000267916213488206,-0.00206223898567259,-0.000878165592439473,-0.00673470087349415,0.00727239344269037
51,-0.00596568500623107,-3.20861872751266E-05,-0.00243563996627927,0.000866248039528728,-0.0070121749304235,0.00710012204945087
52,-0.00562391197308898,1.82661042344989E-05,-0.0028522745706141,0.00233402312733233,-0.00723062315955758,0.00635338295251131
53,-0.00600849883630872,-0.000228469609282911,-0.00302994577214122,0.00330462586134672,-0.00830346532166004,0.00525190215557814
54,-0.00516311824321747,-9.00914310477674E-05,-0.0011558112455532,0.00482277059927583,-0.0081063499674201,0.00427067838609219
55,-0.00201566051691771,0.00107245252002031,0.00422304775565863,0.00771274697035551,-0.0040245046839118,0.00433655362576246
56,0.00182699249126017,0.00259138131514192,0.011750016361475,0.0116092525422573,0.00302137550897896,0.00599665939807892
57,0.00418050587177277,0.00312600354664028,0.0182285364717245,0.0151130482554436,0.00925640296190977,0.00817609578371048
58,0.00455024093389511,0.00211893836967647,0.0211740471422672,0.0162691362202168,0.0117235966026783,0.00925126671791077
59,0.00357290799729526,-0.000148528124555014,0.0198837071657181,0.0140878418460488,0.010049787349999,0.00849225278943777
60,0.00255891238339245,-0.00243046577088535,0.0162520073354244,0.0106349177658558,0.00655249645933509,0.00708036031574011
61,0.00264082429930568,-0.00332118500955403,0.0129967294633389,0.00894171837717295,0.00428604101762176,0.00650343764573336
62,0.00234875688329339,-0.00310698943212628,0.0100957984104753,0.00810323003679514,0.00298299384303391,0.00515378918498755
63,0.00106676621362567,-0.00199332949705422,0.00808458402752876,0.00707259820774198,0.00252220616675913,0.00279089342802763
64,0.000954527291469276,0.000418095471104607,0.00904749520123005,0.00772929191589355,0.00517750903964043,0.00278970180079341
65,0.00269758561626077,0.00304886302910745,0.0122759966179729,0.0100158955901861,0.00998169556260109,0.00597932329401374
66,0.00522077130153775,0.00470976857468486,0.0154912387952209,0.0124186957255006,0.0139551525935531,0.010373892262578
67,0.00704702781513333,0.00516356946900487,0.0169954411685467,0.0141688594594598,0.01613874360919,0.0140349380671978
68,0.00727033708244562,0.00417966255918145,0.0159217584878206,0.0144777856767178,0.0166596956551075,0.015374724753201
69,0.00600927788764238,0.00159521063324064,0.0123982215300202,0.0128431227058172,0.0154897375032306,0.0139631945639849
70,0.00357905076816678,-0.0018771878676489,0.00729528209194541,0.00962787959724665,0.012504618614912,0.0106528997421265
71,0.00184689008165151,-0.00429058400914073,0.00298374169506133,0.00696266442537308,0.00971890985965729,0.00754147581756115
72,0.00333642703481019,-0.00474894139915705,0.00173562904819846,0.00687129329890013,0.00970618892461061,0.00656133098527789
73,0.00706061255186796,-0.0046026692725718,0.00267359218560159,0.00800240784883499,0.0109064523130655,0.00633147964254022
74,0.00969193316996098,-0.00448162574321032,0.00381302530877292,0.00813224818557501,0.0110158268362284,0.0044742887839675
75,0.0101857976987958,-0.00334054906852543,0.00547252921387553,0.00801588129252195,0.0112620331346989,0.00237545906566083
76,0.0092724421992898,-0.00110278476495296,0.00767814554274082,0.00836733356118202,0.0121710980311036,0.00194565649144351
77,0.00775487348437309,0.00110076204873621,0.00826808623969555,0.0077902702614665,0.0113137792795897,0.00218805787153542
78,0.00723170768469572,0.00307341013103724,0.0068976772017777,0.00662746699526906,0.00816613808274269,0.0026298922020942
79,0.00923739466816187,0.00520006753504276,0.00628969026729465,0.00726917292922735,0.00615547178313136,0.00424165371805429
80,0.012283269315958,0.00666162976995111,0.00733492663130164,0.0100415199995041,0.00726134842261672,0.00592167163267732
81,0.012410294264555,0.00586340995505452,0.00747543852776289,0.0118753425776958,0.00879273284226656,0.00427195383235812
82,0.00964500941336155,0.00324397534132004,0.00686310324817896,0.0111904162913561,0.00926582049578428,-0.000477867579320446
83,0.00730000576004386,0.000980094773694873,0.00782785844057798,0.00951847061514854,0.00982218515127897,-0.00386329717002809
84,0.00619464740157127,0.000136658287374303,0.00936606619507074,0.00763676874339581,0.0101812072098255,-0.00367744965478778
85,0.00570955825969577,0.000337627687258646,0.00943481735885143,0.00531837437301874,0.00995056703686714,-0.00162201409693807
86,0.00564892403781414,0.000706827791873366,0.007740150205791,0.00243450072593987,0.00975887849926949,-0.00045119714923203
87,0.00564508745446801,0.000521540641784668,0.00496038096025586,-0.000891967618372291,0.00972073711454868,-0.00158703385386616
88,0.00496580172330141,-7.21827382221818E-05,0.00233921711333096,-0.00326796039007604,0.00943019799888134,-0.00410611648112535
89,0.00307618593797088,-0.000100947923783679,0.000921756494790316,-0.00326039898209274,0.00867762975394726,-0.00576785672456026
90,0.000347861496265978,0.000994250643998384,0.000566057628020644,-0.00174634263385087,0.00799210276454687,-0.00533420499414206
91,-0.00168532354291528,0.00304111745208502,0.00101503974292427,-5.20231405971572E-05,0.00825011171400547,-0.003028295468539
92,-0.00165569956880063,0.00561025971546769,0.00258427206426859,0.00192291510757059,0.00924153160303831,0.000461050745798275
93,-0.000335955963237211,0.00795120932161808,0.00461391499266028,0.00378924189135432,0.00966154132038355,0.00399314425885677
94,-1.43034358188743E-05,0.00892482697963715,0.00480060279369354,0.00344791915267706,0.00719287618994713,0.00551179843023419
95,-0.00135492393746972,0.00833826046437025,0.00198655854910612,-2.49048698606202E-05,0.000631512724794447,0.00407462706789374
96,-0.00282098329626024,0.00761036807671189,-0.00242630881257355,-0.0043568960390985,-0.00771815609186888,0.00186901073902845
97,-0.00307594565674663,0.00787427648901939,-0.00641218386590481,-0.00652087666094303,-0.0141942501068115,0.00190031202509999
98,-0.00223382585681975,0.00826346129179001,-0.00888632424175739,-0.00605152267962694,-0.0171572417020798,0.00434696255251765
99,-0.000542088877409697,0.00765427527949214,-0.00937121268361807,-0.00438023684546351,-0.0167091935873032,0.0076424959115684
100,0.00195370241999626,0.00644457945600152,-0.0078990226611495,-0.00253534084185958,-0.0132994865998626,0.0112161291763186
101,0.00443856650963426,0.0051005813293159,-0.00580385327339172,-0.00135919568128884,-0.00828221999108791,0.0141880745068192
102,0.0062502115033567,0.00351419718936086,-0.00467490125447512,-0.00168625323567539,-0.00321703776717186,0.0147405732423067
103,0.00712928827852011,0.00169452384579927,-0.00492728408426046,-0.00328884925693274,0.00120310974307358,0.0121812587603927
104,0.00684055872261524,1.72607315107598E-06,-0.00520644895732403,-0.00431345496326685,0.00513331918045878,0.00789908599108458
105,0.00581653229892254,-0.00159355672076344,-0.00404552277177572,-0.0040697013027966,0.00827554054558277,0.00378391332924366
106,0.00536361616104841,-0.00296691618859768,-0.00201326864771545,-0.00365330558270216,0.00953660719096661,0.00170524278655648
107,0.00593899190425873,-0.00338638946413994,-0.00107826734893024,-0.00381557294167578,0.0083263274282217,0.00257822312414646
108,0.00621173111721873,-0.00320977927185595,-0.002347432076931,-0.00509676523506641,0.00479654828086495,0.00424929987639189
109,0.00545792421326041,-0.00280085997655988,-0.00462369946762919,-0.00655768811702728,0.000221559283090755,0.00491055706515908
110,0.0043209264986217,-0.00157634704373777,-0.00632762629538774,-0.0067046545445919,-0.00405779760330915,0.00525986682623625
111,0.00368973147124052,0.000150056454003789,-0.00703501747921109,-0.00605100532993674,-0.0076620215550065,0.00570649700239301
112,0.00473606493324041,0.00163079856429249,-0.00611312547698617,-0.00508762476965785,-0.00958965346217155,0.00645751086995006
113,0.00763939460739493,0.00290911900810897,-0.00254465802572668,-0.00276893307454884,-0.00763424346223474,0.0082320487126708
114,0.0104768052697182,0.00396215124055743,0.00258930842392147,0.00099955138284713,-0.00139140419196337,0.0104156658053398
115,0.0114823915064335,0.00443030102178454,0.00592820113524795,0.00445271749049425,0.00500481156632304,0.0114969927817583
116,0.0112711247056723,0.00421996088698506,0.00594120472669601,0.00644042063504457,0.00713714025914669,0.011484494432807
117,0.0108642308041453,0.00340046524070203,0.00419644778594375,0.00717715080827475,0.00533205829560757,0.0109667321667075
118,0.00947977229952812,0.00220785895362496,0.00264856009744108,0.00734853930771351,0.00262174825184047,0.0104071050882339
119,0.00658095628023148,0.00145697104744613,0.00240731867961586,0.00804287847131491,0.0010799280134961,0.0113901747390628
120,0.00311014382168651,0.00186133966781199,0.00328023754991591,0.00927234347909689,0.000545815099030733,0.0142027614638209
121,-0.000453325046692044,0.0027450742200017,0.0031250964384526,0.00918825063854456,-0.000657501688692719,0.0158331245183945
122,-0.00331202242523432,0.00350923649966717,0.000960296485573053,0.00753590231761336,-0.00261393748223782,0.0143016222864389
123,-0.00469829235225916,0.00424620229750872,-0.00196428317576647,0.00498592015355825,-0.00424956018105149,0.0102164167910814
124,-0.00575654115527868,0.00463045062497258,-0.00519809499382973,0.0011668789666146,-0.00557469110935926,0.00545634981244802
125,-0.00652615167200565,0.00503182876855135,-0.00763785978779197,-0.00176479900255799,-0.00584963383153081,0.00422713160514832
126,-0.00606056628748775,0.00582546973600984,-0.00739290425553918,-0.0013338674325496,-0.00432586763054132,0.00803975202143192
127,-0.00495205353945494,0.00660446658730507,-0.00481276120990515,0.00165083631873131,-0.00192476343363523,0.0130673702806234
128,-0.00458750175312161,0.00694842264056206,-0.00239280867390335,0.00464850477874279,-0.000831327168270946,0.0154393659904599
129,-0.00518852192908525,0.00672294991090894,-0.00146295479498804,0.00579195562750101,-0.00175580126233399,0.0143720218911767
130,-0.00508547993376851,0.00655818684026599,-0.000708034378476441,0.0056871953420341,-0.0018918594578281,0.0119948405772448
131,-0.00430334871634841,0.00658118817955256,-0.00018756979261525,0.00498669967055321,-0.000556017039343715,0.00980051420629025
132,-0.00450985133647919,0.00630587991327047,-0.000608980713877827,0.00380098377354443,0.000525004172232002,0.00747793260961771
133,-0.00472821062430739,0.00617167446762323,0.000556345796212554,0.00403412850573659,0.00286930100992322,0.00606668367981911
134,-0.00408244365826249,0.00620888080447912,0.00407933024689555,0.00616881111636758,0.00658146198838949,0.00680579943582416
135,-0.00436750147491694,0.00550031615421176,0.00665295822545886,0.00800480414181948,0.00813257414847612,0.00904835481196642
136,-0.00550435576587915,0.00441341148689389,0.00725084077566862,0.00901801884174347,0.00716607877984643,0.0121364640071988
137,-0.00492470152676106,0.00454064225777984,0.00799149181693792,0.0104272942990065,0.00671751983463764,0.0158727150410414
138,-0.00237580039538443,0.00612760474905372,0.00957094598561525,0.0122694848105311,0.00799610186368227,0.0191357769072056
139,7.16989161446691E-05,0.00777842709794641,0.0109991701319814,0.0137700671330094,0.00979352183640003,0.0206461809575558
140,0.00139227404724807,0.00817176606506109,0.0112396208569407,0.0145216444507241,0.0106151131913066,0.0199745018035173
141,0.00170686817727983,0.00689514633268118,0.00976331625133753,0.0145817631855607,0.00900851283222437,0.0170914698392153
142,0.0013485501985997,0.0047092828899622,0.00731975259259343,0.0141677390784025,0.00532746082171798,0.0126317534595728
143,0.000363518018275499,0.0027781892567873,0.00527503388002515,0.0132812364026904,0.00265452638268471,0.00854922365397215
144,-0.00190196034964174,0.00137877382803708,0.00424113171175122,0.0117802200838923,0.00322921434417367,0.00657534459605813
145,-0.00507729453966022,4.21432632720098E-05,0.0041000759229064,0.0090157687664032,0.00601959973573685,0.0062948246486485
146,-0.00667119259014726,-0.000901583465747535,0.00477429246529937,0.00540426513180137,0.00842202175408602,0.00733157945796847
147,-0.00640847254544497,-0.000923247425816953,0.00499823270365596,0.00191673741210252,0.00795086193829775,0.00925508327782154
148,-0.00699464371427894,-0.000801595277152956,0.00307636242359877,-0.00180172931868583,0.00403881166130304,0.00984643120318651
149,-0.00944091845303774,-0.00148691586218774,-0.00111554295290262,-0.00593176670372486,-0.00152234395500273,0.00763853080570698
150,-0.0120235662907362,-0.00251597375608981,-0.00595826050266624,-0.00917258113622665,-0.00651715835556388,0.00403911713510752
151,-0.0127202877774835,-0.00279108644463122,-0.00888177845627069,-0.00977319106459618,-0.00946732051670551,0.00173854792956263
152,-0.0119848512113094,-0.00256631732918322,-0.00964573118835688,-0.00844243820756674,-0.0107353180646896,0.00134465424343944
153,-0.0109821949154139,-0.00237300666049123,-0.00940394029021263,-0.00676364591345191,-0.0111001087352633,0.00265768053941429
154,-0.00987913552671671,-0.0020540535915643,-0.00842392444610596,-0.00512956315651536,-0.0107024619355798,0.00544959167018533
155,-0.00919057242572308,-0.00205311318859458,-0.0074627660214901,-0.00436989543959498,-0.010294770821929,0.00761343631893396
156,-0.00929064955562353,-0.00281962612643838,-0.00747372442856431,-0.00510190054774284,-0.010600590147078,0.00750027550384402
157,-0.00911422539502382,-0.00330280442722142,-0.00763962883502245,-0.00628188624978065,-0.0105149848386645,0.00624905666336417
158,-0.00771881220862269,-0.00227921735495329,-0.00649206945672631,-0.00645273830741644,-0.00846549682319164,0.00599614344537258
159,-0.00616464670747519,-0.000448644714197144,-0.00457409443333745,-0.00582075444981456,-0.00501523911952972,0.00682764500379562
160,-0.00501150032505393,0.000998908770270646,-0.00235944357700646,-0.0048029706813395,-0.00106737960595638,0.00771622313186526
161,-0.0039079119451344,0.00190077698789537,0.000366424530511722,-0.00308206840418279,0.0026500434614718,0.00883264653384686
162,-0.0034887797664851,0.00258515565656126,0.00266206637024879,-0.000758233363740146,0.00447262078523636,0.0105450879782438
163,-0.00521334586665034,0.00246163131669164,0.00357537996023893,0.000700574310030788,0.00312227685935795,0.010968217626214
164,-0.00898364931344986,0.000546930590644479,0.0031212957110256,-0.000642002385575324,-0.000285008369246498,0.00829473230987787
165,-0.0116545110940933,-0.00184942584019154,0.00202803569845855,-0.00388276134617627,-0.00288045476190746,0.0053893611766398
166,-0.0112596340477467,-0.00258416775614023,0.000863946159370244,-0.00664304569363594,-0.00429748930037022,0.00581955350935459
167,-0.00954542774707079,-0.00200475659221411,-0.00074149330612272,-0.00852751825004816,-0.00658350111916661,0.00840017106384039
168,-0.00871557835489511,-0.00181701045949012,-0.00321474275551736,-0.0101949218660593,-0.0102825546637177,0.010183634236455
169,-0.00836417265236378,-0.00200458616018295,-0.0054075769148767,-0.0112173948436975,-0.0132847363129258,0.0110689727589488
170,-0.00699612684547901,-0.00152980757411569,-0.00584817212074995,-0.0111115844920278,-0.0132060665637255,0.0122333522886038
171,-0.00522585166618228,-0.000771866645663977,-0.00522765843197703,-0.0110867256298661,-0.0106020784005523,0.0127484519034624
172,-0.00440268311649561,-0.000480690941913053,-0.00487792352214456,-0.0120478328317404,-0.00769340572878718,0.0117908604443073
173,-0.00426978524774313,-0.000139461801154539,-0.0045166052877903,-0.0128794256597757,-0.00560920126736164,0.0109447846189141
174,-0.00482407864183187,0.000458847644040361,-0.00402868818491697,-0.0129862362518907,-0.00538680236786604,0.0109985889866948
175,-0.00735120847821236,0.000246880808845162,-0.0047196252271533,-0.0135765317827463,-0.00819703843444586,0.01029181946069
176,-0.0116566391661763,-0.00135372043587267,-0.00684740440919995,-0.0151183679699898,-0.0128584038466215,0.00789425708353519
177,-0.0143332229927182,-0.002946408232674,-0.0077836443670094,-0.0154933650046587,-0.0155295040458441,0.00626716390252113
178,-0.0128163173794746,-0.00279548298567533,-0.00522483279928565,-0.0126263620331883,-0.01354890037328,0.00834352150559425
179,-0.0091959685087204,-0.00120147899724543,-0.000640508951619267,-0.00790700130164623,-0.00847500655800104,0.0135030662640929
180,-0.00749212177470326,0.000156568814418279,0.00237822299823165,-0.00465205917134881,-0.00476442184299231,0.0183290671557188
181,-0.0094102481380105,0.000303166685625911,0.00215731631033123,-0.00415025930851698,-0.00543227326124907,0.0202722661197186
182,-0.0121445916593075,0.000329536676872522,0.00161236536223441,-0.00382596720010042,-0.00818835012614727,0.0208916999399662
183,-0.0126297296956182,0.00112526572775096,0.00362949934788048,-0.00157148181460798,-0.00948188081383705,0.0221239384263754
184,-0.0112805152311921,0.0019179581431672,0.00697335274890065,0.00179641181603074,-0.00917311199009418,0.0231081489473581
185,-0.00939778704196215,0.00214415835216641,0.00956362765282393,0.00544501561671495,-0.00836850143969059,0.0232340805232525
186,-0.00776244327425957,0.00144510704558343,0.0108552481979132,0.00777351297438145,-0.00723741203546524,0.0220164228230715
187,-0.007079326082021,-0.000464647106127813,0.0110817039385438,0.00643397960811853,-0.00593179231509566,0.0188177283853292
188,-0.00844800379127264,-0.00330912438221276,0.0095423236489296,0.0014429873554036,-0.00607336917892098,0.0145556405186653
189,-0.0110075362026691,-0.00573685020208359,0.00661833491176367,-0.00372591614723206,-0.00748304650187492,0.0116475811228156
190,-0.0122524593025446,-0.00633069686591625,0.005151960067451,-0.005564927123487,-0.00715304212644696,0.0119674243032932
191,-0.0125685436651111,-0.00599419139325619,0.0062321973964572,-0.00477368151769042,-0.00447630556300282,0.0145797431468964
192,-0.0135861746966839,-0.00647440319880843,0.00786670483648777,-0.00418135477229953,-0.00170950451865792,0.016760591417551
193,-0.0153472311794758,-0.00834035035222769,0.00769275799393654,-0.00543406140059233,-0.000540754932444543,0.0158442370593548
194,-0.0173355024307966,-0.0110508389770985,0.00545502221211791,-0.00817854702472687,-0.00123688054736704,0.0114144030958414
195,-0.0173453446477652,-0.012526186183095,0.0040955813601613,-0.0093733724206686,-0.00200412096455693,0.00716147478669882
196,-0.0133073506876826,-0.0113259833306074,0.00578800356015563,-0.00666777556762099,-0.00121798447798938,0.00662175426259637
197,-0.00773495296016335,-0.00904012378305197,0.00824648048728704,-0.00213580694980919,-0.000785269541665912,0.00860549882054329
198,-0.00411295564845204,-0.00750359240919352,0.00904327724128962,0.00122993171680719,-0.00263031269423664,0.0102244047448039
199,-0.00340137677267194,-0.00682295206934214,0.0085095502436161,0.00242125010117888,-0.00596734927967191,0.0100146075710654
200,-0.0057664206251502,-0.00680463807657361,0.00732759898528457,0.00111753633245826,-0.00934996828436852,0.00757257547229528
201,-0.0096238199621439,-0.0067633599974215,0.00618475815281272,-0.00151341676246375,-0.0112497303634882,0.00425468618050218
202,-0.0127398502081633,-0.00629926705732942,0.00515873683616519,-0.00407292321324348,-0.0113565903156996,0.00170351110864431
203,-0.015125366859138,-0.00632081087678671,0.00311921932734549,-0.00690608425065875,-0.0117368455976248,-0.000233790167840198
204,-0.0176331661641598,-0.00722923455759883,-0.000207284290809184,-0.0101430993527174,-0.014201289974153,-0.00213418551720679
205,-0.0197350922971964,-0.00853153225034475,-0.00348008028231561,-0.0122682498767972,-0.0178205035626888,-0.00372064718976617
206,-0.020044457167387,-0.00990887545049191,-0.00509364809840918,-0.0113650662824512,-0.0200749523937702,-0.00429987162351608
207,-0.018152354285121,-0.0110365729779005,-0.0043149353004992,-0.00809866189956665,-0.0194420721381903,-0.00363996112719178
208,-0.0143679575994611,-0.0110893277451396,-0.00108204584103078,-0.0049649141728878,-0.0158012583851814,-0.00156804325524718
209,-0.0104112857952714,-0.0100741814821959,0.00275495531968772,-0.00357217923738062,-0.0113334441557527,0.00157074886374176
210,-0.00891399756073952,-0.00909025967121124,0.00435030134394765,-0.004219566937536,-0.00924264825880528,0.0044916532933712
211,-0.00937149208039045,-0.00818647909909487,0.00407979963347316,-0.00522767193615437,-0.00888817384839058,0.00721559440717101
212,-0.00990057084709406,-0.00680149253457785,0.00384545605629683,-0.00522294174879789,-0.00821247790008783,0.00991773791611195
213,-0.0107516692951322,-0.00538712088018656,0.00356898969039321,-0.00524367764592171,-0.00819495879113674,0.0107620488852263
214,-0.0118963411077857,-0.00446985708549619,0.00276335631497204,-0.00610452052205801,-0.00937261618673801,0.00922111328691244
215,-0.0128018315881491,-0.00400867965072393,0.00169798580463976,-0.00757281202822924,-0.00985309667885304,0.00708726141601801
216,-0.0145044289529324,-0.0040956437587738,0.000698205956723541,-0.00955016817897558,-0.0085558146238327,0.00508006615564227
217,-0.015909006819129,-0.00408030254766345,0.00112084171269089,-0.0104468269273639,-0.00510810501873493,0.00404014997184277
218,-0.0142901251092553,-0.00348660536110401,0.00314846727997065,-0.00938523933291435,-0.00016692814824637,0.00456845527514815
219,-0.010801874101162,-0.0030838898383081,0.00421724794432521,-0.00845508556813002,0.00282590137794614,0.00543590448796749
220,-0.00832391995936632,-0.00302695669233799,0.00301582179963589,-0.00891882833093405,0.00105195492506027,0.00620352011173964
221,-0.00810887664556503,-0.00328315119259059,0.00077212112955749,-0.0106683094054461,-0.0045575387775898,0.00634933728724718
222,-0.0100869629532099,-0.00403589755296707,-0.000486962526338175,-0.0130122033879161,-0.0102574210613966,0.00512574054300785
223,-0.0124827483668923,-0.00458346866071224,0.000388815940823406,-0.0141693754121661,-0.0128757981583476,0.00373187242075801
224,-0.0135359885171056,-0.0046281642280519,0.00227892654947937,-0.0137451244518161,-0.012918658554554,0.0032404949888587
225,-0.0139130866155028,-0.00496317679062486,0.00279439403675497,-0.0135391559451818,-0.0129021583124995,0.00262880953960121
226,-0.0139692584052682,-0.00543475383892655,0.0014464306877926,-0.0139492098242044,-0.0135218007490039,0.00149363011587411
227,-0.0130679477006197,-0.00563749065622687,-0.000746030185837299,-0.0142729701474309,-0.0143894758075476,0.000516106374561787
228,-0.0116736395284534,-0.00612711114808917,-0.00275901961140335,-0.0145719889551401,-0.0154755683615804,-0.000156534253619611
229,-0.010177887044847,-0.00666717812418938,-0.00305852410383523,-0.0138568580150604,-0.0161235444247723,0.000327445362927392
230,-0.00870624277740717,-0.00651818886399269,-0.00187467213254422,-0.0113506633788347,-0.0162075310945511,0.0023087493609637
231,-0.00774047710001469,-0.00573776941746473,-0.00113789550960064,-0.00857300218194723,-0.0163786206394434,0.00399896362796426
232,-0.00754847377538681,-0.00482897972688079,-0.00106255349237472,-0.00738778477534652,-0.0165084768086672,0.00398190459236503
233,-0.00781015958636999,-0.0037518369499594,-0.000346325628925115,-0.00763689074665308,-0.0157530140131712,0.00357721815817058
234,-0.00795628968626261,-0.00217607035301626,0.00155923957936466,-0.00793765671551228,-0.013784933835268,0.00492012966424227
235,-0.0077480454929173,-0.000620507169514894,0.00404344964772463,-0.00792425870895386,-0.011603738181293,0.00765035860240459
236,-0.006923858076334,0.000737731344997883,0.0066570327617228,-0.0078901769593358,-0.00959986727684736,0.0102207884192467
237,-0.00520683545619249,0.00232891528867185,0.00925842113792896,-0.00782215502113104,-0.00649237865582109,0.0121778948232532
238,-0.00388953182846308,0.00324810319580138,0.0105514600872993,-0.00851467624306679,-0.00285183382220566,0.0127622783184052
239,-0.00441683875396848,0.00282118353061378,0.00969207007437944,-0.0100619858130813,-0.00138882489409298,0.0118477819487453
240,-0.00580714410170913,0.00252222106792033,0.00800961628556252,-0.0104168057441711,-0.00279185152612627,0.0117250746116042
241,-0.00692364852875471,0.00373033317737281,0.00674818502739072,-0.00823136791586876,-0.00494095915928483,0.0143511779606342
242,-0.0086710536852479,0.00570832751691341,0.00559211429208517,-0.00477096298709512,-0.00609208503738046,0.0186517313122749
243,-0.0118732145056129,0.0065578268840909,0.00425849761813879,-0.00191320618614554,-0.00658074300736189,0.0215464159846306
244,-0.0149035006761551,0.00555959064513445,0.00478445971384645,0.000890321680344641,-0.0058234166353941,0.0218248572200537
245,-0.0153977824375033,0.00352858705446124,0.00884027592837811,0.00381583557464182,-0.00201474060304463,0.0197672061622143
246,-0.0133500508964062,0.00120255991350859,0.0131404502317309,0.00377126387320459,0.00282266619615257,0.0142544899135828
247,-0.0107089299708605,-0.000927677028812468,0.0128697082400322,-0.000478098081657663,0.00393929658457637,0.00601976411417127
248,-0.00826694909483194,-0.00216367840766907,0.00826780591160059,-0.00511300750076771,0.00154389452654868,-0.000960219418630004
249,-0.00592961208894849,-0.00258461502380669,0.00264012301340699,-0.0069443779066205,-0.000580186839215457,-0.00513482419773936
250,-0.00410003680735826,-0.00280295498669147,-0.00167322380002588,-0.00600395631045103,-0.000811167352367193,-0.00804517790675163
251,-0.00324189267121255,-0.00343153509311378,-0.00368039426393807,-0.00334264687262475,0.000428393221227452,-0.0109344637021422
252,-0.00422791438177228,-0.00545806344598532,-0.00452945521101356,-0.00126940989866853,0.00168231094721705,-0.0153835341334343
253,-0.00711075821891427,-0.00911475904285908,-0.0061592529527843,-0.00165247428230941,0.00188397103920579,-0.0224819835275412
254,-0.00968572776764631,-0.0131191313266754,-0.00847965013235807,-0.00318654417060316,0.00226004887372255,-0.0305850226432085
255,-0.00944782886654139,-0.0159589219838381,-0.00974293146282434,-0.00272311898879707,0.00541409244760871,-0.0370606780052185
256,-0.00698317959904671,-0.0178972855210304,-0.0096237463876605,9.8108357633464E-05,0.0114909755066037,-0.0421978235244751
257,-0.00427790358662605,-0.0198301430791616,-0.00887500494718552,0.00318144867196679,0.0184103809297085,-0.04740184918046
258,-0.00185543217230588,-0.0214093010872602,-0.00864052958786488,0.00518045481294394,0.0242691691964865,-0.0523610338568687
259,0.000753958593122661,-0.0220726542174816,-0.0101156970486045,0.00566186243668199,0.0284445788711309,-0.0570074655115604
260,0.00461934041231871,-0.0217303112149239,-0.0120236501097679,0.00591659033671021,0.0326799117028713,-0.0610996410250664
261,0.010055179707706,-0.0205534603446722,-0.0117866676300764,0.00807969830930233,0.0389134176075459,-0.0635087862610817
262,0.0150823183357716,-0.0190972611308098,-0.0090834004804492,0.0120387682691216,0.0462890267372131,-0.0646174848079681
263,0.0165783297270536,-0.0187883172184229,-0.00679995352402329,0.014724925160408,0.0516930185258389,-0.0673752799630165
264,0.0144066568464041,-0.0204136352986097,-0.00742546189576387,0.0142473857849836,0.0537350922822952,-0.0736066475510597
265,0.0109683908522129,-0.023233737796545,-0.0108669847249985,0.0117822317406535,0.0532168820500374,-0.0821560546755791
266,0.00801120605319738,-0.0262811947613955,-0.0152443936094642,0.00934821553528309,0.0516081862151623,-0.0909962132573128
267,0.00685735978186131,-0.0284195449203253,-0.0178876928985119,0.00938854645937681,0.0509907156229019,-0.097759060561657
268,0.0079599330201745,-0.0289895869791508,-0.0177327431738377,0.0133281918242574,0.0524572283029556,-0.100941076874733
269,0.0103692524135113,-0.0284353028982878,-0.0161909144371748,0.019174188375473,0.055298026651144,-0.101570039987564
270,0.012353359721601,-0.0274513177573681,-0.0158982053399086,0.0232710465788841,0.0573707818984985,-0.102072410285473
271,0.0129378559067845,-0.0265629887580872,-0.0177999082952738,0.0247007366269827,0.0578275062143803,-0.103955663740635
272,0.0121119227260351,-0.0267138164490461,-0.0205186493694782,0.0247010849416256,0.057875644415617,-0.107852943241596
273,0.0112672196701169,-0.0280194357037544,-0.0220280233770609,0.0252222418785095,0.0592488832771778,-0.112712524831295
274,0.0122379017993808,-0.029504805803299,-0.0217136424034834,0.0278615076094866,0.0630374401807785,-0.116957612335682
275,0.0142681878060102,-0.031393364071846,-0.0213100127875805,0.0309720113873482,0.0681976899504662,-0.121901094913483
276,0.0157078728079796,-0.0341069847345352,-0.0216146595776081,0.0320108123123646,0.0730826333165169,-0.12877294421196
277,0.0158992502838373,-0.0369750633835793,-0.0220084376633167,0.0311448182910681,0.0766706615686417,-0.135681957006454
278,0.0153789175674319,-0.038993950933218,-0.0220024231821299,0.030714638531208,0.0791831612586975,-0.140023112297058
279,0.0154176596552134,-0.0399482920765877,-0.0216677151620388,0.0320146530866623,0.0812206268310547,-0.141555473208427
280,0.0160823874175549,-0.0409654676914215,-0.0222532283514738,0.0337674170732498,0.081831231713295,-0.142155602574348
281,0.0169901736080647,-0.042469460517168,-0.0238415319472551,0.035087913274765,0.0808685794472694,-0.142770931124687
282,0.0190264247357845,-0.043039832264185,-0.0241233073174953,0.0373749881982803,0.0809666588902473,-0.142066180706024
283,0.0225425660610199,-0.0418688766658306,-0.0220775902271271,0.0410959161818028,0.0840148478746414,-0.139658316969872
284,0.0258970558643341,-0.0403265431523323,-0.0196057911962271,0.0441965945065022,0.0883321985602379,-0.137909546494484
285,0.0277517605572939,-0.0399613417685032,-0.018445422872901,0.0455319359898567,0.0917892530560493,-0.138689368963242
286,0.0281722284853458,-0.0407585091888905,-0.0186847951263189,0.0460848212242126,0.0937975943088531,-0.141461730003357
287,0.0277760550379753,-0.041705921292305,-0.0195700898766518,0.0471554063260555,0.094335749745369,-0.143692821264267
288,0.0272316001355648,-0.0424382612109184,-0.0207467265427113,0.0487595312297344,0.0936357527971268,-0.143754690885544
289,0.0270183980464935,-0.0433079749345779,-0.0223195254802704,0.050041388720274,0.0922502726316452,-0.142887443304062
290,0.027136966586113,-0.0442684814333916,-0.0240145474672318,0.0505244098603725,0.0911169946193695,-0.142844438552856
291,0.0270902570337057,-0.0450948737561703,-0.0254505760967731,0.0500571168959141,0.0908669531345367,-0.143896728754044
292,0.0269389450550079,-0.0456184819340706,-0.026005519554019,0.0493075102567673,0.0918673798441887,-0.144984915852547
293,0.0274248253554106,-0.0458514057099819,-0.0249075088649988,0.049542497843504,0.09442488104105,-0.145498722791672
294,0.0287106726318598,-0.0460707470774651,-0.022003747522831,0.050955768674612,0.0980229750275612,-0.145693734288216
295,0.0295901875942945,-0.0463837422430515,-0.0184550751000643,0.0519121252000332,0.100867234170437,-0.145381331443787
296,0.0294372551143169,-0.0462601073086262,-0.0150830307975411,0.0517417378723621,0.101957410573959,-0.142758384346962
297,0.028708204627037,-0.0456370487809181,-0.0119487401098013,0.0513675138354301,0.101630181074142,-0.136666893959045
298,0.0271177813410759,-0.0452968068420887,-0.0100856255739927,0.0504683144390583,0.0996101349592209,-0.129407793283463
299,0.0247786697000265,-0.0450043752789497,-0.00994699634611607,0.0486559569835663,0.0960749983787537,-0.12361616641283
300,0.021940041333437,-0.0443121008574963,-0.0115522816777229,0.0459631644189358,0.0911287739872932,-0.120036922395229
301,0.0187890082597733,-0.0435995534062386,-0.0144495414569974,0.0428127497434616,0.0847949013113976,-0.118080027401447
302,0.0165951699018478,-0.0430157296359539,-0.0164922680705786,0.0408909618854523,0.078887440264225,-0.116218455135822
303,0.0154162757098675,-0.042585551738739,-0.0165096335113049,0.0407243892550468,0.0752540156245232,-0.113728918135166
304,0.0143085075542331,-0.0425162427127361,-0.0149059547111392,0.0411683954298496,0.0750305354595184,-0.110888108611107
305,0.0136892395094037,-0.0428034290671349,-0.0120474835857749,0.0417362190783024,0.0780037567019463,-0.107546150684357
306,0.0138383079320192,-0.0432270616292953,-0.0086824381724,0.0421721637248993,0.0815650299191475,-0.103731200098991
307,0.0142707070335746,-0.0432841666042805,-0.00571922631934285,0.0415092520415783,0.0837586373090744,-0.100238278508186
308,0.0145726483315229,-0.0425436906516552,-0.00380135956220329,0.0390447601675987,0.0844983160495758,-0.0975174158811569
309,0.0146456183865666,-0.0408936440944672,-0.00303481332957745,0.0354624874889851,0.0837275609374046,-0.0948449522256851
310,0.0151558388024569,-0.0381610579788685,-0.00303112110123038,0.0325689427554607,0.0811348035931587,-0.0912565961480141
311,0.0168481487780809,-0.0345351248979568,-0.00341664929874241,0.0317186154425144,0.0771864727139473,-0.0867577418684959
312,0.018414843827486,-0.0315021276473999,-0.00423772633075714,0.0319911688566208,0.0723200067877769,-0.0826656073331833
313,0.0176225285977125,-0.030758997425437,-0.00572060793638229,0.0313288159668446,0.0664501264691353,-0.0805838853120804
314,0.015535713173449,-0.0313957408070564,-0.00641770660877228,0.0303185861557722,0.0614657923579216,-0.0796834528446198
315,0.0140363583341241,-0.0315422117710114,-0.0052168658003211,0.0303009115159512,0.0593309961259365,-0.0781336352229118
316,0.0125717474147677,-0.031261071562767,-0.00304481759667397,0.0307609066367149,0.0593881160020828,-0.0758242532610893
317,0.0112241851165891,-0.0308418795466423,-0.000350385264027864,0.0313761569559574,0.0605270601809025,-0.0730131044983864
318,0.0112707875669003,-0.029679736122489,0.00246251188218594,0.0326661802828312,0.0617400780320168,-0.0692780166864395
319,0.0118580237030983,-0.0280183218419552,0.00325288414023817,0.0342118889093399,0.0605579949915409,-0.065098762512207
320,0.0110109820961952,-0.0268216170370579,0.00105090870056301,0.0340414680540562,0.055292297154665,-0.0623443201184273
321,0.00964223127812147,-0.0256624966859818,-0.00139400491025299,0.031768225133419,0.0484631024301052,-0.0603606477379799
322,0.00948865711688995,-0.0236520357429981,-0.00183880154509097,0.0292128026485443,0.0436223708093166,-0.0559321418404579
323,0.010452164337039,-0.0212330371141434,-0.000512252212502062,0.0276537090539932,0.0414876006543636,-0.0484205037355423
324,0.0124388160184026,-0.018982645124197,0.00238267402164638,0.0278771426528692,0.0414571277797222,-0.0400829501450062
325,0.0151215549558401,-0.0167652983218431,0.00627834955230355,0.0297274310141802,0.0429075062274933,-0.0335242822766304
326,0.0165860205888748,-0.0151523882523179,0.00917626917362213,0.0308718997985125,0.0443063005805016,-0.0307203400880098
327,0.014717792160809,-0.0152651807293296,0.00877576787024736,0.0289708990603685,0.0433746576309204,-0.0322276540100574
328,0.0105705270543695,-0.0162745770066977,0.00583543302491307,0.0253954380750656,0.040094368159771,-0.035657275468111
329,0.00712823169305921,-0.0162300821393728,0.00329077267087996,0.0235031731426716,0.036492969840765,-0.0373448580503464
330,0.00539564434438944,-0.0146141359582543,0.0023164798039943,0.0246491767466068,0.0337152630090714,-0.0354477278888226
331,0.00507092475891113,-0.0123232761397958,0.00273721083067358,0.0277269035577774,0.032450508326292,-0.0303527917712927
332,0.00536769209429622,-0.010599753819406,0.00351768359541893,0.0299861487001181,0.032225888222456,-0.0242669805884361
333,0.00519080273807049,-0.00982270855456591,0.00336358416825533,0.0295958686619997,0.0307390559464693,-0.0196767672896385
334,0.00435246108099818,-0.00955680571496487,0.00222849915735424,0.0268954318016768,0.0268651656806469,-0.017837293446064
335,0.00386500614695251,-0.00905707199126482,0.00125002802815288,0.0237433575093746,0.0225639082491398,-0.0171395279467106
336,0.00461929384618998,-0.00765472976490855,0.00180109834764153,0.022342175245285,0.0207620393484831,-0.0142430355772376
337,0.00584906665608287,-0.00577964028343558,0.00374062615446746,0.022839205339551,0.0214974861592054,-0.0088098244741559
338,0.00680838851258159,-0.00417438382282853,0.00586724793538451,0.0242277067154646,0.0223548300564289,-0.00297960196621716
339,0.00808257702738047,-0.00286611984483898,0.0078180804848671,0.0259674862027168,0.0224242862313986,0.00214755558408797
340,0.00962282344698906,-0.00191511341836303,0.00934656150639057,0.0269279237836599,0.0221064761281013,0.00599674880504608
341,0.0106103839352727,-0.00118196499533951,0.0096000200137496,0.026083018630743,0.0204242579638958,0.00812072120606899
342,0.0106108747422695,-0.000277645362075418,0.00766488537192345,0.0233365576714277,0.0162734668701887,0.00860311929136515
343,0.0100195882841945,0.00091207108926028,0.00403625145554543,0.0197914335876703,0.0114338360726833,0.00819524843245745
344,0.0092753479257226,0.00230540055781603,0.000330931914504617,0.0170328188687563,0.00739629194140434,0.00786906387656927
345,0.00789211969822645,0.0037887399084866,-0.00287796184420586,0.0153345819562674,0.00242651253938675,0.00789913721382618
346,0.00510597182437778,0.00502019189298153,-0.00600206945091486,0.0140588795766234,-0.00439645163714886,0.00809026882052422
347,0.00113427417818457,0.00531092518940568,-0.00903916265815496,0.0132334167137742,-0.0108734201639891,0.00811116676777601
348,-0.00224012834951282,0.00456187501549721,-0.0104330284520984,0.0133673073723912,-0.0141648957505822,0.00783050619065762
349,-0.00406960165128112,0.00324001582339406,-0.00901344045996666,0.0135484570637345,-0.0143578173592687,0.00790925975888968
350,-0.00533267576247454,0.00199237512424588,-0.00617567449808121,0.0126101672649384,-0.0140358489006758,0.0100773992016912
351,-0.00639726268127561,0.00168953719548881,-0.00364898587577045,0.0113074341788888,-0.0145631842315197,0.0147941447794437
352,-0.00690998369827867,0.00254394253715873,-0.00197389465756714,0.0106590474024415,-0.0159727483987808,0.019845662638545
353,-0.00716314511373639,0.00373284192755818,-0.00163902062922716,0.0102475611492991,-0.0186997707933187,0.0230754353106022
354,-0.00793945975601673,0.00424264743924141,-0.00309881847351789,0.00908226612955332,-0.0227255038917065,0.023839607834816
355,-0.0093841664493084,0.00414433004334569,-0.00530787417665124,0.00732403760775924,-0.0263425968587399,0.0228252671658993
356,-0.0104094874113798,0.00449781119823456,-0.00619435217231512,0.00632553407922387,-0.0277124121785164,0.0219269655644894
357,-0.01050746999681,0.00569274835288525,-0.00534808123484254,0.00666293175891042,-0.0273550860583782,0.0223714597523212
358,-0.0099033722653985,0.00748665165156126,-0.00368470069952309,0.00827230978757143,-0.0268539264798164,0.0242308005690575
359,-0.00840936042368412,0.00982080399990082,-0.00160332035738975,0.010846434161067,-0.0263182837516069,0.027420537546277
360,-0.00676030991598964,0.0117815937846899,0.0003059487498831,0.012441286817193,-0.0258605517446995,0.0307242646813393
361,-0.00583645096048713,0.0121224857866764,0.00172713166102767,0.0116371791809797,-0.026159293949604,0.0325040183961391
362,-0.00539464876055717,0.0113296136260033,0.00297091505490243,0.00964869000017643,-0.0266647078096867,0.0330116376280785
363,-0.00569729832932353,0.0106241460889578,0.00325470813550055,0.00746691739186645,-0.0269479211419821,0.0334629118442535
364,-0.00721665658056736,0.0102118207141757,0.00148698617704213,0.0045395870693028,-0.0280220415443182,0.0338425040245056
365,-0.00941356923431158,0.00954191759228706,-0.00197409279644489,0.000706192688085139,-0.0306631773710251,0.0336582623422146
366,-0.0113877784460783,0.0082342466339469,-0.00579600548371673,-0.00334335537627339,-0.0338779650628567,0.0328439734876156
367,-0.011987779289484,0.0068800076842308,-0.00821648817509413,-0.00619047740474343,-0.0352627597749233,0.0315529629588127
368,-0.00982512254267931,0.00663743494078517,-0.00737071456387639,-0.00585242779925466,-0.0333251953125,0.0314564853906631
369,-0.00632932037115097,0.00713679706677794,-0.00412812922149897,-0.00332476571202278,-0.0300742238759995,0.0331747010350227
370,-0.00534095196053386,0.00652223778888583,-0.00194497115444392,-0.00258310115896165,-0.0286396946758032,0.0340288989245892
371,-0.00754610449075699,0.00409978162497282,-0.00172050960827619,-0.00555871892720461,-0.0294850412756205,0.0319782607257366
372,-0.0102408090606332,0.000959445838816464,-0.00159467407502234,-0.0107104759663343,-0.0316051729023457,0.0283386632800102
373,-0.0110688414424658,-0.00135324231814593,-0.000684775179252028,-0.014740283600986,-0.0340209044516087,0.0261487029492855
374,-0.00958534795790911,-0.0022817850112915,0.000790157355368137,-0.0156514570116997,-0.0359283946454525,0.0268812850117683
375,-0.00744493957608938,-0.00247464654967189,0.00233463081531227,-0.0146181890740991,-0.0372425578534603,0.0293529592454433
376,-0.00612011551856995,-0.00210400810465217,0.00397352362051606,-0.0133084049448371,-0.0374281965196133,0.0320642106235027
377,-0.00566420797258615,-0.000811596808489412,0.00575072085484862,-0.012479274533689,-0.0360366217792034,0.0342088118195534
378,-0.00688414508476853,0.000677431642543525,0.00569044053554535,-0.0138720097020268,-0.0353349335491657,0.0343703329563141
379,-0.00891280639916658,0.00244162348099053,0.00394636206328869,-0.0165494792163372,-0.0362256541848183,0.0340722389519215
380,-0.00924958661198616,0.00561825511977077,0.00364297581836581,-0.0168300084769726,-0.0362522527575493,0.0370441600680351
381,-0.00859986431896687,0.00962404627352953,0.00523247569799423,-0.0148613881319761,-0.0349626913666725,0.0422161892056465
382,-0.00850452296435833,0.0135749764740467,0.00737356767058373,-0.0132082626223564,-0.034044437110424,0.045976173132658
383,-0.0086909793317318,0.0171115398406982,0.00914382003247738,-0.013092378154397,-0.0350192859768867,0.0469572655856609
384,-0.00823700893670321,0.0196835678070784,0.0102135017514229,-0.0141131291165948,-0.0380168780684471,0.0462003722786903
385,-0.00642035063356161,0.0217897538095713,0.0110216587781906,-0.0150341037660837,-0.0408405475318432,0.0461240224540234
386,-0.0039387964643538,0.0241508465260267,0.0117077883332968,-0.0154436528682709,-0.0419919602572918,0.0478836409747601
387,-0.00134559546131641,0.0268527511507273,0.0130471531301737,-0.0149339931085706,-0.0416759476065636,0.0511295460164547
388,0.00141729798633605,0.0297512672841549,0.0154602890834212,-0.0133526064455509,-0.0406874753534794,0.0549144856631756
389,0.00279760803095996,0.03184974193573,0.0167307630181313,-0.0127903111279011,-0.0408808775246143,0.0569050386548042
390,0.00172116525936872,0.0321814939379692,0.0156102674081922,-0.0145500469952822,-0.0423349402844906,0.0559506081044674
391,-0.000917473982553929,0.0306629352271557,0.0135838501155376,-0.0172181092202663,-0.0432718433439732,0.0534933730959892
392,-0.00385281420312822,0.0282174982130528,0.0123606454581022,-0.0187593419104815,-0.0432294793426991,0.051708597689867
393,-0.00619665905833244,0.026616221293807,0.0124425357207656,-0.0183569677174091,-0.0427158772945404,0.0523996874690056
394,-0.00756635144352913,0.0266449302434921,0.0127564128488302,-0.0172792933881283,-0.042559839785099,0.055278804153204
395,-0.00760909542441368,0.0275990720838308,0.012513630092144,-0.0170147866010666,-0.0433240681886673,0.0586257949471474
396,-0.00621231133118272,0.0287432242184877,0.0123995114117861,-0.0172495879232883,-0.0443431846797466,0.0616647787392139
397,-0.00374662014655769,0.0299114789813757,0.0132369445636868,-0.016184015199542,-0.0442004427313805,0.0648956522345543
398,-0.00156428408809006,0.0305163227021694,0.013894016854465,-0.0133275771513581,-0.0434868708252907,0.0681419000029564
399,-0.000779314199462533,0.0299411062151194,0.0134751135483384,-0.0102937985211611,-0.043684471398592,0.0700391754508018
400,-0.000152231805259362,0.0288894679397345,0.0144350687041879,-0.00825816765427589,-0.0430556572973728,0.0708797797560692
401,0.000925328582525253,0.0278892405331135,0.0174798388034105,-0.00816420558840036,-0.0405055768787861,0.0719739869236946
402,0.000905673019587994,0.0263391714543104,0.0193082019686699,-0.0112181948497891,-0.0391533337533474,0.0727856308221817
403,-0.000177244874066673,0.024551760405302,0.0187331084161997,-0.0161242019385099,-0.0405320711433887,0.0728046745061874
404,-0.00101513019762933,0.0229689404368401,0.0170832797884941,-0.0202088244259357,-0.0428536348044872,0.0725726336240768
405,-0.0014016255736351,0.0207568220794201,0.0148381441831589,-0.0228703338652849,-0.0450117811560631,0.071754552423954
406,-0.00111537636257708,0.0181862600147724,0.0128943501040339,-0.0242026038467884,-0.0461846925318241,0.0703673884272575
407,-0.000288343435386196,0.0167519375681877,0.0122521594166756,-0.0242086797952652,-0.045966524630785,0.0695955976843834
408,0.000286305847112089,0.0171124059706926,0.0126713514328003,-0.023429011926055,-0.0457990728318691,0.0701958388090134
409,0.000728128070477396,0.0184448286890984,0.013915654271841,-0.0221050418913364,-0.0469473153352737,0.0721888840198517
410,0.000376861164113507,0.018673038110137,0.0145104788243771,-0.0216492600739002,-0.0502181611955166,0.0738205313682556
411,-0.0022642461117357,0.0166822765022516,0.0123859336599708,-0.023961404338479,-0.0559488981962204,0.0726192146539688
412,-0.00630547804757953,0.0140036726370454,0.00867996551096439,-0.0276024956256151,-0.0619463138282299,0.0693524479866028
413,-0.00889920070767403,0.0130971474573016,0.00659279339015484,-0.0291763506829739,-0.064755454659462,0.0672493651509285
414,-0.00850712321698666,0.014487536624074,0.00723120616748929,-0.0280062593519688,-0.0631599202752113,0.0673407316207886
415,-0.00627821404486895,0.0167940519750118,0.00909372512251139,-0.0258804820477962,-0.0589871034026146,0.0681457594037056
416,-0.00386577239260077,0.0193036515265703,0.0110027594491839,-0.0231944527477026,-0.0540444292128086,0.0696247518062592
417,-0.00232364190742373,0.0219182018190622,0.0123182591050863,-0.0200950279831886,-0.0489422380924225,0.0719983205199242
418,-0.00171686627436429,0.0242579579353333,0.0129936672747135,-0.0179349631071091,-0.0437871180474758,0.0737734064459801
419,-0.00129032775294036,0.025917399674654,0.0138733144849539,-0.0174729712307453,-0.0392461977899075,0.0743425637483597
420,-0.00121156289242208,0.0266717355698347,0.0145050110295415,-0.0184267032891512,-0.0370868779718876,0.0748876109719276
421,-0.00192210299428552,0.0268360543996096,0.0132110882550478,-0.0201094523072243,-0.0384470373392105,0.0760786086320877
422,-0.00311553291976452,0.026690986007452,0.00920271873474121,-0.0222685839980841,-0.043293833732605,0.0762042179703712
423,-0.00387121667154133,0.026440279558301,0.00447121961042285,-0.0247980803251266,-0.0495919808745384,0.0733281970024109
424,-0.00404775561764836,0.026453634724021,0.00160097272600979,-0.0279586147516966,-0.0548828989267349,0.0678793042898178
425,-0.00429239356890321,0.026842039078474,0.000508583907503635,-0.031772542744875,-0.0584829188883305,0.0626129060983658
426,-0.0043868999928236,0.0273390021175146,1.22422773074504E-06,-0.0351528562605381,-0.0603987351059914,0.0599142238497734
427,-0.00390188838355243,0.0273006279021502,-0.000339790509315208,-0.0374829135835171,-0.0612212494015694,0.0593662858009338
428,-0.00338385719805956,0.0263715498149395,-0.000337384699378163,-0.0389548242092133,-0.0613190494477749,0.0597375854849815
429,-0.00329092447645962,0.0251606721431017,0.000251068791840225,-0.0392684824764729,-0.0594594180583954,0.0612316243350506
430,-0.00303339841775596,0.0242474004626274,0.00153818551916629,-0.0380670167505741,-0.0549575798213482,0.0639184862375259
431,-0.00231718388386071,0.0235091559588909,0.00323245627805591,-0.0356452502310276,-0.0505439750850201,0.0669715106487274
432,-0.00111403537448496,0.0230777934193611,0.00493643386289477,-0.032337985932827,-0.0492438524961472,0.0701535791158676
433,0.000422283017542213,0.0231567937880754,0.00605116738006473,-0.0290099792182446,-0.0507965348660946,0.0727036073803902
434,0.00159026950132102,0.0236565433442593,0.00608933158218861,-0.026310121640563,-0.0532032027840614,0.0737715139985085
435,0.00186523352749646,0.0245134588330984,0.00572924502193928,-0.0239075869321823,-0.0543598867952824,0.0743025317788124
436,0.00183890189509839,0.0255724489688873,0.00621761614456773,-0.0218437816947699,-0.0525567270815372,0.0752896443009377
437,0.0033220334444195,0.0266018398106098,0.0077023315243423,-0.0208030194044113,-0.0483228750526905,0.076585441827774
438,0.00663642538711429,0.0272026062011719,0.00860510393977165,-0.0211233608424664,-0.0445735789835453,0.0781215652823448
439,0.0105691691860557,0.0277589708566666,0.0092632370069623,-0.0208802688866854,-0.0412366278469563,0.0812386572360992
440,0.0133476778864861,0.0284774471074343,0.0123993521556258,-0.0180898681282997,-0.0355568677186966,0.0858245342969894
441,0.0128771737217903,0.0279172211885452,0.0184630881994963,-0.014473682269454,-0.027924370020628,0.0879786163568497
442,0.00978368241339922,0.0254412330687046,0.0249283518642187,-0.0133783873170614,-0.0215484593063593,0.0842484086751938
443,0.00702046835795045,0.0225914381444454,0.0279428362846375,-0.0162879321724176,-0.0200668815523386,0.074966698884964
444,0.00615485431626439,0.0213936436921358,0.0250936560332775,-0.0217376071959734,-0.0249019414186478,0.0634867250919342
445,0.00650180224329233,0.0222262814640999,0.0182330645620823,-0.026801960542798,-0.0334063358604908,0.0533930659294128
446,0.00709695881232619,0.0237671807408333,0.0113710863515735,-0.0294066742062569,-0.0412387885153294,0.045632541179657
447,0.00773425074294209,0.0245645176619291,0.00632218457758427,-0.0297641716897488,-0.0459020659327507,0.0387623533606529
448,0.00816422142088413,0.0241901818662882,0.00230646599084139,-0.0294223353266716,-0.047558419406414,0.032300241291523
449,0.00860368087887764,0.0233128741383553,-0.00103871675673872,-0.0284642577171326,-0.0465590730309486,0.0271703694015741
450,0.0103021208196878,0.0221169963479042,-0.00225877133198082,-0.0263255853205919,-0.0421052202582359,0.0224743112921715
451,0.0131854889914393,0.0199082288891077,-0.00110876851249486,-0.0243196152150631,-0.0349984914064407,0.0165369175374508
452,0.0155520932748914,0.0168247278779745,0.000181661671376787,-0.0236005038022995,-0.0278998240828514,0.00990032870322466
453,0.016542561352253,0.0138738974928856,0.000210023019462824,-0.0227761305868626,-0.0222859587520361,0.00420363107696176
454,0.0157819408923388,0.0107081783935428,-0.00138028478249907,-0.0207713451236486,-0.0189474150538445,-0.000444151897681877
455,0.0138213662430644,0.00597223220393062,-0.00420215213671327,-0.0185656752437353,-0.017110001295805,-0.00548425083979964
456,0.0122065888717771,-0.000709572283085436,-0.00693542463704944,-0.0171863455325365,-0.0141936056315899,-0.0116522079333663
457,0.0105629255995154,-0.00927957985550165,-0.0102507434785366,-0.0175200179219246,-0.01102180685848,-0.0191122572869062
458,0.00869053788483143,-0.0183774195611477,-0.0148400105535984,-0.0184934232383966,-0.00957589130848646,-0.0266313757747412
459,0.00741157308220863,-0.02592783421278,-0.0196874514222145,-0.0178677644580603,-0.00904693081974983,-0.0322079844772816
460,0.0063444790430367,-0.0319168046116829,-0.0239115916192532,-0.0156879648566246,-0.0082667013630271,-0.0362417101860046
461,0.00638227304443717,-0.0367678962647915,-0.0250345971435308,-0.0115737784653902,-0.00500313425436616,-0.0389926098287106
462,0.00826534628868103,-0.0405643321573734,-0.022060040384531,-0.00593087961897254,0.00167140050325543,-0.0408297814428806
463,0.0101169683039188,-0.0438541620969772,-0.0184126403182745,-0.0019677965901792,0.00862102303653955,-0.0438716672360897
464,0.0107733197510242,-0.0465168170630932,-0.0169456396251917,-0.000831527926493436,0.0130682233721018,-0.0480975247919559
465,0.0105026978999376,-0.0482635572552681,-0.0175431910902262,-0.00116359139792621,0.0149665903300047,-0.0524381548166275
466,0.00937855057418346,-0.0493343062698841,-0.0188445318490267,-0.00208642985671759,0.0159030854701996,-0.0579684115946293
467,0.00848282687366009,-0.0490119494497776,-0.0193382743746042,-0.00234880205243826,0.0176467839628458,-0.0648074746131897
468,0.00891743414103985,-0.0469690710306168,-0.0188400764018297,-0.00137400499079376,0.0202364418655634,-0.071795791387558
469,0.0104761049151421,-0.0443833544850349,-0.0178988222032785,0.000467753998236731,0.0231211390346289,-0.077926017343998
470,0.0137385809794068,-0.0414841137826443,-0.0160302966833115,0.00413332553580403,0.0272596720606089,-0.0817867591977119
471,0.0191095490008593,-0.0380719341337681,-0.0133623145520687,0.00989815499633551,0.0330634154379368,-0.0836682915687561
472,0.0245280228555202,-0.035167783498764,-0.0109603330492973,0.0157554596662521,0.0386471264064312,-0.0853980258107185
473,0.0272047240287066,-0.0342253148555756,-0.00938322022557259,0.0186622813344002,0.0418489538133144,-0.0882185623049736
474,0.0272419396787882,-0.0351264253258705,-0.00853241421282291,0.0183330066502094,0.0426027290523052,-0.09078648686409
475,0.0264298804104328,-0.0367044508457184,-0.0080326609313488,0.017443235963583,0.042331337928772,-0.0907265618443489
476,0.0246421154588461,-0.0390058495104313,-0.00775696709752083,0.0164710339158773,0.0417263321578503,-0.0889023989439011
477,0.0215360950678587,-0.0418998524546623,-0.00738210137933493,0.0144164068624377,0.0411034673452377,-0.0877408012747765
478,0.0186130180954933,-0.0433467105031013,-0.00583288492634892,0.0125113362446427,0.0415528453886509,-0.0872897133231163
479,0.0165332239121199,-0.0418370850384235,-0.00313511677086353,0.0121296746656299,0.0425070747733116,-0.0859758034348488
480,0.0144543126225472,-0.0381752997636795,-0.000571031880099326,0.0128353927284479,0.0418712384998798,-0.0833727270364761
481,0.01281170360744,-0.0334158316254616,0.00175261858385056,0.0142198773100972,0.0397638604044914,-0.0804828554391861
482,0.0121297780424356,-0.0282511748373508,0.00327647896483541,0.0147758722305298,0.0369822643697262,-0.0790719538927078
483,0.0123725477606058,-0.0231785532087088,0.00352519191801548,0.0132222697138786,0.0340568162500858,-0.078966036438942
484,0.0141634298488498,-0.0178907066583633,0.0041913534514606,0.0115107875317335,0.0326367989182472,-0.0776073634624481
485,0.0158760882914066,-0.0129259051755071,0.00500143179669976,0.0104218320921063,0.0319978930056095,-0.0753861591219902
486,0.015362904407084,-0.0093116257339716,0.0045068277977407,0.0089842714369297,0.0302883163094521,-0.0743747502565384
487,0.0142244640737772,-0.00646137539297342,0.00432375725358725,0.00804581958800554,0.029027609154582,-0.0735539942979813
488,0.0135416071861982,-0.00389744434505701,0.00503548700362444,0.00741094816476107,0.0288083218038082,-0.0722653418779373
489,0.0115897441282868,-0.00232418207451701,0.00396465230733156,0.00466937990859151,0.0269996467977762,-0.0726467669010162
490,0.00841167476028204,-0.00157102476805449,0.000502943934407085,-0.000433640903793275,0.022962961345911,-0.0752531439065933
491,0.00674105202779174,7.31461695977487E-05,-0.00218396680429578,-0.00446099368855357,0.0196171402931213,-0.0766532942652702
492,0.00723175425082445,0.00317426840774715,-0.00279846764169633,-0.00561309512704611,0.0184301193803549,-0.0747199207544327
493,0.00739331496879458,0.00592490984126925,-0.00376979960128665,-0.00580541789531708,0.0176843740046024,-0.0721242353320122
494,0.00631897151470184,0.00703817280009389,-0.00541346194222569,-0.00590077880769968,0.0174412224441767,-0.0709811896085739
495,0.00571393081918359,0.00728681962937117,-0.0046122707426548,-0.00496112834662199,0.0196122843772173,-0.0693645626306534
496,0.00682818284258246,0.0082218823954463,1.6558900824748E-05,-0.00261822296306491,0.0237767621874809,-0.0646721720695496
497,0.00918320100754499,0.0105537390336394,0.00630542589351535,0.000108322426967788,0.0278070084750652,-0.0576403252780437
498,0.0112285362556577,0.0135304965078831,0.0112023735418916,0.00134868954773992,0.0297849159687757,-0.0516940876841545
499,0.0119263622909784,0.0159349329769611,0.0131585262715817,0.000319151498842984,0.0287398118525743,-0.0483901724219322
500,0.0111611085012555,0.01698955334723,0.0119793908670545,-0.00250496971420944,0.0248850621283054,-0.0468300953507423
501,0.00912057142704725,0.0166720058768988,0.00867780018597841,-0.00586048793047667,0.019698865711689,-0.0459684506058693
502,0.00720432121306658,0.0160520654171705,0.0062467441894114,-0.00724786892533302,0.015847347676754,-0.0440192185342312
503,0.00685037532821298,0.0163236353546381,0.00718867592513561,-0.00515513913705945,0.0146057233214378,-0.0396264977753162
504,0.00686905486509204,0.0173859894275665,0.0105499792844057,-0.00149265408981591,0.0145181752741337,-0.034367386251688
505,0.00573938293382525,0.0184129644185305,0.0137020824477077,0.000693693466018885,0.0143465185537934,-0.0303896199911833
506,0.0041622226126492,0.0190118756145239,0.0152471223846078,0.000320942490361631,0.0143780624493957,-0.0276096351444721
507,0.00261910539120436,0.0190543625503778,0.0144084729254246,-0.00225283764302731,0.0138649558648467,-0.0255418252199888
508,0.000867532449774444,0.0187039840966463,0.0108582312241197,-0.00576411094516516,0.01122095156461,-0.0238941293209791
509,-0.000961626297794282,0.018285971134901,0.0056921155191958,-0.00876263715326786,0.00652912491932511,-0.0216425471007824
510,-0.00242473464459181,0.0180407501757145,0.00111996056511998,-0.0103147160261869,0.00220627756789327,-0.0175321828573942
511,-0.00261854869313538,0.0183847304433584,-0.000778433342929929,-0.00974170491099358,0.000827380339615047,-0.0104953702539206
512,-0.00151627929881215,0.0193128138780594,0.000112533707579132,-0.00752405961975455,0.00216926191933453,-0.00121119571849704
513,-0.000748731254134327,0.0201883558183908,0.0020552936475724,-0.00536245433613658,0.00372431077994406,0.00706319697201252
514,-0.00151585577987134,0.0204626880586147,0.00354247586801648,-0.00478760059922934,0.00399672193452716,0.0113977799192071
515,-0.00285343709401786,0.0201657749712467,0.00453419564291835,-0.00578848225995898,0.00375156872905791,0.0122953215613961
516,-0.00391056342050433,0.0194708406925201,0.00467384327203035,-0.00745481485500932,0.00302027515135705,0.0120354136452079
517,-0.00516033777967095,0.0180031601339579,0.00274556432850659,-0.00914531573653221,0.000996069866232574,0.0115871420130134
518,-0.00622130231931806,0.0156164085492492,-0.000532749458216131,-0.0103398384526372,-0.00134766311384737,0.0110491942614317
519,-0.00683946860954165,0.0127558978274465,-0.00382112711668015,-0.011826747097075,-0.00333579326979816,0.0105518447235227
520,-0.00717313541099429,0.0103211039677262,-0.00623903656378388,-0.0137545429170132,-0.00449987733736634,0.0110982088372111
521,-0.00657791318371892,0.00946847908198833,-0.00605479115620255,-0.0138744525611401,-0.00316985370591283,0.0141236484050751
522,-0.00549823557958007,0.0103147802874446,-0.00324484519660473,-0.0116857960820198,0.000271363358478993,0.0190485138446093
523,-0.00439688796177506,0.0119231333956122,0.000140419680974446,-0.00926122907549143,0.00318392063491046,0.0238298736512661
524,-0.00269147800281644,0.0133734447881579,0.00221377261914313,-0.00815519969910383,0.00328315235674381,0.0270752552896738
525,-0.0010627843439579,0.0141926240175962,0.00203869957476854,-0.00835622660815716,0.000206151540623978,0.0287737287580967
526,-0.00114848837256432,0.0141427842900157,-0.000132537534227595,-0.00976993050426245,-0.00467355456203222,0.0290759596973658
527,-0.00327442702837288,0.0132714500650764,-0.00306185591034591,-0.0123226130381227,-0.00981072802096605,0.0281345564872026
528,-0.00616594729945064,0.0122821805998683,-0.00538868550211191,-0.0147120729088783,-0.0142028788104653,0.0269860830157995
529,-0.00820662453770638,0.0122790327295661,-0.00624197628349066,-0.0152096068486571,-0.0169739034026861,0.0268629565834999
530,-0.00893752090632916,0.0135011188685894,-0.00579783227294683,-0.0138831716030836,-0.0177865568548441,0.0281016230583191
531,-0.00951287522912025,0.0148212146013975,-0.00538906641304493,-0.0129225300624967,-0.0177235677838326,0.0297747179865837
532,-0.0108154211193323,0.0154004190117121,-0.00535056507214904,-0.0132413329556584,-0.017405116930604,0.0310836955904961
533,-0.0121828895062208,0.015598245896399,-0.00448564579710364,-0.0131177101284266,-0.0159102268517017,0.0328393280506134
534,-0.0133718410506845,0.0154669284820557,-0.00328614003956318,-0.0121455620974302,-0.0141840605065227,0.0360662825405598
535,-0.0146229472011328,0.0148802371695638,-0.0029419781640172,-0.0113782044500113,-0.0143513381481171,0.0405880734324455
536,-0.0149813238531351,0.0146942427381873,-0.00234097614884377,-0.0103066386654973,-0.015402989462018,0.045297384262085
537,-0.0149020599201322,0.0147939519956708,-0.0017373482696712,-0.00996438320726156,-0.0165228415280581,0.0474550984799862
538,-0.0158943198621273,0.0140818106010556,-0.00298776407726109,-0.0120707899332047,-0.0185717009007931,0.045402143150568
539,-0.0175003074109554,0.0127064594998956,-0.00584910158067942,-0.0151839768514037,-0.0205482337623835,0.0408228151500225
540,-0.0185844283550978,0.0115760872140527,-0.00863693933933973,-0.0178402438759804,-0.0210464838892221,0.0361852683126926
541,-0.0189140252768993,0.0113322865217924,-0.0101512838155031,-0.0199932549148798,-0.0207716338336468,0.0334876142442226
542,-0.0185056142508984,0.0124699398875237,-0.00998665578663349,-0.0210441201925278,-0.0208298992365599,0.0338053330779076
543,-0.0168558638542891,0.0150762097910047,-0.00770432315766811,-0.0201596617698669,-0.0205475836992264,0.0368066504597664
544,-0.0141260642558336,0.0183888487517834,-0.00394917791709304,-0.0179743058979511,-0.0194672793149948,0.0409354493021965
545,-0.0115499803796411,0.0211642161011696,-0.000595559598878026,-0.016418257728219,-0.0188447386026382,0.0440569035708904
546,-0.0103288916870952,0.0222770553082228,0.00104368815664202,-0.0169811639934778,-0.0199684370309114,0.0447765700519085
547,-0.0106866229325533,0.0215506888926029,0.00102942250669003,-0.0195229966193438,-0.0226245634257793,0.0433006212115288
548,-0.0116513250395656,0.0201931241899729,0.000645808118861169,-0.0221524871885777,-0.0254613105207682,0.04149529337883
549,-0.012355525046587,0.01960120908916,0.000783684430643916,-0.0229746382683516,-0.027678370475769,0.041285578161478
550,-0.0136172641068697,0.0196200963109732,0.000651068461593241,-0.0226786453276873,-0.0299644637852907,0.042068850249052
551,-0.0159282516688108,0.0193582493811846,8.72167220222764E-05,-0.0227170493453741,-0.032247394323349,0.0425165966153145
552,-0.0172627624124289,0.0192849114537239,0.000745852361433208,-0.0223917569965124,-0.0323226451873779,0.043433640152216
553,-0.0166486725211143,0.0202719569206238,0.0024891400244087,-0.0213603284209967,-0.0298790410161018,0.0454038120806217
554,-0.0153440795838833,0.0221763085573912,0.003713000100106,-0.020414162427187,-0.0271221529692411,0.0476507507264614
555,-0.0137599054723978,0.0245167426764965,0.00463459128513932,-0.0193692203611135,-0.0249775350093842,0.0497185401618481
556,-0.0115915331989527,0.0271086543798447,0.0066627305932343,-0.017528323456645,-0.0225225351750851,0.0521881729364395
557,-0.00922458339482546,0.0297394990921021,0.00983651727437973,-0.0151541028171778,-0.0190997514873743,0.0556087344884872
558,-0.00745269050821662,0.0315841846168041,0.0120055936276913,-0.0136161614209414,-0.0159836765378714,0.0585738606750965
559,-0.00679908646270633,0.031785000115633,0.0115003464743495,-0.0138831604272127,-0.0146702835336328,0.0589728131890297
560,-0.0070080473087728,0.03078892827034,0.00928173586726189,-0.0152014568448067,-0.0146262980997562,0.0570120364427567
561,-0.00785993691533804,0.0295171216130257,0.00665824674069881,-0.0166653487831354,-0.0157129187136889,0.0539786890149117
562,-0.00931130908429623,0.0279932897537947,0.00394026981666684,-0.0181730780750513,-0.0184725895524025,0.0503095090389252
563,-0.0105049777776003,0.0264582857489586,0.00178178586065769,-0.0189238991588354,-0.0217967573553324,0.0469532087445259
564,-0.0107532301917672,0.0253913104534149,0.000715780362952501,-0.0185941737145185,-0.0243433658033609,0.0449529960751534
565,-0.0102299712598324,0.0246312599629164,0.000674746581353247,-0.0179971307516098,-0.0255849733948708,0.0448806583881378
566,-0.00974026881158352,0.0242233220487833,0.00100742152426392,-0.0171561390161514,-0.0261862277984619,0.0467623025178909
567,-0.0101149072870612,0.0242876894772053,0.00127532193437219,-0.0158158335834742,-0.0273103304207325,0.0490057282149792
568,-0.0113793546333909,0.024095943197608,0.00189730687998235,-0.0151917198672891,-0.028875881806016,0.0496685206890106
569,-0.0127311246469617,0.0231429319828749,0.00271648773923516,-0.0164616238325834,-0.0304471962153912,0.0487818978726864
570,-0.0140615394338965,0.0215380694717169,0.00216970988549292,-0.0195511970669031,-0.033092837780714,0.0473381280899048
571,-0.0158131718635559,0.0195208601653576,-0.000317459984216839,-0.0235159602016211,-0.0372927859425545,0.0458776094019413
572,-0.0167084205895662,0.018140597268939,-0.00201827078126371,-0.0259432550519705,-0.0399408899247646,0.04609040543437
573,-0.0157534871250391,0.0180273409932852,-0.000962179445195943,-0.0255802534520626,-0.0381938740611076,0.0492555201053619
574,-0.0139861479401588,0.0186618883162737,0.0012670565629378,-0.0236721094697714,-0.0335141979157925,0.0538615323603153
575,-0.0118979141116142,0.0199953112751246,0.00325042777694762,-0.0209781099110842,-0.0288715399801731,0.0578238368034363
576,-0.00988215953111649,0.0218457449227571,0.00438431231305003,-0.0185441635549068,-0.0264668073505163,0.0594906881451607
577,-0.00937549117952585,0.0231496877968311,0.00424139527603984,-0.0175731889903545,-0.0270442701876163,0.0581353008747101
578,-0.0107234176248312,0.0231474321335554,0.00391949713230133,-0.0173392053693533,-0.0284996032714844,0.055163562297821
579,-0.0133022600784898,0.0217234399169683,0.00417444901540875,-0.0175102464854717,-0.0289628840982914,0.0521269477903843
580,-0.0149706713855267,0.0204773470759392,0.00516412639990449,-0.0174477603286505,-0.0282446667551994,0.0507655218243599
581,-0.0134412990882993,0.0214108675718308,0.00663128821179271,-0.0163012463599443,-0.0268086213618517,0.0522367656230927
582,-0.00996436644345522,0.0238912161439657,0.00720337545499206,-0.015402034856379,-0.0260971989482641,0.0546019040048122
583,-0.00716871535405517,0.026103226467967,0.00641289912164211,-0.0157259050756693,-0.0265984293073416,0.0553699918091297
584,-0.00579359568655491,0.0275003518909216,0.00563210668042302,-0.0159411299973726,-0.0269995704293251,0.0550019592046738
585,-0.00561852101236582,0.0284425541758537,0.00581421423703432,-0.0149956252425909,-0.0268888417631388,0.0553071908652782
586,-0.00685703521594405,0.028914462774992,0.00586892431601882,-0.0140451081097126,-0.0277865026146173,0.0559972524642944
587,-0.00867686327546835,0.0287119299173355,0.00530161522328854,-0.0139129813760519,-0.0300411265343428,0.0559092201292515
588,-0.00986555777490139,0.0277289636433125,0.00458029005676508,-0.0146909970790148,-0.0328766517341137,0.0546079389750957
589,-0.0104037718847394,0.0265671741217375,0.00379093666560948,-0.0164251681417227,-0.0359841026365757,0.0529009774327278
590,-0.0107077918946743,0.0264209490269423,0.00306987855583429,-0.0183787401765585,-0.0388274677097797,0.0524257570505142
591,-0.0109692690894008,0.0275070201605558,0.00249687372706831,-0.019727922976017,-0.040782704949379,0.0533724538981915
592,-0.010480297729373,0.0295733697712421,0.00294891302473843,-0.0194086767733097,-0.0407899059355259,0.0551271364092827
593,-0.00863707531243563,0.0324791111052036,0.00514293136075139,-0.0167966838926077,-0.0382753722369671,0.0574210435152054
594,-0.00708891311660409,0.0350088886916637,0.00717272888869047,-0.0145088210701942,-0.0356567911803722,0.0581915713846684
595,-0.00708759808912873,0.0364245027303696,0.00759117770940065,-0.015116878785193,-0.0351205840706825,0.0563210360705853
596,-0.0074103563092649,0.0377460904419422,0.00763659039512277,-0.0172761548310518,-0.0352357998490334,0.0542973317205906
597,-0.00731032574549317,0.0393968373537064,0.00808847788721323,-0.0194350425153971,-0.0338463746011257,0.0532281808555126
598,-0.00720623601227999,0.0409121662378311,0.00867974665015936,-0.0212695300579071,-0.031128004193306,0.0521921887993813
599,-0.00690152077004313,0.0425041019916534,0.00979842711240053,-0.0215079355984926,-0.0285835228860378,0.0522064007818699
600,-0.00676616188138723,0.0440205819904804,0.0112484097480774,-0.0198463164269924,-0.0269837193191051,0.0543041527271271
601,-0.0081783989444375,0.0441489517688751,0.0113806715235114,-0.0188641641288996,-0.0263660866767168,0.0557727590203285
602,-0.00978562049567699,0.0428773313760757,0.0103339087218046,-0.0195353832095861,-0.0249349772930145,0.0542969554662704
603,-0.00938758999109268,0.041838351637125,0.00982635002583265,-0.0197007823735476,-0.0214666314423084,0.0515413023531437
604,-0.00809320062398911,0.0419308170676231,0.0100939609110355,-0.0180502738803625,-0.0183601696044207,0.049767728894949
605,-0.00765094486996531,0.0429336950182915,0.0108103072270751,-0.0149975977838039,-0.0181329436600208,0.0495762228965759
606,-0.00772786699235439,0.0438907109200954,0.0117398723959923,-0.0118193356320262,-0.0211666915565729,0.0500633381307125
607,-0.00799422338604927,0.0433197319507599,0.0114192124456167,-0.0105735249817371,-0.0270470045506954,0.0492167100310326
608,-0.00900569278746843,0.0410345606505871,0.00908449664711952,-0.0121458126232028,-0.0341181047260761,0.0462926216423512
609,-0.0104731079190969,0.0386862680315971,0.00630229245871305,-0.0149975158274174,-0.0397082716226578,0.0433062501251698
610,-0.0115512376651168,0.0374909490346909,0.0045098252594471,-0.017056917771697,-0.042442612349987,0.0423143170773983
611,-0.0120376786217093,0.0370208434760571,0.00352255906909704,-0.0177121050655842,-0.0428378209471703,0.0431131646037102
612,-0.0122462697327137,0.0364479124546051,0.00253024534322321,-0.0176144186407328,-0.0424528308212757,0.0442979596555233
613,-0.0119870444759727,0.0360313169658184,0.00172954250592738,-0.0166940353810787,-0.0415617525577545,0.0459420382976532
614,-0.0110120950266719,0.0358588881790638,0.0024041454307735,-0.0141644645482302,-0.038437869399786,0.0493778325617313
615,-0.00962921604514122,0.0346068404614925,0.00562726194038987,-0.00943913776427507,-0.0322479531168938,0.0541035793721676
616,-0.00737195182591677,0.0318237617611885,0.0124430982396007,-0.00156341271940619,-0.0232416912913322,0.0582973659038544
617,-0.00390588818117976,0.0284223724156618,0.0218002256006002,0.00709295552223921,-0.0130673795938492,0.059592105448246
618,-0.00104249222204089,0.0252440366894007,0.0277498606592417,0.010222471319139,-0.00703354831784964,0.055849127471447
619,-0.000658622884657234,0.0229752864688635,0.024729996919632,0.00574921537190676,-0.00926418881863356,0.0483179427683353
620,-0.00197435519658029,0.0216578301042318,0.0146582145243883,-0.00200439384207129,-0.0167507361620665,0.0402516424655914
621,-0.00273946882225573,0.0208321139216423,0.00475940946489573,-0.00745313335210085,-0.0227414313703775,0.0339931733906269
622,-0.00210817717015743,0.0197941791266203,-0.000501590431667864,-0.00852545257657766,-0.0239652525633574,0.0296625662595034
623,-0.000783176044933498,0.0181158613413572,-0.00203287065960467,-0.00699952663853765,-0.0220768172293901,0.0256302375346422
624,-4.75348570034839E-05,0.0158493407070637,-0.00285000493749976,-0.00506109092384577,-0.0202733930200338,0.0210009682923555
625,-0.000366416992619634,0.0129227982833982,-0.00458085816353559,-0.003386469790712,-0.0195749588310719,0.0164110660552979
626,-0.000179437440237962,0.00960509572178125,-0.00605828734114766,-0.00111293350346386,-0.0178598761558533,0.0130449971184134
627,0.00202466081827879,0.00626190658658743,-0.00533417472615838,0.00296151195652783,-0.0130955930799246,0.0110950646921992
628,0.00575589900836349,0.00290354946628213,-0.00237258523702621,0.00862306356430054,-0.00598441855981946,0.00953608844429255
629,0.00955494958907366,-0.00014729167742189,0.00128255423624069,0.0145859131589532,0.00161445327103138,0.0076577696017921
630,0.0124291060492396,-0.00233784923329949,0.00428470736369491,0.0201584063470364,0.0087018609046936,0.00578212086111307
631,0.0135690476745367,-0.0038928899448365,0.00514755118638277,0.0243244972079992,0.0138424541801214,0.00336930947378278
632,0.0137075483798981,-0.00484370905905962,0.00394104234874249,0.0267500653862953,0.0169940050691366,-8.88032300281338E-05
633,0.0147815812379122,-0.00465621007606387,0.00289482809603214,0.0288618709892035,0.0204697828739882,-0.00332814594730735
634,0.0163427796214819,-0.00419938750565052,0.00245074392296374,0.0306362397968769,0.0245683640241623,-0.00632290681824088
635,0.0163162332028151,-0.00508434604853392,0.000955142022576183,0.0308509934693575,0.0272278245538473,-0.0105948066338897
636,0.0140876611694694,-0.00782042369246483,-0.00208714744076133,0.0296485275030136,0.027428887784481,-0.0164953805506229
637,0.0113848224282265,-0.0116160521283746,-0.00472162617370486,0.0287511609494686,0.0273831598460674,-0.0231087952852249
638,0.00995539128780365,-0.0155404815450311,-0.00533426413312554,0.029580794274807,0.0296787358820438,-0.0304141249507666
639,0.00927561242133379,-0.0200133547186852,-0.00511816842481494,0.0303040761500597,0.0329952985048294,-0.039887297898531
640,0.0085003599524498,-0.0253378544002771,-0.0061014462262392,0.0279312338680029,0.0348697006702423,-0.0510175637900829
641,0.00812189560383558,-0.030263863503933,-0.00890201795846224,0.023012300953269,0.0352477133274078,-0.0603400580585003
642,0.00922266487032175,-0.0336778275668621,-0.0118627119809389,0.0190192442387342,0.0357892066240311,-0.0650680586695671
643,0.0119170686230063,-0.0354169011116028,-0.0127406865358353,0.0185074917972088,0.0380034036934376,-0.0652475729584694
644,0.0151990428566933,-0.0352305807173252,-0.0110131744295359,0.0218571797013283,0.0421791337430477,-0.0623931884765625
645,0.0184811148792505,-0.0330057218670845,-0.00711738131940365,0.0281938761472702,0.0479099154472351,-0.0576852671802044
646,0.0210973769426346,-0.0301316678524017,-0.00224062381312251,0.0350612625479698,0.0540366098284721,-0.0526756979525089
647,0.0221871268004179,-0.0286306776106358,0.00190926599316299,0.0397066511213779,0.0592014603316784,-0.0492584742605686
648,0.022144753485918,-0.028592687100172,0.00487922038882971,0.0421922579407692,0.0630170106887817,-0.0472562946379185
649,0.0219976138323545,-0.0283407513052225,0.00750401057302952,0.0445912815630436,0.0653635859489441,-0.0444734245538712
650,0.0215581618249416,-0.0270679704844952,0.00977651029825211,0.0474148318171501,0.0652592852711678,-0.0400769598782063
651,0.0199984852224588,-0.0256180837750435,0.0106302965432405,0.0492554046213627,0.0620282515883446,-0.0359830670058727
652,0.0178331527858973,-0.0250407829880714,0.00995513424277306,0.0492606237530708,0.0572475157678127,-0.0344074405729771
653,0.0164629984647036,-0.0255162827670574,0.00874836184084415,0.0478066504001617,0.0534524172544479,-0.035398181527853
654,0.016621233895421,-0.026454396545887,0.00817557889968157,0.0456336289644241,0.0519359521567822,-0.0370226353406906
655,0.0178252849727869,-0.0274952482432127,0.00832502543926239,0.0429611876606941,0.0519765801727772,-0.0380981341004372
656,0.0183010883629322,-0.0290289018303156,0.00723789818584919,0.0387973040342331,0.050980918109417,-0.0399042218923569
657,0.017499728128314,-0.0306795351207256,0.00439602043479681,0.0337114483118057,0.0479399561882019,-0.0423485934734344
658,0.0169043075293303,-0.0314247161149979,0.00222337571904063,0.0305424276739359,0.0447604693472385,-0.0428076833486557
659,0.0175244268029928,-0.0310939271003008,0.00256443675607443,0.0305401608347893,0.0436193607747555,-0.0403205268085003
660,0.0193126481026411,-0.0298833623528481,0.00535447336733341,0.0325165838003159,0.0453457497060299,-0.0363532602787018
661,0.0210928786545992,-0.0283462963998318,0.00898577272891998,0.0344494394958019,0.0485601276159287,-0.0333009585738182
662,0.0212033037096262,-0.0272517800331116,0.0113233923912048,0.0349794924259186,0.050738126039505,-0.0325752124190331
663,0.0197775810956955,-0.0264498200267553,0.0115994233638048,0.0342115722596645,0.0509622134268284,-0.0333282388746738
664,0.0181388910859823,-0.0258057173341513,0.0103686479851604,0.0328038521111012,0.0500350184738636,-0.0345796458423138
665,0.0159570537507534,-0.0263514723628759,0.00796944089233875,0.0301882866770029,0.0477376505732536,-0.0372550487518311
666,0.0127007411792874,-0.0281308814883232,0.00483990088105202,0.0258395243436098,0.0435656942427158,-0.0411823876202106
667,0.00974008720368147,-0.0292797591537237,0.00194558838848025,0.0214407704770565,0.0390271171927452,-0.0432042330503464
668,0.00878701359033585,-0.0284229200333357,0.000377001153538004,0.0190551578998566,0.0362923555076122,-0.0411959551274776
669,0.00934424810111523,-0.0263151079416275,6.3969666371122E-05,0.0182604249566793,0.0352515950798988,-0.0368520952761173
670,0.00979961641132832,-0.0244139656424522,0.000271490280283615,0.0178543105721474,0.0350519903004169,-0.0325571112334728
671,0.00934701878577471,-0.0236731488257647,0.000764361990150064,0.017432227730751,0.0359652563929558,-0.0296019017696381
672,0.00802276097238064,-0.0243308339267969,0.00136021105572581,0.016631992533803,0.0377782806754112,-0.0285053439438343
673,0.00688306288793683,-0.0253689121454954,0.00251967902295291,0.0160904917865992,0.0400046482682228,-0.0274737440049648
674,0.00593402981758118,-0.0261262450367212,0.00443418836221099,0.0164550524204969,0.0418228842318058,-0.0248354002833366
675,0.00463371910154819,-0.0268788654357195,0.00633783778175712,0.0173793081194162,0.0416015908122063,-0.0212986897677183
676,0.00442883977666497,-0.0275076795369387,0.0077740834094584,0.0187338870018721,0.0386934727430344,-0.017610652372241
677,0.00633402960374951,-0.02788663841784,0.00862523075193167,0.0204043462872505,0.034188948571682,-0.0138091947883368
678,0.00879678130149841,-0.0284194685518742,0.00833936594426632,0.021554859355092,0.0290312077850103,-0.0103176403790712
679,0.009996073320508,-0.0290516912937164,0.00648643355816603,0.0215345043689013,0.023482346907258,-0.00761320861056447
680,0.00894821807742119,-0.0297205299139023,0.00286607118323445,0.0198302157223225,0.0169978402554989,-0.00642969831824303
681,0.00620208401232958,-0.0305529870092869,-0.00161056802608073,0.0169022921472788,0.00952627323567867,-0.00649954937398434
682,0.00311225559562445,-0.0311810355633497,-0.00545725272968411,0.0142658604308963,0.00196403451263905,-0.00621828436851501
683,0.000163304634043016,-0.0311385653913021,-0.00840096920728683,0.0131331644952297,-0.00481886090710759,-0.00480784103274345
684,-0.00194042443763465,-0.0300365500152111,-0.0101198200136423,0.014821195974946,-0.00912531558424234,-0.00219143577851355
685,-0.00266317650675774,-0.0284261852502823,-0.00982306990772486,0.0187881030142307,-0.00966709014028311,0.000718292663805187
686,-0.00282821315340698,-0.0278377365320921,-0.00805284269154072,0.0214679110795259,-0.00764293409883976,0.00227838079445064
687,-0.00391830271109939,-0.0286581944674253,-0.00724868848919868,0.0197706092149019,-0.00623662676662207,0.00237442366778851
688,-0.00571141019463539,-0.0291115865111351,-0.00811840407550335,0.0153312310576439,-0.00673063239082694,0.00319082615897059
689,-0.00658762454986572,-0.027741827070713,-0.00876485090702772,0.0122676286846399,-0.00758093828335404,0.00612373789772391
690,-0.00622961716726422,-0.0251664835959673,-0.00837613269686699,0.0116385901346803,-0.00754939392209053,0.0103030679747462
691,-0.00635437527671456,-0.0229731108993292,-0.0085107209160924,0.0114019447937608,-0.0072176125831902,0.0142610548064113
692,-0.00823517516255379,-0.0220976397395134,-0.0104705365374684,0.010120240971446,-0.00744803715497255,0.0167385991662741
693,-0.0104588624089956,-0.0220184475183487,-0.0130208758637309,0.00839976500719786,-0.00747921457514167,0.0176381357014179
694,-0.0113995717838407,-0.0218294728547335,-0.0146052045747638,0.00716083403676748,-0.0069470377638936,0.0179826188832521
695,-0.0108883120119572,-0.0210578795522451,-0.0145624522119761,0.0072160055860877,-0.00674733705818653,0.0193552430719137
696,-0.00933464616537094,-0.0194856207817793,-0.0128700975328684,0.00898351799696684,-0.00746242608875036,0.0227311979979277
697,-0.00725089479237795,-0.0174355693161488,-0.0106662744656205,0.0113747101277113,-0.00910985097289085,0.026927562430501
698,-0.00555754452943802,-0.0161447785794735,-0.00957342050969601,0.0123464409261942,-0.0114260893315077,0.0295338034629822
699,-0.00581210805103183,-0.0167894270271063,-0.0107254618778825,0.0106438454240561,-0.0143088083714247,0.0292024500668049
700,-0.00817532185465097,-0.0187586583197117,-0.0132590988650918,0.0074111926369369,-0.0170123931020498,0.0269811917096376
701,-0.0108882868662477,-0.0206667371094227,-0.0150815732777119,0.00485520483925939,-0.0183459520339966,0.0248279292136431
702,-0.0123639954254031,-0.0220628622919321,-0.0153224570676684,0.00361823779530823,-0.0181378554552794,0.0242638308554888
703,-0.012541919015348,-0.0229598917067051,-0.0146940583363175,0.0029602930881083,-0.0172910820692778,0.025975588709116
704,-0.0128250038251281,-0.0236694253981113,-0.0144973695278168,0.00217364705167711,-0.0172675102949142,0.028032137081027
705,-0.0140792867168784,-0.0244899578392506,-0.0147087797522545,0.000711901928298175,-0.018522335216403,0.0275842100381851
706,-0.0159250870347023,-0.0254279524087906,-0.0148041462525725,-0.00230726134032011,-0.0202984903007746,0.0245297197252512
707,-0.0168135110288858,-0.0257531926035881,-0.0144285475835204,-0.00584180746227503,-0.021126501262188,0.0220527481287718
708,-0.0155439525842667,-0.0246014725416899,-0.0129198888316751,-0.0075946724973619,-0.0198233276605606,0.0223468840122223
709,-0.0131177324801683,-0.0224690344184637,-0.0107848085463047,-0.00742843141779304,-0.0173073578625917,0.0241027548909187
710,-0.0113340122625232,-0.0206394325941801,-0.00916800647974014,-0.00627413997426629,-0.015606727451086,0.0257665868848562
711,-0.0115710254758596,-0.0198829136788845,-0.00867567677050829,-0.00490344734862447,-0.0158285461366177,0.0270824450999498
712,-0.0127526428550482,-0.0194061733782291,-0.00854650419205427,-0.00374796008691192,-0.0164016950875521,0.0283474177122116
713,-0.0128480484709144,-0.0186822507530451,-0.00830178428441286,-0.00358577026054263,-0.0161158703267574,0.0285975206643343
714,-0.0122560923919082,-0.0186280645430088,-0.00914278626441956,-0.00495703890919685,-0.0168984681367874,0.0270443633198738
715,-0.0114133050665259,-0.0191189218312502,-0.0109077617526054,-0.00609920406714082,-0.0191753171384335,0.0259505733847618
716,-0.0102841416373849,-0.0193951949477196,-0.0124850422143936,-0.00585739500820637,-0.0214916951954365,0.0266665499657393
717,-0.00929541885852814,-0.0195171441882849,-0.013705843128264,-0.00557930301874876,-0.0233538243919611,0.0275561418384314
718,-0.00830966793000698,-0.0196090787649155,-0.0145323984324932,-0.00616426067426801,-0.0249754954129457,0.0274994913488626
719,-0.00730374967679381,-0.0198705792427063,-0.0149196768179536,-0.00718924729153514,-0.0268455594778061,0.0267339423298836
720,-0.00632450636476278,-0.0202517565339804,-0.0147608257830143,-0.00779757834970951,-0.0287050660699606,0.0261667836457491
721,-0.00506377592682838,-0.0203252397477627,-0.0139821646735072,-0.00757431937381625,-0.0297687891870737,0.0267564728856087
722,-0.00360753899440169,-0.0200877282768488,-0.0125332707539201,-0.00686050904914737,-0.0296155624091625,0.0285261329263449
723,-0.00354044092819095,-0.0200982484966516,-0.0113937752321363,-0.00660451222211123,-0.0294388458132744,0.0299329869449139
724,-0.00574547937139869,-0.0207278598099947,-0.011530501767993,-0.00740784220397472,-0.0303789358586073,0.0292525887489319
725,-0.00849637109786272,-0.0216850936412811,-0.0119204483926296,-0.00926102418452501,-0.0306941922754049,0.0268255732953548
726,-0.0101500106975436,-0.0224399883300066,-0.0115481382235885,-0.0117078078910708,-0.0282876770943403,0.0250741560012102
727,-0.0102746021002531,-0.0225918181240559,-0.0104067185893655,-0.0133455069735646,-0.0235962253063917,0.0260289125144482
728,-0.00910543743520975,-0.0221146941184998,-0.00902738608419895,-0.0136490054428577,-0.0189049653708935,0.0290399044752121
729,-0.00732517894357443,-0.0212213415652514,-0.00816512573510408,-0.0131090451031923,-0.0160889010876417,0.0323247574269772
730,-0.00602510711178184,-0.0205072667449713,-0.00848847813904285,-0.0121127590537071,-0.0162814520299435,0.0343453660607338
731,-0.00554649438709021,-0.0203943978995085,-0.00968054961413145,-0.0106633640825748,-0.0187562610954046,0.0349270850419998
732,-0.00558105995878577,-0.0208045057952404,-0.0111231571063399,-0.00955062359571457,-0.0212962608784437,0.0348686575889587
733,-0.0063952780328691,-0.0216886531561613,-0.0130713284015656,-0.0103844264522195,-0.023243710398674,0.0339556522667408
734,-0.00753297051414847,-0.0224517658352852,-0.0147816780954599,-0.0121837705373764,-0.0247206315398216,0.0329944007098675
735,-0.00823665596544743,-0.0225035045295954,-0.0150453438982368,-0.0126361344009638,-0.0261367950588465,0.0338102504611015
736,-0.00886123720556498,-0.0223045740276575,-0.0144088584929705,-0.011812181212008,-0.0284739974886179,0.0360991023480892
737,-0.0101419556885958,-0.0226011667400599,-0.0144818602129817,-0.011588217690587,-0.0315473042428494,0.0377782955765724
738,-0.011411901563406,-0.0228583849966526,-0.0154008259996772,-0.0118379509076476,-0.033531628549099,0.0387007296085358
739,-0.0111433304846287,-0.0217429734766483,-0.0155443511903286,-0.0102496035397053,-0.0332908481359482,0.0405545458197594
740,-0.00890409201383591,-0.019002690911293,-0.0140105569735169,-0.00658582523465157,-0.0316117592155933,0.0436730980873108
741,-0.00572935631498694,-0.0157502181828022,-0.0121859991922975,-0.00371521967463195,-0.0301879178732634,0.0466567575931549
742,-0.00432089949026704,-0.0139619801193476,-0.0128673873841763,-0.00480783870443702,-0.0313722118735313,0.0472754053771496
743,-0.00623003207147121,-0.0148428082466125,-0.0168295651674271,-0.00972807500511408,-0.0362861268222332,0.045028779655695
744,-0.00946530047804117,-0.0177180636674166,-0.0215017069131136,-0.0150763848796487,-0.042775459587574,0.0418167673051357
745,-0.0110401315614581,-0.0208961497992277,-0.0236546546220779,-0.0176178868860006,-0.0470319241285324,0.0400007478892803
746,-0.0102419666945934,-0.02315554022789,-0.0226672887802124,-0.0169303081929684,-0.0475775338709354,0.0406706929206848
747,-0.00875392090529203,-0.0247740373015404,-0.0208956971764565,-0.0154245467856526,-0.0464648753404617,0.0424509346485138
748,-0.00814574584364891,-0.0264584980905056,-0.020469332113862,-0.0152254514396191,-0.0458550713956356,0.0436111502349377
749,-0.00865553691983223,-0.0280383136123419,-0.0208881627768278,-0.0156605839729309,-0.0457177683711052,0.044100996106863
750,-0.0100391115993261,-0.0292731653898954,-0.0202096980065107,-0.0155212357640266,-0.045078419148922,0.0440317280590534
751,-0.0117136659100652,-0.030152577906847,-0.0174375493079424,-0.0149563373997808,-0.0428462475538254,0.0440690852701664
752,-0.0131178963929415,-0.0302580203860998,-0.0134876752272248,-0.0140456901863217,-0.0384721271693707,0.0462075918912888
753,-0.0151660954579711,-0.0297304727137089,-0.0108049036934972,-0.0137431295588613,-0.0345686785876751,0.0497974380850792
754,-0.0181455481797457,-0.0290966108441353,-0.0111221419647336,-0.0151903508231044,-0.034523218870163,0.0521228313446045
755,-0.0196876358240843,-0.0282762106508017,-0.013184062205255,-0.016978932544589,-0.0375319421291351,0.0529457032680511
756,-0.0181679874658585,-0.0271259341388941,-0.014420572668314,-0.0172410104423761,-0.0405926555395126,0.0536675713956356
757,-0.0150399813428521,-0.0255707707256079,-0.0138895940035582,-0.0160610787570477,-0.0417859181761742,0.055530209094286
758,-0.0123564973473549,-0.0235933512449265,-0.0118043143302202,-0.014227481558919,-0.0400787554681301,0.0583610013127327
759,-0.0107587240636349,-0.0214016661047935,-0.00877914670854807,-0.0124341966584325,-0.0359950661659241,0.0602045804262161
760,-0.0106382993981242,-0.0194562245160341,-0.00674000708386302,-0.0119001297280192,-0.0325356461107731,0.0598005726933479
761,-0.0117081115022302,-0.0178590193390846,-0.00645741494372487,-0.0126644289121032,-0.0313309468328953,0.0581236071884632
762,-0.0123582389205694,-0.0161102600395679,-0.00614525657147169,-0.0133055914193392,-0.0307218320667744,0.0565862581133842
763,-0.0118088200688362,-0.0138938743621111,-0.00494616432115436,-0.0135004036128521,-0.0300202611833811,0.0552761852741241
764,-0.0106109082698822,-0.0111370617523789,-0.0034878880251199,-0.0135708348825574,-0.0304657891392708,0.0543739534914494
765,-0.00925297662615776,-0.00810110662132502,-0.00203601317480206,-0.0135402930900455,-0.0322024486958981,0.0543159916996956
766,-0.00779048446565866,-0.0053797154687345,-0.000310602481476963,-0.0132060404866934,-0.0330016538500786,0.0546625666320324
767,-0.00685250665992498,-0.00350154493935406,0.0018070888472721,-0.0122301578521729,-0.0313153713941574,0.0546832494437695
768,-0.00711337849497795,-0.00267522013746202,0.00372195336967707,-0.0110079711303115,-0.0286738239228725,0.0536988265812397
769,-0.0075905192643404,-0.00244946032762527,0.00499378051608801,-0.00982568506151438,-0.0264350678771734,0.0514298528432846
770,-0.00707270950078964,-0.00227690697647631,0.0059690335765481,-0.00893185753375292,-0.0243021734058857,0.0479954406619072
771,-0.00628460384905338,-0.00217716116458178,0.00655909534543753,-0.00991990510374308,-0.022891828790307,0.0439642071723938
772,-0.00606911163777113,-0.00176654476672411,0.00621895538643003,-0.0130853662267327,-0.0231702756136656,0.0414525233209133
773,-0.00631569651886821,-0.000459441100247204,0.00453536584973335,-0.0167409162968397,-0.0252777859568596,0.0415936894714832
774,-0.00695644039660692,0.0014600456925109,0.00168487895280123,-0.019886827096343,-0.0291552767157555,0.0426188856363297
775,-0.00719509460031986,0.00386021705344319,-0.000400072312913835,-0.0216557011008263,-0.0337599664926529,0.0435241386294365
776,-0.00630742404609919,0.00703423144295812,4.46201229351573E-05,-0.0209378190338612,-0.0374000109732151,0.0454038307070732
777,-0.00579063594341278,0.0100620780140162,0.00152884284034371,-0.0190326366573572,-0.0397203378379345,0.047795444726944
778,-0.00760867819190025,0.0116820931434631,0.0014795312890783,-0.018942816182971,-0.0418454520404339,0.0482962839305401
779,-0.0112792169675231,0.0123790437355638,-0.000266366027062759,-0.0210051536560059,-0.0445734411478043,0.0465106926858425
780,-0.0147853847593069,0.0134431719779968,-0.00206276401877403,-0.0227867010980845,-0.0472608432173729,0.044447124004364
781,-0.016607791185379,0.015562635846436,-0.00243363087065518,-0.0227453242987394,-0.0486936047673225,0.0436349026858807
782,-0.0165417827665806,0.0181966032832861,-0.00173670786898583,-0.0222735330462456,-0.0486776530742645,0.0434523820877075
783,-0.0149590168148279,0.0206429157406092,-0.00103084126021713,-0.0228263735771179,-0.0475715026259422,0.0429590493440628
784,-0.0128336753696203,0.0227732416242361,-0.000999681418761611,-0.0241962652653456,-0.0459887944161892,0.0419052876532078
785,-0.0118198515847325,0.0240723975002766,-0.00231433683075011,-0.0260634962469339,-0.0446527898311615,0.0399543195962906
786,-0.0121883358806372,0.0246066618710756,-0.00431883661076427,-0.0276476312428713,-0.0433549471199512,0.0377748124301434
787,-0.0121228126809001,0.025812791660428,-0.00525830546393991,-0.0276356562972069,-0.0415791422128677,0.0368988364934921
788,-0.0100743677467108,0.0285586528480053,-0.00446180440485477,-0.02575976960361,-0.0393005982041359,0.0377321727573872
789,-0.00756277563050389,0.0316377989947796,-0.00364226335659623,-0.0238611306995153,-0.0379404202103615,0.038826871663332
790,-0.00721908826380968,0.0338675901293755,-0.00459015276283026,-0.0234284717589617,-0.0394814424216747,0.0390510782599449
791,-0.00927576050162315,0.0354992598295212,-0.00641705747693777,-0.0240171700716019,-0.0435917302966118,0.0386753678321838
792,-0.0117738656699657,0.0369220525026321,-0.00695205898955464,-0.024808082729578,-0.0474855341017246,0.0381419397890568
793,-0.0123745445162058,0.0384613908827305,-0.00512659410014749,-0.0249017160385847,-0.0485683307051659,0.037971306592226
794,-0.0104397814720869,0.0403844192624092,-0.00163357122801244,-0.023877952247858,-0.0467052087187767,0.0382596999406815
795,-0.008173493668437,0.0422006696462631,0.00106697401497513,-0.0229677185416222,-0.0443916656076908,0.0375147089362144
796,-0.00804278720170259,0.0430464893579483,0.00105494551826268,-0.0239326115697622,-0.0438764020800591,0.0343901664018631
797,-0.00966536905616522,0.0429726578295231,-0.000534789869561791,-0.0268273521214724,-0.0443029440939426,0.0302186235785484
798,-0.0103580579161644,0.0434528104960918,-0.000768445723224431,-0.0292277410626411,-0.0428550392389297,0.0283975917845964
799,-0.00868434645235538,0.0454674772918224,0.00152242416515946,-0.0293122995644808,-0.0387392826378345,0.030259020626545
800,-0.00633644172921777,0.0484202206134796,0.00448604207485914,-0.0281091332435608,-0.0347765609622002,0.0337458848953247
801,-0.0056203892454505,0.0514593608677387,0.00665381271392107,-0.0268708039075136,-0.0330785140395164,0.0371892191469669
802,-0.00730982283130288,0.0535525679588318,0.00829002633690834,-0.0261279940605164,-0.0324752666056156,0.0393262021243572
803,-0.00973266735672951,0.0543737299740314,0.0101690264418721,-0.0258055310696363,-0.0310132037848234,0.039104275405407
804,-0.0103059336543083,0.0553346015512943,0.0128926476463676,-0.0250549670308828,-0.0285384859889746,0.0379470475018024
805,-0.00880505982786417,0.0572197586297989,0.0154419066384435,-0.0238455533981323,-0.0267319716513157,0.0375017188489437
806,-0.00670273322612047,0.0589031986892223,0.0162085201591253,-0.0227029900997877,-0.0266837533563375,0.0377792194485664
807,-0.00498851574957371,0.0593080967664719,0.0152489272877574,-0.0215218681842089,-0.0277133155614138,0.0386122837662697
808,-0.00441350089386106,0.0583673492074013,0.0130265355110168,-0.0210124589502811,-0.0292333029210567,0.0387321002781391
809,-0.00587236788123846,0.0563922263681889,0.00903704296797514,-0.0229876972734928,-0.0325763933360577,0.0358185730874538
810,-0.0086958734318614,0.0544055923819542,0.00395863270387053,-0.0268871746957302,-0.0381440781056881,0.0308777205646038
811,-0.0112982960417867,0.0533764623105526,-0.000554725935216993,-0.0302751176059246,-0.044196929782629,0.0274246726185083
812,-0.0133981509134173,0.0528597198426723,-0.00405045878142118,-0.0324962362647057,-0.049363236874342,0.0262117180973291
813,-0.0151401897892356,0.0521736219525337,-0.00620819348841906,-0.0337687917053699,-0.0525507070124149,0.0258697457611561
814,-0.016080342233181,0.0516297742724419,-0.00623565772548318,-0.0333893820643425,-0.052850928157568,0.0264886561781168
815,-0.0153861753642559,0.0520578548312187,-0.00389617518521845,-0.0305141173303127,-0.0500674620270729,0.0292719062417746
816,-0.0128365978598595,0.0537318661808968,0.000148826249642298,-0.0254211835563183,-0.0448208823800087,0.0338969118893147
817,-0.00992316380143166,0.0556434728205204,0.00400353223085403,-0.0202940087765455,-0.0389151275157928,0.038008775562048
818,-0.00826386921107769,0.0562081336975098,0.00553555227816105,-0.0178233738988638,-0.0345017649233341,0.0397027432918549
819,-0.00790883228182793,0.0549897812306881,0.00466960156336427,-0.0187438167631626,-0.0326856896281242,0.0390242859721184
820,-0.00806404557079077,0.0532154440879822,0.00316207529976964,-0.0215176958590746,-0.0331702083349228,0.0373823530972004
821,-0.00779810873791575,0.0524183362722397,0.00250336248427629,-0.0237351022660732,-0.034774299710989,0.0366311334073544
822,-0.00678562931716442,0.0525859445333481,0.00279620056971908,-0.0243748612701893,-0.0361119881272316,0.0371146388351917
823,-0.00534820323809981,0.0524906925857067,0.00345506775192916,-0.0239621885120869,-0.035569429397583,0.0376172959804535
824,-0.00385918421670794,0.0514920800924301,0.00407957471907139,-0.0233116801828146,-0.0324116423726082,0.0368470326066017
825,-0.00217365240678191,0.0502050183713436,0.0054556424729526,-0.0226115398108959,-0.02732396684587,0.0350443497300148
826,7.40159448469058E-05,0.049892358481884,0.00852877460420132,-0.0211486853659153,-0.0219047907739878,0.0347830764949322
827,0.00175304803997278,0.0509669855237007,0.0121154710650444,-0.018766738474369,-0.0182889364659786,0.0379774384200573
828,0.00159414822701365,0.0523304305970669,0.0145947309210896,-0.0163623001426458,-0.0172335635870695,0.0430172830820084
829,8.9263055997435E-05,0.0524505786597729,0.0150912711396813,-0.0154761001467705,-0.0186101850122213,0.0461094789206982
830,-0.00211779051460326,0.0507842004299164,0.0131788812577724,-0.0168155282735825,-0.0227435268461704,0.0456336513161659
831,-0.00447869347408414,0.0483325272798538,0.0103604970499873,-0.0184555631130934,-0.0285949725657701,0.0439810268580914
832,-0.00660576345399022,0.0461826510727406,0.00882885977625847,-0.0186241455376148,-0.0340455658733845,0.0434248447418213
833,-0.0088175842538476,0.0442748442292213,0.00873830076307058,-0.0183194745332003,-0.037982415407896,0.0432626940310001
834,-0.0108676087111235,0.0424568131566048,0.0085109556093812,-0.0192131791263819,-0.0403204262256622,0.0418228730559349
835,-0.0122222760692239,0.0407421812415123,0.00670923385769129,-0.0211681798100472,-0.0416338741779327,0.0388742089271545
836,-0.0123414658010006,0.038950402289629,0.00386123219504952,-0.0222910176962614,-0.0425072535872459,0.0361495725810528
837,-0.0117443855851889,0.036857970058918,0.00102147029247135,-0.0223742723464966,-0.0436366610229015,0.0345185622572899
838,-0.0127246985211968,0.0340778604149818,-0.00216974294744432,-0.0239331014454365,-0.0452533699572086,0.0322816409170628
839,-0.0157988462597132,0.0307463128119707,-0.00549034308642149,-0.0280545838177204,-0.0447865128517151,0.0280965939164162
840,-0.0177294760942459,0.0287817865610123,-0.00658171996474266,-0.0314267352223396,-0.0388044342398643,0.0242516808211803
841,-0.0157849378883839,0.0300569608807564,-0.00391130102798343,-0.0303758792579174,-0.0291056744754314,0.024154469370842
842,-0.0117155592888594,0.0333028808236122,0.000489217636641115,-0.0260846205055714,-0.0219742860645056,0.0272575747221708
843,-0.00888873543590307,0.0357413440942764,0.0033107555937022,-0.0220702271908522,-0.0214501656591892,0.0304624028503895
844,-0.00874000322073698,0.0359392538666725,0.00268559087999165,-0.020677836611867,-0.0273166839033365,0.0313648656010628
845,-0.00975440163165331,0.0346692875027657,-0.000104944258055184,-0.0216707158833742,-0.0353315621614456,0.0300177000463009
846,-0.00895910710096359,0.0341404899954796,-0.00153531471733004,-0.0220661703497171,-0.0397745631635189,0.0290006976574659
847,-0.0064999433234334,0.0349060781300068,-0.000766736397054046,-0.0204741470515728,-0.0397194251418114,0.0289913266897202
848,-0.00462699960917234,0.0356292612850666,0.000660773192066699,-0.0181627236306667,-0.0381405651569366,0.0282705798745155
849,-0.0039819604717195,0.035431083291769,0.00213535106740892,-0.01680170558393,-0.0366572812199593,0.026058379560709
850,-0.00440943613648415,0.0345430076122284,0.00297124264761806,-0.0180231407284737,-0.0352003909647465,0.0226651802659035
851,-0.00532205402851105,0.0336999073624611,0.00259173801168799,-0.0216884668916464,-0.0334045253694057,0.0186833776533604
852,-0.00593928620219231,0.0331240557134151,0.00138176011387259,-0.0259354747831821,-0.0318765379488468,0.0147384935989976
853,-0.00586896808817983,0.0333589054644108,0.000339648919180036,-0.0287329349666834,-0.0310872029513121,0.0127945886924863
854,-0.00478781666606665,0.0351060926914215,0.000566393660847098,-0.0287744179368019,-0.0299185644835234,0.0147640584036708
855,-0.00314958160743117,0.0368241854012012,0.0015621631173417,-0.0270495042204857,-0.0280586760491133,0.0180846340954304
856,-0.00192823330871761,0.0365625433623791,0.00201793317683041,-0.0255503803491592,-0.026985552161932,0.0184384621679783
857,-0.001278170151636,0.0351982749998569,0.00195963797159493,-0.0249828547239304,-0.0278193075209856,0.0158364195376635
858,-0.000202031209482811,0.0348661206662655,0.00262189959175885,-0.0247244890779257,-0.0293887369334698,0.0138955600559711
859,0.00187414779793471,0.0362585373222828,0.00517828390002251,-0.0237521175295115,-0.0289304684847593,0.0149144735187292
860,0.00373653625138104,0.0381500869989395,0.00876799505203962,-0.0224098060280085,-0.0259296428412199,0.0174442045390606
861,0.00420094467699528,0.0390613414347172,0.0109024699777365,-0.0220511220395565,-0.0231413766741753,0.0193848460912704
862,0.00365011394023895,0.0392384268343449,0.0108466660603881,-0.0228648632764816,-0.0224758945405483,0.0204600803554058
863,0.00368679757229984,0.040195606648922,0.0105698304250836,-0.0232241749763489,-0.0221586599946022,0.0209255665540695
864,0.00472523225471377,0.0422361418604851,0.0110810538753867,-0.0217996146529913,-0.020181231200695,0.0210743583738804
865,0.00473842397332191,0.043826624751091,0.0108412392437458,-0.0194157809019089,-0.0175785068422556,0.0212850458920002
866,0.00252546928822994,0.0437944903969765,0.00968514010310173,-0.0167824868112803,-0.0155682470649481,0.0216250997036695
867,-2.6088006052305E-05,0.0428048335015774,0.0109031433239579,-0.0120853381231427,-0.0129420775920153,0.0225404985249043
868,-0.000373907416360453,0.0419117212295532,0.0171531252563,-0.00486377906054258,-0.00769202038645744,0.0234006997197866
869,0.00169204373378307,0.0407382883131504,0.0258475970476866,3.0854280339554E-05,-0.000508946017362177,0.0202362686395645
870,0.00535658793523908,0.0392798148095608,0.0312321055680513,-0.00139174191281199,0.0045433915220201,0.0112087596207857
871,0.00992331560701132,0.0391185730695724,0.0298073384910822,-0.00675380416214466,0.00412385864183307,0.000393824302591383
872,0.013286804780364,0.0404177606105804,0.0223893187940121,-0.0122076943516731,-0.00134814938064665,-0.0085060577839613
873,0.0133739290758967,0.0413388162851334,0.0124972173944116,-0.0165337193757296,-0.00904569309204817,-0.0158165078610182
874,0.0114824417978525,0.041109461337328,0.00348092569038272,-0.0193091798573732,-0.0150929102674127,-0.0229874402284622
875,0.0110909640789032,0.0406497605144978,-0.00265630753710866,-0.0196118857711554,-0.0162573754787445,-0.0304922014474869
876,0.0136981001123786,0.0407187752425671,-0.00467978091910481,-0.0173340104520321,-0.012205041013658,-0.0378799960017204
877,0.0175454057753086,0.0406575389206409,-0.00324144656769931,-0.0144764706492424,-0.00505405059084296,-0.0449865609407425
878,0.0198749285191298,0.0395545847713947,-0.00125489791389555,-0.0131800817325711,0.00205971393734217,-0.0522221364080906
879,0.0200365297496319,0.0382609330117702,-0.000332194555085152,-0.0128439702093601,0.00734581844881177,-0.0589579641819
880,0.0193188320845366,0.0380003042519093,0.000228642180445604,-0.0119155887514353,0.0113985072821379,-0.0642686039209366
881,0.0188691150397062,0.0384559147059917,0.001270862063393,-0.0100086256861687,0.0156608205288649,-0.068478949368
882,0.0184605345129967,0.0380968898534775,0.00198166887275875,-0.00842051487416029,0.0203022006899118,-0.0737868025898933
883,0.0178536176681519,0.03610685095191,0.00107333110645413,-0.00831442698836327,0.0240623075515032,-0.0818325132131577
884,0.0193432532250881,0.0343024171888828,-0.000308215850964189,-0.00727602932602167,0.0271259024739265,-0.0895432159304619
885,0.0244418121874332,0.0347063206136227,-0.000856930448208004,-0.00260391226038337,0.0306726135313511,-0.092820793390274
886,0.0299698151648045,0.0358788408339024,-0.00213368935510516,0.00360619998537004,0.0336659774184227,-0.0931986197829247
887,0.032244585454464,0.0350486859679222,-0.00516554247587919,0.00765627715736628,0.0353128090500832,-0.0951517373323441
888,0.0322789028286934,0.0326100401580334,-0.00694803753867745,0.0109307365491986,0.0385806113481522,-0.0983288735151291
889,0.0325494483113289,0.0304861404001713,-0.00465521262958646,0.0166508369147778,0.0456125400960445,-0.0995735079050064
890,0.0329834818840027,0.0291489120572805,0.000304888439131901,0.0232152827084064,0.0541318841278553,-0.0988648310303688
891,0.0325709506869316,0.0283455606549978,0.00446436554193497,0.0270510204136372,0.0607215836644173,-0.0980069190263748
892,0.0303547512739897,0.0273679029196501,0.00532022025436163,0.0268822982907295,0.063177302479744,-0.0985192582011223
893,0.0267051532864571,0.0259707644581795,0.00347803626209497,0.0241557396948338,0.0619013421237469,-0.100460931658745
894,0.0239918157458305,0.0250195823609829,0.00176367885433137,0.0211469791829586,0.0599287338554859,-0.102418422698975
895,0.0228471327573061,0.0247225686907768,0.00156023190356791,0.0184356421232224,0.0593671277165413,-0.103694967925549
896,0.0214063934981823,0.0243921913206577,0.0020850149448961,0.0160108674317598,0.0596585869789124,-0.104114629328251
897,0.0193049572408199,0.0236405525356531,0.00259598321281374,0.0151898749172688,0.0594205223023891,-0.102908797562122
898,0.0185560863465071,0.0223075952380896,0.00388240977190435,0.0169707685709,0.0589348264038563,-0.0997106060385704
899,0.019718810915947,0.0196017902344465,0.00574839161708951,0.0194353405386209,0.0587430037558079,-0.095627173781395
900,0.0209298469126225,0.0147159621119499,0.00553632201626897,0.0197548251599073,0.0571095384657383,-0.0918536707758904
901,0.0214029289782047,0.00835276301950216,0.00235322839580476,0.0183015968650579,0.0528106689453125,-0.0881059169769287
902,0.0218710023909807,0.00232509057968855,-0.00150498631410301,0.0179519858211279,0.0476061925292015,-0.0834152773022652
903,0.0220676213502884,-0.00270782317966223,-0.00429117772728205,0.0194240808486938,0.0435337163507938,-0.0780784115195274
904,0.0213502533733845,-0.00739673292264342,-0.00560260564088821,0.0209947042167187,0.0413858443498611,-0.0732920244336128
905,0.0209444612264633,-0.0110997967422009,-0.00449474435299635,0.0230147242546082,0.042165994644165,-0.0683317109942436
906,0.0213743969798088,-0.0130167687311769,-0.00158732384443283,0.0264035668224096,0.0449807085096836,-0.0624352991580963
907,0.0206754710525274,-0.0144343199208379,-7.61648479965515E-05,0.0292599573731422,0.046144675463438,-0.0576166845858097
908,0.0190395172685385,-0.0159097630530596,-0.000656037183944136,0.0305579602718353,0.0448054894804955,-0.0545230470597744
909,0.0179595127701759,-0.0168437976390123,-0.00141343986615539,0.0311218369752169,0.043065644800663,-0.0516432709991932
910,0.0152567783370614,-0.018205389380455,-0.002581617096439,0.0299205556511879,0.0408332049846649,-0.0500471815466881
911,0.00977095495909452,-0.0203384272754192,-0.0043465537019074,0.0268027074635029,0.0382257997989655,-0.0504367910325527
912,0.00565146515145898,-0.0213402584195137,-0.00422477396205068,0.0253052767366171,0.0378541201353073,-0.0493836887180805
913,0.0047767199575901,-0.0211289543658495,-0.00221840478479862,0.0263482499867678,0.0396892055869102,-0.0461198687553406
914,0.00404098490253091,-0.0219317972660065,-0.00108186737634242,0.0270141828805208,0.0410913825035095,-0.0443023778498173
915,0.00234597711823881,-0.0241062454879284,-0.000851796008646488,0.0265852082520723,0.0414625070989132,-0.0444012843072414
916,0.0016709096962586,-0.025932315737009,3.42483981512487E-05,0.0262949839234352,0.0416770614683628,-0.0432754158973694
917,0.00367004703730345,-0.0262680910527706,0.00190223474055529,0.0266405995935202,0.0420913398265839,-0.0392788499593735
918,0.00717219524085522,-0.0260003358125687,0.00350498384796083,0.0268422197550535,0.0417485982179642,-0.0341968014836311
919,0.00924445874989033,-0.026919012889266,0.00361267873086035,0.0260358173400164,0.0398149602115154,-0.0306047778576612
920,0.00977172236889601,-0.0288962535560131,0.00336933508515358,0.0255703441798687,0.0383991710841656,-0.0278699807822704
921,0.0100721102207899,-0.030730253085494,0.00444765854626894,0.0265829563140869,0.0397803708910942,-0.0246535781770945
922,0.00953679904341698,-0.0324185863137245,0.00660509569570422,0.026921009644866,0.042306412011385,-0.0221541300415993
923,0.00813087727874517,-0.0336535908281803,0.00900034792721272,0.0251935198903084,0.0433328673243523,-0.0198950003832579
924,0.00676163798198104,-0.0335578247904778,0.0107481153681874,0.0229010190814734,0.0424219109117985,-0.0157829374074936
925,0.00533837918192148,-0.0322482287883759,0.0107977036386728,0.0210198648273945,0.0399659089744091,-0.0114449057728052
926,0.0042087328620255,-0.0302014723420143,0.00999308563768864,0.0197416041046381,0.0374660491943359,-0.0100337285548449
927,0.00456105824559927,-0.0277183651924133,0.010764854028821,0.0198275577276945,0.0379385389387608,-0.0110783847048879
928,0.00595693290233612,-0.025809608399868,0.0131510561332107,0.0208949372172356,0.0412366911768913,-0.0121977357193828
929,0.00747205875813961,-0.0249963104724884,0.0153095489367843,0.0220015626400709,0.0440406277775764,-0.0116225015372038
930,0.00841965898871422,-0.0248577147722244,0.0155270909890532,0.0223425775766373,0.0432745181024075,-0.00934382900595665
931,0.00646388065069914,-0.0257673487067223,0.012115172110498,0.0199351366609335,0.036709651350975,-0.0081441942602396
932,0.00207199878059328,-0.0272018816322088,0.00675944844260812,0.0154694579541683,0.0267522074282169,-0.0087714958935976
933,-0.00112423836253583,-0.0276549756526947,0.00275670434348285,0.0118938209488988,0.0184338893741369,-0.00932274386286736
934,-0.00220176740549505,-0.0271318852901459,0.00048546222387813,0.00950354710221291,0.0136563731357455,-0.00983019545674324
935,-0.0023073700722307,-0.0262821912765503,-0.000522547750733793,0.00782795622944832,0.0120960483327508,-0.010452133603394
936,-0.00204636249691248,-0.0253761652857065,-4.85744203615468E-05,0.00759476376697421,0.0126467095687985,-0.00975646357983351
937,-0.00107356929220259,-0.0244041234254837,0.00248018046841025,0.00956844724714756,0.0148062380030751,-0.00619868282228708
938,0.000614186865277588,-0.023353623226285,0.00660880655050278,0.0131300045177341,0.0181815158575773,0.000245508679654449
939,0.00131679768674076,-0.0229630582034588,0.00962497293949127,0.0156118292361498,0.0202247239649296,0.00607027718797326
940,8.37819825392216E-05,-0.0235670302063227,0.00980182178318501,0.0153215322643518,0.0193671211600304,0.00756968138739467
941,-0.00180456263478845,-0.0241896901279688,0.0085019925609231,0.0135338343679905,0.017104547470808,0.00585431745275855
942,-0.00344189489260316,-0.0244629625231028,0.00712970225140452,0.0117474757134914,0.0144344083964825,0.00367788644507527
943,-0.00511150527745485,-0.0248065926134586,0.00564850494265556,0.0104188611730933,0.0111494231969118,0.00202559935860336
944,-0.00664500892162323,-0.0251902937889099,0.00415852991864085,0.0101491902023554,0.00791457388550043,0.0013839922612533
945,-0.00710736168548465,-0.0254510249942541,0.00359412538819015,0.0113515984266996,0.00604507187381387,0.00189353711903095
946,-0.00656820135191083,-0.0255042593926191,0.0040464629419148,0.0126121984794736,0.00528730824589729,0.00331689766608179
947,-0.00594258774071932,-0.0251024067401886,0.00448433309793472,0.0122784422710538,0.00428357580676675,0.00592337967827916
948,-0.00560766411945224,-0.0245601963251829,0.00454878434538841,0.010497834533453,0.00290211802348495,0.00909699965268373
949,-0.0058038723655045,-0.0243663471192122,0.00420044176280499,0.00799880176782608,0.00128760526422411,0.0111917592585087
950,-0.00610884837806225,-0.0237975735217333,0.00356040615588427,0.00589743023738265,-0.000570666161365807,0.0122845880687237
951,-0.00541118159890175,-0.0220501031726599,0.00340590090490878,0.00533713074401021,-0.00185543240513653,0.0136329708620906
952,-0.00341059174388647,-0.0194305554032326,0.00430718623101711,0.00628456147387624,-0.00174538278952241,0.0157055426388979
953,-0.00131357426289469,-0.0169148109853268,0.00585364829748869,0.0079253576695919,-0.00024772304459475,0.0181926563382149
954,-0.000879210012499243,-0.0154206771403551,0.00702221831306815,0.00903886742889881,0.00214655697345734,0.0201419368386269
955,-0.00307164690457284,-0.0155216967687011,0.00673252483829856,0.00791651196777821,0.00453523360192776,0.0198591742664576
956,-0.00700197601690888,-0.0170256495475769,0.00558892777189612,0.00491926725953817,0.00685054762288928,0.0171065218746662
957,-0.0107681732624769,-0.0188643336296082,0.00507042789831758,0.00221004826016724,0.0093677481636405,0.0137270158156753
958,-0.0128083704039454,-0.0198401529341936,0.00508248060941696,0.000332155294017866,0.0110170356929302,0.0112153459340334
959,-0.0118728009983897,-0.0191097855567932,0.00560486176982522,-0.000578801147639751,0.0110795628279448,0.0104769319295883
960,-0.00922356732189655,-0.0174183957278728,0.00583345768973231,-0.000830394914373755,0.00867421180009842,0.0109899723902345
961,-0.00802050996571779,-0.0166980437934399,0.00380535214208066,-0.00194300629664212,0.00293883518315852,0.0110284388065338
962,-0.00830169767141342,-0.0171014051884413,0.000696329050697386,-0.0033573757391423,-0.00357505236752331,0.011084308847785
963,-0.0084479209035635,-0.0177269298583269,-0.00124840438365936,-0.0037758972030133,-0.00760387629270554,0.0121481632813811
964,-0.00910452846437693,-0.019140450283885,-0.00260370294563472,-0.00445761065930128,-0.00882544834166765,0.0126735856756568
965,-0.0107028912752867,-0.0214757844805717,-0.00341525278054178,-0.00582018541172147,-0.00752050895243883,0.0122974384576082
966,-0.0111198406666517,-0.0230109896510839,-0.00213333568535745,-0.00570827862247825,-0.00353949051350355,0.0132345706224442
967,-0.00884413626044989,-0.0223739072680473,0.000890814757440239,-0.00294265965931118,0.0017251567915082,0.0164108090102673
968,-0.00532615510746837,-0.0199654810130596,0.00448240991681814,0.00123379519209266,0.00641593337059021,0.0203988887369633
969,-0.0032241924200207,-0.0178943667560816,0.0081365630030632,0.00377826276235282,0.00989701505750418,0.0223480258136988
970,-0.00393065065145493,-0.0179218389093876,0.0104766106233001,0.00270765484310687,0.0119530586525798,0.0208387840539217
971,-0.00654698442667723,-0.0196903757750988,0.0104000037536025,-0.000743620155844837,0.012298378162086,0.0175406131893396
972,-0.00917907617986202,-0.0220790300518274,0.00878888741135597,-0.00430254451930523,0.011148008517921,0.0144062731415033
973,-0.0104838982224464,-0.0241050291806459,0.00721128983423114,-0.00644728215411305,0.00944379065185785,0.0125504219904542
